Data from SampA_HRD10591_00009.txt Node
Date: Mon Jan 19 11:26:49 EST 2026
User: Yrep
Spectrometer: HR+D1059
Trigger mode: 0
Integration Time (sec): 3.443000E-1
Scans to average: 1
Electric dark correction enabled: true
Nonlinearity correction enabled: false
Boxcar width: 0
XAxis mode: Wavelengths
Number of Pixels in Spectrum: 2048
>>>>>Begin Spectral Data<<<<<
223.165	-23.31
223.4	-23.31
223.635	-23.31
223.869	-22.31
224.104	-26.31
224.338	-10.31
224.573	-20.31
224.808	-22.31
225.042	-4.31
225.277	4.69
225.511	2.69
225.746	5.69
225.98	8.69
226.215	21.69
226.449	3.69
226.683	22.69
226.918	27.69
227.152	31.69
227.387	19.69
227.621	45.69
227.856	36.69
228.09	50.69
228.324	61.69
228.559	63.69
228.793	57.69
229.027	78.69
229.262	85.69
229.496	89.69
229.73	67.69
229.964	90.69
230.199	76.69
230.433	89.69
230.667	80.69
230.901	79.69
231.136	73.69
231.37	82.69
231.604	78.69
231.838	73.69
232.072	89.69
232.306	89.69
232.541	79.69
232.775	83.69
233.009	89.69
233.243	90.69
233.477	87.69
233.711	83.69
233.945	83.69
234.179	68.69
234.413	84.69
234.647	92.69
234.881	74.69
235.115	83.69
235.349	84.69
235.583	97.69
235.817	92.69
236.051	82.69
236.285	96.69
236.519	100.69
236.753	89.69
236.987	86.69
237.221	84.69
237.455	95.69
237.689	92.69
237.922	69.69
238.156	94.69
238.39	76.69
238.624	83.69
238.858	78.69
239.091	90.69
239.325	92.69
239.559	99.69
239.793	105.69
240.027	95.69
240.26	80.69
240.494	86.69
240.728	84.69
240.961	59.69
241.195	79.69
241.429	95.69
241.662	83.69
241.896	78.69
242.13	90.69
242.363	109.69
242.597	87.69
242.83	86.69
243.064	104.69
243.298	93.69
243.531	85.69
243.765	87.69
243.998	77.69
244.232	89.69
244.465	88.69
244.699	102.69
244.932	94.69
245.166	93.69
245.399	89.69
245.633	93.69
245.866	107.69
246.099	94.69
246.333	92.69
246.566	91.69
246.8	92.69
247.033	111.69
247.266	104.69
247.5	94.69
247.733	104.69
247.966	83.69
248.2	74.69
248.433	97.69
248.666	107.69
248.899	79.69
249.133	103.69
249.366	101.69
249.599	92.69
249.832	90.69
250.066	99.69
250.299	107.69
250.532	115.69
250.765	83.69
250.998	91.69
251.231	93.69
251.465	92.69
251.698	102.69
251.931	100.69
252.164	92.69
252.397	96.69
252.63	84.69
252.863	95.69
253.096	101.69
253.329	113.69
253.562	93.69
253.795	101.69
254.028	101.69
254.261	91.69
254.494	94.69
254.727	97.69
254.96	105.69
255.193	109.69
255.426	102.69
255.659	93.69
255.892	107.69
256.124	101.69
256.357	97.69
256.59	100.69
256.823	94.69
257.056	104.69
257.289	106.69
257.521	111.69
257.754	87.69
257.987	107.69
258.22	108.69
258.452	112.69
258.685	109.69
258.918	110.69
259.151	104.69
259.383	101.69
259.616	95.69
259.849	105.69
260.081	117.69
260.314	106.69
260.547	105.69
260.779	108.69
261.012	116.69
261.244	102.69
261.477	133.69
261.71	108.69
261.942	108.69
262.175	120.69
262.407	94.69
262.64	108.69
262.872	115.69
263.105	106.69
263.337	113.69
263.57	101.69
263.802	121.69
264.035	111.69
264.267	110.69
264.499	105.69
264.732	105.69
264.964	119.69
265.197	109.69
265.429	127.69
265.661	131.69
265.894	125.69
266.126	122.69
266.358	113.69
266.591	108.69
266.823	124.69
267.055	111.69
267.287	115.69
267.52	122.69
267.752	113.69
267.984	122.69
268.216	114.69
268.448	131.69
268.681	115.69
268.913	131.69
269.145	108.69
269.377	129.69
269.609	116.69
269.841	112.69
270.073	106.69
270.306	110.69
270.538	117.69
270.77	111.69
271.002	118.69
271.234	124.69
271.466	138.69
271.698	135.69
271.93	124.69
272.162	124.69
272.394	114.69
272.626	116.69
272.858	124.69
273.09	112.69
273.322	102.69
273.553	125.69
273.785	122.69
274.017	113.69
274.249	115.69
274.481	135.69
274.713	120.69
274.945	113.69
275.176	98.69
275.408	121.69
275.64	114.69
275.872	119.69
276.104	124.69
276.335	126.69
276.567	130.69
276.799	124.69
277.031	117.69
277.262	133.69
277.494	120.69
277.726	117.69
277.957	139.69
278.189	119.69
278.421	112.69
278.652	118.69
278.884	127.69
279.115	118.69
279.347	135.69
279.579	133.69
279.81	115.69
280.042	123.69
280.273	120.69
280.505	129.69
280.736	125.69
280.968	150.69
281.199	140.69
281.431	141.69
281.662	120.69
281.894	121.69
282.125	123.69
282.356	130.69
282.588	122.69
282.819	127.69
283.051	123.69
283.282	125.69
283.513	137.69
283.745	123.69
283.976	121.69
284.207	141.69
284.439	141.69
284.67	143.69
284.901	140.69
285.132	117.69
285.364	122.69
285.595	149.69
285.826	136.69
286.057	145.69
286.288	136.69
286.52	128.69
286.751	122.69
286.982	129.69
287.213	125.69
287.444	125.69
287.675	127.69
287.906	140.69
288.138	135.69
288.369	139.69
288.6	146.69
288.831	149.69
289.062	136.69
289.293	135.69
289.524	123.69
289.755	139.69
289.986	137.69
290.217	138.69
290.448	142.69
290.679	155.69
290.91	155.69
291.141	136.69
291.371	167.69
291.602	124.69
291.833	135.69
292.064	136.69
292.295	145.69
292.526	133.69
292.757	139.69
292.987	136.69
293.218	125.69
293.449	145.69
293.68	140.69
293.91	136.69
294.141	149.69
294.372	164.69
294.603	137.69
294.833	148.69
295.064	138.69
295.295	137.69
295.525	130.69
295.756	146.69
295.987	147.69
296.217	136.69
296.448	149.69
296.679	146.69
296.909	145.69
297.14	139.69
297.37	134.69
297.601	134.69
297.831	140.69
298.062	149.69
298.292	136.69
298.523	143.69
298.753	137.69
298.984	130.69
299.214	140.69
299.445	133.69
299.675	156.69
299.905	154.69
300.136	150.69
300.366	156.69
300.597	151.69
300.827	159.69
301.057	163.69
301.288	158.69
301.518	154.69
301.748	143.69
301.979	185.69
302.209	148.69
302.439	157.69
302.669	146.69
302.9	146.69
303.13	152.69
303.36	147.69
303.59	139.69
303.82	153.69
304.051	164.69
304.281	152.69
304.511	149.69
304.741	142.69
304.971	137.69
305.201	145.69
305.431	143.69
305.661	147.69
305.891	157.69
306.121	153.69
306.352	152.69
306.582	159.69
306.812	154.69
307.042	147.69
307.272	151.69
307.502	144.69
307.731	143.69
307.961	155.69
308.191	157.69
308.421	157.69
308.651	157.69
308.881	149.69
309.111	149.69
309.341	147.69
309.571	145.69
309.8	149.69
310.03	135.69
310.26	130.69
310.49	149.69
310.72	135.69
310.949	145.69
311.179	149.69
311.409	150.69
311.639	149.69
311.868	151.69
312.098	147.69
312.328	141.69
312.557	145.69
312.787	141.69
313.017	161.69
313.246	162.69
313.476	157.69
313.706	185.69
313.935	152.69
314.165	155.69
314.394	145.69
314.624	163.69
314.853	151.69
315.083	147.69
315.312	160.69
315.542	155.69
315.771	174.69
316.001	155.69
316.23	162.69
316.46	156.69
316.689	149.69
316.919	148.69
317.148	147.69
317.377	169.69
317.607	158.69
317.836	160.69
318.065	153.69
318.295	164.69
318.524	159.69
318.753	150.69
318.983	163.69
319.212	165.69
319.441	145.69
319.67	143.69
319.9	141.69
320.129	147.69
320.358	164.69
320.587	158.69
320.816	154.69
321.046	161.69
321.275	160.69
321.504	152.69
321.733	167.69
321.962	156.69
322.191	157.69
322.42	142.69
322.649	162.69
322.878	159.69
323.108	166.69
323.337	165.69
323.566	159.69
323.795	150.69
324.024	157.69
324.253	166.69
324.482	167.69
324.71	149.69
324.939	163.69
325.168	168.69
325.397	168.69
325.626	160.69
325.855	178.69
326.084	172.69
326.313	163.69
326.542	157.69
326.77	161.69
326.999	165.69
327.228	165.69
327.457	146.69
327.686	162.69
327.914	175.69
328.143	178.69
328.372	157.69
328.6	161.69
328.829	151.69
329.058	166.69
329.287	145.69
329.515	158.69
329.744	165.69
329.972	169.69
330.201	162.69
330.43	169.69
330.658	171.69
330.887	155.69
331.115	176.69
331.344	178.69
331.572	186.69
331.801	170.69
332.03	174.69
332.258	177.69
332.486	187.69
332.715	193.69
332.943	193.69
333.172	205.69
333.4	197.69
333.629	203.69
333.857	191.69
334.085	198.69
334.314	198.69
334.542	200.69
334.771	193.69
334.999	204.69
335.227	189.69
335.455	180.69
335.684	194.69
335.912	185.69
336.14	184.69
336.369	174.69
336.597	188.69
336.825	201.69
337.053	180.69
337.281	171.69
337.51	163.69
337.738	180.69
337.966	180.69
338.194	170.69
338.422	173.69
338.65	167.69
338.878	175.69
339.106	179.69
339.334	193.69
339.562	165.69
339.79	172.69
340.018	175.69
340.246	154.69
340.474	167.69
340.702	164.69
340.93	177.69
341.158	172.69
341.386	160.69
341.614	160.69
341.842	141.69
342.07	157.69
342.298	177.69
342.526	173.69
342.754	153.69
342.981	174.69
343.209	171.69
343.437	202.69
343.665	192.69
343.893	181.69
344.12	188.69
344.348	208.69
344.576	162.69
344.804	157.69
345.031	167.69
345.259	168.69
345.487	160.69
345.714	168.69
345.942	170.69
346.17	169.69
346.397	158.69
346.625	174.69
346.853	163.69
347.08	162.69
347.308	167.69
347.535	172.69
347.763	154.69
347.99	181.69
348.218	182.69
348.445	158.69
348.673	168.69
348.9	166.69
349.128	181.69
349.355	162.69
349.583	144.69
349.81	167.69
350.037	170.69
350.265	173.69
350.492	170.69
350.72	171.69
350.947	161.69
351.174	175.69
351.402	150.69
351.629	150.69
351.856	149.69
352.083	144.69
352.311	155.69
352.538	140.69
352.765	173.69
352.992	150.69
353.22	153.69
353.447	170.69
353.674	156.69
353.901	166.69
354.128	174.69
354.355	162.69
354.583	158.69
354.81	171.69
355.037	158.69
355.264	160.69
355.491	159.69
355.718	151.69
355.945	154.69
356.172	169.69
356.399	170.69
356.626	156.69
356.853	159.69
357.08	160.69
357.307	161.69
357.534	186.69
357.761	169.69
357.988	177.69
358.215	169.69
358.441	164.69
358.668	158.69
358.895	165.69
359.122	163.69
359.349	163.69
359.576	170.69
359.802	163.69
360.029	148.69
360.256	166.69
360.483	166.69
360.709	146.69
360.936	175.69
361.163	172.69
361.39	178.69
361.616	177.69
361.843	157.69
362.07	160.69
362.296	167.69
362.523	167.69
362.749	159.69
362.976	174.69
363.203	162.69
363.429	164.69
363.656	163.69
363.882	170.69
364.109	171.69
364.335	163.69
364.562	160.69
364.788	158.69
365.015	164.69
365.241	172.69
365.468	173.69
365.694	154.69
365.92	160.69
366.147	140.69
366.373	171.69
366.599	163.69
366.826	154.69
367.052	165.69
367.278	168.69
367.505	167.69
367.731	190.69
367.957	174.69
368.184	166.69
368.41	181.69
368.636	167.69
368.862	186.69
369.089	179.69
369.315	167.69
369.541	155.69
369.767	157.69
369.993	181.69
370.219	151.69
370.445	167.69
370.672	171.69
370.898	153.69
371.124	197.69
371.35	179.69
371.576	162.69
371.802	177.69
372.028	165.69
372.254	178.69
372.48	179.69
372.706	155.69
372.932	172.69
373.158	193.69
373.384	190.69
373.61	169.69
373.835	178.69
374.061	168.69
374.287	178.69
374.513	184.69
374.739	163.69
374.965	197.69
375.191	207.69
375.416	184.69
375.642	179.69
375.868	170.69
376.094	174.69
376.319	182.69
376.545	174.69
376.771	167.69
376.997	185.69
377.222	181.69
377.448	185.69
377.674	172.69
377.899	172.69
378.125	172.69
378.35	189.69
378.576	175.69
378.802	175.69
379.027	168.69
379.253	181.69
379.478	173.69
379.704	173.69
379.929	179.69
380.155	187.69
380.38	155.69
380.606	173.69
380.831	184.69
381.057	195.69
381.282	191.69
381.507	184.69
381.733	173.69
381.958	191.69
382.184	176.69
382.409	177.69
382.634	193.69
382.86	213.69
383.085	191.69
383.31	193.69
383.535	200.69
383.761	199.69
383.986	202.69
384.211	195.69
384.436	203.69
384.662	210.69
384.887	208.69
385.112	201.69
385.337	186.69
385.562	200.69
385.787	191.69
386.013	217.69
386.238	217.69
386.463	207.69
386.688	239.69
386.913	198.69
387.138	212.69
387.363	203.69
387.588	209.69
387.813	207.69
388.038	207.69
388.263	224.69
388.488	213.69
388.713	209.69
388.938	198.69
389.163	199.69
389.387	202.69
389.612	198.69
389.837	202.69
390.062	219.69
390.287	194.69
390.512	220.69
390.736	205.69
390.961	226.69
391.186	221.69
391.411	213.69
391.636	220.69
391.86	220.69
392.085	247.69
392.31	249.69
392.534	214.69
392.759	225.69
392.984	233.69
393.208	239.69
393.433	217.69
393.658	216.69
393.882	222.69
394.107	237.69
394.331	233.69
394.556	222.69
394.78	225.69
395.005	226.69
395.229	245.69
395.454	248.69
395.678	257.69
395.903	250.69
396.127	237.69
396.352	257.69
396.576	227.69
396.801	237.69
397.025	244.69
397.249	250.69
397.474	248.69
397.698	258.69
397.922	257.69
398.147	257.69
398.371	256.69
398.595	274.69
398.82	249.69
399.044	299.69
399.268	331.69
399.492	374.69
399.717	401.69
399.941	364.69
400.165	335.69
400.389	325.69
400.613	295.69
400.837	309.69
401.062	292.69
401.286	282.69
401.51	288.69
401.734	282.69
401.958	267.69
402.182	302.69
402.406	293.69
402.63	314.69
402.854	310.69
403.078	323.69
403.302	311.69
403.526	337.69
403.75	347.69
403.974	338.69
404.198	327.69
404.422	324.69
404.645	341.69
404.869	322.69
405.093	329.69
405.317	333.69
405.541	325.69
405.765	313.69
405.988	318.69
406.212	325.69
406.436	323.69
406.66	356.69
406.883	353.69
407.107	343.69
407.331	371.69
407.555	369.69
407.778	383.69
408.002	374.69
408.226	361.69
408.449	343.69
408.673	351.69
408.896	335.69
409.12	338.69
409.344	360.69
409.567	338.69
409.791	353.69
410.014	334.69
410.238	342.69
410.461	364.69
410.685	346.69
410.908	338.69
411.132	356.69
411.355	337.69
411.578	322.69
411.802	334.69
412.025	314.69
412.249	321.69
412.472	317.69
412.695	317.69
412.919	302.69
413.142	326.69
413.365	331.69
413.589	330.69
413.812	331.69
414.035	345.69
414.258	330.69
414.482	325.69
414.705	321.69
414.928	329.69
415.151	329.69
415.374	321.69
415.597	316.69
415.821	321.69
416.044	313.69
416.267	331.69
416.49	337.69
416.713	309.69
416.936	325.69
417.159	310.69
417.382	316.69
417.605	307.69
417.828	329.69
418.051	318.69
418.274	317.69
418.497	337.69
418.72	338.69
418.943	337.69
419.166	354.69
419.389	374.69
419.611	358.69
419.834	351.69
420.057	343.69
420.28	342.69
420.503	335.69
420.726	331.69
420.948	337.69
421.171	343.69
421.394	332.69
421.617	338.69
421.839	339.69
422.062	331.69
422.285	343.69
422.507	355.69
422.73	324.69
422.953	331.69
423.175	331.69
423.398	357.69
423.621	351.69
423.843	352.69
424.066	370.69
424.288	362.69
424.511	348.69
424.733	333.69
424.956	343.69
425.178	351.69
425.401	357.69
425.623	349.69
425.846	328.69
426.068	339.69
426.291	321.69
426.513	315.69
426.735	324.69
426.958	338.69
427.18	296.69
427.402	327.69
427.625	327.69
427.847	303.69
428.069	295.69
428.292	324.69
428.514	301.69
428.736	297.69
428.958	293.69
429.181	300.69
429.403	301.69
429.625	300.69
429.847	296.69
430.069	303.69
430.292	306.69
430.514	279.69
430.736	296.69
430.958	313.69
431.18	297.69
431.402	294.69
431.624	309.69
431.846	285.69
432.068	273.69
432.29	286.69
432.512	292.69
432.734	301.69
432.956	328.69
433.178	319.69
433.4	308.69
433.622	315.69
433.844	295.69
434.066	285.69
434.287	281.69
434.509	307.69
434.731	302.69
434.953	323.69
435.175	340.69
435.397	311.69
435.618	309.69
435.84	292.69
436.062	296.69
436.284	303.69
436.505	290.69
436.727	302.69
436.949	322.69
437.17	305.69
437.392	301.69
437.614	286.69
437.835	269.69
438.057	270.69
438.278	285.69
438.5	297.69
438.721	309.69
438.943	299.69
439.165	292.69
439.386	320.69
439.608	323.69
439.829	317.69
440.05	325.69
440.272	318.69
440.493	319.69
440.715	310.69
440.936	332.69
441.158	338.69
441.379	345.69
441.6	338.69
441.822	362.69
442.043	347.69
442.264	345.69
442.486	351.69
442.707	331.69
442.928	334.69
443.149	310.69
443.371	339.69
443.592	328.69
443.813	332.69
444.034	341.69
444.255	373.69
444.476	385.69
444.698	387.69
444.919	402.69
445.14	548.69
445.361	444.69
445.582	364.69
445.803	331.69
446.024	330.69
446.245	337.69
446.466	323.69
446.687	321.69
446.908	330.69
447.129	332.69
447.35	309.69
447.571	330.69
447.792	287.69
448.013	313.69
448.234	313.69
448.455	306.69
448.675	293.69
448.896	302.69
449.117	287.69
449.338	269.69
449.559	294.69
449.779	299.69
450	310.69
450.221	285.69
450.442	271.69
450.662	299.69
450.883	297.69
451.104	297.69
451.324	300.69
451.545	303.69
451.766	308.69
451.986	299.69
452.207	260.69
452.428	278.69
452.648	278.69
452.869	271.69
453.089	269.69
453.31	270.69
453.53	262.69
453.751	242.69
453.971	264.69
454.192	241.69
454.412	260.69
454.633	275.69
454.853	280.69
455.073	274.69
455.294	273.69
455.514	297.69
455.734	269.69
455.955	271.69
456.175	269.69
456.395	235.69
456.616	247.69
456.836	236.69
457.056	247.69
457.276	237.69
457.497	263.69
457.717	250.69
457.937	261.69
458.157	248.69
458.377	227.69
458.598	234.69
458.818	258.69
459.038	262.69
459.258	267.69
459.478	264.69
459.698	270.69
459.918	291.69
460.138	317.69
460.358	323.69
460.578	355.69
460.798	333.69
461.018	327.69
461.238	334.69
461.458	321.69
461.678	316.69
461.898	331.69
462.118	326.69
462.338	351.69
462.558	354.69
462.777	353.69
462.997	398.69
463.217	412.69
463.437	414.69
463.657	371.69
463.876	376.69
464.096	363.69
464.316	356.69
464.536	364.69
464.755	343.69
464.975	361.69
465.195	333.69
465.414	318.69
465.634	320.69
465.854	311.69
466.073	308.69
466.293	310.69
466.512	293.69
466.732	299.69
466.951	306.69
467.171	284.69
467.391	278.69
467.61	292.69
467.829	295.69
468.049	306.69
468.268	298.69
468.488	288.69
468.707	292.69
468.927	287.69
469.146	288.69
469.365	314.69
469.585	299.69
469.804	303.69
470.023	308.69
470.243	325.69
470.462	310.69
470.681	321.69
470.901	302.69
471.12	287.69
471.339	303.69
471.558	317.69
471.777	275.69
471.997	282.69
472.216	285.69
472.435	268.69
472.654	268.69
472.873	265.69
473.092	279.69
473.311	269.69
473.53	281.69
473.749	283.69
473.968	291.69
474.187	285.69
474.406	273.69
474.625	284.69
474.844	287.69
475.063	301.69
475.282	279.69
475.501	270.69
475.72	283.69
475.939	291.69
476.158	282.69
476.377	278.69
476.596	291.69
476.814	295.69
477.033	285.69
477.252	278.69
477.471	313.69
477.69	319.69
477.908	327.69
478.127	331.69
478.346	315.69
478.564	330.69
478.783	330.69
479.002	342.69
479.22	320.69
479.439	341.69
479.658	326.69
479.876	329.69
480.095	314.69
480.313	339.69
480.532	356.69
480.751	305.69
480.969	315.69
481.188	292.69
481.406	273.69
481.624	278.69
481.843	285.69
482.061	281.69
482.28	299.69
482.498	298.69
482.717	275.69
482.935	304.69
483.153	311.69
483.372	330.69
483.59	334.69
483.808	315.69
484.027	319.69
484.245	312.69
484.463	311.69
484.681	348.69
484.9	333.69
485.118	333.69
485.336	314.69
485.554	303.69
485.772	306.69
485.99	294.69
486.209	311.69
486.427	305.69
486.645	313.69
486.863	333.69
487.081	337.69
487.299	308.69
487.517	335.69
487.735	350.69
487.953	378.69
488.171	379.69
488.389	340.69
488.607	343.69
488.825	324.69
489.043	308.69
489.261	331.69
489.479	315.69
489.696	333.69
489.914	311.69
490.132	337.69
490.35	341.69
490.568	355.69
490.786	356.69
491.003	366.69
491.221	360.69
491.439	386.69
491.657	404.69
491.874	390.69
492.092	410.69
492.31	442.69
492.527	423.69
492.745	395.69
492.963	399.69
493.18	408.69
493.398	385.69
493.615	388.69
493.833	380.69
494.05	370.69
494.268	386.69
494.485	400.69
494.703	380.69
494.92	373.69
495.138	379.69
495.355	381.69
495.573	382.69
495.79	358.69
496.008	387.69
496.225	379.69
496.442	392.69
496.66	388.69
496.877	382.69
497.094	397.69
497.312	383.69
497.529	373.69
497.746	380.69
497.963	379.69
498.181	412.69
498.398	411.69
498.615	442.69
498.832	429.69
499.049	480.69
499.267	490.69
499.484	534.69
499.701	599.69
499.918	659.69
500.135	719.69
500.352	800.69
500.569	835.69
500.786	807.69
501.003	762.69
501.22	647.69
501.437	599.69
501.654	543.69
501.871	492.69
502.088	485.69
502.305	477.69
502.522	437.69
502.739	428.69
502.956	399.69
503.172	401.69
503.389	360.69
503.606	369.69
503.823	366.69
504.04	364.69
