Data from SampA_HRD10591_00078.txt Node
Date: Mon Jan 19 11:27:13 EST 2026
User: Yrep
Spectrometer: HR+D1059
Trigger mode: 0
Integration Time (sec): 3.443000E-1
Scans to average: 1
Electric dark correction enabled: true
Nonlinearity correction enabled: false
Boxcar width: 0
XAxis mode: Wavelengths
Number of Pixels in Spectrum: 2048
>>>>>Begin Spectral Data<<<<<
223.165	-21.06
223.4	-21.06
223.635	-21.06
223.869	-36.06
224.104	-23.06
224.338	-7.06
224.573	-5.06
224.808	-16.06
225.042	-0.06
225.277	0.94
225.511	-1.06
225.746	10.94
225.98	-0.06
226.215	19.94
226.449	16.94
226.683	4.94
226.918	31.94
227.152	23.94
227.387	33.94
227.621	47.94
227.856	49.94
228.09	37.94
228.324	57.94
228.559	67.94
228.793	61.94
229.027	67.94
229.262	81.94
229.496	61.94
229.73	71.94
229.964	69.94
230.199	67.94
230.433	68.94
230.667	84.94
230.901	89.94
231.136	74.94
231.37	88.94
231.604	74.94
231.838	83.94
232.072	79.94
232.306	86.94
232.541	89.94
232.775	88.94
233.009	72.94
233.243	86.94
233.477	79.94
233.711	85.94
233.945	102.94
234.179	84.94
234.413	90.94
234.647	86.94
234.881	79.94
235.115	88.94
235.349	78.94
235.583	90.94
235.817	83.94
236.051	74.94
236.285	83.94
236.519	92.94
236.753	72.94
236.987	72.94
237.221	84.94
237.455	92.94
237.689	87.94
237.922	79.94
238.156	76.94
238.39	77.94
238.624	76.94
238.858	83.94
239.091	76.94
239.325	85.94
239.559	79.94
239.793	92.94
240.027	79.94
240.26	74.94
240.494	90.94
240.728	62.94
240.961	80.94
241.195	91.94
241.429	83.94
241.662	73.94
241.896	88.94
242.13	85.94
242.363	78.94
242.597	96.94
242.83	92.94
243.064	101.94
243.298	87.94
243.531	94.94
243.765	77.94
243.998	102.94
244.232	94.94
244.465	92.94
244.699	72.94
244.932	87.94
245.166	83.94
245.399	93.94
245.633	83.94
245.866	91.94
246.099	86.94
246.333	88.94
246.566	88.94
246.8	93.94
247.033	89.94
247.266	81.94
247.5	84.94
247.733	79.94
247.966	96.94
248.2	92.94
248.433	98.94
248.666	82.94
248.899	101.94
249.133	95.94
249.366	92.94
249.599	109.94
249.832	68.94
250.066	87.94
250.299	97.94
250.532	99.94
250.765	77.94
250.998	97.94
251.231	96.94
251.465	92.94
251.698	99.94
251.931	93.94
252.164	89.94
252.397	88.94
252.63	95.94
252.863	83.94
253.096	92.94
253.329	92.94
253.562	84.94
253.795	101.94
254.028	101.94
254.261	100.94
254.494	110.94
254.727	104.94
254.96	87.94
255.193	95.94
255.426	89.94
255.659	89.94
255.892	105.94
256.124	86.94
256.357	115.94
256.59	96.94
256.823	97.94
257.056	111.94
257.289	104.94
257.521	87.94
257.754	81.94
257.987	102.94
258.22	98.94
258.452	99.94
258.685	90.94
258.918	105.94
259.151	92.94
259.383	108.94
259.616	109.94
259.849	115.94
260.081	103.94
260.314	103.94
260.547	103.94
260.779	85.94
261.012	101.94
261.244	87.94
261.477	89.94
261.71	108.94
261.942	111.94
262.175	108.94
262.407	104.94
262.64	107.94
262.872	79.94
263.105	92.94
263.337	116.94
263.57	104.94
263.802	99.94
264.035	94.94
264.267	101.94
264.499	94.94
264.732	113.94
264.964	108.94
265.197	105.94
265.429	118.94
265.661	97.94
265.894	102.94
266.126	104.94
266.358	106.94
266.591	103.94
266.823	96.94
267.055	91.94
267.287	99.94
267.52	108.94
267.752	101.94
267.984	119.94
268.216	107.94
268.448	111.94
268.681	105.94
268.913	110.94
269.145	105.94
269.377	103.94
269.609	108.94
269.841	112.94
270.073	92.94
270.306	97.94
270.538	112.94
270.77	95.94
271.002	107.94
271.234	107.94
271.466	108.94
271.698	114.94
271.93	101.94
272.162	97.94
272.394	126.94
272.626	119.94
272.858	100.94
273.09	101.94
273.322	107.94
273.553	104.94
273.785	107.94
274.017	102.94
274.249	102.94
274.481	106.94
274.713	96.94
274.945	113.94
275.176	92.94
275.408	111.94
275.64	98.94
275.872	112.94
276.104	117.94
276.335	112.94
276.567	104.94
276.799	116.94
277.031	101.94
277.262	104.94
277.494	116.94
277.726	127.94
277.957	110.94
278.189	112.94
278.421	116.94
278.652	112.94
278.884	110.94
279.115	116.94
279.347	124.94
279.579	100.94
279.81	109.94
280.042	113.94
280.273	105.94
280.505	118.94
280.736	105.94
280.968	120.94
281.199	110.94
281.431	117.94
281.662	110.94
281.894	144.94
282.125	112.94
282.356	113.94
282.588	115.94
282.819	109.94
283.051	112.94
283.282	118.94
283.513	121.94
283.745	110.94
283.976	117.94
284.207	119.94
284.439	116.94
284.67	118.94
284.901	107.94
285.132	121.94
285.364	101.94
285.595	117.94
285.826	116.94
286.057	119.94
286.288	112.94
286.52	118.94
286.751	111.94
286.982	132.94
287.213	112.94
287.444	117.94
287.675	121.94
287.906	124.94
288.138	117.94
288.369	119.94
288.6	119.94
288.831	123.94
289.062	126.94
289.293	113.94
289.524	118.94
289.755	110.94
289.986	111.94
290.217	115.94
290.448	110.94
290.679	109.94
290.91	132.94
291.141	124.94
291.371	140.94
291.602	119.94
291.833	126.94
292.064	121.94
292.295	122.94
292.526	113.94
292.757	126.94
292.987	123.94
293.218	110.94
293.449	137.94
293.68	133.94
293.91	132.94
294.141	127.94
294.372	129.94
294.603	121.94
294.833	129.94
295.064	125.94
295.295	124.94
295.525	106.94
295.756	124.94
295.987	125.94
296.217	124.94
296.448	107.94
296.679	123.94
296.909	127.94
297.14	140.94
297.37	126.94
297.601	134.94
297.831	134.94
298.062	116.94
298.292	116.94
298.523	144.94
298.753	121.94
298.984	128.94
299.214	128.94
299.445	128.94
299.675	132.94
299.905	143.94
300.136	119.94
300.366	128.94
300.597	113.94
300.827	125.94
301.057	123.94
301.288	127.94
301.518	133.94
301.748	121.94
301.979	167.94
302.209	137.94
302.439	115.94
302.669	112.94
302.9	123.94
303.13	132.94
303.36	122.94
303.59	131.94
303.82	124.94
304.051	113.94
304.281	125.94
304.511	127.94
304.741	117.94
304.971	120.94
305.201	122.94
305.431	126.94
305.661	125.94
305.891	131.94
306.121	125.94
306.352	129.94
306.582	127.94
306.812	135.94
307.042	126.94
307.272	117.94
307.502	131.94
307.731	116.94
307.961	136.94
308.191	115.94
308.421	130.94
308.651	141.94
308.881	124.94
309.111	121.94
309.341	128.94
309.571	131.94
309.8	129.94
310.03	123.94
310.26	135.94
310.49	124.94
310.72	130.94
310.949	133.94
311.179	124.94
311.409	123.94
311.639	133.94
311.868	133.94
312.098	129.94
312.328	131.94
312.557	140.94
312.787	113.94
313.017	129.94
313.246	136.94
313.476	119.94
313.706	118.94
313.935	131.94
314.165	137.94
314.394	138.94
314.624	126.94
314.853	142.94
315.083	131.94
315.312	125.94
315.542	125.94
315.771	141.94
316.001	136.94
316.23	143.94
316.46	131.94
316.689	119.94
316.919	115.94
317.148	136.94
317.377	126.94
317.607	120.94
317.836	123.94
318.065	133.94
318.295	125.94
318.524	140.94
318.753	128.94
318.983	127.94
319.212	137.94
319.441	142.94
319.67	143.94
319.9	130.94
320.129	131.94
320.358	123.94
320.587	132.94
320.816	126.94
321.046	138.94
321.275	132.94
321.504	123.94
321.733	132.94
321.962	112.94
322.191	131.94
322.42	143.94
322.649	134.94
322.878	132.94
323.108	138.94
323.337	124.94
323.566	127.94
323.795	132.94
324.024	132.94
324.253	138.94
324.482	128.94
324.71	136.94
324.939	134.94
325.168	144.94
325.397	144.94
325.626	137.94
325.855	145.94
326.084	128.94
326.313	142.94
326.542	137.94
326.77	138.94
326.999	123.94
327.228	131.94
327.457	128.94
327.686	138.94
327.914	136.94
328.143	136.94
328.372	139.94
328.6	121.94
328.829	133.94
329.058	149.94
329.287	133.94
329.515	140.94
329.744	137.94
329.972	133.94
330.201	140.94
330.43	125.94
330.658	147.94
330.887	131.94
331.115	140.94
331.344	142.94
331.572	145.94
331.801	139.94
332.03	151.94
332.258	162.94
332.486	150.94
332.715	149.94
332.943	161.94
333.172	174.94
333.4	162.94
333.629	167.94
333.857	168.94
334.085	150.94
334.314	149.94
334.542	145.94
334.771	161.94
334.999	160.94
335.227	142.94
335.455	164.94
335.684	162.94
335.912	157.94
336.14	138.94
336.369	151.94
336.597	157.94
336.825	151.94
337.053	158.94
337.281	148.94
337.51	149.94
337.738	142.94
337.966	149.94
338.194	143.94
338.422	137.94
338.65	162.94
338.878	153.94
339.106	145.94
339.334	149.94
339.562	122.94
339.79	150.94
340.018	139.94
340.246	132.94
340.474	143.94
340.702	121.94
340.93	131.94
341.158	126.94
341.386	119.94
341.614	136.94
341.842	133.94
342.07	124.94
342.298	130.94
342.526	136.94
342.754	137.94
342.981	140.94
343.209	142.94
343.437	185.94
343.665	139.94
343.893	148.94
344.12	148.94
344.348	158.94
344.576	146.94
344.804	158.94
345.031	165.94
345.259	137.94
345.487	124.94
345.714	154.94
345.942	131.94
346.17	134.94
346.397	140.94
346.625	138.94
346.853	126.94
347.08	117.94
347.308	124.94
347.535	145.94
347.763	147.94
347.99	145.94
348.218	142.94
348.445	155.94
348.673	138.94
348.9	145.94
349.128	132.94
349.355	128.94
349.583	126.94
349.81	132.94
350.037	139.94
350.265	140.94
350.492	121.94
350.72	139.94
350.947	143.94
351.174	139.94
351.402	128.94
351.629	142.94
351.856	134.94
352.083	149.94
352.311	135.94
352.538	133.94
352.765	135.94
352.992	158.94
353.22	153.94
353.447	132.94
353.674	131.94
353.901	150.94
354.128	141.94
354.355	133.94
354.583	149.94
354.81	136.94
355.037	137.94
355.264	131.94
355.491	141.94
355.718	136.94
355.945	142.94
356.172	140.94
356.399	140.94
356.626	126.94
356.853	141.94
357.08	149.94
357.307	144.94
357.534	135.94
357.761	135.94
357.988	152.94
358.215	126.94
358.441	132.94
358.668	132.94
358.895	128.94
359.122	120.94
359.349	131.94
359.576	141.94
359.802	126.94
360.029	134.94
360.256	137.94
360.483	138.94
360.709	128.94
360.936	166.94
361.163	140.94
361.39	113.94
361.616	148.94
361.843	123.94
362.07	135.94
362.296	139.94
362.523	134.94
362.749	135.94
362.976	132.94
363.203	158.94
363.429	120.94
363.656	137.94
363.882	143.94
364.109	146.94
364.335	152.94
364.562	152.94
364.788	135.94
365.015	152.94
365.241	139.94
365.468	139.94
365.694	133.94
365.92	139.94
366.147	126.94
366.373	144.94
366.599	141.94
366.826	147.94
367.052	151.94
367.278	148.94
367.505	144.94
367.731	156.94
367.957	135.94
368.184	141.94
368.41	134.94
368.636	146.94
368.862	127.94
369.089	142.94
369.315	124.94
369.541	156.94
369.767	149.94
369.993	152.94
370.219	124.94
370.445	144.94
370.672	136.94
370.898	139.94
371.124	151.94
371.35	136.94
371.576	150.94
371.802	146.94
372.028	140.94
372.254	129.94
372.48	142.94
372.706	160.94
372.932	150.94
373.158	140.94
373.384	153.94
373.61	145.94
373.835	133.94
374.061	134.94
374.287	147.94
374.513	149.94
374.739	145.94
374.965	156.94
375.191	153.94
375.416	158.94
375.642	175.94
375.868	154.94
376.094	150.94
376.319	139.94
376.545	141.94
376.771	151.94
376.997	153.94
377.222	152.94
377.448	143.94
377.674	139.94
377.899	143.94
378.125	168.94
378.35	154.94
378.576	149.94
378.802	162.94
379.027	148.94
379.253	154.94
379.478	147.94
379.704	128.94
379.929	131.94
380.155	148.94
380.38	150.94
380.606	149.94
380.831	139.94
381.057	149.94
381.282	151.94
381.507	153.94
381.733	174.94
381.958	135.94
382.184	134.94
382.409	169.94
382.634	157.94
382.86	148.94
383.085	153.94
383.31	162.94
383.535	152.94
383.761	150.94
383.986	177.94
384.211	162.94
384.436	171.94
384.662	173.94
384.887	152.94
385.112	151.94
385.337	171.94
385.562	165.94
385.787	162.94
386.013	167.94
386.238	164.94
386.463	172.94
386.688	181.94
386.913	153.94
387.138	168.94
387.363	182.94
387.588	172.94
387.813	174.94
388.038	172.94
388.263	168.94
388.488	173.94
388.713	168.94
388.938	155.94
389.163	165.94
389.387	163.94
389.612	156.94
389.837	165.94
390.062	179.94
390.287	176.94
390.512	172.94
390.736	170.94
390.961	160.94
391.186	180.94
391.411	186.94
391.636	168.94
391.86	194.94
392.085	211.94
392.31	181.94
392.534	204.94
392.759	200.94
392.984	189.94
393.208	182.94
393.433	201.94
393.658	191.94
393.882	182.94
394.107	190.94
394.331	201.94
394.556	197.94
394.78	206.94
395.005	181.94
395.229	189.94
395.454	198.94
395.678	194.94
395.903	198.94
396.127	190.94
396.352	186.94
396.576	173.94
396.801	181.94
397.025	195.94
397.249	203.94
397.474	219.94
397.698	208.94
397.922	211.94
398.147	199.94
398.371	198.94
398.595	197.94
398.82	216.94
399.044	230.94
399.268	254.94
399.492	303.94
399.717	301.94
399.941	298.94
400.165	267.94
400.389	255.94
400.613	237.94
400.837	248.94
401.062	252.94
401.286	239.94
401.51	246.94
401.734	233.94
401.958	235.94
402.182	246.94
402.406	247.94
402.63	229.94
402.854	253.94
403.078	263.94
403.302	259.94
403.526	267.94
403.75	262.94
403.974	275.94
404.198	294.94
404.422	287.94
404.645	265.94
404.869	261.94
405.093	261.94
405.317	250.94
405.541	283.94
405.765	266.94
405.988	267.94
406.212	264.94
406.436	276.94
406.66	281.94
406.883	297.94
407.107	289.94
407.331	288.94
407.555	312.94
407.778	292.94
408.002	295.94
408.226	289.94
408.449	282.94
408.673	289.94
408.896	294.94
409.12	273.94
409.344	272.94
409.567	277.94
409.791	298.94
410.014	295.94
410.238	263.94
410.461	305.94
410.685	278.94
410.908	283.94
411.132	290.94
411.355	269.94
411.578	277.94
411.802	294.94
412.025	263.94
412.249	272.94
412.472	263.94
412.695	254.94
412.919	255.94
413.142	248.94
413.365	256.94
413.589	255.94
413.812	277.94
414.035	273.94
414.258	279.94
414.482	277.94
414.705	266.94
414.928	263.94
415.151	265.94
415.374	274.94
415.597	278.94
415.821	286.94
416.044	264.94
416.267	268.94
416.49	274.94
416.713	275.94
416.936	279.94
417.159	268.94
417.382	262.94
417.605	270.94
417.828	283.94
418.051	269.94
418.274	289.94
418.497	268.94
418.72	275.94
418.943	289.94
419.166	296.94
419.389	316.94
419.611	308.94
419.834	298.94
420.057	308.94
420.28	284.94
420.503	267.94
420.726	292.94
420.948	279.94
421.171	277.94
421.394	272.94
421.617	289.94
421.839	304.94
422.062	283.94
422.285	288.94
422.507	290.94
422.73	278.94
422.953	294.94
423.175	288.94
423.398	290.94
423.621	293.94
423.843	310.94
424.066	300.94
424.288	299.94
424.511	303.94
424.733	309.94
424.956	296.94
425.178	306.94
425.401	282.94
425.623	288.94
425.846	267.94
426.068	265.94
426.291	263.94
426.513	271.94
426.735	278.94
426.958	287.94
427.18	268.94
427.402	283.94
427.625	256.94
427.847	259.94
428.069	255.94
428.292	270.94
428.514	264.94
428.736	262.94
428.958	259.94
429.181	252.94
429.403	240.94
429.625	252.94
429.847	270.94
430.069	247.94
430.292	267.94
430.514	250.94
430.736	259.94
430.958	267.94
431.18	243.94
431.402	253.94
431.624	244.94
431.846	230.94
432.068	223.94
432.29	239.94
432.512	243.94
432.734	265.94
432.956	271.94
433.178	276.94
433.4	277.94
433.622	260.94
433.844	257.94
434.066	250.94
434.287	232.94
434.509	230.94
434.731	231.94
434.953	256.94
435.175	276.94
435.397	275.94
435.618	243.94
435.84	236.94
436.062	249.94
436.284	260.94
436.505	267.94
436.727	268.94
436.949	263.94
437.17	251.94
437.392	269.94
437.614	245.94
437.835	229.94
438.057	231.94
438.278	248.94
438.5	246.94
438.721	263.94
438.943	269.94
439.165	261.94
439.386	256.94
439.608	264.94
439.829	294.94
440.05	272.94
440.272	278.94
440.493	292.94
440.715	291.94
440.936	279.94
441.158	295.94
441.379	299.94
441.6	295.94
441.822	304.94
442.043	300.94
442.264	284.94
442.486	297.94
442.707	283.94
442.928	276.94
443.149	292.94
443.371	304.94
443.592	289.94
443.813	285.94
444.034	276.94
444.255	321.94
444.476	313.94
444.698	349.94
444.919	329.94
445.14	540.94
445.361	413.94
445.582	304.94
445.803	290.94
446.024	305.94
446.245	299.94
446.466	296.94
446.687	283.94
446.908	297.94
447.129	300.94
447.35	293.94
447.571	268.94
447.792	255.94
448.013	253.94
448.234	252.94
448.455	269.94
448.675	271.94
448.896	263.94
449.117	267.94
449.338	236.94
449.559	279.94
449.779	264.94
450	266.94
450.221	257.94
450.442	267.94
450.662	243.94
450.883	252.94
451.104	270.94
451.324	254.94
451.545	258.94
451.766	254.94
451.986	259.94
452.207	260.94
452.428	233.94
452.648	251.94
452.869	244.94
453.089	223.94
453.31	219.94
453.53	224.94
453.751	226.94
453.971	218.94
454.192	218.94
454.412	217.94
454.633	245.94
454.853	233.94
455.073	232.94
455.294	232.94
455.514	250.94
455.734	221.94
455.955	228.94
456.175	237.94
456.395	215.94
456.616	231.94
456.836	218.94
457.056	208.94
457.276	203.94
457.497	195.94
457.717	212.94
457.937	211.94
458.157	209.94
458.377	199.94
458.598	194.94
458.818	211.94
459.038	213.94
459.258	221.94
459.478	217.94
459.698	210.94
459.918	239.94
460.138	262.94
460.358	267.94
460.578	292.94
460.798	300.94
461.018	290.94
461.238	263.94
461.458	276.94
461.678	274.94
461.898	275.94
462.118	277.94
462.338	282.94
462.558	279.94
462.777	296.94
462.997	314.94
463.217	352.94
463.437	323.94
463.657	300.94
463.876	284.94
464.096	304.94
464.316	305.94
464.536	296.94
464.755	286.94
464.975	274.94
465.195	288.94
465.414	257.94
465.634	263.94
465.854	257.94
466.073	253.94
466.293	256.94
466.512	269.94
466.732	268.94
466.951	256.94
467.171	250.94
467.391	262.94
467.61	237.94
467.829	259.94
468.049	252.94
468.268	261.94
468.488	249.94
468.707	239.94
468.927	254.94
469.146	257.94
469.365	267.94
469.585	258.94
469.804	271.94
470.023	259.94
470.243	290.94
470.462	301.94
470.681	288.94
470.901	291.94
471.12	272.94
471.339	264.94
471.558	264.94
471.777	261.94
471.997	256.94
472.216	234.94
472.435	242.94
472.654	223.94
472.873	227.94
473.092	230.94
473.311	242.94
473.53	259.94
473.749	246.94
473.968	245.94
474.187	228.94
474.406	230.94
474.625	244.94
474.844	264.94
475.063	247.94
475.282	224.94
475.501	225.94
475.72	238.94
475.939	236.94
476.158	247.94
476.377	248.94
476.596	233.94
476.814	237.94
477.033	230.94
477.252	252.94
477.471	235.94
477.69	280.94
477.908	283.94
478.127	281.94
478.346	287.94
478.564	271.94
478.783	287.94
479.002	284.94
479.22	270.94
479.439	287.94
479.658	265.94
479.876	262.94
480.095	261.94
480.313	271.94
480.532	280.94
480.751	286.94
480.969	245.94
481.188	241.94
481.406	220.94
481.624	235.94
481.843	219.94
482.061	240.94
482.28	254.94
482.498	235.94
482.717	242.94
482.935	266.94
483.153	268.94
483.372	277.94
483.59	275.94
483.808	254.94
484.027	239.94
484.245	267.94
484.463	279.94
484.681	289.94
484.9	274.94
485.118	281.94
485.336	270.94
485.554	253.94
485.772	231.94
485.99	236.94
486.209	261.94
486.427	248.94
486.645	267.94
486.863	283.94
487.081	294.94
487.299	289.94
487.517	293.94
487.735	310.94
487.953	346.94
488.171	328.94
488.389	305.94
488.607	272.94
488.825	260.94
489.043	247.94
489.261	285.94
489.479	281.94
489.696	294.94
489.914	267.94
490.132	294.94
490.35	289.94
490.568	303.94
490.786	309.94
491.003	322.94
491.221	331.94
491.439	343.94
491.657	343.94
491.874	333.94
492.092	372.94
492.31	397.94
492.527	372.94
492.745	364.94
492.963	356.94
493.18	341.94
493.398	348.94
493.615	344.94
493.833	319.94
494.05	336.94
494.268	329.94
494.485	315.94
494.703	347.94
494.92	342.94
495.138	329.94
495.355	340.94
495.573	307.94
495.79	312.94
496.008	338.94
496.225	317.94
496.442	333.94
496.66	331.94
496.877	336.94
497.094	323.94
497.312	333.94
497.529	332.94
497.746	317.94
497.963	316.94
498.181	325.94
498.398	311.94
498.615	331.94
498.832	341.94
499.049	375.94
499.267	410.94
499.484	438.94
499.701	467.94
499.918	520.94
500.135	586.94
500.352	663.94
500.569	674.94
500.786	625.94
501.003	576.94
501.22	526.94
501.437	474.94
501.654	432.94
501.871	406.94
502.088	378.94
502.305	373.94
502.522	343.94
502.739	341.94
502.956	324.94
503.172	311.94
503.389	302.94
503.606	300.94
503.823	317.94
504.04	309.94
504.256	301.94
504.473	299.94
