Data from SampA_HRD10591_00046.txt Node
Date: Mon Jan 19 11:27:02 EST 2026
User: Yrep
Spectrometer: HR+D1059
Trigger mode: 0
Integration Time (sec): 3.443000E-1
Scans to average: 1
Electric dark correction enabled: true
Nonlinearity correction enabled: false
Boxcar width: 0
XAxis mode: Wavelengths
Number of Pixels in Spectrum: 2048
>>>>>Begin Spectral Data<<<<<
223.165	-13.56
223.4	-13.56
223.635	-13.56
223.869	-20.56
224.104	-39.56
224.338	-16.56
224.573	-12.56
224.808	-10.56
225.042	-17.56
225.277	-2.56
225.511	0.44
225.746	22.44
225.98	0.44
226.215	17.44
226.449	19.44
226.683	15.44
226.918	22.44
227.152	35.44
227.387	34.44
227.621	39.44
227.856	30.44
228.09	32.44
228.324	61.44
228.559	58.44
228.793	73.44
229.027	63.44
229.262	73.44
229.496	49.44
229.73	77.44
229.964	84.44
230.199	75.44
230.433	65.44
230.667	76.44
230.901	72.44
231.136	84.44
231.37	86.44
231.604	79.44
231.838	97.44
232.072	90.44
232.306	85.44
232.541	98.44
232.775	81.44
233.009	86.44
233.243	81.44
233.477	91.44
233.711	82.44
233.945	89.44
234.179	85.44
234.413	94.44
234.647	88.44
234.881	79.44
235.115	92.44
235.349	89.44
235.583	88.44
235.817	97.44
236.051	78.44
236.285	92.44
236.519	92.44
236.753	84.44
236.987	83.44
237.221	87.44
237.455	102.44
237.689	85.44
237.922	104.44
238.156	93.44
238.39	86.44
238.624	104.44
238.858	99.44
239.091	87.44
239.325	80.44
239.559	94.44
239.793	80.44
240.027	100.44
240.26	80.44
240.494	83.44
240.728	85.44
240.961	88.44
241.195	112.44
241.429	96.44
241.662	94.44
241.896	87.44
242.13	101.44
242.363	82.44
242.597	81.44
242.83	92.44
243.064	94.44
243.298	101.44
243.531	103.44
243.765	117.44
243.998	97.44
244.232	100.44
244.465	89.44
244.699	107.44
244.932	93.44
245.166	90.44
245.399	101.44
245.633	104.44
245.866	96.44
246.099	107.44
246.333	102.44
246.566	91.44
246.8	105.44
247.033	100.44
247.266	93.44
247.5	109.44
247.733	98.44
247.966	95.44
248.2	87.44
248.433	95.44
248.666	103.44
248.899	111.44
249.133	104.44
249.366	107.44
249.599	98.44
249.832	107.44
250.066	101.44
250.299	105.44
250.532	108.44
250.765	100.44
250.998	108.44
251.231	97.44
251.465	102.44
251.698	118.44
251.931	106.44
252.164	99.44
252.397	103.44
252.63	103.44
252.863	107.44
253.096	108.44
253.329	104.44
253.562	96.44
253.795	99.44
254.028	111.44
254.261	112.44
254.494	101.44
254.727	127.44
254.96	108.44
255.193	106.44
255.426	101.44
255.659	107.44
255.892	112.44
256.124	113.44
256.357	105.44
256.59	127.44
256.823	103.44
257.056	126.44
257.289	113.44
257.521	112.44
257.754	118.44
257.987	113.44
258.22	117.44
258.452	128.44
258.685	113.44
258.918	109.44
259.151	116.44
259.383	116.44
259.616	115.44
259.849	128.44
260.081	111.44
260.314	124.44
260.547	121.44
260.779	106.44
261.012	106.44
261.244	116.44
261.477	129.44
261.71	135.44
261.942	115.44
262.175	108.44
262.407	117.44
262.64	124.44
262.872	123.44
263.105	106.44
263.337	113.44
263.57	134.44
263.802	119.44
264.035	115.44
264.267	123.44
264.499	119.44
264.732	139.44
264.964	125.44
265.197	121.44
265.429	117.44
265.661	115.44
265.894	120.44
266.126	134.44
266.358	122.44
266.591	120.44
266.823	117.44
267.055	106.44
267.287	112.44
267.52	115.44
267.752	135.44
267.984	125.44
268.216	129.44
268.448	130.44
268.681	118.44
268.913	122.44
269.145	126.44
269.377	124.44
269.609	114.44
269.841	139.44
270.073	123.44
270.306	125.44
270.538	111.44
270.77	117.44
271.002	145.44
271.234	126.44
271.466	135.44
271.698	133.44
271.93	127.44
272.162	141.44
272.394	118.44
272.626	128.44
272.858	136.44
273.09	134.44
273.322	111.44
273.553	121.44
273.785	132.44
274.017	147.44
274.249	133.44
274.481	139.44
274.713	120.44
274.945	126.44
275.176	128.44
275.408	134.44
275.64	135.44
275.872	138.44
276.104	139.44
276.335	132.44
276.567	139.44
276.799	129.44
277.031	132.44
277.262	132.44
277.494	140.44
277.726	135.44
277.957	119.44
278.189	128.44
278.421	126.44
278.652	132.44
278.884	135.44
279.115	141.44
279.347	129.44
279.579	144.44
279.81	136.44
280.042	137.44
280.273	139.44
280.505	149.44
280.736	137.44
280.968	125.44
281.199	149.44
281.431	126.44
281.662	140.44
281.894	132.44
282.125	147.44
282.356	150.44
282.588	153.44
282.819	137.44
283.051	148.44
283.282	134.44
283.513	141.44
283.745	144.44
283.976	155.44
284.207	141.44
284.439	151.44
284.67	158.44
284.901	164.44
285.132	149.44
285.364	143.44
285.595	156.44
285.826	141.44
286.057	140.44
286.288	152.44
286.52	150.44
286.751	160.44
286.982	155.44
287.213	150.44
287.444	152.44
287.675	152.44
287.906	154.44
288.138	153.44
288.369	142.44
288.6	157.44
288.831	137.44
289.062	175.44
289.293	145.44
289.524	158.44
289.755	134.44
289.986	164.44
290.217	160.44
290.448	162.44
290.679	162.44
290.91	163.44
291.141	145.44
291.371	157.44
291.602	162.44
291.833	147.44
292.064	152.44
292.295	158.44
292.526	160.44
292.757	159.44
292.987	155.44
293.218	140.44
293.449	141.44
293.68	154.44
293.91	163.44
294.141	169.44
294.372	156.44
294.603	171.44
294.833	149.44
295.064	156.44
295.295	163.44
295.525	147.44
295.756	155.44
295.987	176.44
296.217	157.44
296.448	153.44
296.679	168.44
296.909	171.44
297.14	158.44
297.37	167.44
297.601	146.44
297.831	156.44
298.062	189.44
298.292	166.44
298.523	170.44
298.753	161.44
298.984	170.44
299.214	174.44
299.445	172.44
299.675	162.44
299.905	161.44
300.136	165.44
300.366	159.44
300.597	158.44
300.827	188.44
301.057	158.44
301.288	170.44
301.518	176.44
301.748	172.44
301.979	196.44
302.209	186.44
302.439	173.44
302.669	170.44
302.9	169.44
303.13	157.44
303.36	166.44
303.59	177.44
303.82	167.44
304.051	165.44
304.281	182.44
304.511	188.44
304.741	172.44
304.971	173.44
305.201	179.44
305.431	176.44
305.661	174.44
305.891	170.44
306.121	170.44
306.352	171.44
306.582	161.44
306.812	167.44
307.042	172.44
307.272	158.44
307.502	154.44
307.731	158.44
307.961	162.44
308.191	165.44
308.421	168.44
308.651	173.44
308.881	171.44
309.111	184.44
309.341	164.44
309.571	167.44
309.8	163.44
310.03	166.44
310.26	161.44
310.49	163.44
310.72	185.44
310.949	168.44
311.179	174.44
311.409	164.44
311.639	149.44
311.868	189.44
312.098	170.44
312.328	184.44
312.557	191.44
312.787	180.44
313.017	185.44
313.246	188.44
313.476	167.44
313.706	175.44
313.935	183.44
314.165	181.44
314.394	164.44
314.624	165.44
314.853	162.44
315.083	180.44
315.312	181.44
315.542	169.44
315.771	184.44
316.001	192.44
316.23	174.44
316.46	190.44
316.689	181.44
316.919	182.44
317.148	186.44
317.377	185.44
317.607	163.44
317.836	181.44
318.065	190.44
318.295	170.44
318.524	172.44
318.753	168.44
318.983	179.44
319.212	173.44
319.441	176.44
319.67	176.44
319.9	167.44
320.129	180.44
320.358	189.44
320.587	186.44
320.816	174.44
321.046	187.44
321.275	198.44
321.504	171.44
321.733	178.44
321.962	184.44
322.191	183.44
322.42	170.44
322.649	180.44
322.878	186.44
323.108	184.44
323.337	196.44
323.566	183.44
323.795	174.44
324.024	168.44
324.253	164.44
324.482	189.44
324.71	162.44
324.939	171.44
325.168	188.44
325.397	188.44
325.626	189.44
325.855	187.44
326.084	176.44
326.313	183.44
326.542	181.44
326.77	183.44
326.999	187.44
327.228	189.44
327.457	178.44
327.686	195.44
327.914	189.44
328.143	202.44
328.372	176.44
328.6	190.44
328.829	186.44
329.058	195.44
329.287	201.44
329.515	171.44
329.744	191.44
329.972	193.44
330.201	197.44
330.43	200.44
330.658	196.44
330.887	195.44
331.115	209.44
331.344	185.44
331.572	195.44
331.801	186.44
332.03	203.44
332.258	217.44
332.486	218.44
332.715	219.44
332.943	227.44
333.172	234.44
333.4	237.44
333.629	253.44
333.857	248.44
334.085	220.44
334.314	230.44
334.542	222.44
334.771	227.44
334.999	220.44
335.227	233.44
335.455	221.44
335.684	229.44
335.912	228.44
336.14	215.44
336.369	208.44
336.597	220.44
336.825	221.44
337.053	205.44
337.281	232.44
337.51	219.44
337.738	217.44
337.966	203.44
338.194	188.44
338.422	213.44
338.65	203.44
338.878	210.44
339.106	206.44
339.334	216.44
339.562	205.44
339.79	185.44
340.018	197.44
340.246	204.44
340.474	203.44
340.702	213.44
340.93	193.44
341.158	200.44
341.386	206.44
341.614	201.44
341.842	195.44
342.07	201.44
342.298	224.44
342.526	202.44
342.754	192.44
342.981	212.44
343.209	204.44
343.437	231.44
343.665	220.44
343.893	240.44
344.12	242.44
344.348	230.44
344.576	213.44
344.804	204.44
345.031	194.44
345.259	211.44
345.487	189.44
345.714	179.44
345.942	198.44
346.17	199.44
346.397	205.44
346.625	181.44
346.853	184.44
347.08	198.44
347.308	213.44
347.535	190.44
347.763	195.44
347.99	186.44
348.218	205.44
348.445	206.44
348.673	193.44
348.9	191.44
349.128	204.44
349.355	197.44
349.583	201.44
349.81	184.44
350.037	184.44
350.265	193.44
350.492	197.44
350.72	180.44
350.947	186.44
351.174	187.44
351.402	182.44
351.629	197.44
351.856	192.44
352.083	179.44
352.311	194.44
352.538	195.44
352.765	188.44
352.992	204.44
353.22	184.44
353.447	189.44
353.674	189.44
353.901	187.44
354.128	205.44
354.355	187.44
354.583	196.44
354.81	204.44
355.037	195.44
355.264	210.44
355.491	190.44
355.718	186.44
355.945	191.44
356.172	174.44
356.399	204.44
356.626	183.44
356.853	179.44
357.08	202.44
357.307	211.44
357.534	193.44
357.761	217.44
357.988	205.44
358.215	180.44
358.441	187.44
358.668	190.44
358.895	190.44
359.122	206.44
359.349	198.44
359.576	191.44
359.802	198.44
360.029	196.44
360.256	201.44
360.483	201.44
360.709	195.44
360.936	205.44
361.163	192.44
361.39	185.44
361.616	175.44
361.843	177.44
362.07	203.44
362.296	202.44
362.523	172.44
362.749	188.44
362.976	200.44
363.203	190.44
363.429	182.44
363.656	191.44
363.882	173.44
364.109	191.44
364.335	188.44
364.562	192.44
364.788	183.44
365.015	199.44
365.241	174.44
365.468	193.44
365.694	199.44
365.92	196.44
366.147	181.44
366.373	190.44
366.599	171.44
366.826	195.44
367.052	195.44
367.278	188.44
367.505	204.44
367.731	205.44
367.957	198.44
368.184	213.44
368.41	181.44
368.636	196.44
368.862	207.44
369.089	211.44
369.315	201.44
369.541	199.44
369.767	204.44
369.993	200.44
370.219	198.44
370.445	189.44
370.672	208.44
370.898	216.44
371.124	216.44
371.35	192.44
371.576	200.44
371.802	209.44
372.028	199.44
372.254	202.44
372.48	216.44
372.706	200.44
372.932	207.44
373.158	208.44
373.384	199.44
373.61	213.44
373.835	201.44
374.061	206.44
374.287	219.44
374.513	221.44
374.739	215.44
374.965	236.44
375.191	210.44
375.416	205.44
375.642	216.44
375.868	228.44
376.094	231.44
376.319	217.44
376.545	211.44
376.771	196.44
376.997	197.44
377.222	196.44
377.448	213.44
377.674	195.44
377.899	192.44
378.125	214.44
378.35	209.44
378.576	203.44
378.802	193.44
379.027	203.44
379.253	212.44
379.478	195.44
379.704	213.44
379.929	209.44
380.155	204.44
380.38	197.44
380.606	213.44
380.831	209.44
381.057	216.44
381.282	223.44
381.507	199.44
381.733	219.44
381.958	207.44
382.184	218.44
382.409	212.44
382.634	221.44
382.86	221.44
383.085	224.44
383.31	207.44
383.535	244.44
383.761	219.44
383.986	230.44
384.211	248.44
384.436	255.44
384.662	231.44
384.887	252.44
385.112	240.44
385.337	247.44
385.562	219.44
385.787	246.44
386.013	257.44
386.238	235.44
386.463	240.44
386.688	271.44
386.913	252.44
387.138	238.44
387.363	225.44
387.588	253.44
387.813	240.44
388.038	255.44
388.263	245.44
388.488	230.44
388.713	254.44
388.938	231.44
389.163	211.44
389.387	251.44
389.612	224.44
389.837	255.44
390.062	251.44
390.287	259.44
390.512	233.44
390.736	248.44
390.961	249.44
391.186	257.44
391.411	262.44
391.636	263.44
391.86	280.44
392.085	288.44
392.31	278.44
392.534	281.44
392.759	278.44
392.984	251.44
393.208	261.44
393.433	248.44
393.658	257.44
393.882	268.44
394.107	268.44
394.331	255.44
394.556	251.44
394.78	281.44
395.005	269.44
395.229	275.44
395.454	288.44
395.678	288.44
395.903	284.44
396.127	275.44
396.352	287.44
396.576	276.44
396.801	275.44
397.025	287.44
397.249	283.44
397.474	276.44
397.698	299.44
397.922	289.44
398.147	306.44
398.371	289.44
398.595	312.44
398.82	329.44
399.044	335.44
399.268	385.44
399.492	463.44
399.717	462.44
399.941	418.44
400.165	382.44
400.389	366.44
400.613	343.44
400.837	335.44
401.062	343.44
401.286	312.44
401.51	311.44
401.734	336.44
401.958	330.44
402.182	340.44
402.406	328.44
402.63	340.44
402.854	356.44
403.078	360.44
403.302	372.44
403.526	392.44
403.75	384.44
403.974	389.44
404.198	387.44
404.422	387.44
404.645	381.44
404.869	367.44
405.093	366.44
405.317	364.44
405.541	362.44
405.765	372.44
405.988	368.44
406.212	377.44
406.436	368.44
406.66	384.44
406.883	369.44
407.107	421.44
407.331	425.44
407.555	420.44
407.778	415.44
408.002	407.44
408.226	374.44
408.449	389.44
408.673	404.44
408.896	385.44
409.12	389.44
409.344	397.44
409.567	374.44
409.791	382.44
410.014	382.44
410.238	384.44
410.461	391.44
410.685	387.44
410.908	348.44
411.132	382.44
411.355	359.44
411.578	370.44
411.802	388.44
412.025	365.44
412.249	366.44
412.472	364.44
412.695	373.44
412.919	368.44
413.142	356.44
413.365	356.44
413.589	356.44
413.812	332.44
414.035	348.44
414.258	355.44
414.482	366.44
414.705	372.44
414.928	363.44
415.151	363.44
415.374	352.44
415.597	360.44
415.821	363.44
416.044	359.44
416.267	360.44
416.49	364.44
416.713	367.44
416.936	355.44
417.159	352.44
417.382	352.44
417.605	361.44
417.828	388.44
418.051	383.44
418.274	397.44
418.497	367.44
418.72	373.44
418.943	387.44
419.166	402.44
419.389	416.44
419.611	372.44
419.834	378.44
420.057	382.44
420.28	372.44
420.503	372.44
420.726	388.44
420.948	357.44
421.171	365.44
421.394	380.44
421.617	369.44
421.839	396.44
422.062	382.44
422.285	371.44
422.507	368.44
422.73	387.44
422.953	368.44
423.175	379.44
423.398	393.44
423.621	385.44
423.843	390.44
424.066	399.44
424.288	373.44
424.511	382.44
424.733	389.44
424.956	391.44
425.178	379.44
425.401	357.44
425.623	388.44
425.846	339.44
426.068	352.44
426.291	336.44
426.513	364.44
426.735	347.44
426.958	343.44
427.18	351.44
427.402	347.44
427.625	356.44
427.847	337.44
428.069	349.44
428.292	342.44
428.514	319.44
428.736	337.44
428.958	344.44
429.181	338.44
429.403	348.44
429.625	328.44
429.847	310.44
430.069	317.44
430.292	337.44
430.514	311.44
430.736	330.44
430.958	318.44
431.18	316.44
431.402	349.44
431.624	305.44
431.846	319.44
432.068	317.44
432.29	322.44
432.512	326.44
432.734	342.44
432.956	343.44
433.178	353.44
433.4	320.44
433.622	350.44
433.844	342.44
434.066	326.44
434.287	326.44
434.509	328.44
434.731	343.44
434.953	348.44
435.175	371.44
435.397	340.44
435.618	310.44
435.84	321.44
436.062	326.44
436.284	334.44
436.505	317.44
436.727	319.44
436.949	340.44
437.17	324.44
437.392	315.44
437.614	327.44
437.835	287.44
438.057	278.44
438.278	287.44
438.5	323.44
438.721	330.44
438.943	343.44
439.165	324.44
439.386	355.44
439.608	338.44
439.829	339.44
440.05	332.44
440.272	341.44
440.493	353.44
440.715	339.44
440.936	366.44
441.158	396.44
441.379	388.44
441.6	390.44
441.822	401.44
442.043	387.44
442.264	357.44
442.486	366.44
442.707	351.44
442.928	350.44
443.149	384.44
443.371	373.44
443.592	359.44
443.813	390.44
444.034	392.44
444.255	405.44
444.476	415.44
444.698	415.44
444.919	421.44
445.14	645.44
445.361	508.44
445.582	387.44
445.803	369.44
446.024	345.44
446.245	377.44
446.466	377.44
446.687	361.44
446.908	366.44
447.129	348.44
447.35	359.44
447.571	349.44
447.792	327.44
448.013	320.44
448.234	329.44
448.455	325.44
448.675	333.44
448.896	314.44
449.117	316.44
449.338	316.44
449.559	318.44
449.779	330.44
450	318.44
450.221	318.44
450.442	318.44
450.662	315.44
450.883	321.44
451.104	331.44
451.324	328.44
451.545	328.44
451.766	310.44
451.986	299.44
452.207	323.44
452.428	308.44
452.648	303.44
452.869	303.44
453.089	296.44
453.31	302.44
453.53	288.44
453.751	283.44
453.971	274.44
454.192	266.44
454.412	279.44
454.633	299.44
454.853	280.44
455.073	324.44
455.294	327.44
455.514	334.44
455.734	292.44
455.955	272.44
456.175	277.44
456.395	287.44
456.616	252.44
456.836	293.44
457.056	277.44
457.276	285.44
457.497	275.44
457.717	264.44
457.937	286.44
458.157	287.44
458.377	284.44
458.598	282.44
458.818	279.44
459.038	275.44
459.258	295.44
459.478	281.44
459.698	308.44
459.918	340.44
460.138	353.44
460.358	366.44
460.578	374.44
460.798	367.44
461.018	365.44
461.238	352.44
461.458	371.44
461.678	355.44
461.898	360.44
462.118	374.44
462.338	392.44
462.558	385.44
462.777	391.44
462.997	431.44
463.217	459.44
463.437	428.44
463.657	425.44
463.876	401.44
464.096	388.44
464.316	394.44
464.536	408.44
464.755	410.44
464.975	387.44
465.195	381.44
465.414	371.44
465.634	333.44
465.854	328.44
466.073	333.44
466.293	353.44
466.512	315.44
466.732	332.44
466.951	325.44
467.171	305.44
467.391	331.44
467.61	319.44
467.829	314.44
468.049	323.44
468.268	320.44
468.488	316.44
468.707	321.44
468.927	306.44
469.146	312.44
469.365	328.44
469.585	332.44
469.804	329.44
470.023	343.44
470.243	348.44
470.462	336.44
470.681	354.44
470.901	327.44
471.12	344.44
471.339	350.44
471.558	329.44
471.777	342.44
471.997	332.44
472.216	319.44
472.435	285.44
472.654	295.44
472.873	291.44
473.092	287.44
473.311	318.44
473.53	314.44
473.749	310.44
473.968	284.44
474.187	314.44
474.406	280.44
474.625	316.44
474.844	325.44
475.063	308.44
475.282	303.44
475.501	301.44
475.72	303.44
475.939	287.44
476.158	301.44
476.377	325.44
476.596	306.44
476.814	307.44
477.033	296.44
477.252	326.44
477.471	326.44
477.69	331.44
477.908	351.44
478.127	370.44
478.346	354.44
478.564	357.44
478.783	355.44
479.002	375.44
479.22	375.44
479.439	367.44
479.658	348.44
479.876	345.44
480.095	365.44
480.313	356.44
480.532	377.44
480.751	357.44
480.969	347.44
481.188	328.44
481.406	309.44
481.624	308.44
481.843	299.44
482.061	307.44
482.28	301.44
482.498	319.44
482.717	303.44
482.935	333.44
483.153	347.44
483.372	377.44
483.59	346.44
483.808	349.44
484.027	344.44
484.245	336.44
484.463	339.44
484.681	353.44
484.9	355.44
485.118	361.44
485.336	340.44
485.554	331.44
485.772	322.44
485.99	317.44
486.209	317.44
486.427	335.44
486.645	335.44
486.863	350.44
487.081	366.44
487.299	359.44
487.517	365.44
487.735	382.44
487.953	395.44
488.171	384.44
488.389	391.44
488.607	363.44
488.825	345.44
489.043	328.44
489.261	351.44
489.479	364.44
489.696	345.44
489.914	347.44
490.132	379.44
490.35	392.44
490.568	380.44
490.786	398.44
491.003	403.44
491.221	383.44
491.439	401.44
491.657	392.44
491.874	452.44
492.092	448.44
492.31	477.44
492.527	425.44
492.745	415.44
492.963	417.44
493.18	413.44
493.398	433.44
493.615	461.44
493.833	407.44
494.05	395.44
494.268	417.44
494.485	416.44
494.703	424.44
494.92	414.44
495.138	428.44
495.355	431.44
495.573	421.44
495.79	400.44
496.008	419.44
496.225	424.44
496.442	411.44
496.66	419.44
496.877	411.44
497.094	437.44
497.312	400.44
497.529	407.44
497.746	425.44
497.963	422.44
498.181	418.44
498.398	436.44
498.615	469.44
498.832	492.44
499.049	528.44
499.267	564.44
499.484	602.44
499.701	657.44
499.918	721.44
500.135	842.44
500.352	924.44
500.569	932.44
500.786	905.44
501.003	833.44
501.22	756.44
501.437	703.44
501.654	605.44
501.871	572.44
502.088	523.44
502.305	525.44
502.522	468.44
502.739	480.44
502.956	453.44
503.172	432.44
503.389	415.44
503.606	400.44
