Data from SampA_HRD10591_00052.txt Node
Date: Mon Jan 19 11:27:04 EST 2026
User: Yrep
Spectrometer: HR+D1059
Trigger mode: 0
Integration Time (sec): 3.443000E-1
Scans to average: 1
Electric dark correction enabled: true
Nonlinearity correction enabled: false
Boxcar width: 0
XAxis mode: Wavelengths
Number of Pixels in Spectrum: 2048
>>>>>Begin Spectral Data<<<<<
223.165	-24.12
223.4	-24.12
223.635	-24.12
223.869	-19.12
224.104	-12.12
224.338	-15.12
224.573	-21.12
224.808	-25.12
225.042	-1.12
225.277	0.88
225.511	-4.12
225.746	10.88
225.98	10.88
226.215	12.88
226.449	18.88
226.683	14.88
226.918	18.88
227.152	33.88
227.387	39.88
227.621	40.88
227.856	55.88
228.09	43.88
228.324	40.88
228.559	47.88
228.793	56.88
229.027	48.88
229.262	71.88
229.496	58.88
229.73	59.88
229.964	77.88
230.199	62.88
230.433	80.88
230.667	88.88
230.901	88.88
231.136	74.88
231.37	79.88
231.604	102.88
231.838	98.88
232.072	75.88
232.306	79.88
232.541	73.88
232.775	53.88
233.009	86.88
233.243	89.88
233.477	83.88
233.711	98.88
233.945	92.88
234.179	86.88
234.413	91.88
234.647	82.88
234.881	84.88
235.115	82.88
235.349	89.88
235.583	88.88
235.817	84.88
236.051	71.88
236.285	91.88
236.519	86.88
236.753	84.88
236.987	65.88
237.221	87.88
237.455	76.88
237.689	88.88
237.922	79.88
238.156	78.88
238.39	81.88
238.624	80.88
238.858	82.88
239.091	85.88
239.325	86.88
239.559	80.88
239.793	86.88
240.027	78.88
240.26	83.88
240.494	89.88
240.728	75.88
240.961	79.88
241.195	65.88
241.429	83.88
241.662	77.88
241.896	76.88
242.13	77.88
242.363	91.88
242.597	83.88
242.83	82.88
243.064	75.88
243.298	70.88
243.531	81.88
243.765	97.88
243.998	76.88
244.232	74.88
244.465	79.88
244.699	83.88
244.932	89.88
245.166	71.88
245.399	89.88
245.633	76.88
245.866	79.88
246.099	85.88
246.333	86.88
246.566	78.88
246.8	90.88
247.033	80.88
247.266	89.88
247.5	87.88
247.733	92.88
247.966	88.88
248.2	83.88
248.433	77.88
248.666	79.88
248.899	87.88
249.133	99.88
249.366	91.88
249.599	85.88
249.832	88.88
250.066	104.88
250.299	75.88
250.532	93.88
250.765	88.88
250.998	82.88
251.231	87.88
251.465	96.88
251.698	104.88
251.931	100.88
252.164	92.88
252.397	94.88
252.63	108.88
252.863	72.88
253.096	93.88
253.329	84.88
253.562	83.88
253.795	71.88
254.028	92.88
254.261	87.88
254.494	85.88
254.727	100.88
254.96	96.88
255.193	97.88
255.426	89.88
255.659	95.88
255.892	93.88
256.124	95.88
256.357	93.88
256.59	92.88
256.823	84.88
257.056	84.88
257.289	100.88
257.521	99.88
257.754	87.88
257.987	92.88
258.22	91.88
258.452	105.88
258.685	107.88
258.918	95.88
259.151	100.88
259.383	98.88
259.616	99.88
259.849	86.88
260.081	80.88
260.314	94.88
260.547	107.88
260.779	97.88
261.012	96.88
261.244	81.88
261.477	111.88
261.71	99.88
261.942	91.88
262.175	107.88
262.407	88.88
262.64	96.88
262.872	95.88
263.105	85.88
263.337	106.88
263.57	82.88
263.802	97.88
264.035	89.88
264.267	87.88
264.499	95.88
264.732	100.88
264.964	103.88
265.197	106.88
265.429	93.88
265.661	77.88
265.894	90.88
266.126	91.88
266.358	110.88
266.591	100.88
266.823	98.88
267.055	103.88
267.287	97.88
267.52	112.88
267.752	97.88
267.984	113.88
268.216	116.88
268.448	99.88
268.681	106.88
268.913	93.88
269.145	108.88
269.377	104.88
269.609	96.88
269.841	101.88
270.073	90.88
270.306	107.88
270.538	107.88
270.77	88.88
271.002	101.88
271.234	112.88
271.466	122.88
271.698	106.88
271.93	106.88
272.162	115.88
272.394	120.88
272.626	107.88
272.858	106.88
273.09	96.88
273.322	101.88
273.553	91.88
273.785	103.88
274.017	106.88
274.249	103.88
274.481	105.88
274.713	98.88
274.945	115.88
275.176	106.88
275.408	105.88
275.64	110.88
275.872	98.88
276.104	104.88
276.335	111.88
276.567	114.88
276.799	93.88
277.031	106.88
277.262	107.88
277.494	110.88
277.726	98.88
277.957	99.88
278.189	119.88
278.421	106.88
278.652	88.88
278.884	101.88
279.115	117.88
279.347	114.88
279.579	99.88
279.81	101.88
280.042	113.88
280.273	96.88
280.505	111.88
280.736	111.88
280.968	115.88
281.199	108.88
281.431	105.88
281.662	115.88
281.894	118.88
282.125	110.88
282.356	122.88
282.588	104.88
282.819	120.88
283.051	98.88
283.282	95.88
283.513	108.88
283.745	115.88
283.976	109.88
284.207	114.88
284.439	113.88
284.67	107.88
284.901	111.88
285.132	112.88
285.364	122.88
285.595	122.88
285.826	107.88
286.057	121.88
286.288	122.88
286.52	112.88
286.751	105.88
286.982	112.88
287.213	112.88
287.444	129.88
287.675	117.88
287.906	105.88
288.138	106.88
288.369	115.88
288.6	127.88
288.831	129.88
289.062	119.88
289.293	106.88
289.524	96.88
289.755	119.88
289.986	106.88
290.217	126.88
290.448	115.88
290.679	114.88
290.91	110.88
291.141	101.88
291.371	118.88
291.602	124.88
291.833	103.88
292.064	107.88
292.295	115.88
292.526	101.88
292.757	107.88
292.987	103.88
293.218	120.88
293.449	116.88
293.68	114.88
293.91	97.88
294.141	125.88
294.372	111.88
294.603	110.88
294.833	107.88
295.064	111.88
295.295	120.88
295.525	116.88
295.756	121.88
295.987	118.88
296.217	107.88
296.448	106.88
296.679	105.88
296.909	120.88
297.14	119.88
297.37	130.88
297.601	112.88
297.831	113.88
298.062	127.88
298.292	122.88
298.523	130.88
298.753	108.88
298.984	108.88
299.214	127.88
299.445	113.88
299.675	134.88
299.905	119.88
300.136	118.88
300.366	111.88
300.597	135.88
300.827	124.88
301.057	119.88
301.288	144.88
301.518	117.88
301.748	119.88
301.979	147.88
302.209	113.88
302.439	112.88
302.669	127.88
302.9	121.88
303.13	117.88
303.36	136.88
303.59	142.88
303.82	118.88
304.051	118.88
304.281	129.88
304.511	137.88
304.741	123.88
304.971	114.88
305.201	132.88
305.431	133.88
305.661	115.88
305.891	120.88
306.121	117.88
306.352	117.88
306.582	118.88
306.812	121.88
307.042	123.88
307.272	128.88
307.502	125.88
307.731	123.88
307.961	123.88
308.191	142.88
308.421	126.88
308.651	127.88
308.881	132.88
309.111	115.88
309.341	135.88
309.571	123.88
309.8	125.88
310.03	122.88
310.26	121.88
310.49	103.88
310.72	124.88
310.949	129.88
311.179	137.88
311.409	123.88
311.639	128.88
311.868	121.88
312.098	141.88
312.328	133.88
312.557	130.88
312.787	119.88
313.017	129.88
313.246	138.88
313.476	128.88
313.706	138.88
313.935	133.88
314.165	110.88
314.394	115.88
314.624	123.88
314.853	117.88
315.083	106.88
315.312	131.88
315.542	127.88
315.771	121.88
316.001	126.88
316.23	130.88
316.46	127.88
316.689	115.88
316.919	126.88
317.148	128.88
317.377	135.88
317.607	126.88
317.836	133.88
318.065	130.88
318.295	132.88
318.524	121.88
318.753	136.88
318.983	138.88
319.212	124.88
319.441	129.88
319.67	128.88
319.9	112.88
320.129	115.88
320.358	129.88
320.587	134.88
320.816	140.88
321.046	138.88
321.275	122.88
321.504	114.88
321.733	116.88
321.962	129.88
322.191	117.88
322.42	115.88
322.649	124.88
322.878	140.88
323.108	130.88
323.337	148.88
323.566	132.88
323.795	124.88
324.024	137.88
324.253	121.88
324.482	123.88
324.71	128.88
324.939	128.88
325.168	119.88
325.397	128.88
325.626	129.88
325.855	118.88
326.084	133.88
326.313	140.88
326.542	144.88
326.77	119.88
326.999	140.88
327.228	130.88
327.457	146.88
327.686	135.88
327.914	130.88
328.143	141.88
328.372	122.88
328.6	136.88
328.829	116.88
329.058	130.88
329.287	140.88
329.515	131.88
329.744	118.88
329.972	133.88
330.201	127.88
330.43	148.88
330.658	133.88
330.887	140.88
331.115	132.88
331.344	144.88
331.572	131.88
331.801	142.88
332.03	130.88
332.258	142.88
332.486	138.88
332.715	136.88
332.943	148.88
333.172	142.88
333.4	150.88
333.629	155.88
333.857	148.88
334.085	148.88
334.314	156.88
334.542	145.88
334.771	163.88
334.999	150.88
335.227	147.88
335.455	140.88
335.684	158.88
335.912	153.88
336.14	146.88
336.369	147.88
336.597	140.88
336.825	158.88
337.053	152.88
337.281	139.88
337.51	130.88
337.738	134.88
337.966	136.88
338.194	122.88
338.422	120.88
338.65	142.88
338.878	148.88
339.106	134.88
339.334	146.88
339.562	126.88
339.79	137.88
340.018	121.88
340.246	133.88
340.474	142.88
340.702	122.88
340.93	129.88
341.158	119.88
341.386	135.88
341.614	159.88
341.842	129.88
342.07	132.88
342.298	131.88
342.526	130.88
342.754	148.88
342.981	146.88
343.209	130.88
343.437	171.88
343.665	152.88
343.893	142.88
344.12	153.88
344.348	146.88
344.576	146.88
344.804	119.88
345.031	123.88
345.259	132.88
345.487	140.88
345.714	135.88
345.942	128.88
346.17	133.88
346.397	143.88
346.625	134.88
346.853	132.88
347.08	159.88
347.308	150.88
347.535	149.88
347.763	131.88
347.99	145.88
348.218	128.88
348.445	123.88
348.673	143.88
348.9	133.88
349.128	136.88
349.355	135.88
349.583	139.88
349.81	125.88
350.037	144.88
350.265	121.88
350.492	137.88
350.72	124.88
350.947	132.88
351.174	127.88
351.402	136.88
351.629	119.88
351.856	144.88
352.083	122.88
352.311	134.88
352.538	120.88
352.765	140.88
352.992	142.88
353.22	133.88
353.447	131.88
353.674	132.88
353.901	145.88
354.128	139.88
354.355	124.88
354.583	146.88
354.81	126.88
355.037	147.88
355.264	134.88
355.491	133.88
355.718	139.88
355.945	146.88
356.172	114.88
356.399	137.88
356.626	134.88
356.853	141.88
357.08	123.88
357.307	147.88
357.534	132.88
357.761	139.88
357.988	126.88
358.215	126.88
358.441	127.88
358.668	108.88
358.895	126.88
359.122	120.88
359.349	132.88
359.576	133.88
359.802	115.88
360.029	130.88
360.256	119.88
360.483	118.88
360.709	128.88
360.936	150.88
361.163	121.88
361.39	142.88
361.616	130.88
361.843	121.88
362.07	129.88
362.296	136.88
362.523	116.88
362.749	122.88
362.976	133.88
363.203	143.88
363.429	137.88
363.656	135.88
363.882	135.88
364.109	136.88
364.335	134.88
364.562	128.88
364.788	142.88
365.015	134.88
365.241	118.88
365.468	154.88
365.694	141.88
365.92	131.88
366.147	121.88
366.373	129.88
366.599	132.88
366.826	120.88
367.052	121.88
367.278	131.88
367.505	134.88
367.731	153.88
367.957	118.88
368.184	142.88
368.41	130.88
368.636	126.88
368.862	145.88
369.089	135.88
369.315	126.88
369.541	137.88
369.767	130.88
369.993	120.88
370.219	142.88
370.445	130.88
370.672	132.88
370.898	137.88
371.124	131.88
371.35	121.88
371.576	143.88
371.802	123.88
372.028	152.88
372.254	131.88
372.48	151.88
372.706	147.88
372.932	139.88
373.158	159.88
373.384	155.88
373.61	155.88
373.835	133.88
374.061	142.88
374.287	150.88
374.513	125.88
374.739	142.88
374.965	147.88
375.191	161.88
375.416	138.88
375.642	142.88
375.868	145.88
376.094	145.88
376.319	133.88
376.545	140.88
376.771	152.88
376.997	143.88
377.222	156.88
377.448	167.88
377.674	136.88
377.899	143.88
378.125	150.88
378.35	122.88
378.576	141.88
378.802	140.88
379.027	145.88
379.253	142.88
379.478	156.88
379.704	144.88
379.929	137.88
380.155	142.88
380.38	159.88
380.606	139.88
380.831	142.88
381.057	158.88
381.282	121.88
381.507	140.88
381.733	127.88
381.958	121.88
382.184	148.88
382.409	146.88
382.634	159.88
382.86	145.88
383.085	148.88
383.31	143.88
383.535	163.88
383.761	140.88
383.986	159.88
384.211	141.88
384.436	143.88
384.662	173.88
384.887	163.88
385.112	169.88
385.337	166.88
385.562	166.88
385.787	155.88
386.013	158.88
386.238	146.88
386.463	153.88
386.688	178.88
386.913	156.88
387.138	172.88
387.363	157.88
387.588	166.88
387.813	162.88
388.038	166.88
388.263	168.88
388.488	160.88
388.713	180.88
388.938	170.88
389.163	150.88
389.387	144.88
389.612	149.88
389.837	148.88
390.062	175.88
390.287	161.88
390.512	168.88
390.736	163.88
390.961	175.88
391.186	164.88
391.411	170.88
391.636	200.88
391.86	165.88
392.085	201.88
392.31	197.88
392.534	184.88
392.759	199.88
392.984	183.88
393.208	174.88
393.433	176.88
393.658	177.88
393.882	190.88
394.107	192.88
394.331	175.88
394.556	163.88
394.78	169.88
395.005	190.88
395.229	182.88
395.454	190.88
395.678	195.88
395.903	187.88
396.127	170.88
396.352	176.88
396.576	190.88
396.801	192.88
397.025	193.88
397.249	193.88
397.474	197.88
397.698	198.88
397.922	196.88
398.147	183.88
398.371	192.88
398.595	203.88
398.82	204.88
399.044	226.88
399.268	249.88
399.492	268.88
399.717	283.88
399.941	273.88
400.165	251.88
400.389	230.88
400.613	219.88
400.837	234.88
401.062	206.88
401.286	216.88
401.51	219.88
401.734	202.88
401.958	222.88
402.182	223.88
402.406	223.88
402.63	225.88
402.854	234.88
403.078	251.88
403.302	250.88
403.526	263.88
403.75	264.88
403.974	266.88
404.198	260.88
404.422	252.88
404.645	266.88
404.869	250.88
405.093	245.88
405.317	255.88
405.541	242.88
405.765	258.88
405.988	268.88
406.212	259.88
406.436	251.88
406.66	273.88
406.883	267.88
407.107	292.88
407.331	283.88
407.555	284.88
407.778	289.88
408.002	278.88
408.226	266.88
408.449	269.88
408.673	267.88
408.896	261.88
409.12	271.88
409.344	269.88
409.567	270.88
409.791	273.88
410.014	268.88
410.238	272.88
410.461	270.88
410.685	263.88
410.908	264.88
411.132	260.88
411.355	246.88
411.578	254.88
411.802	250.88
412.025	255.88
412.249	262.88
412.472	264.88
412.695	259.88
412.919	245.88
413.142	250.88
413.365	263.88
413.589	238.88
413.812	248.88
414.035	264.88
414.258	251.88
414.482	252.88
414.705	270.88
414.928	266.88
415.151	267.88
415.374	267.88
415.597	259.88
415.821	253.88
416.044	268.88
416.267	249.88
416.49	248.88
416.713	263.88
416.936	278.88
417.159	261.88
417.382	263.88
417.605	250.88
417.828	265.88
418.051	271.88
418.274	261.88
418.497	252.88
418.72	265.88
418.943	272.88
419.166	273.88
419.389	309.88
419.611	259.88
419.834	275.88
420.057	274.88
420.28	276.88
420.503	271.88
420.726	251.88
420.948	258.88
421.171	256.88
421.394	251.88
421.617	263.88
421.839	290.88
422.062	262.88
422.285	259.88
422.507	275.88
422.73	266.88
422.953	253.88
423.175	273.88
423.398	278.88
423.621	267.88
423.843	279.88
424.066	279.88
424.288	294.88
424.511	278.88
424.733	296.88
424.956	273.88
425.178	274.88
425.401	265.88
425.623	275.88
425.846	270.88
426.068	246.88
426.291	268.88
426.513	242.88
426.735	262.88
426.958	262.88
427.18	245.88
427.402	236.88
427.625	258.88
427.847	238.88
428.069	255.88
428.292	248.88
428.514	238.88
428.736	249.88
428.958	243.88
429.181	238.88
429.403	249.88
429.625	257.88
429.847	230.88
430.069	240.88
430.292	229.88
430.514	233.88
430.736	250.88
430.958	236.88
431.18	218.88
431.402	239.88
431.624	232.88
431.846	224.88
432.068	214.88
432.29	226.88
432.512	247.88
432.734	220.88
432.956	243.88
433.178	236.88
433.4	258.88
433.622	262.88
433.844	256.88
434.066	245.88
434.287	233.88
434.509	225.88
434.731	230.88
434.953	229.88
435.175	247.88
435.397	272.88
435.618	244.88
435.84	229.88
436.062	240.88
436.284	249.88
436.505	244.88
436.727	240.88
436.949	246.88
437.17	255.88
437.392	231.88
437.614	218.88
437.835	217.88
438.057	228.88
438.278	211.88
438.5	234.88
438.721	238.88
438.943	247.88
439.165	253.88
439.386	250.88
439.608	248.88
439.829	256.88
440.05	256.88
440.272	266.88
440.493	260.88
440.715	271.88
440.936	273.88
441.158	260.88
441.379	264.88
441.6	270.88
441.822	287.88
442.043	283.88
442.264	264.88
442.486	252.88
442.707	270.88
442.928	282.88
443.149	283.88
443.371	284.88
443.592	281.88
443.813	271.88
444.034	270.88
444.255	285.88
444.476	300.88
444.698	311.88
444.919	315.88
445.14	482.88
445.361	391.88
445.582	292.88
445.803	258.88
446.024	270.88
446.245	273.88
446.466	287.88
446.687	263.88
446.908	284.88
447.129	256.88
447.35	261.88
447.571	260.88
447.792	249.88
448.013	254.88
448.234	258.88
448.455	260.88
448.675	246.88
448.896	230.88
449.117	256.88
449.338	223.88
449.559	245.88
449.779	237.88
450	242.88
450.221	232.88
450.442	231.88
450.662	250.88
450.883	256.88
451.104	248.88
451.324	232.88
451.545	217.88
451.766	237.88
451.986	224.88
452.207	235.88
452.428	226.88
452.648	229.88
452.869	231.88
453.089	233.88
453.31	216.88
453.53	217.88
453.751	203.88
453.971	201.88
454.192	212.88
454.412	213.88
454.633	206.88
454.853	215.88
455.073	220.88
455.294	207.88
455.514	226.88
455.734	224.88
455.955	208.88
456.175	193.88
456.395	207.88
456.616	216.88
456.836	204.88
457.056	204.88
457.276	206.88
457.497	206.88
457.717	207.88
457.937	208.88
458.157	199.88
458.377	193.88
458.598	191.88
458.818	211.88
459.038	209.88
459.258	199.88
459.478	209.88
459.698	206.88
459.918	227.88
460.138	227.88
460.358	265.88
460.578	262.88
460.798	264.88
461.018	247.88
461.238	249.88
461.458	258.88
461.678	244.88
461.898	256.88
462.118	260.88
462.338	287.88
462.558	249.88
462.777	278.88
462.997	282.88
463.217	299.88
463.437	282.88
463.657	283.88
463.876	263.88
464.096	269.88
464.316	279.88
464.536	284.88
464.755	293.88
464.975	268.88
465.195	266.88
465.414	246.88
465.634	248.88
465.854	235.88
466.073	228.88
466.293	230.88
466.512	227.88
466.732	246.88
466.951	255.88
467.171	235.88
467.391	248.88
467.61	236.88
467.829	247.88
468.049	232.88
468.268	233.88
468.488	239.88
468.707	230.88
468.927	236.88
469.146	239.88
469.365	248.88
469.585	240.88
469.804	266.88
470.023	249.88
470.243	240.88
470.462	258.88
470.681	268.88
470.901	257.88
471.12	239.88
471.339	248.88
471.558	242.88
471.777	250.88
471.997	235.88
472.216	229.88
472.435	217.88
472.654	209.88
472.873	215.88
473.092	221.88
473.311	225.88
473.53	235.88
473.749	223.88
473.968	242.88
474.187	227.88
474.406	210.88
474.625	216.88
474.844	243.88
475.063	225.88
475.282	224.88
475.501	209.88
475.72	248.88
475.939	237.88
476.158	235.88
476.377	239.88
476.596	218.88
476.814	205.88
477.033	200.88
477.252	237.88
477.471	223.88
477.69	261.88
477.908	255.88
478.127	278.88
478.346	266.88
478.564	271.88
478.783	257.88
479.002	275.88
479.22	262.88
479.439	270.88
479.658	245.88
479.876	252.88
480.095	244.88
480.313	251.88
480.532	265.88
480.751	258.88
480.969	233.88
481.188	220.88
481.406	228.88
481.624	208.88
481.843	207.88
482.061	227.88
482.28	232.88
482.498	224.88
482.717	243.88
482.935	228.88
483.153	258.88
483.372	270.88
483.59	266.88
483.808	242.88
484.027	246.88
484.245	259.88
484.463	270.88
484.681	260.88
484.9	249.88
485.118	262.88
485.336	235.88
485.554	224.88
485.772	239.88
485.99	243.88
486.209	224.88
486.427	248.88
486.645	250.88
486.863	267.88
487.081	256.88
487.299	266.88
487.517	286.88
487.735	284.88
487.953	312.88
488.171	298.88
488.389	280.88
488.607	267.88
488.825	257.88
489.043	244.88
489.261	276.88
489.479	292.88
489.696	247.88
489.914	262.88
490.132	261.88
490.35	266.88
490.568	291.88
490.786	292.88
491.003	294.88
491.221	295.88
491.439	307.88
491.657	307.88
491.874	338.88
492.092	351.88
492.31	362.88
492.527	345.88
492.745	333.88
492.963	310.88
493.18	328.88
493.398	334.88
493.615	329.88
493.833	329.88
494.05	319.88
494.268	304.88
494.485	318.88
494.703	311.88
494.92	301.88
495.138	296.88
495.355	307.88
495.573	300.88
495.79	299.88
496.008	294.88
496.225	310.88
496.442	293.88
496.66	330.88
496.877	301.88
497.094	334.88
497.312	309.88
497.529	320.88
497.746	306.88
497.963	290.88
498.181	279.88
498.398	302.88
498.615	312.88
498.832	346.88
499.049	360.88
499.267	400.88
499.484	394.88
499.701	463.88
499.918	480.88
500.135	545.88
500.352	609.88
500.569	628.88
500.786	611.88
501.003	555.88
501.22	509.88
501.437	450.88
501.654	418.88
501.871	391.88
502.088	360.88
502.305	357.88
502.522	328.88
502.739	339.88
502.956	294.88
503.172	298.88
503.389	290.88
503.606	271.88
503.823	274.88
504.04	296.88
504.256	286.88
504.473	280.88
504.69	296.88
504.907	296.88
