Data from SampA_HRD10591_00016.txt Node
Date: Mon Jan 19 11:26:52 EST 2026
User: Yrep
Spectrometer: HR+D1059
Trigger mode: 0
Integration Time (sec): 3.443000E-1
Scans to average: 1
Electric dark correction enabled: true
Nonlinearity correction enabled: false
Boxcar width: 0
XAxis mode: Wavelengths
Number of Pixels in Spectrum: 2048
>>>>>Begin Spectral Data<<<<<
223.165	-22.88
223.4	-22.88
223.635	-22.88
223.869	-18.88
224.104	-8.88
224.338	-13.88
224.573	-21.88
224.808	-15.88
225.042	-0.88
225.277	-4.88
225.511	-8.88
225.746	7.12
225.98	7.12
226.215	3.12
226.449	8.12
226.683	8.12
226.918	41.12
227.152	42.12
227.387	41.12
227.621	38.12
227.856	51.12
228.09	53.12
228.324	48.12
228.559	65.12
228.793	65.12
229.027	83.12
229.262	65.12
229.496	76.12
229.73	92.12
229.964	91.12
230.199	83.12
230.433	77.12
230.667	82.12
230.901	94.12
231.136	79.12
231.37	90.12
231.604	81.12
231.838	83.12
232.072	92.12
232.306	93.12
232.541	87.12
232.775	92.12
233.009	82.12
233.243	92.12
233.477	100.12
233.711	92.12
233.945	93.12
234.179	88.12
234.413	106.12
234.647	91.12
234.881	86.12
235.115	102.12
235.349	93.12
235.583	103.12
235.817	87.12
236.051	100.12
236.285	86.12
236.519	96.12
236.753	88.12
236.987	85.12
237.221	89.12
237.455	84.12
237.689	85.12
237.922	90.12
238.156	80.12
238.39	95.12
238.624	100.12
238.858	92.12
239.091	87.12
239.325	94.12
239.559	87.12
239.793	112.12
240.027	103.12
240.26	104.12
240.494	87.12
240.728	91.12
240.961	103.12
241.195	96.12
241.429	96.12
241.662	72.12
241.896	80.12
242.13	88.12
242.363	88.12
242.597	119.12
242.83	79.12
243.064	86.12
243.298	95.12
243.531	101.12
243.765	99.12
243.998	103.12
244.232	109.12
244.465	95.12
244.699	80.12
244.932	104.12
245.166	102.12
245.399	89.12
245.633	101.12
245.866	103.12
246.099	102.12
246.333	94.12
246.566	101.12
246.8	95.12
247.033	114.12
247.266	94.12
247.5	94.12
247.733	95.12
247.966	111.12
248.2	104.12
248.433	106.12
248.666	111.12
248.899	105.12
249.133	108.12
249.366	111.12
249.599	105.12
249.832	120.12
250.066	110.12
250.299	103.12
250.532	112.12
250.765	117.12
250.998	113.12
251.231	112.12
251.465	101.12
251.698	97.12
251.931	105.12
252.164	105.12
252.397	119.12
252.63	108.12
252.863	93.12
253.096	105.12
253.329	131.12
253.562	110.12
253.795	108.12
254.028	116.12
254.261	108.12
254.494	106.12
254.727	117.12
254.96	117.12
255.193	127.12
255.426	115.12
255.659	125.12
255.892	119.12
256.124	109.12
256.357	113.12
256.59	123.12
256.823	105.12
257.056	127.12
257.289	110.12
257.521	106.12
257.754	103.12
257.987	112.12
258.22	137.12
258.452	107.12
258.685	108.12
258.918	113.12
259.151	103.12
259.383	127.12
259.616	114.12
259.849	112.12
260.081	113.12
260.314	110.12
260.547	136.12
260.779	125.12
261.012	110.12
261.244	112.12
261.477	124.12
261.71	116.12
261.942	110.12
262.175	135.12
262.407	110.12
262.64	116.12
262.872	123.12
263.105	133.12
263.337	145.12
263.57	123.12
263.802	112.12
264.035	120.12
264.267	102.12
264.499	139.12
264.732	125.12
264.964	118.12
265.197	108.12
265.429	143.12
265.661	107.12
265.894	119.12
266.126	128.12
266.358	135.12
266.591	116.12
266.823	127.12
267.055	143.12
267.287	124.12
267.52	122.12
267.752	124.12
267.984	126.12
268.216	131.12
268.448	126.12
268.681	121.12
268.913	116.12
269.145	137.12
269.377	133.12
269.609	124.12
269.841	126.12
270.073	121.12
270.306	140.12
270.538	128.12
270.77	110.12
271.002	156.12
271.234	153.12
271.466	135.12
271.698	134.12
271.93	146.12
272.162	128.12
272.394	134.12
272.626	116.12
272.858	129.12
273.09	113.12
273.322	126.12
273.553	115.12
273.785	115.12
274.017	135.12
274.249	140.12
274.481	128.12
274.713	135.12
274.945	145.12
275.176	132.12
275.408	142.12
275.64	151.12
275.872	127.12
276.104	155.12
276.335	136.12
276.567	137.12
276.799	135.12
277.031	148.12
277.262	134.12
277.494	164.12
277.726	159.12
277.957	143.12
278.189	156.12
278.421	139.12
278.652	140.12
278.884	138.12
279.115	137.12
279.347	141.12
279.579	148.12
279.81	153.12
280.042	147.12
280.273	151.12
280.505	137.12
280.736	150.12
280.968	148.12
281.199	143.12
281.431	157.12
281.662	128.12
281.894	131.12
282.125	155.12
282.356	153.12
282.588	142.12
282.819	142.12
283.051	159.12
283.282	155.12
283.513	157.12
283.745	142.12
283.976	164.12
284.207	136.12
284.439	163.12
284.67	175.12
284.901	147.12
285.132	147.12
285.364	153.12
285.595	169.12
285.826	159.12
286.057	165.12
286.288	153.12
286.52	172.12
286.751	148.12
286.982	137.12
287.213	156.12
287.444	162.12
287.675	155.12
287.906	157.12
288.138	153.12
288.369	163.12
288.6	155.12
288.831	164.12
289.062	149.12
289.293	149.12
289.524	160.12
289.755	156.12
289.986	135.12
290.217	185.12
290.448	153.12
290.679	159.12
290.91	159.12
291.141	150.12
291.371	156.12
291.602	157.12
291.833	176.12
292.064	165.12
292.295	172.12
292.526	161.12
292.757	156.12
292.987	151.12
293.218	150.12
293.449	150.12
293.68	157.12
293.91	170.12
294.141	179.12
294.372	150.12
294.603	161.12
294.833	161.12
295.064	176.12
295.295	168.12
295.525	177.12
295.756	166.12
295.987	183.12
296.217	175.12
296.448	171.12
296.679	166.12
296.909	176.12
297.14	165.12
297.37	164.12
297.601	173.12
297.831	169.12
298.062	167.12
298.292	177.12
298.523	178.12
298.753	166.12
298.984	179.12
299.214	169.12
299.445	177.12
299.675	179.12
299.905	160.12
300.136	162.12
300.366	180.12
300.597	175.12
300.827	173.12
301.057	172.12
301.288	176.12
301.518	166.12
301.748	161.12
301.979	197.12
302.209	182.12
302.439	171.12
302.669	181.12
302.9	184.12
303.13	175.12
303.36	166.12
303.59	156.12
303.82	172.12
304.051	175.12
304.281	190.12
304.511	175.12
304.741	174.12
304.971	158.12
305.201	168.12
305.431	178.12
305.661	176.12
305.891	167.12
306.121	177.12
306.352	181.12
306.582	179.12
306.812	170.12
307.042	168.12
307.272	175.12
307.502	177.12
307.731	165.12
307.961	183.12
308.191	186.12
308.421	165.12
308.651	173.12
308.881	178.12
309.111	177.12
309.341	168.12
309.571	167.12
309.8	156.12
310.03	189.12
310.26	158.12
310.49	183.12
310.72	167.12
310.949	186.12
311.179	186.12
311.409	191.12
311.639	175.12
311.868	189.12
312.098	192.12
312.328	177.12
312.557	197.12
312.787	183.12
313.017	188.12
313.246	191.12
313.476	182.12
313.706	187.12
313.935	181.12
314.165	204.12
314.394	175.12
314.624	194.12
314.853	179.12
315.083	179.12
315.312	185.12
315.542	188.12
315.771	182.12
316.001	198.12
316.23	181.12
316.46	173.12
316.689	182.12
316.919	189.12
317.148	186.12
317.377	197.12
317.607	176.12
317.836	184.12
318.065	190.12
318.295	174.12
318.524	180.12
318.753	190.12
318.983	187.12
319.212	177.12
319.441	179.12
319.67	187.12
319.9	167.12
320.129	185.12
320.358	177.12
320.587	171.12
320.816	192.12
321.046	199.12
321.275	189.12
321.504	180.12
321.733	180.12
321.962	182.12
322.191	200.12
322.42	191.12
322.649	199.12
322.878	206.12
323.108	199.12
323.337	195.12
323.566	190.12
323.795	188.12
324.024	209.12
324.253	199.12
324.482	192.12
324.71	192.12
324.939	193.12
325.168	202.12
325.397	183.12
325.626	187.12
325.855	196.12
326.084	188.12
326.313	192.12
326.542	202.12
326.77	203.12
326.999	187.12
327.228	197.12
327.457	190.12
327.686	197.12
327.914	204.12
328.143	191.12
328.372	199.12
328.6	213.12
328.829	211.12
329.058	203.12
329.287	200.12
329.515	199.12
329.744	199.12
329.972	196.12
330.201	213.12
330.43	191.12
330.658	212.12
330.887	181.12
331.115	210.12
331.344	197.12
331.572	208.12
331.801	219.12
332.03	217.12
332.258	206.12
332.486	229.12
332.715	235.12
332.943	232.12
333.172	250.12
333.4	229.12
333.629	250.12
333.857	231.12
334.085	263.12
334.314	239.12
334.542	237.12
334.771	248.12
334.999	237.12
335.227	216.12
335.455	241.12
335.684	241.12
335.912	232.12
336.14	225.12
336.369	229.12
336.597	211.12
336.825	200.12
337.053	212.12
337.281	213.12
337.51	219.12
337.738	218.12
337.966	217.12
338.194	214.12
338.422	205.12
338.65	214.12
338.878	209.12
339.106	207.12
339.334	223.12
339.562	207.12
339.79	214.12
340.018	216.12
340.246	210.12
340.474	192.12
340.702	208.12
340.93	209.12
341.158	214.12
341.386	183.12
341.614	168.12
341.842	203.12
342.07	202.12
342.298	199.12
342.526	201.12
342.754	208.12
342.981	213.12
343.209	208.12
343.437	246.12
343.665	248.12
343.893	238.12
344.12	245.12
344.348	233.12
344.576	215.12
344.804	223.12
345.031	199.12
345.259	198.12
345.487	188.12
345.714	191.12
345.942	179.12
346.17	214.12
346.397	197.12
346.625	192.12
346.853	202.12
347.08	198.12
347.308	199.12
347.535	204.12
347.763	202.12
347.99	200.12
348.218	212.12
348.445	206.12
348.673	202.12
348.9	212.12
349.128	205.12
349.355	208.12
349.583	187.12
349.81	216.12
350.037	197.12
350.265	187.12
350.492	179.12
350.72	186.12
350.947	201.12
351.174	184.12
351.402	201.12
351.629	197.12
351.856	190.12
352.083	201.12
352.311	202.12
352.538	197.12
352.765	185.12
352.992	221.12
353.22	205.12
353.447	189.12
353.674	207.12
353.901	209.12
354.128	214.12
354.355	195.12
354.583	191.12
354.81	197.12
355.037	199.12
355.264	181.12
355.491	200.12
355.718	193.12
355.945	217.12
356.172	201.12
356.399	202.12
356.626	195.12
356.853	195.12
357.08	220.12
357.307	211.12
357.534	207.12
357.761	193.12
357.988	200.12
358.215	196.12
358.441	197.12
358.668	190.12
358.895	179.12
359.122	201.12
359.349	187.12
359.576	192.12
359.802	207.12
360.029	200.12
360.256	182.12
360.483	200.12
360.709	209.12
360.936	218.12
361.163	197.12
361.39	210.12
361.616	206.12
361.843	181.12
362.07	203.12
362.296	201.12
362.523	192.12
362.749	180.12
362.976	190.12
363.203	190.12
363.429	187.12
363.656	203.12
363.882	185.12
364.109	198.12
364.335	193.12
364.562	217.12
364.788	200.12
365.015	196.12
365.241	192.12
365.468	197.12
365.694	206.12
365.92	198.12
366.147	178.12
366.373	201.12
366.599	199.12
366.826	201.12
367.052	212.12
367.278	193.12
367.505	203.12
367.731	213.12
367.957	199.12
368.184	198.12
368.41	204.12
368.636	214.12
368.862	197.12
369.089	217.12
369.315	196.12
369.541	187.12
369.767	200.12
369.993	206.12
370.219	195.12
370.445	199.12
370.672	207.12
370.898	214.12
371.124	228.12
371.35	224.12
371.576	229.12
371.802	219.12
372.028	196.12
372.254	199.12
372.48	216.12
372.706	219.12
372.932	218.12
373.158	212.12
373.384	221.12
373.61	204.12
373.835	208.12
374.061	216.12
374.287	227.12
374.513	213.12
374.739	221.12
374.965	225.12
375.191	224.12
375.416	230.12
375.642	223.12
375.868	231.12
376.094	225.12
376.319	217.12
376.545	217.12
376.771	220.12
376.997	221.12
377.222	214.12
377.448	227.12
377.674	204.12
377.899	215.12
378.125	216.12
378.35	215.12
378.576	209.12
378.802	223.12
379.027	219.12
379.253	229.12
379.478	210.12
379.704	218.12
379.929	212.12
380.155	216.12
380.38	205.12
380.606	207.12
380.831	206.12
381.057	216.12
381.282	206.12
381.507	215.12
381.733	229.12
381.958	208.12
382.184	220.12
382.409	229.12
382.634	229.12
382.86	240.12
383.085	201.12
383.31	227.12
383.535	238.12
383.761	247.12
383.986	254.12
384.211	258.12
384.436	259.12
384.662	248.12
384.887	244.12
385.112	239.12
385.337	265.12
385.562	255.12
385.787	252.12
386.013	268.12
386.238	252.12
386.463	268.12
386.688	298.12
386.913	236.12
387.138	257.12
387.363	258.12
387.588	259.12
387.813	261.12
388.038	261.12
388.263	270.12
388.488	271.12
388.713	257.12
388.938	250.12
389.163	257.12
389.387	260.12
389.612	261.12
389.837	253.12
390.062	254.12
390.287	267.12
390.512	259.12
390.736	270.12
390.961	270.12
391.186	263.12
391.411	264.12
391.636	283.12
391.86	291.12
392.085	298.12
392.31	286.12
392.534	270.12
392.759	286.12
392.984	278.12
393.208	273.12
393.433	279.12
393.658	277.12
393.882	286.12
394.107	300.12
394.331	288.12
394.556	284.12
394.78	289.12
395.005	305.12
395.229	270.12
395.454	297.12
395.678	304.12
395.903	318.12
396.127	305.12
396.352	286.12
396.576	285.12
396.801	294.12
397.025	301.12
397.249	290.12
397.474	335.12
397.698	321.12
397.922	306.12
398.147	319.12
398.371	305.12
398.595	338.12
398.82	354.12
399.044	376.12
399.268	418.12
399.492	491.12
399.717	523.12
399.941	478.12
400.165	435.12
400.389	388.12
400.613	369.12
400.837	359.12
401.062	360.12
401.286	366.12
401.51	372.12
401.734	351.12
401.958	354.12
402.182	384.12
402.406	366.12
402.63	375.12
402.854	371.12
403.078	396.12
403.302	400.12
403.526	420.12
403.75	418.12
403.974	416.12
404.198	435.12
404.422	420.12
404.645	432.12
404.869	419.12
405.093	414.12
405.317	387.12
405.541	415.12
405.765	412.12
405.988	395.12
406.212	398.12
406.436	406.12
406.66	430.12
406.883	429.12
407.107	454.12
407.331	479.12
407.555	469.12
407.778	459.12
408.002	462.12
408.226	463.12
408.449	432.12
408.673	425.12
408.896	432.12
409.12	421.12
409.344	449.12
409.567	438.12
409.791	452.12
410.014	433.12
410.238	443.12
410.461	428.12
410.685	414.12
410.908	424.12
411.132	435.12
411.355	388.12
411.578	414.12
411.802	413.12
412.025	406.12
412.249	409.12
412.472	417.12
412.695	391.12
412.919	384.12
413.142	392.12
413.365	409.12
413.589	405.12
413.812	405.12
414.035	418.12
414.258	399.12
414.482	395.12
414.705	418.12
414.928	423.12
415.151	395.12
415.374	392.12
415.597	418.12
415.821	395.12
416.044	379.12
416.267	407.12
416.49	392.12
416.713	395.12
416.936	401.12
417.159	400.12
417.382	403.12
417.605	403.12
417.828	414.12
418.051	393.12
418.274	413.12
418.497	411.12
418.72	435.12
418.943	444.12
419.166	438.12
419.389	447.12
419.611	421.12
419.834	431.12
420.057	406.12
420.28	425.12
420.503	436.12
420.726	436.12
420.948	409.12
421.171	407.12
421.394	426.12
421.617	441.12
421.839	411.12
422.062	427.12
422.285	397.12
422.507	425.12
422.73	420.12
422.953	428.12
423.175	412.12
423.398	470.12
423.621	450.12
423.843	446.12
424.066	443.12
424.288	451.12
424.511	424.12
424.733	448.12
424.956	431.12
425.178	420.12
425.401	413.12
425.623	419.12
425.846	400.12
426.068	387.12
426.291	380.12
426.513	377.12
426.735	388.12
426.958	407.12
427.18	373.12
427.402	378.12
427.625	404.12
427.847	364.12
428.069	374.12
428.292	384.12
428.514	362.12
428.736	375.12
428.958	370.12
429.181	369.12
429.403	358.12
429.625	374.12
429.847	354.12
430.069	351.12
430.292	365.12
430.514	375.12
430.736	360.12
430.958	362.12
431.18	374.12
431.402	370.12
431.624	352.12
431.846	353.12
432.068	331.12
432.29	329.12
432.512	350.12
432.734	358.12
432.956	365.12
433.178	373.12
433.4	363.12
433.622	396.12
433.844	372.12
434.066	359.12
434.287	364.12
434.509	364.12
434.731	398.12
434.953	390.12
435.175	389.12
435.397	396.12
435.618	387.12
435.84	363.12
436.062	358.12
436.284	349.12
436.505	383.12
436.727	373.12
436.949	366.12
437.17	357.12
437.392	358.12
437.614	366.12
437.835	352.12
438.057	341.12
438.278	341.12
438.5	362.12
438.721	358.12
438.943	358.12
439.165	377.12
439.386	371.12
439.608	359.12
439.829	375.12
440.05	380.12
440.272	368.12
440.493	390.12
440.715	384.12
440.936	403.12
441.158	397.12
441.379	420.12
441.6	427.12
441.822	431.12
442.043	442.12
442.264	415.12
442.486	430.12
442.707	395.12
442.928	414.12
443.149	395.12
443.371	427.12
443.592	422.12
443.813	429.12
444.034	432.12
444.255	449.12
444.476	460.12
444.698	480.12
444.919	500.12
445.14	661.12
445.361	520.12
445.582	427.12
445.803	393.12
446.024	404.12
446.245	427.12
446.466	392.12
446.687	410.12
446.908	403.12
447.129	398.12
447.35	379.12
447.571	388.12
447.792	362.12
448.013	362.12
448.234	363.12
448.455	353.12
448.675	370.12
448.896	378.12
449.117	357.12
449.338	365.12
449.559	361.12
449.779	355.12
450	368.12
450.221	366.12
450.442	346.12
450.662	365.12
450.883	369.12
451.104	353.12
451.324	350.12
451.545	341.12
451.766	354.12
451.986	333.12
452.207	355.12
452.428	342.12
452.648	359.12
452.869	358.12
453.089	329.12
453.31	308.12
453.53	312.12
453.751	317.12
453.971	307.12
454.192	316.12
454.412	320.12
454.633	321.12
454.853	313.12
455.073	307.12
455.294	330.12
455.514	352.12
455.734	328.12
455.955	315.12
456.175	326.12
456.395	300.12
456.616	318.12
456.836	322.12
457.056	325.12
457.276	302.12
457.497	302.12
457.717	308.12
457.937	308.12
458.157	322.12
458.377	324.12
458.598	331.12
458.818	304.12
459.038	310.12
459.258	325.12
459.478	346.12
459.698	337.12
459.918	365.12
460.138	384.12
460.358	390.12
460.578	405.12
460.798	405.12
461.018	412.12
461.238	405.12
461.458	422.12
461.678	411.12
461.898	401.12
462.118	422.12
462.338	421.12
462.558	431.12
462.777	463.12
462.997	500.12
463.217	518.12
463.437	504.12
463.657	471.12
463.876	459.12
464.096	448.12
464.316	458.12
464.536	476.12
464.755	456.12
464.975	425.12
465.195	425.12
465.414	390.12
465.634	381.12
465.854	363.12
466.073	354.12
466.293	366.12
466.512	371.12
466.732	367.12
466.951	346.12
467.171	344.12
467.391	369.12
467.61	356.12
467.829	359.12
468.049	369.12
468.268	360.12
468.488	348.12
468.707	348.12
468.927	352.12
469.146	333.12
469.365	364.12
469.585	359.12
469.804	368.12
470.023	384.12
470.243	398.12
470.462	389.12
470.681	382.12
470.901	381.12
471.12	368.12
471.339	360.12
471.558	365.12
471.777	344.12
471.997	361.12
472.216	357.12
472.435	352.12
472.654	319.12
472.873	313.12
473.092	317.12
473.311	339.12
473.53	351.12
473.749	342.12
473.968	355.12
474.187	328.12
474.406	327.12
474.625	347.12
474.844	356.12
475.063	348.12
475.282	338.12
475.501	344.12
475.72	365.12
475.939	353.12
476.158	353.12
476.377	357.12
476.596	334.12
476.814	339.12
477.033	342.12
477.252	367.12
477.471	366.12
477.69	368.12
477.908	377.12
478.127	411.12
478.346	421.12
478.564	411.12
478.783	422.12
479.002	436.12
479.22	432.12
479.439	410.12
479.658	411.12
479.876	408.12
480.095	375.12
480.313	414.12
480.532	436.12
480.751	410.12
480.969	374.12
481.188	389.12
481.406	357.12
481.624	357.12
481.843	344.12
482.061	377.12
482.28	380.12
482.498	345.12
482.717	351.12
482.935	366.12
483.153	380.12
483.372	408.12
483.59	403.12
483.808	391.12
484.027	391.12
484.245	376.12
484.463	382.12
484.681	438.12
484.9	405.12
485.118	403.12
485.336	389.12
485.554	369.12
485.772	378.12
485.99	371.12
486.209	384.12
486.427	388.12
486.645	390.12
486.863	382.12
487.081	401.12
487.299	387.12
487.517	417.12
487.735	432.12
487.953	430.12
488.171	441.12
488.389	429.12
488.607	402.12
488.825	384.12
489.043	388.12
489.261	384.12
489.479	413.12
489.696	412.12
489.914	398.12
490.132	431.12
490.35	446.12
490.568	411.12
490.786	433.12
491.003	421.12
491.221	462.12
491.439	453.12
491.657	450.12
491.874	480.12
492.092	496.12
492.31	510.12
492.527	499.12
492.745	477.12
492.963	492.12
493.18	483.12
493.398	484.12
493.615	502.12
493.833	477.12
494.05	437.12
494.268	462.12
494.485	444.12
494.703	458.12
494.92	467.12
495.138	466.12
495.355	470.12
495.573	485.12
495.79	448.12
496.008	455.12
496.225	477.12
496.442	463.12
496.66	472.12
496.877	490.12
497.094	491.12
497.312	470.12
497.529	476.12
497.746	481.12
497.963	469.12
498.181	474.12
498.398	493.12
498.615	521.12
498.832	573.12
499.049	605.12
499.267	646.12
499.484	697.12
499.701	749.12
499.918	841.12
500.135	963.12
500.352	1047.12
500.569	1079.12
500.786	1056.12
501.003	954.12
501.22	865.12
501.437	789.12
501.654	681.12
501.871	636.12
502.088	615.12
502.305	567.12
502.522	560.12
502.739	536.12
502.956	490.12
503.172	476.12
503.389	469.12
503.606	455.12
