Data from SampA_HRD10591_00045.txt Node
Date: Mon Jan 19 11:27:02 EST 2026
User: Yrep
Spectrometer: HR+D1059
Trigger mode: 0
Integration Time (sec): 3.443000E-1
Scans to average: 1
Electric dark correction enabled: true
Nonlinearity correction enabled: false
Boxcar width: 0
XAxis mode: Wavelengths
Number of Pixels in Spectrum: 2048
>>>>>Begin Spectral Data<<<<<
223.165	-19.44
223.4	-19.44
223.635	-19.44
223.869	-11.44
224.104	-25.44
224.338	-11.44
224.573	-21.44
224.808	-18.44
225.042	1.56
225.277	-8.44
225.511	6.56
225.746	13.56
225.98	5.56
226.215	-4.44
226.449	21.56
226.683	23.56
226.918	14.56
227.152	33.56
227.387	34.56
227.621	41.56
227.856	36.56
228.09	42.56
228.324	49.56
228.559	53.56
228.793	61.56
229.027	60.56
229.262	65.56
229.496	73.56
229.73	75.56
229.964	68.56
230.199	69.56
230.433	71.56
230.667	93.56
230.901	85.56
231.136	84.56
231.37	86.56
231.604	74.56
231.838	81.56
232.072	88.56
232.306	79.56
232.541	98.56
232.775	71.56
233.009	67.56
233.243	75.56
233.477	79.56
233.711	96.56
233.945	91.56
234.179	84.56
234.413	85.56
234.647	85.56
234.881	89.56
235.115	83.56
235.349	85.56
235.583	97.56
235.817	74.56
236.051	88.56
236.285	94.56
236.519	79.56
236.753	85.56
236.987	84.56
237.221	93.56
237.455	87.56
237.689	76.56
237.922	73.56
238.156	84.56
238.39	92.56
238.624	79.56
238.858	87.56
239.091	84.56
239.325	79.56
239.559	76.56
239.793	89.56
240.027	103.56
240.26	81.56
240.494	102.56
240.728	90.56
240.961	78.56
241.195	83.56
241.429	91.56
241.662	68.56
241.896	86.56
242.13	86.56
242.363	91.56
242.597	81.56
242.83	81.56
243.064	85.56
243.298	73.56
243.531	93.56
243.765	94.56
243.998	88.56
244.232	91.56
244.465	97.56
244.699	86.56
244.932	84.56
245.166	103.56
245.399	60.56
245.633	93.56
245.866	98.56
246.099	91.56
246.333	75.56
246.566	99.56
246.8	87.56
247.033	86.56
247.266	98.56
247.5	70.56
247.733	106.56
247.966	84.56
248.2	90.56
248.433	93.56
248.666	89.56
248.899	91.56
249.133	84.56
249.366	93.56
249.599	87.56
249.832	83.56
250.066	90.56
250.299	109.56
250.532	94.56
250.765	101.56
250.998	108.56
251.231	93.56
251.465	99.56
251.698	89.56
251.931	102.56
252.164	100.56
252.397	94.56
252.63	104.56
252.863	89.56
253.096	86.56
253.329	99.56
253.562	101.56
253.795	99.56
254.028	100.56
254.261	105.56
254.494	91.56
254.727	97.56
254.96	92.56
255.193	110.56
255.426	94.56
255.659	98.56
255.892	103.56
256.124	96.56
256.357	111.56
256.59	111.56
256.823	88.56
257.056	95.56
257.289	95.56
257.521	96.56
257.754	107.56
257.987	87.56
258.22	103.56
258.452	98.56
258.685	103.56
258.918	103.56
259.151	94.56
259.383	100.56
259.616	105.56
259.849	109.56
260.081	108.56
260.314	102.56
260.547	78.56
260.779	90.56
261.012	90.56
261.244	93.56
261.477	109.56
261.71	103.56
261.942	107.56
262.175	98.56
262.407	104.56
262.64	91.56
262.872	94.56
263.105	97.56
263.337	101.56
263.57	113.56
263.802	100.56
264.035	107.56
264.267	90.56
264.499	96.56
264.732	115.56
264.964	100.56
265.197	105.56
265.429	106.56
265.661	96.56
265.894	108.56
266.126	103.56
266.358	99.56
266.591	105.56
266.823	105.56
267.055	92.56
267.287	129.56
267.52	102.56
267.752	107.56
267.984	111.56
268.216	108.56
268.448	117.56
268.681	124.56
268.913	105.56
269.145	114.56
269.377	102.56
269.609	103.56
269.841	116.56
270.073	105.56
270.306	110.56
270.538	121.56
270.77	105.56
271.002	100.56
271.234	108.56
271.466	102.56
271.698	117.56
271.93	102.56
272.162	107.56
272.394	122.56
272.626	106.56
272.858	118.56
273.09	125.56
273.322	111.56
273.553	90.56
273.785	105.56
274.017	109.56
274.249	109.56
274.481	115.56
274.713	110.56
274.945	121.56
275.176	115.56
275.408	124.56
275.64	115.56
275.872	108.56
276.104	120.56
276.335	114.56
276.567	113.56
276.799	108.56
277.031	121.56
277.262	122.56
277.494	138.56
277.726	112.56
277.957	102.56
278.189	109.56
278.421	108.56
278.652	120.56
278.884	116.56
279.115	129.56
279.347	117.56
279.579	114.56
279.81	115.56
280.042	114.56
280.273	101.56
280.505	112.56
280.736	134.56
280.968	121.56
281.199	117.56
281.431	113.56
281.662	120.56
281.894	123.56
282.125	111.56
282.356	117.56
282.588	105.56
282.819	119.56
283.051	121.56
283.282	121.56
283.513	124.56
283.745	130.56
283.976	132.56
284.207	119.56
284.439	133.56
284.67	118.56
284.901	126.56
285.132	131.56
285.364	147.56
285.595	128.56
285.826	121.56
286.057	146.56
286.288	119.56
286.52	127.56
286.751	111.56
286.982	137.56
287.213	122.56
287.444	131.56
287.675	139.56
287.906	125.56
288.138	125.56
288.369	126.56
288.6	118.56
288.831	136.56
289.062	142.56
289.293	110.56
289.524	129.56
289.755	131.56
289.986	127.56
290.217	126.56
290.448	136.56
290.679	116.56
290.91	138.56
291.141	132.56
291.371	121.56
291.602	145.56
291.833	117.56
292.064	137.56
292.295	147.56
292.526	135.56
292.757	145.56
292.987	137.56
293.218	121.56
293.449	131.56
293.68	125.56
293.91	129.56
294.141	121.56
294.372	145.56
294.603	125.56
294.833	129.56
295.064	139.56
295.295	127.56
295.525	127.56
295.756	131.56
295.987	133.56
296.217	145.56
296.448	136.56
296.679	129.56
296.909	148.56
297.14	135.56
297.37	135.56
297.601	123.56
297.831	146.56
298.062	131.56
298.292	140.56
298.523	135.56
298.753	134.56
298.984	143.56
299.214	140.56
299.445	130.56
299.675	135.56
299.905	135.56
300.136	139.56
300.366	131.56
300.597	130.56
300.827	149.56
301.057	141.56
301.288	152.56
301.518	143.56
301.748	137.56
301.979	168.56
302.209	123.56
302.439	116.56
302.669	134.56
302.9	131.56
303.13	138.56
303.36	131.56
303.59	132.56
303.82	142.56
304.051	153.56
304.281	143.56
304.511	141.56
304.741	122.56
304.971	129.56
305.201	129.56
305.431	159.56
305.661	157.56
305.891	129.56
306.121	131.56
306.352	131.56
306.582	130.56
306.812	159.56
307.042	121.56
307.272	137.56
307.502	143.56
307.731	135.56
307.961	144.56
308.191	137.56
308.421	138.56
308.651	135.56
308.881	128.56
309.111	140.56
309.341	120.56
309.571	136.56
309.8	146.56
310.03	123.56
310.26	125.56
310.49	144.56
310.72	127.56
310.949	135.56
311.179	138.56
311.409	134.56
311.639	138.56
311.868	135.56
312.098	137.56
312.328	143.56
312.557	141.56
312.787	140.56
313.017	145.56
313.246	137.56
313.476	138.56
313.706	154.56
313.935	134.56
314.165	145.56
314.394	157.56
314.624	135.56
314.853	139.56
315.083	129.56
315.312	158.56
315.542	150.56
315.771	144.56
316.001	130.56
316.23	142.56
316.46	134.56
316.689	129.56
316.919	142.56
317.148	142.56
317.377	164.56
317.607	150.56
317.836	134.56
318.065	123.56
318.295	143.56
318.524	140.56
318.753	136.56
318.983	140.56
319.212	158.56
319.441	138.56
319.67	155.56
319.9	149.56
320.129	149.56
320.358	153.56
320.587	149.56
320.816	155.56
321.046	154.56
321.275	157.56
321.504	142.56
321.733	142.56
321.962	149.56
322.191	144.56
322.42	147.56
322.649	143.56
322.878	145.56
323.108	165.56
323.337	157.56
323.566	143.56
323.795	165.56
324.024	143.56
324.253	133.56
324.482	135.56
324.71	150.56
324.939	166.56
325.168	142.56
325.397	135.56
325.626	138.56
325.855	148.56
326.084	158.56
326.313	148.56
326.542	143.56
326.77	153.56
326.999	145.56
327.228	157.56
327.457	156.56
327.686	166.56
327.914	155.56
328.143	161.56
328.372	140.56
328.6	147.56
328.829	147.56
329.058	165.56
329.287	156.56
329.515	160.56
329.744	165.56
329.972	156.56
330.201	157.56
330.43	155.56
330.658	136.56
330.887	160.56
331.115	156.56
331.344	155.56
331.572	169.56
331.801	160.56
332.03	168.56
332.258	164.56
332.486	171.56
332.715	160.56
332.943	150.56
333.172	183.56
333.4	166.56
333.629	190.56
333.857	170.56
334.085	172.56
334.314	178.56
334.542	154.56
334.771	171.56
334.999	165.56
335.227	178.56
335.455	158.56
335.684	170.56
335.912	165.56
336.14	175.56
336.369	163.56
336.597	177.56
336.825	165.56
337.053	169.56
337.281	159.56
337.51	155.56
337.738	170.56
337.966	158.56
338.194	153.56
338.422	159.56
338.65	162.56
338.878	162.56
339.106	163.56
339.334	166.56
339.562	150.56
339.79	152.56
340.018	158.56
340.246	158.56
340.474	159.56
340.702	164.56
340.93	164.56
341.158	158.56
341.386	159.56
341.614	142.56
341.842	150.56
342.07	162.56
342.298	146.56
342.526	159.56
342.754	159.56
342.981	146.56
343.209	150.56
343.437	200.56
343.665	179.56
343.893	167.56
344.12	198.56
344.348	180.56
344.576	171.56
344.804	165.56
345.031	158.56
345.259	169.56
345.487	169.56
345.714	149.56
345.942	159.56
346.17	157.56
346.397	145.56
346.625	149.56
346.853	157.56
347.08	150.56
347.308	153.56
347.535	147.56
347.763	153.56
347.99	168.56
348.218	160.56
348.445	159.56
348.673	154.56
348.9	149.56
349.128	171.56
349.355	157.56
349.583	161.56
349.81	158.56
350.037	153.56
350.265	157.56
350.492	153.56
350.72	158.56
350.947	137.56
351.174	147.56
351.402	150.56
351.629	163.56
351.856	145.56
352.083	145.56
352.311	158.56
352.538	148.56
352.765	138.56
352.992	154.56
353.22	152.56
353.447	164.56
353.674	153.56
353.901	149.56
354.128	166.56
354.355	149.56
354.583	147.56
354.81	147.56
355.037	166.56
355.264	167.56
355.491	158.56
355.718	155.56
355.945	165.56
356.172	145.56
356.399	167.56
356.626	149.56
356.853	155.56
357.08	137.56
357.307	157.56
357.534	130.56
357.761	160.56
357.988	152.56
358.215	139.56
358.441	151.56
358.668	151.56
358.895	135.56
359.122	157.56
359.349	139.56
359.576	145.56
359.802	155.56
360.029	150.56
360.256	163.56
360.483	155.56
360.709	164.56
360.936	166.56
361.163	162.56
361.39	156.56
361.616	142.56
361.843	158.56
362.07	167.56
362.296	154.56
362.523	153.56
362.749	142.56
362.976	156.56
363.203	162.56
363.429	148.56
363.656	146.56
363.882	158.56
364.109	147.56
364.335	158.56
364.562	143.56
364.788	165.56
365.015	156.56
365.241	159.56
365.468	164.56
365.694	159.56
365.92	148.56
366.147	159.56
366.373	146.56
366.599	151.56
366.826	157.56
367.052	177.56
367.278	147.56
367.505	163.56
367.731	172.56
367.957	169.56
368.184	153.56
368.41	154.56
368.636	151.56
368.862	154.56
369.089	140.56
369.315	159.56
369.541	154.56
369.767	169.56
369.993	167.56
370.219	144.56
370.445	160.56
370.672	167.56
370.898	138.56
371.124	149.56
371.35	173.56
371.576	147.56
371.802	172.56
372.028	146.56
372.254	154.56
372.48	154.56
372.706	168.56
372.932	152.56
373.158	166.56
373.384	172.56
373.61	158.56
373.835	159.56
374.061	144.56
374.287	175.56
374.513	165.56
374.739	159.56
374.965	163.56
375.191	169.56
375.416	165.56
375.642	156.56
375.868	182.56
376.094	169.56
376.319	143.56
376.545	159.56
376.771	157.56
376.997	157.56
377.222	148.56
377.448	171.56
377.674	159.56
377.899	165.56
378.125	147.56
378.35	138.56
378.576	151.56
378.802	163.56
379.027	141.56
379.253	171.56
379.478	150.56
379.704	154.56
379.929	157.56
380.155	164.56
380.38	157.56
380.606	154.56
380.831	154.56
381.057	170.56
381.282	156.56
381.507	167.56
381.733	164.56
381.958	166.56
382.184	152.56
382.409	161.56
382.634	174.56
382.86	170.56
383.085	181.56
383.31	175.56
383.535	181.56
383.761	183.56
383.986	183.56
384.211	172.56
384.436	170.56
384.662	186.56
384.887	185.56
385.112	191.56
385.337	183.56
385.562	169.56
385.787	175.56
386.013	180.56
386.238	193.56
386.463	193.56
386.688	219.56
386.913	172.56
387.138	183.56
387.363	182.56
387.588	189.56
387.813	179.56
388.038	175.56
388.263	183.56
388.488	203.56
388.713	185.56
388.938	184.56
389.163	188.56
389.387	199.56
389.612	187.56
389.837	184.56
390.062	198.56
390.287	200.56
390.512	190.56
390.736	195.56
390.961	194.56
391.186	196.56
391.411	187.56
391.636	185.56
391.86	194.56
392.085	208.56
392.31	215.56
392.534	231.56
392.759	202.56
392.984	203.56
393.208	181.56
393.433	193.56
393.658	224.56
393.882	195.56
394.107	213.56
394.331	206.56
394.556	216.56
394.78	211.56
395.005	217.56
395.229	206.56
395.454	217.56
395.678	229.56
395.903	214.56
396.127	219.56
396.352	200.56
396.576	211.56
396.801	200.56
397.025	213.56
397.249	221.56
397.474	225.56
397.698	212.56
397.922	217.56
398.147	215.56
398.371	207.56
398.595	236.56
398.82	244.56
399.044	263.56
399.268	295.56
399.492	309.56
399.717	334.56
399.941	310.56
400.165	297.56
400.389	253.56
400.613	253.56
400.837	254.56
401.062	265.56
401.286	254.56
401.51	243.56
401.734	264.56
401.958	259.56
402.182	254.56
402.406	263.56
402.63	267.56
402.854	276.56
403.078	296.56
403.302	279.56
403.526	271.56
403.75	288.56
403.974	304.56
404.198	286.56
404.422	297.56
404.645	284.56
404.869	320.56
405.093	296.56
405.317	290.56
405.541	265.56
405.765	273.56
405.988	287.56
406.212	279.56
406.436	288.56
406.66	307.56
406.883	289.56
407.107	310.56
407.331	329.56
407.555	323.56
407.778	310.56
408.002	318.56
408.226	316.56
408.449	311.56
408.673	315.56
408.896	302.56
409.12	291.56
409.344	310.56
409.567	310.56
409.791	299.56
410.014	312.56
410.238	298.56
410.461	316.56
410.685	306.56
410.908	287.56
411.132	317.56
411.355	294.56
411.578	291.56
411.802	270.56
412.025	294.56
412.249	285.56
412.472	275.56
412.695	273.56
412.919	281.56
413.142	295.56
413.365	290.56
413.589	299.56
413.812	299.56
414.035	295.56
414.258	294.56
414.482	285.56
414.705	281.56
414.928	298.56
415.151	278.56
415.374	285.56
415.597	294.56
415.821	270.56
416.044	292.56
416.267	285.56
416.49	267.56
416.713	281.56
416.936	295.56
417.159	305.56
417.382	289.56
417.605	274.56
417.828	280.56
418.051	303.56
418.274	282.56
418.497	294.56
418.72	304.56
418.943	305.56
419.166	309.56
419.389	336.56
419.611	309.56
419.834	313.56
420.057	303.56
420.28	286.56
420.503	291.56
420.726	288.56
420.948	298.56
421.171	315.56
421.394	302.56
421.617	295.56
421.839	310.56
422.062	298.56
422.285	297.56
422.507	302.56
422.73	288.56
422.953	280.56
423.175	285.56
423.398	289.56
423.621	310.56
423.843	313.56
424.066	318.56
424.288	327.56
424.511	300.56
424.733	303.56
424.956	301.56
425.178	287.56
425.401	302.56
425.623	286.56
425.846	295.56
426.068	287.56
426.291	278.56
426.513	270.56
426.735	299.56
426.958	281.56
427.18	282.56
427.402	271.56
427.625	273.56
427.847	271.56
428.069	261.56
428.292	283.56
428.514	294.56
428.736	269.56
428.958	265.56
429.181	264.56
429.403	257.56
429.625	272.56
429.847	282.56
430.069	266.56
430.292	280.56
430.514	262.56
430.736	275.56
430.958	264.56
431.18	275.56
431.402	267.56
431.624	244.56
431.846	262.56
432.068	246.56
432.29	249.56
432.512	264.56
432.734	256.56
432.956	291.56
433.178	303.56
433.4	292.56
433.622	283.56
433.844	268.56
434.066	259.56
434.287	253.56
434.509	250.56
434.731	266.56
434.953	273.56
435.175	292.56
435.397	282.56
435.618	272.56
435.84	240.56
436.062	251.56
436.284	263.56
436.505	260.56
436.727	270.56
436.949	278.56
437.17	261.56
437.392	265.56
437.614	264.56
437.835	249.56
438.057	244.56
438.278	241.56
438.5	252.56
438.721	278.56
438.943	281.56
439.165	281.56
439.386	298.56
439.608	279.56
439.829	291.56
440.05	291.56
440.272	284.56
440.493	285.56
440.715	277.56
440.936	310.56
441.158	301.56
441.379	305.56
441.6	309.56
441.822	327.56
442.043	300.56
442.264	298.56
442.486	270.56
442.707	303.56
442.928	294.56
443.149	311.56
443.371	299.56
443.592	281.56
443.813	293.56
444.034	308.56
444.255	327.56
444.476	326.56
444.698	337.56
444.919	337.56
445.14	551.56
445.361	429.56
445.582	313.56
445.803	282.56
446.024	299.56
446.245	302.56
446.466	297.56
446.687	301.56
446.908	297.56
447.129	287.56
447.35	280.56
447.571	281.56
447.792	265.56
448.013	272.56
448.234	275.56
448.455	270.56
448.675	263.56
448.896	249.56
449.117	273.56
449.338	262.56
449.559	273.56
449.779	271.56
450	253.56
450.221	258.56
450.442	277.56
450.662	265.56
450.883	251.56
451.104	259.56
451.324	281.56
451.545	282.56
451.766	258.56
451.986	258.56
452.207	273.56
452.428	247.56
452.648	241.56
452.869	258.56
453.089	239.56
453.31	238.56
453.53	230.56
453.751	224.56
453.971	229.56
454.192	223.56
454.412	232.56
454.633	245.56
454.853	236.56
455.073	259.56
455.294	251.56
455.514	265.56
455.734	249.56
455.955	257.56
456.175	227.56
456.395	219.56
456.616	224.56
456.836	228.56
457.056	240.56
457.276	223.56
457.497	206.56
457.717	221.56
457.937	219.56
458.157	238.56
458.377	228.56
458.598	210.56
458.818	234.56
459.038	235.56
459.258	229.56
459.478	230.56
459.698	244.56
459.918	262.56
460.138	269.56
460.358	288.56
460.578	298.56
460.798	267.56
461.018	278.56
461.238	313.56
461.458	276.56
461.678	266.56
461.898	303.56
462.118	297.56
462.338	303.56
462.558	322.56
462.777	318.56
462.997	325.56
463.217	357.56
463.437	349.56
463.657	306.56
463.876	307.56
464.096	290.56
464.316	303.56
464.536	331.56
464.755	326.56
464.975	312.56
465.195	289.56
465.414	283.56
465.634	246.56
465.854	263.56
466.073	273.56
466.293	293.56
466.512	275.56
466.732	266.56
466.951	269.56
467.171	263.56
467.391	270.56
467.61	258.56
467.829	270.56
468.049	284.56
468.268	252.56
468.488	265.56
468.707	253.56
468.927	264.56
469.146	270.56
469.365	267.56
469.585	281.56
469.804	283.56
470.023	269.56
470.243	271.56
470.462	291.56
470.681	293.56
470.901	289.56
471.12	293.56
471.339	283.56
471.558	250.56
471.777	281.56
471.997	265.56
472.216	257.56
472.435	232.56
472.654	242.56
472.873	246.56
473.092	258.56
473.311	253.56
473.53	256.56
473.749	251.56
473.968	267.56
474.187	251.56
474.406	229.56
474.625	253.56
474.844	270.56
475.063	250.56
475.282	246.56
475.501	256.56
475.72	248.56
475.939	245.56
476.158	267.56
476.377	261.56
476.596	263.56
476.814	270.56
477.033	241.56
477.252	246.56
477.471	251.56
477.69	261.56
477.908	282.56
478.127	297.56
478.346	283.56
478.564	314.56
478.783	284.56
479.002	305.56
479.22	287.56
479.439	298.56
479.658	307.56
479.876	275.56
480.095	276.56
480.313	290.56
480.532	310.56
480.751	286.56
480.969	271.56
481.188	246.56
481.406	243.56
481.624	228.56
481.843	232.56
482.061	250.56
482.28	234.56
482.498	234.56
482.717	250.56
482.935	275.56
483.153	285.56
483.372	293.56
483.59	279.56
483.808	275.56
484.027	267.56
484.245	278.56
484.463	278.56
484.681	300.56
484.9	273.56
485.118	279.56
485.336	291.56
485.554	268.56
485.772	238.56
485.99	257.56
486.209	265.56
486.427	267.56
486.645	275.56
486.863	295.56
487.081	278.56
487.299	277.56
487.517	290.56
487.735	323.56
487.953	347.56
488.171	351.56
488.389	326.56
488.607	264.56
488.825	282.56
489.043	254.56
489.261	265.56
489.479	293.56
489.696	294.56
489.914	296.56
490.132	291.56
490.35	304.56
490.568	315.56
490.786	347.56
491.003	335.56
491.221	335.56
491.439	334.56
491.657	341.56
491.874	366.56
492.092	396.56
492.31	381.56
492.527	378.56
492.745	343.56
492.963	346.56
493.18	356.56
493.398	361.56
493.615	371.56
493.833	347.56
494.05	333.56
494.268	336.56
494.485	336.56
494.703	343.56
494.92	316.56
495.138	344.56
495.355	335.56
495.573	332.56
495.79	326.56
496.008	316.56
496.225	347.56
496.442	326.56
496.66	343.56
496.877	340.56
497.094	350.56
497.312	337.56
497.529	336.56
497.746	327.56
497.963	337.56
498.181	339.56
498.398	350.56
498.615	353.56
498.832	390.56
499.049	417.56
499.267	422.56
499.484	470.56
499.701	527.56
499.918	581.56
500.135	643.56
500.352	702.56
500.569	713.56
500.786	728.56
501.003	663.56
501.22	569.56
501.437	517.56
501.654	472.56
501.871	423.56
502.088	399.56
502.305	400.56
502.522	388.56
502.739	362.56
502.956	344.56
503.172	331.56
503.389	314.56
503.606	307.56
503.823	308.56
504.04	309.56
504.256	327.56
504.473	310.56
