Data from SampA_HRD10591_00038.txt Node
Date: Mon Jan 19 11:26:59 EST 2026
User: Yrep
Spectrometer: HR+D1059
Trigger mode: 0
Integration Time (sec): 3.443000E-1
Scans to average: 1
Electric dark correction enabled: true
Nonlinearity correction enabled: false
Boxcar width: 0
XAxis mode: Wavelengths
Number of Pixels in Spectrum: 2048
>>>>>Begin Spectral Data<<<<<
223.165	-17.69
223.4	-17.69
223.635	-17.69
223.869	-40.69
224.104	-23.69
224.338	-7.69
224.573	-20.69
224.808	-10.69
225.042	1.31
225.277	1.31
225.511	-5.69
225.746	-0.69
225.98	15.31
226.215	9.31
226.449	21.31
226.683	17.31
226.918	24.31
227.152	37.31
227.387	34.31
227.621	43.31
227.856	40.31
228.09	55.31
228.324	59.31
228.559	53.31
228.793	60.31
229.027	76.31
229.262	70.31
229.496	71.31
229.73	56.31
229.964	75.31
230.199	83.31
230.433	79.31
230.667	82.31
230.901	87.31
231.136	71.31
231.37	87.31
231.604	89.31
231.838	82.31
232.072	81.31
232.306	74.31
232.541	93.31
232.775	77.31
233.009	76.31
233.243	83.31
233.477	92.31
233.711	78.31
233.945	100.31
234.179	89.31
234.413	72.31
234.647	99.31
234.881	88.31
235.115	82.31
235.349	83.31
235.583	70.31
235.817	77.31
236.051	72.31
236.285	74.31
236.519	84.31
236.753	79.31
236.987	81.31
237.221	86.31
237.455	82.31
237.689	77.31
237.922	82.31
238.156	94.31
238.39	80.31
238.624	81.31
238.858	84.31
239.091	80.31
239.325	74.31
239.559	93.31
239.793	91.31
240.027	108.31
240.26	91.31
240.494	83.31
240.728	88.31
240.961	81.31
241.195	87.31
241.429	81.31
241.662	85.31
241.896	77.31
242.13	99.31
242.363	75.31
242.597	93.31
242.83	70.31
243.064	88.31
243.298	85.31
243.531	88.31
243.765	86.31
243.998	88.31
244.232	94.31
244.465	80.31
244.699	88.31
244.932	83.31
245.166	96.31
245.399	86.31
245.633	85.31
245.866	81.31
246.099	84.31
246.333	101.31
246.566	85.31
246.8	100.31
247.033	71.31
247.266	87.31
247.5	87.31
247.733	81.31
247.966	102.31
248.2	88.31
248.433	100.31
248.666	87.31
248.899	103.31
249.133	68.31
249.366	103.31
249.599	72.31
249.832	83.31
250.066	113.31
250.299	96.31
250.532	86.31
250.765	93.31
250.998	104.31
251.231	94.31
251.465	92.31
251.698	76.31
251.931	82.31
252.164	83.31
252.397	104.31
252.63	96.31
252.863	91.31
253.096	95.31
253.329	92.31
253.562	101.31
253.795	93.31
254.028	88.31
254.261	88.31
254.494	95.31
254.727	110.31
254.96	94.31
255.193	95.31
255.426	85.31
255.659	107.31
255.892	93.31
256.124	90.31
256.357	94.31
256.59	104.31
256.823	97.31
257.056	100.31
257.289	101.31
257.521	92.31
257.754	101.31
257.987	76.31
258.22	97.31
258.452	100.31
258.685	77.31
258.918	103.31
259.151	100.31
259.383	104.31
259.616	84.31
259.849	87.31
260.081	104.31
260.314	93.31
260.547	83.31
260.779	101.31
261.012	103.31
261.244	97.31
261.477	131.31
261.71	89.31
261.942	75.31
262.175	106.31
262.407	99.31
262.64	88.31
262.872	95.31
263.105	99.31
263.337	111.31
263.57	104.31
263.802	100.31
264.035	99.31
264.267	90.31
264.499	104.31
264.732	104.31
264.964	102.31
265.197	108.31
265.429	80.31
265.661	108.31
265.894	106.31
266.126	101.31
266.358	109.31
266.591	100.31
266.823	101.31
267.055	89.31
267.287	115.31
267.52	87.31
267.752	96.31
267.984	100.31
268.216	88.31
268.448	109.31
268.681	101.31
268.913	92.31
269.145	101.31
269.377	104.31
269.609	100.31
269.841	111.31
270.073	116.31
270.306	92.31
270.538	116.31
270.77	108.31
271.002	90.31
271.234	103.31
271.466	121.31
271.698	100.31
271.93	108.31
272.162	99.31
272.394	110.31
272.626	104.31
272.858	99.31
273.09	118.31
273.322	101.31
273.553	103.31
273.785	93.31
274.017	105.31
274.249	104.31
274.481	108.31
274.713	100.31
274.945	95.31
275.176	111.31
275.408	124.31
275.64	105.31
275.872	102.31
276.104	112.31
276.335	109.31
276.567	110.31
276.799	109.31
277.031	107.31
277.262	103.31
277.494	113.31
277.726	112.31
277.957	116.31
278.189	111.31
278.421	104.31
278.652	115.31
278.884	106.31
279.115	119.31
279.347	116.31
279.579	94.31
279.81	90.31
280.042	101.31
280.273	103.31
280.505	104.31
280.736	110.31
280.968	112.31
281.199	121.31
281.431	96.31
281.662	114.31
281.894	110.31
282.125	113.31
282.356	99.31
282.588	118.31
282.819	96.31
283.051	110.31
283.282	102.31
283.513	106.31
283.745	123.31
283.976	120.31
284.207	110.31
284.439	115.31
284.67	115.31
284.901	105.31
285.132	125.31
285.364	105.31
285.595	114.31
285.826	108.31
286.057	107.31
286.288	99.31
286.52	97.31
286.751	108.31
286.982	118.31
287.213	109.31
287.444	112.31
287.675	126.31
287.906	119.31
288.138	119.31
288.369	128.31
288.6	116.31
288.831	111.31
289.062	113.31
289.293	114.31
289.524	119.31
289.755	109.31
289.986	132.31
290.217	124.31
290.448	119.31
290.679	112.31
290.91	114.31
291.141	129.31
291.371	128.31
291.602	105.31
291.833	125.31
292.064	135.31
292.295	124.31
292.526	126.31
292.757	116.31
292.987	111.31
293.218	123.31
293.449	122.31
293.68	123.31
293.91	126.31
294.141	117.31
294.372	114.31
294.603	114.31
294.833	107.31
295.064	118.31
295.295	114.31
295.525	142.31
295.756	139.31
295.987	123.31
296.217	113.31
296.448	113.31
296.679	103.31
296.909	113.31
297.14	130.31
297.37	115.31
297.601	132.31
297.831	125.31
298.062	119.31
298.292	140.31
298.523	144.31
298.753	132.31
298.984	116.31
299.214	112.31
299.445	121.31
299.675	130.31
299.905	131.31
300.136	115.31
300.366	135.31
300.597	124.31
300.827	131.31
301.057	132.31
301.288	132.31
301.518	127.31
301.748	131.31
301.979	163.31
302.209	127.31
302.439	132.31
302.669	118.31
302.9	131.31
303.13	137.31
303.36	118.31
303.59	119.31
303.82	127.31
304.051	136.31
304.281	140.31
304.511	125.31
304.741	112.31
304.971	114.31
305.201	129.31
305.431	132.31
305.661	116.31
305.891	133.31
306.121	119.31
306.352	133.31
306.582	122.31
306.812	128.31
307.042	121.31
307.272	126.31
307.502	119.31
307.731	121.31
307.961	131.31
308.191	123.31
308.421	140.31
308.651	131.31
308.881	117.31
309.111	122.31
309.341	110.31
309.571	113.31
309.8	127.31
310.03	133.31
310.26	122.31
310.49	116.31
310.72	127.31
310.949	128.31
311.179	115.31
311.409	128.31
311.639	120.31
311.868	124.31
312.098	129.31
312.328	129.31
312.557	149.31
312.787	125.31
313.017	128.31
313.246	133.31
313.476	124.31
313.706	115.31
313.935	133.31
314.165	151.31
314.394	118.31
314.624	120.31
314.853	116.31
315.083	128.31
315.312	120.31
315.542	131.31
315.771	121.31
316.001	120.31
316.23	132.31
316.46	122.31
316.689	127.31
316.919	129.31
317.148	129.31
317.377	126.31
317.607	135.31
317.836	115.31
318.065	134.31
318.295	129.31
318.524	135.31
318.753	126.31
318.983	131.31
319.212	119.31
319.441	128.31
319.67	133.31
319.9	136.31
320.129	131.31
320.358	130.31
320.587	135.31
320.816	121.31
321.046	124.31
321.275	128.31
321.504	142.31
321.733	150.31
321.962	144.31
322.191	123.31
322.42	133.31
322.649	125.31
322.878	145.31
323.108	135.31
323.337	146.31
323.566	148.31
323.795	153.31
324.024	155.31
324.253	122.31
324.482	129.31
324.71	133.31
324.939	139.31
325.168	131.31
325.397	137.31
325.626	139.31
325.855	115.31
326.084	141.31
326.313	141.31
326.542	136.31
326.77	162.31
326.999	126.31
327.228	139.31
327.457	118.31
327.686	131.31
327.914	142.31
328.143	147.31
328.372	132.31
328.6	137.31
328.829	134.31
329.058	130.31
329.287	139.31
329.515	132.31
329.744	156.31
329.972	144.31
330.201	137.31
330.43	144.31
330.658	131.31
330.887	151.31
331.115	139.31
331.344	144.31
331.572	162.31
331.801	134.31
332.03	144.31
332.258	157.31
332.486	128.31
332.715	139.31
332.943	143.31
333.172	162.31
333.4	152.31
333.629	160.31
333.857	157.31
334.085	156.31
334.314	151.31
334.542	156.31
334.771	156.31
334.999	160.31
335.227	163.31
335.455	147.31
335.684	171.31
335.912	154.31
336.14	155.31
336.369	155.31
336.597	149.31
336.825	141.31
337.053	140.31
337.281	142.31
337.51	159.31
337.738	158.31
337.966	149.31
338.194	147.31
338.422	134.31
338.65	153.31
338.878	154.31
339.106	116.31
339.334	154.31
339.562	143.31
339.79	123.31
340.018	143.31
340.246	128.31
340.474	145.31
340.702	153.31
340.93	131.31
341.158	139.31
341.386	135.31
341.614	131.31
341.842	136.31
342.07	122.31
342.298	138.31
342.526	128.31
342.754	132.31
342.981	139.31
343.209	120.31
343.437	189.31
343.665	141.31
343.893	155.31
344.12	169.31
344.348	164.31
344.576	148.31
344.804	134.31
345.031	148.31
345.259	142.31
345.487	148.31
345.714	141.31
345.942	147.31
346.17	125.31
346.397	151.31
346.625	135.31
346.853	144.31
347.08	132.31
347.308	152.31
347.535	133.31
347.763	133.31
347.99	126.31
348.218	149.31
348.445	117.31
348.673	149.31
348.9	135.31
349.128	156.31
349.355	111.31
349.583	145.31
349.81	137.31
350.037	139.31
350.265	126.31
350.492	141.31
350.72	128.31
350.947	132.31
351.174	131.31
351.402	149.31
351.629	142.31
351.856	147.31
352.083	139.31
352.311	147.31
352.538	123.31
352.765	128.31
352.992	151.31
353.22	138.31
353.447	140.31
353.674	133.31
353.901	144.31
354.128	148.31
354.355	133.31
354.583	124.31
354.81	137.31
355.037	133.31
355.264	136.31
355.491	136.31
355.718	126.31
355.945	133.31
356.172	138.31
356.399	126.31
356.626	137.31
356.853	145.31
357.08	150.31
357.307	151.31
357.534	123.31
357.761	129.31
357.988	142.31
358.215	149.31
358.441	137.31
358.668	122.31
358.895	136.31
359.122	145.31
359.349	125.31
359.576	132.31
359.802	123.31
360.029	147.31
360.256	132.31
360.483	128.31
360.709	131.31
360.936	145.31
361.163	142.31
361.39	146.31
361.616	134.31
361.843	136.31
362.07	131.31
362.296	137.31
362.523	123.31
362.749	139.31
362.976	131.31
363.203	138.31
363.429	140.31
363.656	151.31
363.882	131.31
364.109	157.31
364.335	129.31
364.562	141.31
364.788	119.31
365.015	135.31
365.241	140.31
365.468	137.31
365.694	149.31
365.92	137.31
366.147	136.31
366.373	128.31
366.599	141.31
366.826	139.31
367.052	140.31
367.278	128.31
367.505	122.31
367.731	134.31
367.957	156.31
368.184	137.31
368.41	145.31
368.636	136.31
368.862	154.31
369.089	139.31
369.315	133.31
369.541	155.31
369.767	162.31
369.993	148.31
370.219	138.31
370.445	135.31
370.672	136.31
370.898	141.31
371.124	131.31
371.35	124.31
371.576	141.31
371.802	143.31
372.028	149.31
372.254	130.31
372.48	157.31
372.706	150.31
372.932	137.31
373.158	147.31
373.384	158.31
373.61	149.31
373.835	152.31
374.061	134.31
374.287	167.31
374.513	145.31
374.739	164.31
374.965	151.31
375.191	167.31
375.416	156.31
375.642	157.31
375.868	168.31
376.094	148.31
376.319	138.31
376.545	156.31
376.771	147.31
376.997	136.31
377.222	139.31
377.448	145.31
377.674	160.31
377.899	148.31
378.125	144.31
378.35	157.31
378.576	145.31
378.802	136.31
379.027	125.31
379.253	149.31
379.478	149.31
379.704	135.31
379.929	142.31
380.155	133.31
380.38	136.31
380.606	154.31
380.831	147.31
381.057	177.31
381.282	166.31
381.507	159.31
381.733	150.31
381.958	145.31
382.184	143.31
382.409	161.31
382.634	161.31
382.86	141.31
383.085	160.31
383.31	160.31
383.535	168.31
383.761	147.31
383.986	169.31
384.211	161.31
384.436	155.31
384.662	164.31
384.887	176.31
385.112	175.31
385.337	165.31
385.562	173.31
385.787	168.31
386.013	169.31
386.238	155.31
386.463	163.31
386.688	200.31
386.913	160.31
387.138	165.31
387.363	169.31
387.588	172.31
387.813	178.31
388.038	176.31
388.263	182.31
388.488	162.31
388.713	158.31
388.938	150.31
389.163	145.31
389.387	148.31
389.612	161.31
389.837	164.31
390.062	167.31
390.287	159.31
390.512	166.31
390.736	163.31
390.961	155.31
391.186	175.31
391.411	187.31
391.636	188.31
391.86	184.31
392.085	174.31
392.31	175.31
392.534	166.31
392.759	198.31
392.984	176.31
393.208	187.31
393.433	179.31
393.658	172.31
393.882	184.31
394.107	177.31
394.331	187.31
394.556	194.31
394.78	184.31
395.005	186.31
395.229	184.31
395.454	199.31
395.678	208.31
395.903	187.31
396.127	194.31
396.352	202.31
396.576	189.31
396.801	196.31
397.025	181.31
397.249	182.31
397.474	204.31
397.698	205.31
397.922	192.31
398.147	194.31
398.371	218.31
398.595	204.31
398.82	218.31
399.044	232.31
399.268	262.31
399.492	279.31
399.717	284.31
399.941	266.31
400.165	262.31
400.389	240.31
400.613	226.31
400.837	242.31
401.062	214.31
401.286	203.31
401.51	215.31
401.734	222.31
401.958	233.31
402.182	258.31
402.406	219.31
402.63	254.31
402.854	251.31
403.078	234.31
403.302	239.31
403.526	248.31
403.75	267.31
403.974	267.31
404.198	247.31
404.422	267.31
404.645	251.31
404.869	253.31
405.093	251.31
405.317	243.31
405.541	252.31
405.765	247.31
405.988	253.31
406.212	252.31
406.436	250.31
406.66	275.31
406.883	280.31
407.107	272.31
407.331	296.31
407.555	293.31
407.778	306.31
408.002	268.31
408.226	279.31
408.449	265.31
408.673	275.31
408.896	260.31
409.12	248.31
409.344	261.31
409.567	261.31
409.791	259.31
410.014	268.31
410.238	269.31
410.461	279.31
410.685	260.31
410.908	266.31
411.132	247.31
411.355	270.31
411.578	275.31
411.802	263.31
412.025	268.31
412.249	257.31
412.472	249.31
412.695	234.31
412.919	253.31
413.142	273.31
413.365	264.31
413.589	259.31
413.812	243.31
414.035	275.31
414.258	246.31
414.482	261.31
414.705	253.31
414.928	277.31
415.151	273.31
415.374	264.31
415.597	266.31
415.821	265.31
416.044	258.31
416.267	269.31
416.49	242.31
416.713	263.31
416.936	263.31
417.159	259.31
417.382	252.31
417.605	261.31
417.828	281.31
418.051	264.31
418.274	285.31
418.497	263.31
418.72	281.31
418.943	287.31
419.166	276.31
419.389	296.31
419.611	280.31
419.834	267.31
420.057	269.31
420.28	262.31
420.503	268.31
420.726	262.31
420.948	249.31
421.171	265.31
421.394	259.31
421.617	270.31
421.839	261.31
422.062	267.31
422.285	269.31
422.507	269.31
422.73	281.31
422.953	267.31
423.175	289.31
423.398	272.31
423.621	295.31
423.843	286.31
424.066	275.31
424.288	267.31
424.511	266.31
424.733	287.31
424.956	275.31
425.178	269.31
425.401	275.31
425.623	279.31
425.846	249.31
426.068	255.31
426.291	265.31
426.513	259.31
426.735	247.31
426.958	243.31
427.18	237.31
427.402	250.31
427.625	265.31
427.847	255.31
428.069	235.31
428.292	250.31
428.514	262.31
428.736	252.31
428.958	259.31
429.181	240.31
429.403	249.31
429.625	246.31
429.847	245.31
430.069	260.31
430.292	269.31
430.514	244.31
430.736	247.31
430.958	225.31
431.18	246.31
431.402	256.31
431.624	235.31
431.846	227.31
432.068	208.31
432.29	219.31
432.512	243.31
432.734	253.31
432.956	251.31
433.178	239.31
433.4	246.31
433.622	267.31
433.844	246.31
434.066	240.31
434.287	227.31
434.509	216.31
434.731	258.31
434.953	255.31
435.175	255.31
435.397	259.31
435.618	231.31
435.84	231.31
436.062	245.31
436.284	231.31
436.505	245.31
436.727	225.31
436.949	247.31
437.17	260.31
437.392	247.31
437.614	227.31
437.835	216.31
438.057	204.31
438.278	234.31
438.5	246.31
438.721	243.31
438.943	243.31
439.165	256.31
439.386	260.31
439.608	263.31
439.829	257.31
440.05	256.31
440.272	267.31
440.493	273.31
440.715	261.31
440.936	275.31
441.158	276.31
441.379	274.31
441.6	288.31
441.822	276.31
442.043	289.31
442.264	268.31
442.486	272.31
442.707	275.31
442.928	267.31
443.149	261.31
443.371	253.31
443.592	274.31
443.813	275.31
444.034	267.31
444.255	296.31
444.476	290.31
444.698	313.31
444.919	313.31
445.14	540.31
445.361	385.31
445.582	296.31
445.803	287.31
446.024	285.31
446.245	282.31
446.466	276.31
446.687	266.31
446.908	281.31
447.129	295.31
447.35	264.31
447.571	273.31
447.792	271.31
448.013	247.31
448.234	267.31
448.455	256.31
448.675	249.31
448.896	238.31
449.117	261.31
449.338	229.31
449.559	260.31
449.779	245.31
450	235.31
450.221	236.31
450.442	251.31
450.662	246.31
450.883	244.31
451.104	251.31
451.324	256.31
451.545	248.31
451.766	242.31
451.986	225.31
452.207	244.31
452.428	227.31
452.648	239.31
452.869	216.31
453.089	220.31
453.31	206.31
453.53	227.31
453.751	213.31
453.971	208.31
454.192	204.31
454.412	215.31
454.633	190.31
454.853	221.31
455.073	221.31
455.294	240.31
455.514	229.31
455.734	205.31
455.955	217.31
456.175	214.31
456.395	219.31
456.616	214.31
456.836	197.31
457.056	192.31
457.276	197.31
457.497	181.31
457.717	203.31
457.937	203.31
458.157	217.31
458.377	199.31
458.598	192.31
458.818	199.31
459.038	199.31
459.258	205.31
459.478	200.31
459.698	220.31
459.918	232.31
460.138	245.31
460.358	257.31
460.578	247.31
460.798	247.31
461.018	249.31
461.238	266.31
461.458	256.31
461.678	257.31
461.898	251.31
462.118	264.31
462.338	265.31
462.558	277.31
462.777	287.31
462.997	290.31
463.217	306.31
463.437	309.31
463.657	284.31
463.876	287.31
464.096	296.31
464.316	269.31
464.536	268.31
464.755	265.31
464.975	276.31
465.195	255.31
465.414	252.31
465.634	252.31
465.854	246.31
466.073	257.31
466.293	233.31
466.512	247.31
466.732	233.31
466.951	236.31
467.171	252.31
467.391	239.31
467.61	260.31
467.829	245.31
468.049	243.31
468.268	244.31
468.488	248.31
468.707	246.31
468.927	246.31
469.146	232.31
469.365	240.31
469.585	256.31
469.804	252.31
470.023	252.31
470.243	276.31
470.462	268.31
470.681	249.31
470.901	252.31
471.12	250.31
471.339	259.31
471.558	255.31
471.777	255.31
471.997	254.31
472.216	235.31
472.435	226.31
472.654	232.31
472.873	212.31
473.092	225.31
473.311	232.31
473.53	225.31
473.749	230.31
473.968	235.31
474.187	227.31
474.406	205.31
474.625	234.31
474.844	230.31
475.063	241.31
475.282	229.31
475.501	212.31
475.72	220.31
475.939	220.31
476.158	225.31
476.377	221.31
476.596	223.31
476.814	231.31
477.033	228.31
477.252	222.31
477.471	229.31
477.69	261.31
477.908	267.31
478.127	260.31
478.346	265.31
478.564	259.31
478.783	259.31
479.002	282.31
479.22	267.31
479.439	277.31
479.658	268.31
479.876	249.31
480.095	235.31
480.313	261.31
480.532	250.31
480.751	249.31
480.969	217.31
481.188	224.31
481.406	234.31
481.624	223.31
481.843	229.31
482.061	213.31
482.28	239.31
482.498	243.31
482.717	228.31
482.935	249.31
483.153	262.31
483.372	275.31
483.59	252.31
483.808	248.31
484.027	241.31
484.245	267.31
484.463	251.31
484.681	282.31
484.9	246.31
485.118	257.31
485.336	251.31
485.554	220.31
485.772	224.31
485.99	224.31
486.209	250.31
486.427	225.31
486.645	249.31
486.863	268.31
487.081	267.31
487.299	255.31
487.517	269.31
487.735	287.31
487.953	317.31
488.171	299.31
488.389	293.31
488.607	280.31
488.825	262.31
489.043	231.31
489.261	243.31
489.479	260.31
489.696	269.31
489.914	264.31
490.132	268.31
490.35	283.31
490.568	280.31
490.786	276.31
491.003	289.31
491.221	323.31
491.439	320.31
491.657	327.31
491.874	337.31
492.092	351.31
492.31	356.31
492.527	367.31
492.745	332.31
492.963	317.31
493.18	327.31
493.398	319.31
493.615	326.31
493.833	333.31
494.05	319.31
494.268	304.31
494.485	306.31
494.703	328.31
494.92	303.31
495.138	303.31
495.355	311.31
495.573	310.31
495.79	319.31
496.008	286.31
496.225	308.31
496.442	290.31
496.66	311.31
496.877	302.31
497.094	319.31
497.312	311.31
497.529	294.31
497.746	308.31
497.963	293.31
498.181	304.31
498.398	304.31
498.615	317.31
498.832	327.31
499.049	347.31
499.267	392.31
499.484	409.31
499.701	450.31
499.918	497.31
500.135	545.31
500.352	614.31
500.569	618.31
500.786	593.31
501.003	561.31
501.22	504.31
501.437	447.31
501.654	404.31
501.871	383.31
502.088	346.31
502.305	354.31
502.522	334.31
502.739	326.31
502.956	317.31
503.172	283.31
503.389	290.31
503.606	288.31
503.823	269.31
504.04	298.31
504.256	295.31
504.473	304.31
504.69	296.31
