Data from SampA_HRD10591_00091.txt Node
Date: Mon Jan 19 11:27:17 EST 2026
User: Yrep
Spectrometer: HR+D1059
Trigger mode: 0
Integration Time (sec): 3.443000E-1
Scans to average: 1
Electric dark correction enabled: true
Nonlinearity correction enabled: false
Boxcar width: 0
XAxis mode: Wavelengths
Number of Pixels in Spectrum: 2048
>>>>>Begin Spectral Data<<<<<
223.165	-15
223.4	-15
223.635	-15
223.869	-24
224.104	-19
224.338	-15
224.573	-13
224.808	-18
225.042	-5
225.277	-2
225.511	-6
225.746	13
225.98	2
226.215	20
226.449	6
226.683	28
226.918	24
227.152	24
227.387	37
227.621	49
227.856	54
228.09	55
228.324	57
228.559	62
228.793	70
229.027	74
229.262	81
229.496	83
229.73	95
229.964	87
230.199	79
230.433	84
230.667	89
230.901	91
231.136	95
231.37	90
231.604	80
231.838	110
232.072	90
232.306	89
232.541	100
232.775	88
233.009	86
233.243	81
233.477	95
233.711	93
233.945	80
234.179	89
234.413	87
234.647	96
234.881	87
235.115	89
235.349	83
235.583	92
235.817	77
236.051	89
236.285	91
236.519	91
236.753	79
236.987	82
237.221	76
237.455	87
237.689	83
237.922	97
238.156	90
238.39	104
238.624	74
238.858	90
239.091	78
239.325	80
239.559	103
239.793	106
240.027	97
240.26	90
240.494	88
240.728	68
240.961	96
241.195	95
241.429	85
241.662	75
241.896	66
242.13	101
242.363	97
242.597	88
242.83	88
243.064	81
243.298	110
243.531	82
243.765	86
243.998	104
244.232	95
244.465	97
244.699	94
244.932	87
245.166	91
245.399	90
245.633	103
245.866	80
246.099	96
246.333	86
246.566	89
246.8	95
247.033	98
247.266	95
247.5	87
247.733	94
247.966	100
248.2	88
248.433	76
248.666	90
248.899	106
249.133	101
249.366	113
249.599	94
249.832	94
250.066	96
250.299	103
250.532	100
250.765	88
250.998	94
251.231	88
251.465	96
251.698	84
251.931	89
252.164	96
252.397	100
252.63	104
252.863	92
253.096	100
253.329	103
253.562	102
253.795	105
254.028	87
254.261	76
254.494	106
254.727	112
254.96	95
255.193	121
255.426	95
255.659	96
255.892	118
256.124	95
256.357	95
256.59	99
256.823	111
257.056	78
257.289	106
257.521	101
257.754	96
257.987	99
258.22	114
258.452	97
258.685	92
258.918	98
259.151	105
259.383	106
259.616	90
259.849	93
260.081	103
260.314	102
260.547	122
260.779	109
261.012	104
261.244	94
261.477	114
261.71	101
261.942	99
262.175	99
262.407	104
262.64	107
262.872	99
263.105	91
263.337	102
263.57	95
263.802	104
264.035	103
264.267	86
264.499	105
264.732	113
264.964	106
265.197	115
265.429	91
265.661	107
265.894	108
266.126	98
266.358	108
266.591	104
266.823	112
267.055	100
267.287	118
267.52	104
267.752	105
267.984	104
268.216	117
268.448	104
268.681	116
268.913	116
269.145	102
269.377	114
269.609	107
269.841	113
270.073	102
270.306	99
270.538	106
270.77	99
271.002	103
271.234	109
271.466	120
271.698	114
271.93	91
272.162	105
272.394	133
272.626	113
272.858	92
273.09	108
273.322	112
273.553	96
273.785	108
274.017	113
274.249	118
274.481	112
274.713	100
274.945	121
275.176	114
275.408	115
275.64	121
275.872	128
276.104	111
276.335	112
276.567	99
276.799	114
277.031	112
277.262	117
277.494	113
277.726	118
277.957	111
278.189	115
278.421	102
278.652	104
278.884	119
279.115	112
279.347	110
279.579	111
279.81	112
280.042	106
280.273	107
280.505	107
280.736	122
280.968	111
281.199	100
281.431	119
281.662	113
281.894	116
282.125	131
282.356	120
282.588	120
282.819	122
283.051	114
283.282	131
283.513	135
283.745	111
283.976	114
284.207	110
284.439	115
284.67	129
284.901	118
285.132	103
285.364	136
285.595	127
285.826	120
286.057	128
286.288	116
286.52	110
286.751	110
286.982	127
287.213	115
287.444	112
287.675	125
287.906	130
288.138	106
288.369	131
288.6	136
288.831	123
289.062	130
289.293	137
289.524	113
289.755	126
289.986	127
290.217	130
290.448	120
290.679	126
290.91	128
291.141	126
291.371	126
291.602	124
291.833	113
292.064	115
292.295	130
292.526	125
292.757	139
292.987	132
293.218	100
293.449	117
293.68	135
293.91	121
294.141	143
294.372	127
294.603	126
294.833	123
295.064	120
295.295	106
295.525	116
295.756	139
295.987	121
296.217	131
296.448	123
296.679	120
296.909	152
297.14	122
297.37	138
297.601	135
297.831	125
298.062	131
298.292	122
298.523	130
298.753	123
298.984	111
299.214	124
299.445	125
299.675	134
299.905	137
300.136	120
300.366	114
300.597	125
300.827	129
301.057	132
301.288	139
301.518	125
301.748	140
301.979	158
302.209	148
302.439	128
302.669	137
302.9	126
303.13	145
303.36	136
303.59	117
303.82	131
304.051	129
304.281	143
304.511	145
304.741	123
304.971	114
305.201	134
305.431	131
305.661	152
305.891	127
306.121	145
306.352	128
306.582	118
306.812	123
307.042	149
307.272	127
307.502	129
307.731	136
307.961	136
308.191	134
308.421	120
308.651	136
308.881	142
309.111	120
309.341	128
309.571	135
309.8	117
310.03	119
310.26	129
310.49	126
310.72	145
310.949	134
311.179	142
311.409	139
311.639	138
311.868	140
312.098	129
312.328	125
312.557	140
312.787	139
313.017	143
313.246	142
313.476	134
313.706	133
313.935	147
314.165	122
314.394	127
314.624	150
314.853	136
315.083	138
315.312	145
315.542	150
315.771	150
316.001	151
316.23	156
316.46	127
316.689	126
316.919	123
317.148	139
317.377	146
317.607	141
317.836	124
318.065	134
318.295	141
318.524	130
318.753	138
318.983	127
319.212	136
319.441	139
319.67	140
319.9	134
320.129	129
320.358	138
320.587	116
320.816	154
321.046	134
321.275	140
321.504	134
321.733	130
321.962	135
322.191	147
322.42	128
322.649	149
322.878	155
323.108	143
323.337	143
323.566	148
323.795	151
324.024	148
324.253	143
324.482	130
324.71	146
324.939	134
325.168	132
325.397	150
325.626	145
325.855	135
326.084	138
326.313	152
326.542	129
326.77	160
326.999	137
327.228	157
327.457	145
327.686	142
327.914	153
328.143	140
328.372	136
328.6	140
328.829	140
329.058	142
329.287	132
329.515	154
329.744	139
329.972	136
330.201	138
330.43	158
330.658	140
330.887	135
331.115	143
331.344	148
331.572	145
331.801	143
332.03	155
332.258	146
332.486	155
332.715	156
332.943	164
333.172	152
333.4	161
333.629	155
333.857	151
334.085	165
334.314	154
334.542	155
334.771	171
334.999	158
335.227	163
335.455	154
335.684	160
335.912	139
336.14	163
336.369	156
336.597	148
336.825	163
337.053	144
337.281	150
337.51	160
337.738	147
337.966	149
338.194	145
338.422	135
338.65	134
338.878	151
339.106	160
339.334	162
339.562	142
339.79	142
340.018	146
340.246	136
340.474	148
340.702	147
340.93	142
341.158	121
341.386	128
341.614	142
341.842	154
342.07	137
342.298	131
342.526	133
342.754	141
342.981	137
343.209	148
343.437	172
343.665	161
343.893	152
344.12	157
344.348	149
344.576	153
344.804	145
345.031	151
345.259	142
345.487	127
345.714	140
345.942	136
346.17	146
346.397	150
346.625	136
346.853	139
347.08	144
347.308	154
347.535	136
347.763	146
347.99	134
348.218	158
348.445	151
348.673	139
348.9	150
349.128	137
349.355	155
349.583	131
349.81	158
350.037	129
350.265	147
350.492	161
350.72	135
350.947	134
351.174	142
351.402	136
351.629	130
351.856	144
352.083	140
352.311	146
352.538	139
352.765	129
352.992	143
353.22	128
353.447	137
353.674	150
353.901	147
354.128	152
354.355	139
354.583	156
354.81	146
355.037	143
355.264	140
355.491	129
355.718	147
355.945	132
356.172	127
356.399	138
356.626	119
356.853	135
357.08	131
357.307	139
357.534	144
357.761	143
357.988	152
358.215	135
358.441	129
358.668	138
358.895	129
359.122	136
359.349	150
359.576	143
359.802	134
360.029	136
360.256	138
360.483	137
360.709	136
360.936	141
361.163	134
361.39	137
361.616	138
361.843	140
362.07	142
362.296	134
362.523	135
362.749	135
362.976	125
363.203	155
363.429	132
363.656	167
363.882	138
364.109	150
364.335	167
364.562	139
364.788	148
365.015	151
365.241	131
365.468	162
365.694	153
365.92	127
366.147	131
366.373	133
366.599	128
366.826	135
367.052	128
367.278	150
367.505	131
367.731	162
367.957	139
368.184	146
368.41	142
368.636	150
368.862	143
369.089	138
369.315	141
369.541	134
369.767	140
369.993	151
370.219	123
370.445	160
370.672	135
370.898	160
371.124	160
371.35	148
371.576	138
371.802	143
372.028	137
372.254	141
372.48	141
372.706	151
372.932	143
373.158	147
373.384	139
373.61	154
373.835	145
374.061	155
374.287	149
374.513	158
374.739	151
374.965	158
375.191	170
375.416	167
375.642	163
375.868	158
376.094	172
376.319	138
376.545	138
376.771	146
376.997	156
377.222	142
377.448	152
377.674	141
377.899	149
378.125	159
378.35	151
378.576	156
378.802	134
379.027	152
379.253	140
379.478	169
379.704	143
379.929	153
380.155	150
380.38	158
380.606	146
380.831	148
381.057	160
381.282	158
381.507	160
381.733	171
381.958	154
382.184	143
382.409	162
382.634	169
382.86	158
383.085	150
383.31	151
383.535	158
383.761	170
383.986	175
384.211	162
384.436	167
384.662	168
384.887	179
385.112	165
385.337	174
385.562	178
385.787	173
386.013	177
386.238	195
386.463	176
386.688	202
386.913	193
387.138	177
387.363	172
387.588	184
387.813	179
388.038	176
388.263	180
388.488	165
388.713	178
388.938	178
389.163	184
389.387	162
389.612	165
389.837	182
390.062	167
390.287	166
390.512	203
390.736	184
390.961	201
391.186	186
391.411	191
391.636	183
391.86	190
392.085	184
392.31	200
392.534	199
392.759	201
392.984	206
393.208	208
393.433	187
393.658	185
393.882	193
394.107	182
394.331	179
394.556	190
394.78	194
395.005	201
395.229	205
395.454	209
395.678	184
395.903	206
396.127	196
396.352	193
396.576	189
396.801	211
397.025	198
397.249	217
397.474	215
397.698	213
397.922	214
398.147	209
398.371	227
398.595	224
398.82	237
399.044	236
399.268	265
399.492	302
399.717	334
399.941	316
400.165	270
400.389	253
400.613	253
400.837	236
401.062	240
401.286	235
401.51	236
401.734	247
401.958	256
402.182	238
402.406	251
402.63	253
402.854	263
403.078	253
403.302	274
403.526	268
403.75	276
403.974	262
404.198	283
404.422	280
404.645	269
404.869	272
405.093	277
405.317	276
405.541	280
405.765	246
405.988	275
406.212	272
406.436	285
406.66	292
406.883	319
407.107	301
407.331	305
407.555	316
407.778	301
408.002	314
408.226	313
408.449	280
408.673	296
408.896	301
409.12	292
409.344	288
409.567	289
409.791	298
410.014	293
410.238	281
410.461	297
410.685	266
410.908	288
411.132	314
411.355	280
411.578	281
411.802	292
412.025	302
412.249	288
412.472	269
412.695	290
412.919	273
413.142	267
413.365	280
413.589	280
413.812	265
414.035	275
414.258	278
414.482	287
414.705	284
414.928	309
415.151	274
415.374	280
415.597	284
415.821	283
416.044	278
416.267	275
416.49	269
416.713	273
416.936	283
417.159	275
417.382	268
417.605	280
417.828	297
418.051	305
418.274	278
418.497	290
418.72	299
418.943	291
419.166	308
419.389	311
419.611	284
419.834	306
420.057	299
420.28	298
420.503	276
420.726	291
420.948	291
421.171	281
421.394	286
421.617	298
421.839	297
422.062	305
422.285	288
422.507	306
422.73	296
422.953	303
423.175	279
423.398	303
423.621	314
423.843	309
424.066	310
424.288	299
424.511	331
424.733	311
424.956	290
425.178	290
425.401	297
425.623	298
425.846	273
426.068	305
426.291	274
426.513	287
426.735	276
426.958	277
427.18	294
427.402	275
427.625	274
427.847	272
428.069	275
428.292	265
428.514	273
428.736	270
428.958	293
429.181	276
429.403	270
429.625	265
429.847	263
430.069	266
430.292	284
430.514	254
430.736	239
430.958	286
431.18	270
431.402	252
431.624	260
431.846	250
432.068	235
432.29	250
432.512	252
432.734	252
432.956	266
433.178	288
433.4	267
433.622	295
433.844	286
434.066	242
434.287	244
434.509	230
434.731	269
434.953	254
435.175	280
435.397	278
435.618	259
435.84	258
436.062	267
436.284	263
436.505	279
436.727	279
436.949	248
437.17	268
437.392	270
437.614	261
437.835	245
438.057	226
438.278	250
438.5	252
438.721	274
438.943	276
439.165	281
439.386	264
439.608	279
439.829	293
440.05	304
440.272	294
440.493	278
440.715	290
440.936	318
441.158	317
441.379	296
441.6	314
441.822	303
442.043	297
442.264	303
442.486	292
442.707	301
442.928	291
443.149	283
443.371	328
443.592	295
443.813	314
444.034	308
444.255	306
444.476	307
444.698	352
444.919	330
445.14	512
445.361	419
445.582	311
445.803	285
446.024	296
446.245	292
446.466	302
446.687	299
446.908	281
447.129	311
447.35	290
447.571	299
447.792	270
448.013	272
448.234	274
448.455	267
448.675	267
448.896	274
449.117	262
449.338	269
449.559	279
449.779	275
450	268
450.221	274
450.442	266
450.662	268
450.883	278
451.104	269
451.324	273
451.545	277
451.766	251
451.986	242
452.207	249
452.428	270
452.648	254
452.869	242
453.089	228
453.31	235
453.53	225
453.751	223
453.971	214
454.192	214
454.412	222
454.633	229
454.853	239
455.073	247
455.294	262
455.514	266
455.734	244
455.955	235
456.175	242
456.395	236
456.616	219
456.836	236
457.056	215
457.276	220
457.497	223
457.717	221
457.937	208
458.157	218
458.377	213
458.598	233
458.818	216
459.038	218
459.258	226
459.478	231
459.698	236
459.918	230
460.138	263
460.358	282
460.578	275
460.798	272
461.018	287
461.238	296
461.458	287
461.678	282
461.898	286
462.118	280
462.338	284
462.558	298
462.777	310
462.997	329
463.217	341
463.437	329
463.657	305
463.876	312
464.096	297
464.316	276
464.536	304
464.755	310
464.975	286
465.195	276
465.414	279
465.634	256
465.854	249
466.073	257
466.293	244
466.512	265
466.732	275
466.951	266
467.171	263
467.391	275
467.61	265
467.829	255
468.049	236
468.268	259
468.488	248
468.707	249
468.927	257
469.146	263
469.365	276
469.585	262
469.804	281
470.023	258
470.243	303
470.462	274
470.681	278
470.901	270
471.12	276
471.339	287
471.558	286
471.777	270
471.997	263
472.216	247
472.435	242
472.654	236
472.873	243
473.092	223
473.311	234
473.53	245
473.749	270
473.968	258
474.187	249
474.406	220
474.625	263
474.844	254
475.063	264
475.282	249
475.501	248
475.72	245
475.939	262
476.158	243
476.377	257
476.596	250
476.814	228
477.033	240
477.252	264
477.471	252
477.69	274
477.908	274
478.127	287
478.346	280
478.564	275
478.783	271
479.002	282
479.22	284
479.439	302
479.658	268
479.876	287
480.095	259
480.313	280
480.532	284
480.751	274
480.969	240
481.188	230
481.406	238
481.624	230
481.843	239
482.061	249
482.28	259
482.498	254
482.717	242
482.935	259
483.153	270
483.372	278
483.59	271
483.808	266
484.027	259
484.245	261
484.463	296
484.681	301
484.9	298
485.118	286
485.336	253
485.554	257
485.772	256
485.99	269
486.209	255
486.427	267
486.645	267
486.863	288
487.081	288
487.299	277
487.517	282
487.735	319
487.953	345
488.171	332
488.389	303
488.607	298
488.825	268
489.043	274
489.261	283
489.479	283
489.696	275
489.914	270
490.132	302
490.35	306
490.568	325
490.786	345
491.003	330
491.221	347
491.439	346
491.657	346
491.874	375
492.092	391
492.31	410
492.527	383
492.745	364
492.963	364
493.18	373
493.398	361
493.615	385
493.833	361
494.05	344
494.268	347
494.485	332
494.703	346
494.92	341
495.138	332
495.355	361
495.573	345
495.79	330
496.008	348
496.225	335
496.442	332
496.66	352
496.877	348
497.094	353
497.312	350
497.529	347
497.746	350
497.963	329
498.181	352
498.398	331
498.615	347
498.832	338
499.049	389
499.267	412
499.484	427
499.701	484
499.918	542
500.135	578
500.352	637
500.569	642
500.786	634
501.003	608
501.22	547
501.437	482
501.654	442
501.871	413
502.088	378
502.305	364
502.522	372
502.739	343
502.956	337
503.172	327
503.389	311
503.606	314
503.823	307
504.04	298
504.256	315
504.473	318
504.69	327
504.907	310
505.123	290
505.34	308
505.557	291
505.773	284
505.99	276
506.207	273
506.423	269
506.64	273
506.856	275
507.073	266
507.289	254
507.506	268
507.722	248
507.939	241
508.155	234
508.372	239
508.588	238
508.805	243
509.021	240
509.238	230
509.454	228
509.67	225
509.887	219
510.103	216
510.319	205
510.536	220
510.752	213
510.968	207
511.184	207
511.401	212
511.617	213
511.833	198
512.049	207
512.265	217
512.481	221
512.698	228
512.914	207
513.13	227
513.346	228
513.562	225
513.778	223
513.994	214
514.21	205
514.426	228
514.642	229
514.858	225
515.074	220
515.29	218
515.506	208
515.721	216
515.937	230
516.153	220
516.369	225
516.585	234
516.801	245
517.016	253
517.232	245
517.448	290
517.664	264
517.879	284
518.095	269
518.311	256
518.527	266
518.742	245
518.958	233
519.173	249
519.389	238
519.605	247
519.82	234
520.036	240
520.251	240
520.467	233
520.682	220
520.898	215
521.113	222
521.329	216
521.544	223
521.76	226
521.975	216
522.19	203
522.406	223
522.621	206
522.836	216
523.052	247
523.267	224
523.482	226
523.698	243
523.913	229
524.128	228
524.343	232
524.559	234
524.774	241
524.989	236
525.204	225
525.419	222
525.634	226
525.849	237
526.064	233
526.28	231
526.495	209
526.71	211
526.925	212
527.14	195
527.355	195
527.57	191
527.785	208
527.999	206
528.214	218
528.429	231
528.644	219
528.859	254
529.074	249
529.289	291
529.503	262
529.718	242
529.933	243
530.148	219
530.363	214
530.577	203
530.792	191
531.007	193
531.221	218
531.436	202
531.651	212
531.865	209
532.08	213
532.295	206
532.509	191
532.724	208
532.938	218
533.153	216
533.367	224
533.582	237
533.796	227
534.011	212
534.225	198
534.44	203
534.654	200
534.868	211
535.083	202
535.297	213
535.511	226
535.726	205
535.94	212
536.154	219
536.369	190
536.583	190
536.797	195
537.011	200
537.225	200
537.44	194
537.654	205
537.868	192
538.082	214
538.296	201
538.51	196
538.724	232
538.938	234
539.153	217
539.367	221
539.581	216
539.795	195
540.009	205
540.222	216
540.436	197
540.65	220
540.864	238
541.078	258
541.292	271
541.506	265
541.72	282
541.934	296
542.147	294
542.361	287
542.575	270
542.789	256
543.002	229
543.216	210
543.43	244
543.644	248
543.857	251
544.071	265
544.285	274
544.498	280
544.712	279
544.925	287
545.139	285
545.352	272
545.566	270
545.779	259
545.993	276
546.206	294
546.42	296
546.633	285
546.847	302
547.06	288
547.274	290
547.487	285
547.7	296
547.914	298
548.127	279
548.34	296
548.554	287
548.767	290
548.98	298
549.193	292
549.407	272
549.62	270
549.833	269
550.046	270
550.259	268
550.473	268
550.686	256
550.899	270
551.112	287
551.325	260
551.538	244
551.751	227
551.964	232
552.177	249
552.39	272
552.603	256
552.816	272
553.029	312
553.242	284
553.455	307
553.667	318
553.88	299
554.093	289
554.306	279
554.519	275
554.732	255
554.944	252
555.157	262
555.37	245
555.583	264
555.795	259
556.008	237
556.221	239
556.433	235
556.646	245
556.859	234
557.071	248
557.284	236
557.496	237
557.709	238
557.921	266
558.134	233
558.346	229
558.559	236
558.771	228
558.984	220
559.196	220
559.409	223
559.621	222
559.833	218
560.046	211
560.258	222
560.47	220
560.683	220
560.895	219
561.107	212
561.32	236
561.532	242
561.744	232
561.956	235
562.168	220
562.381	223
562.593	216
562.805	222
563.017	216
563.229	200
563.441	230
563.653	210
563.865	240
564.077	208
564.289	232
564.501	218
564.713	220
564.925	223
565.137	241
565.349	227
565.561	228
565.773	239
565.985	237
566.197	232
566.408	259
