Data from SampA_HRD10591_00004.txt Node
Date: Mon Jan 19 11:26:48 EST 2026
User: Yrep
Spectrometer: HR+D1059
Trigger mode: 0
Integration Time (sec): 3.443000E-1
Scans to average: 1
Electric dark correction enabled: true
Nonlinearity correction enabled: false
Boxcar width: 0
XAxis mode: Wavelengths
Number of Pixels in Spectrum: 2048
>>>>>Begin Spectral Data<<<<<
223.165	-24.31
223.4	-24.31
223.635	-24.31
223.869	-26.31
224.104	-22.31
224.338	-11.31
224.573	-12.31
224.808	-16.31
225.042	-9.31
225.277	-2.31
225.511	5.69
225.746	10.69
225.98	17.69
226.215	19.69
226.449	7.69
226.683	9.69
226.918	21.69
227.152	31.69
227.387	29.69
227.621	22.69
227.856	37.69
228.09	49.69
228.324	43.69
228.559	69.69
228.793	62.69
229.027	66.69
229.262	70.69
229.496	68.69
229.73	81.69
229.964	77.69
230.199	86.69
230.433	76.69
230.667	84.69
230.901	83.69
231.136	85.69
231.37	69.69
231.604	85.69
231.838	85.69
232.072	91.69
232.306	95.69
232.541	97.69
232.775	98.69
233.009	86.69
233.243	97.69
233.477	78.69
233.711	86.69
233.945	92.69
234.179	79.69
234.413	81.69
234.647	91.69
234.881	97.69
235.115	92.69
235.349	81.69
235.583	97.69
235.817	91.69
236.051	78.69
236.285	72.69
236.519	81.69
236.753	86.69
236.987	93.69
237.221	77.69
237.455	87.69
237.689	65.69
237.922	89.69
238.156	87.69
238.39	80.69
238.624	82.69
238.858	83.69
239.091	86.69
239.325	88.69
239.559	88.69
239.793	86.69
240.027	89.69
240.26	81.69
240.494	85.69
240.728	80.69
240.961	74.69
241.195	92.69
241.429	80.69
241.662	71.69
241.896	63.69
242.13	63.69
242.363	84.69
242.597	88.69
242.83	83.69
243.064	75.69
243.298	80.69
243.531	64.69
243.765	80.69
243.998	92.69
244.232	83.69
244.465	92.69
244.699	85.69
244.932	77.69
245.166	86.69
245.399	77.69
245.633	86.69
245.866	74.69
246.099	86.69
246.333	78.69
246.566	71.69
246.8	84.69
247.033	73.69
247.266	88.69
247.5	104.69
247.733	73.69
247.966	74.69
248.2	80.69
248.433	85.69
248.666	83.69
248.899	80.69
249.133	83.69
249.366	94.69
249.599	79.69
249.832	88.69
250.066	96.69
250.299	77.69
250.532	92.69
250.765	90.69
250.998	88.69
251.231	80.69
251.465	90.69
251.698	77.69
251.931	82.69
252.164	91.69
252.397	92.69
252.63	88.69
252.863	81.69
253.096	85.69
253.329	88.69
253.562	76.69
253.795	89.69
254.028	92.69
254.261	82.69
254.494	86.69
254.727	89.69
254.96	98.69
255.193	95.69
255.426	78.69
255.659	88.69
255.892	78.69
256.124	77.69
256.357	103.69
256.59	84.69
256.823	88.69
257.056	96.69
257.289	88.69
257.521	94.69
257.754	99.69
257.987	95.69
258.22	100.69
258.452	96.69
258.685	84.69
258.918	107.69
259.151	88.69
259.383	99.69
259.616	77.69
259.849	82.69
260.081	86.69
260.314	99.69
260.547	97.69
260.779	90.69
261.012	91.69
261.244	98.69
261.477	107.69
261.71	94.69
261.942	96.69
262.175	90.69
262.407	93.69
262.64	92.69
262.872	89.69
263.105	82.69
263.337	104.69
263.57	84.69
263.802	76.69
264.035	88.69
264.267	82.69
264.499	74.69
264.732	98.69
264.964	98.69
265.197	103.69
265.429	100.69
265.661	76.69
265.894	86.69
266.126	97.69
266.358	84.69
266.591	91.69
266.823	94.69
267.055	76.69
267.287	90.69
267.52	91.69
267.752	84.69
267.984	108.69
268.216	98.69
268.448	98.69
268.681	94.69
268.913	102.69
269.145	103.69
269.377	97.69
269.609	94.69
269.841	92.69
270.073	85.69
270.306	94.69
270.538	78.69
270.77	98.69
271.002	97.69
271.234	96.69
271.466	97.69
271.698	111.69
271.93	105.69
272.162	86.69
272.394	97.69
272.626	85.69
272.858	84.69
273.09	103.69
273.322	104.69
273.553	105.69
273.785	97.69
274.017	74.69
274.249	104.69
274.481	104.69
274.713	89.69
274.945	90.69
275.176	102.69
275.408	111.69
275.64	97.69
275.872	92.69
276.104	102.69
276.335	111.69
276.567	89.69
276.799	95.69
277.031	91.69
277.262	88.69
277.494	96.69
277.726	100.69
277.957	97.69
278.189	90.69
278.421	101.69
278.652	91.69
278.884	93.69
279.115	99.69
279.347	102.69
279.579	92.69
279.81	96.69
280.042	98.69
280.273	88.69
280.505	87.69
280.736	101.69
280.968	94.69
281.199	87.69
281.431	94.69
281.662	110.69
281.894	85.69
282.125	80.69
282.356	102.69
282.588	90.69
282.819	100.69
283.051	88.69
283.282	80.69
283.513	111.69
283.745	101.69
283.976	100.69
284.207	94.69
284.439	95.69
284.67	108.69
284.901	103.69
285.132	100.69
285.364	92.69
285.595	89.69
285.826	105.69
286.057	109.69
286.288	96.69
286.52	105.69
286.751	101.69
286.982	100.69
287.213	102.69
287.444	104.69
287.675	88.69
287.906	115.69
288.138	109.69
288.369	98.69
288.6	90.69
288.831	100.69
289.062	100.69
289.293	112.69
289.524	95.69
289.755	108.69
289.986	99.69
290.217	101.69
290.448	105.69
290.679	105.69
290.91	107.69
291.141	101.69
291.371	89.69
291.602	116.69
291.833	106.69
292.064	104.69
292.295	94.69
292.526	74.69
292.757	97.69
292.987	112.69
293.218	108.69
293.449	98.69
293.68	108.69
293.91	101.69
294.141	105.69
294.372	106.69
294.603	97.69
294.833	97.69
295.064	98.69
295.295	104.69
295.525	106.69
295.756	102.69
295.987	116.69
296.217	102.69
296.448	102.69
296.679	106.69
296.909	109.69
297.14	106.69
297.37	113.69
297.601	95.69
297.831	102.69
298.062	109.69
298.292	113.69
298.523	97.69
298.753	96.69
298.984	89.69
299.214	98.69
299.445	103.69
299.675	113.69
299.905	106.69
300.136	102.69
300.366	113.69
300.597	96.69
300.827	103.69
301.057	114.69
301.288	102.69
301.518	102.69
301.748	95.69
301.979	130.69
302.209	112.69
302.439	113.69
302.669	112.69
302.9	109.69
303.13	109.69
303.36	100.69
303.59	114.69
303.82	103.69
304.051	96.69
304.281	112.69
304.511	118.69
304.741	104.69
304.971	100.69
305.201	124.69
305.431	119.69
305.661	114.69
305.891	104.69
306.121	105.69
306.352	104.69
306.582	105.69
306.812	107.69
307.042	97.69
307.272	99.69
307.502	113.69
307.731	120.69
307.961	101.69
308.191	102.69
308.421	108.69
308.651	92.69
308.881	122.69
309.111	107.69
309.341	106.69
309.571	113.69
309.8	87.69
310.03	105.69
310.26	105.69
310.49	115.69
310.72	90.69
310.949	100.69
311.179	105.69
311.409	98.69
311.639	118.69
311.868	118.69
312.098	102.69
312.328	107.69
312.557	104.69
312.787	108.69
313.017	123.69
313.246	103.69
313.476	110.69
313.706	103.69
313.935	102.69
314.165	124.69
314.394	111.69
314.624	103.69
314.853	113.69
315.083	106.69
315.312	104.69
315.542	107.69
315.771	98.69
316.001	97.69
316.23	120.69
316.46	89.69
316.689	99.69
316.919	98.69
317.148	109.69
317.377	124.69
317.607	97.69
317.836	98.69
318.065	92.69
318.295	102.69
318.524	109.69
318.753	95.69
318.983	107.69
319.212	111.69
319.441	98.69
319.67	101.69
319.9	104.69
320.129	97.69
320.358	99.69
320.587	102.69
320.816	104.69
321.046	105.69
321.275	111.69
321.504	113.69
321.733	117.69
321.962	98.69
322.191	109.69
322.42	108.69
322.649	106.69
322.878	103.69
323.108	105.69
323.337	105.69
323.566	127.69
323.795	113.69
324.024	108.69
324.253	98.69
324.482	105.69
324.71	98.69
324.939	105.69
325.168	117.69
325.397	95.69
325.626	98.69
325.855	112.69
326.084	120.69
326.313	112.69
326.542	114.69
326.77	122.69
326.999	110.69
327.228	101.69
327.457	102.69
327.686	108.69
327.914	105.69
328.143	128.69
328.372	98.69
328.6	110.69
328.829	96.69
329.058	111.69
329.287	101.69
329.515	112.69
329.744	113.69
329.972	112.69
330.201	111.69
330.43	115.69
330.658	104.69
330.887	111.69
331.115	122.69
331.344	113.69
331.572	119.69
331.801	114.69
332.03	122.69
332.258	113.69
332.486	124.69
332.715	109.69
332.943	110.69
333.172	114.69
333.4	117.69
333.629	122.69
333.857	120.69
334.085	129.69
334.314	118.69
334.542	113.69
334.771	112.69
334.999	129.69
335.227	133.69
335.455	115.69
335.684	127.69
335.912	118.69
336.14	116.69
336.369	112.69
336.597	107.69
336.825	129.69
337.053	121.69
337.281	106.69
337.51	111.69
337.738	119.69
337.966	114.69
338.194	126.69
338.422	102.69
338.65	130.69
338.878	121.69
339.106	111.69
339.334	119.69
339.562	116.69
339.79	112.69
340.018	103.69
340.246	113.69
340.474	121.69
340.702	104.69
340.93	111.69
341.158	121.69
341.386	102.69
341.614	108.69
341.842	102.69
342.07	116.69
342.298	113.69
342.526	126.69
342.754	93.69
342.981	121.69
343.209	103.69
343.437	132.69
343.665	99.69
343.893	128.69
344.12	110.69
344.348	137.69
344.576	108.69
344.804	115.69
345.031	107.69
345.259	88.69
345.487	109.69
345.714	101.69
345.942	112.69
346.17	110.69
346.397	112.69
346.625	112.69
346.853	113.69
347.08	106.69
347.308	116.69
347.535	114.69
347.763	104.69
347.99	101.69
348.218	104.69
348.445	107.69
348.673	110.69
348.9	115.69
349.128	129.69
349.355	109.69
349.583	105.69
349.81	101.69
350.037	107.69
350.265	118.69
350.492	107.69
350.72	120.69
350.947	98.69
351.174	111.69
351.402	97.69
351.629	96.69
351.856	110.69
352.083	109.69
352.311	105.69
352.538	101.69
352.765	104.69
352.992	125.69
353.22	109.69
353.447	103.69
353.674	117.69
353.901	118.69
354.128	139.69
354.355	107.69
354.583	125.69
354.81	112.69
355.037	105.69
355.264	98.69
355.491	109.69
355.718	120.69
355.945	115.69
356.172	106.69
356.399	104.69
356.626	112.69
356.853	132.69
357.08	120.69
357.307	113.69
357.534	102.69
357.761	119.69
357.988	117.69
358.215	115.69
358.441	104.69
358.668	105.69
358.895	109.69
359.122	99.69
359.349	109.69
359.576	115.69
359.802	104.69
360.029	95.69
360.256	118.69
360.483	98.69
360.709	97.69
360.936	124.69
361.163	101.69
361.39	120.69
361.616	110.69
361.843	115.69
362.07	120.69
362.296	111.69
362.523	109.69
362.749	126.69
362.976	96.69
363.203	117.69
363.429	117.69
363.656	111.69
363.882	107.69
364.109	115.69
364.335	96.69
364.562	120.69
364.788	98.69
365.015	97.69
365.241	110.69
365.468	119.69
365.694	93.69
365.92	111.69
366.147	108.69
366.373	110.69
366.599	109.69
366.826	106.69
367.052	105.69
367.278	103.69
367.505	115.69
367.731	121.69
367.957	107.69
368.184	102.69
368.41	108.69
368.636	118.69
368.862	100.69
369.089	125.69
369.315	109.69
369.541	103.69
369.767	111.69
369.993	122.69
370.219	109.69
370.445	112.69
370.672	106.69
370.898	101.69
371.124	110.69
371.35	119.69
371.576	107.69
371.802	108.69
372.028	104.69
372.254	117.69
372.48	112.69
372.706	110.69
372.932	120.69
373.158	112.69
373.384	113.69
373.61	113.69
373.835	131.69
374.061	113.69
374.287	103.69
374.513	95.69
374.739	107.69
374.965	117.69
375.191	117.69
375.416	107.69
375.642	101.69
375.868	107.69
376.094	114.69
376.319	105.69
376.545	101.69
376.771	111.69
376.997	106.69
377.222	118.69
377.448	112.69
377.674	112.69
377.899	103.69
378.125	97.69
378.35	121.69
378.576	111.69
378.802	105.69
379.027	119.69
379.253	116.69
379.478	116.69
379.704	123.69
379.929	109.69
380.155	104.69
380.38	111.69
380.606	96.69
380.831	105.69
381.057	125.69
381.282	112.69
381.507	123.69
381.733	123.69
381.958	126.69
382.184	122.69
382.409	112.69
382.634	116.69
382.86	123.69
383.085	123.69
383.31	132.69
383.535	125.69
383.761	120.69
383.986	111.69
384.211	104.69
384.436	119.69
384.662	124.69
384.887	115.69
385.112	126.69
385.337	117.69
385.562	119.69
385.787	105.69
386.013	125.69
386.238	137.69
386.463	135.69
386.688	141.69
386.913	124.69
387.138	117.69
387.363	120.69
387.588	119.69
387.813	135.69
388.038	119.69
388.263	133.69
388.488	138.69
388.713	125.69
388.938	114.69
389.163	131.69
389.387	132.69
389.612	121.69
389.837	127.69
390.062	127.69
390.287	122.69
390.512	121.69
390.736	128.69
390.961	134.69
391.186	141.69
391.411	133.69
391.636	138.69
391.86	140.69
392.085	141.69
392.31	127.69
392.534	123.69
392.759	122.69
392.984	126.69
393.208	119.69
393.433	137.69
393.658	136.69
393.882	148.69
394.107	116.69
394.331	128.69
394.556	137.69
394.78	122.69
395.005	140.69
395.229	139.69
395.454	142.69
395.678	137.69
395.903	150.69
396.127	117.69
396.352	132.69
396.576	132.69
396.801	133.69
397.025	143.69
397.249	143.69
397.474	150.69
397.698	149.69
397.922	138.69
398.147	145.69
398.371	142.69
398.595	134.69
398.82	152.69
399.044	164.69
399.268	151.69
399.492	176.69
399.717	182.69
399.941	173.69
400.165	182.69
400.389	156.69
400.613	150.69
400.837	143.69
401.062	154.69
401.286	150.69
401.51	152.69
401.734	146.69
401.958	165.69
402.182	151.69
402.406	150.69
402.63	164.69
402.854	165.69
403.078	165.69
403.302	145.69
403.526	172.69
403.75	173.69
403.974	171.69
404.198	170.69
404.422	152.69
404.645	168.69
404.869	164.69
405.093	179.69
405.317	166.69
405.541	176.69
405.765	182.69
405.988	149.69
406.212	161.69
406.436	158.69
406.66	179.69
406.883	169.69
407.107	191.69
407.331	166.69
407.555	167.69
407.778	169.69
408.002	165.69
408.226	153.69
408.449	153.69
408.673	174.69
408.896	176.69
409.12	174.69
409.344	189.69
409.567	180.69
409.791	172.69
410.014	151.69
410.238	189.69
410.461	162.69
410.685	176.69
410.908	170.69
411.132	171.69
411.355	183.69
411.578	177.69
411.802	171.69
412.025	166.69
412.249	172.69
412.472	160.69
412.695	169.69
412.919	165.69
413.142	170.69
413.365	183.69
413.589	180.69
413.812	164.69
414.035	175.69
414.258	181.69
414.482	164.69
414.705	166.69
414.928	175.69
415.151	168.69
415.374	170.69
415.597	171.69
415.821	165.69
416.044	174.69
416.267	170.69
416.49	168.69
416.713	167.69
416.936	165.69
417.159	165.69
417.382	164.69
417.605	167.69
417.828	158.69
418.051	156.69
418.274	175.69
418.497	177.69
418.72	191.69
418.943	182.69
419.166	190.69
419.389	188.69
419.611	183.69
419.834	161.69
420.057	177.69
420.28	178.69
420.503	167.69
420.726	171.69
420.948	166.69
421.171	185.69
421.394	181.69
421.617	183.69
421.839	166.69
422.062	176.69
422.285	174.69
422.507	160.69
422.73	165.69
422.953	184.69
423.175	165.69
423.398	181.69
423.621	186.69
423.843	192.69
424.066	177.69
424.288	185.69
424.511	182.69
424.733	175.69
424.956	176.69
425.178	182.69
425.401	183.69
425.623	165.69
425.846	170.69
426.068	165.69
426.291	162.69
426.513	180.69
426.735	191.69
426.958	172.69
427.18	175.69
427.402	162.69
427.625	153.69
427.847	154.69
428.069	165.69
428.292	169.69
428.514	171.69
428.736	178.69
428.958	164.69
429.181	153.69
429.403	146.69
429.625	158.69
429.847	168.69
430.069	165.69
430.292	142.69
430.514	157.69
430.736	154.69
430.958	152.69
431.18	165.69
431.402	158.69
431.624	153.69
431.846	152.69
432.068	152.69
432.29	135.69
432.512	157.69
432.734	148.69
432.956	153.69
433.178	177.69
433.4	182.69
433.622	181.69
433.844	161.69
434.066	167.69
434.287	159.69
434.509	146.69
434.731	157.69
434.953	176.69
435.175	169.69
435.397	170.69
435.618	146.69
435.84	172.69
436.062	144.69
436.284	157.69
436.505	160.69
436.727	175.69
436.949	159.69
437.17	160.69
437.392	170.69
437.614	162.69
437.835	147.69
438.057	151.69
438.278	148.69
438.5	144.69
438.721	172.69
438.943	174.69
439.165	175.69
439.386	169.69
439.608	158.69
439.829	167.69
440.05	170.69
440.272	159.69
440.493	170.69
440.715	169.69
440.936	182.69
441.158	161.69
441.379	177.69
441.6	188.69
441.822	198.69
442.043	182.69
442.264	181.69
442.486	169.69
442.707	162.69
442.928	178.69
443.149	166.69
443.371	166.69
443.592	169.69
443.813	171.69
444.034	184.69
444.255	175.69
444.476	196.69
444.698	197.69
444.919	168.69
445.14	363.69
445.361	269.69
445.582	197.69
445.803	172.69
446.024	167.69
446.245	176.69
446.466	180.69
446.687	180.69
446.908	164.69
447.129	164.69
447.35	175.69
447.571	167.69
447.792	169.69
448.013	162.69
448.234	180.69
448.455	176.69
448.675	157.69
448.896	161.69
449.117	152.69
449.338	168.69
449.559	143.69
449.779	174.69
450	171.69
450.221	157.69
450.442	152.69
450.662	171.69
450.883	158.69
451.104	162.69
451.324	166.69
451.545	160.69
451.766	156.69
451.986	156.69
452.207	160.69
452.428	153.69
452.648	154.69
452.869	142.69
453.089	152.69
453.31	149.69
453.53	153.69
453.751	148.69
453.971	160.69
454.192	140.69
454.412	157.69
454.633	155.69
454.853	161.69
455.073	150.69
455.294	156.69
455.514	158.69
455.734	148.69
455.955	152.69
456.175	150.69
456.395	151.69
456.616	138.69
456.836	156.69
457.056	151.69
457.276	139.69
457.497	150.69
457.717	138.69
457.937	144.69
458.157	131.69
458.377	126.69
458.598	146.69
458.818	121.69
459.038	142.69
459.258	148.69
459.478	137.69
459.698	138.69
459.918	146.69
460.138	160.69
460.358	152.69
460.578	174.69
460.798	180.69
461.018	175.69
461.238	183.69
461.458	170.69
461.678	167.69
461.898	186.69
462.118	167.69
462.338	165.69
462.558	180.69
462.777	152.69
462.997	188.69
463.217	205.69
463.437	196.69
463.657	184.69
463.876	171.69
464.096	177.69
464.316	180.69
464.536	173.69
464.755	198.69
464.975	172.69
465.195	176.69
465.414	154.69
465.634	140.69
465.854	174.69
466.073	156.69
466.293	165.69
466.512	152.69
466.732	152.69
466.951	139.69
467.171	159.69
467.391	180.69
467.61	151.69
467.829	155.69
468.049	162.69
468.268	162.69
468.488	167.69
468.707	161.69
468.927	162.69
469.146	154.69
469.365	177.69
469.585	172.69
469.804	177.69
470.023	167.69
470.243	174.69
470.462	180.69
470.681	172.69
470.901	175.69
471.12	173.69
471.339	181.69
471.558	153.69
471.777	148.69
471.997	166.69
472.216	173.69
472.435	140.69
472.654	135.69
472.873	152.69
473.092	150.69
473.311	146.69
473.53	158.69
473.749	156.69
473.968	160.69
474.187	158.69
474.406	139.69
474.625	149.69
474.844	156.69
475.063	148.69
475.282	154.69
475.501	150.69
475.72	148.69
475.939	161.69
476.158	168.69
476.377	175.69
476.596	160.69
476.814	157.69
477.033	162.69
477.252	142.69
477.471	168.69
477.69	167.69
477.908	173.69
478.127	186.69
478.346	160.69
478.564	173.69
478.783	172.69
479.002	177.69
479.22	172.69
479.439	171.69
479.658	170.69
479.876	161.69
480.095	157.69
480.313	159.69
480.532	175.69
480.751	167.69
480.969	167.69
481.188	138.69
481.406	143.69
481.624	143.69
481.843	163.69
482.061	161.69
482.28	160.69
482.498	145.69
482.717	152.69
482.935	166.69
483.153	166.69
483.372	163.69
483.59	170.69
483.808	168.69
484.027	170.69
484.245	159.69
484.463	168.69
484.681	192.69
484.9	188.69
485.118	166.69
485.336	166.69
485.554	158.69
485.772	161.69
485.99	166.69
486.209	167.69
486.427	174.69
486.645	166.69
486.863	180.69
487.081	174.69
487.299	171.69
487.517	154.69
487.735	182.69
487.953	207.69
488.171	197.69
488.389	170.69
488.607	179.69
488.825	169.69
489.043	167.69
489.261	170.69
489.479	158.69
489.696	184.69
489.914	176.69
490.132	181.69
490.35	177.69
490.568	188.69
490.786	193.69
491.003	172.69
491.221	203.69
491.439	204.69
491.657	195.69
491.874	212.69
492.092	209.69
492.31	222.69
492.527	198.69
492.745	205.69
492.963	228.69
493.18	198.69
493.398	191.69
493.615	204.69
493.833	201.69
494.05	196.69
494.268	211.69
494.485	193.69
494.703	193.69
494.92	198.69
495.138	179.69
495.355	198.69
495.573	193.69
495.79	189.69
496.008	188.69
496.225	199.69
496.442	205.69
496.66	209.69
496.877	189.69
497.094	200.69
497.312	199.69
497.529	199.69
497.746	194.69
497.963	181.69
498.181	203.69
498.398	182.69
498.615	207.69
498.832	218.69
499.049	201.69
499.267	240.69
499.484	247.69
499.701	251.69
499.918	309.69
500.135	321.69
500.352	339.69
500.569	357.69
500.786	342.69
501.003	328.69
501.22	292.69
501.437	257.69
501.654	244.69
501.871	237.69
502.088	235.69
502.305	223.69
502.522	213.69
502.739	197.69
502.956	190.69
503.172	200.69
503.389	186.69
503.606	185.69
503.823	206.69
504.04	189.69
504.256	202.69
504.473	184.69
504.69	197.69
504.907	202.69
505.123	167.69
505.34	187.69
505.557	180.69
505.773	162.69
505.99	181.69
506.207	163.69
506.423	148.69
