Data from SampA_HRD10591_00018.txt Node
Date: Mon Jan 19 11:26:52 EST 2026
User: Yrep
Spectrometer: HR+D1059
Trigger mode: 0
Integration Time (sec): 3.443000E-1
Scans to average: 1
Electric dark correction enabled: true
Nonlinearity correction enabled: false
Boxcar width: 0
XAxis mode: Wavelengths
Number of Pixels in Spectrum: 2048
>>>>>Begin Spectral Data<<<<<
223.165	-32.06
223.4	-32.06
223.635	-32.06
223.869	-26.06
224.104	-31.06
224.338	-9.06
224.573	-6.06
224.808	5.94
225.042	0.94
225.277	-21.06
225.511	-0.06
225.746	18.94
225.98	-8.06
226.215	2.94
226.449	8.94
226.683	24.94
226.918	32.94
227.152	37.94
227.387	42.94
227.621	43.94
227.856	52.94
228.09	55.94
228.324	47.94
228.559	69.94
228.793	71.94
229.027	77.94
229.262	54.94
229.496	91.94
229.73	80.94
229.964	72.94
230.199	66.94
230.433	76.94
230.667	98.94
230.901	84.94
231.136	76.94
231.37	76.94
231.604	87.94
231.838	79.94
232.072	93.94
232.306	84.94
232.541	90.94
232.775	87.94
233.009	84.94
233.243	75.94
233.477	85.94
233.711	95.94
233.945	81.94
234.179	84.94
234.413	110.94
234.647	77.94
234.881	66.94
235.115	81.94
235.349	92.94
235.583	80.94
235.817	85.94
236.051	74.94
236.285	78.94
236.519	91.94
236.753	71.94
236.987	78.94
237.221	83.94
237.455	74.94
237.689	76.94
237.922	75.94
238.156	86.94
238.39	81.94
238.624	66.94
238.858	80.94
239.091	76.94
239.325	85.94
239.559	84.94
239.793	84.94
240.027	81.94
240.26	79.94
240.494	77.94
240.728	80.94
240.961	76.94
241.195	84.94
241.429	91.94
241.662	79.94
241.896	90.94
242.13	80.94
242.363	72.94
242.597	84.94
242.83	84.94
243.064	82.94
243.298	77.94
243.531	77.94
243.765	77.94
243.998	72.94
244.232	81.94
244.465	104.94
244.699	76.94
244.932	75.94
245.166	76.94
245.399	94.94
245.633	92.94
245.866	77.94
246.099	68.94
246.333	78.94
246.566	71.94
246.8	91.94
247.033	79.94
247.266	86.94
247.5	80.94
247.733	97.94
247.966	87.94
248.2	77.94
248.433	75.94
248.666	80.94
248.899	76.94
249.133	86.94
249.366	97.94
249.599	79.94
249.832	90.94
250.066	111.94
250.299	84.94
250.532	94.94
250.765	88.94
250.998	86.94
251.231	80.94
251.465	93.94
251.698	89.94
251.931	86.94
252.164	98.94
252.397	86.94
252.63	77.94
252.863	84.94
253.096	80.94
253.329	94.94
253.562	77.94
253.795	81.94
254.028	86.94
254.261	92.94
254.494	92.94
254.727	90.94
254.96	80.94
255.193	96.94
255.426	78.94
255.659	75.94
255.892	83.94
256.124	93.94
256.357	90.94
256.59	92.94
256.823	91.94
257.056	93.94
257.289	85.94
257.521	93.94
257.754	88.94
257.987	99.94
258.22	90.94
258.452	96.94
258.685	102.94
258.918	68.94
259.151	79.94
259.383	96.94
259.616	94.94
259.849	88.94
260.081	103.94
260.314	85.94
260.547	82.94
260.779	90.94
261.012	81.94
261.244	88.94
261.477	102.94
261.71	93.94
261.942	80.94
262.175	85.94
262.407	98.94
262.64	95.94
262.872	95.94
263.105	87.94
263.337	104.94
263.57	85.94
263.802	101.94
264.035	89.94
264.267	81.94
264.499	102.94
264.732	84.94
264.964	92.94
265.197	91.94
265.429	96.94
265.661	92.94
265.894	94.94
266.126	104.94
266.358	103.94
266.591	100.94
266.823	97.94
267.055	93.94
267.287	96.94
267.52	104.94
267.752	100.94
267.984	95.94
268.216	92.94
268.448	110.94
268.681	99.94
268.913	88.94
269.145	92.94
269.377	94.94
269.609	81.94
269.841	92.94
270.073	88.94
270.306	105.94
270.538	101.94
270.77	77.94
271.002	79.94
271.234	87.94
271.466	94.94
271.698	71.94
271.93	97.94
272.162	102.94
272.394	114.94
272.626	90.94
272.858	84.94
273.09	92.94
273.322	100.94
273.553	77.94
273.785	87.94
274.017	90.94
274.249	111.94
274.481	83.94
274.713	85.94
274.945	95.94
275.176	98.94
275.408	98.94
275.64	101.94
275.872	103.94
276.104	107.94
276.335	92.94
276.567	91.94
276.799	100.94
277.031	92.94
277.262	78.94
277.494	97.94
277.726	105.94
277.957	94.94
278.189	104.94
278.421	89.94
278.652	93.94
278.884	91.94
279.115	97.94
279.347	93.94
279.579	109.94
279.81	95.94
280.042	92.94
280.273	101.94
280.505	96.94
280.736	91.94
280.968	97.94
281.199	116.94
281.431	86.94
281.662	96.94
281.894	90.94
282.125	92.94
282.356	89.94
282.588	95.94
282.819	114.94
283.051	97.94
283.282	80.94
283.513	101.94
283.745	98.94
283.976	110.94
284.207	95.94
284.439	112.94
284.67	100.94
284.901	105.94
285.132	98.94
285.364	104.94
285.595	96.94
285.826	94.94
286.057	103.94
286.288	113.94
286.52	110.94
286.751	95.94
286.982	94.94
287.213	85.94
287.444	104.94
287.675	94.94
287.906	107.94
288.138	118.94
288.369	102.94
288.6	96.94
288.831	106.94
289.062	102.94
289.293	100.94
289.524	109.94
289.755	93.94
289.986	111.94
290.217	111.94
290.448	102.94
290.679	98.94
290.91	117.94
291.141	108.94
291.371	104.94
291.602	110.94
291.833	107.94
292.064	98.94
292.295	107.94
292.526	107.94
292.757	102.94
292.987	93.94
293.218	104.94
293.449	98.94
293.68	107.94
293.91	104.94
294.141	105.94
294.372	94.94
294.603	108.94
294.833	101.94
295.064	99.94
295.295	105.94
295.525	85.94
295.756	113.94
295.987	101.94
296.217	89.94
296.448	105.94
296.679	97.94
296.909	107.94
297.14	111.94
297.37	108.94
297.601	100.94
297.831	95.94
298.062	100.94
298.292	110.94
298.523	112.94
298.753	108.94
298.984	109.94
299.214	108.94
299.445	93.94
299.675	107.94
299.905	109.94
300.136	101.94
300.366	95.94
300.597	97.94
300.827	111.94
301.057	98.94
301.288	112.94
301.518	115.94
301.748	108.94
301.979	144.94
302.209	103.94
302.439	111.94
302.669	113.94
302.9	104.94
303.13	116.94
303.36	118.94
303.59	96.94
303.82	100.94
304.051	101.94
304.281	114.94
304.511	103.94
304.741	106.94
304.971	118.94
305.201	110.94
305.431	111.94
305.661	96.94
305.891	107.94
306.121	108.94
306.352	103.94
306.582	94.94
306.812	108.94
307.042	100.94
307.272	94.94
307.502	94.94
307.731	105.94
307.961	98.94
308.191	89.94
308.421	95.94
308.651	109.94
308.881	124.94
309.111	122.94
309.341	102.94
309.571	110.94
309.8	104.94
310.03	104.94
310.26	102.94
310.49	109.94
310.72	99.94
310.949	108.94
311.179	104.94
311.409	101.94
311.639	98.94
311.868	100.94
312.098	97.94
312.328	105.94
312.557	117.94
312.787	104.94
313.017	104.94
313.246	119.94
313.476	109.94
313.706	105.94
313.935	104.94
314.165	111.94
314.394	115.94
314.624	115.94
314.853	123.94
315.083	110.94
315.312	105.94
315.542	91.94
315.771	118.94
316.001	101.94
316.23	125.94
316.46	94.94
316.689	105.94
316.919	110.94
317.148	105.94
317.377	125.94
317.607	110.94
317.836	87.94
318.065	96.94
318.295	109.94
318.524	102.94
318.753	98.94
318.983	111.94
319.212	108.94
319.441	120.94
319.67	105.94
319.9	112.94
320.129	99.94
320.358	113.94
320.587	124.94
320.816	93.94
321.046	101.94
321.275	117.94
321.504	111.94
321.733	97.94
321.962	120.94
322.191	107.94
322.42	118.94
322.649	120.94
322.878	101.94
323.108	125.94
323.337	105.94
323.566	96.94
323.795	110.94
324.024	122.94
324.253	108.94
324.482	97.94
324.71	102.94
324.939	114.94
325.168	99.94
325.397	92.94
325.626	115.94
325.855	109.94
326.084	108.94
326.313	101.94
326.542	104.94
326.77	133.94
326.999	93.94
327.228	100.94
327.457	113.94
327.686	109.94
327.914	98.94
328.143	110.94
328.372	102.94
328.6	111.94
328.829	107.94
329.058	93.94
329.287	119.94
329.515	106.94
329.744	97.94
329.972	114.94
330.201	106.94
330.43	106.94
330.658	95.94
330.887	103.94
331.115	115.94
331.344	117.94
331.572	122.94
331.801	95.94
332.03	125.94
332.258	117.94
332.486	113.94
332.715	117.94
332.943	130.94
333.172	117.94
333.4	117.94
333.629	136.94
333.857	109.94
334.085	120.94
334.314	132.94
334.542	117.94
334.771	119.94
334.999	135.94
335.227	108.94
335.455	122.94
335.684	122.94
335.912	119.94
336.14	125.94
336.369	116.94
336.597	117.94
336.825	114.94
337.053	112.94
337.281	113.94
337.51	116.94
337.738	125.94
337.966	102.94
338.194	118.94
338.422	139.94
338.65	104.94
338.878	105.94
339.106	116.94
339.334	120.94
339.562	120.94
339.79	93.94
340.018	113.94
340.246	117.94
340.474	118.94
340.702	118.94
340.93	108.94
341.158	103.94
341.386	116.94
341.614	88.94
341.842	121.94
342.07	99.94
342.298	117.94
342.526	105.94
342.754	103.94
342.981	100.94
343.209	122.94
343.437	137.94
343.665	114.94
343.893	124.94
344.12	126.94
344.348	111.94
344.576	116.94
344.804	114.94
345.031	122.94
345.259	127.94
345.487	119.94
345.714	108.94
345.942	95.94
346.17	116.94
346.397	95.94
346.625	94.94
346.853	101.94
347.08	100.94
347.308	94.94
347.535	116.94
347.763	108.94
347.99	118.94
348.218	106.94
348.445	104.94
348.673	102.94
348.9	123.94
349.128	116.94
349.355	107.94
349.583	125.94
349.81	93.94
350.037	106.94
350.265	108.94
350.492	113.94
350.72	113.94
350.947	114.94
351.174	104.94
351.402	105.94
351.629	104.94
351.856	111.94
352.083	105.94
352.311	108.94
352.538	108.94
352.765	103.94
352.992	119.94
353.22	106.94
353.447	101.94
353.674	120.94
353.901	106.94
354.128	111.94
354.355	114.94
354.583	117.94
354.81	119.94
355.037	134.94
355.264	125.94
355.491	108.94
355.718	114.94
355.945	105.94
356.172	102.94
356.399	108.94
356.626	106.94
356.853	98.94
357.08	119.94
357.307	100.94
357.534	109.94
357.761	98.94
357.988	129.94
358.215	127.94
358.441	112.94
358.668	119.94
358.895	122.94
359.122	123.94
359.349	112.94
359.576	97.94
359.802	107.94
360.029	109.94
360.256	102.94
360.483	104.94
360.709	105.94
360.936	110.94
361.163	98.94
361.39	102.94
361.616	115.94
361.843	104.94
362.07	113.94
362.296	101.94
362.523	106.94
362.749	110.94
362.976	102.94
363.203	110.94
363.429	104.94
363.656	113.94
363.882	101.94
364.109	111.94
364.335	109.94
364.562	112.94
364.788	114.94
365.015	122.94
365.241	124.94
365.468	119.94
365.694	110.94
365.92	108.94
366.147	105.94
366.373	114.94
366.599	107.94
366.826	125.94
367.052	118.94
367.278	112.94
367.505	115.94
367.731	136.94
367.957	125.94
368.184	112.94
368.41	119.94
368.636	110.94
368.862	125.94
369.089	95.94
369.315	92.94
369.541	111.94
369.767	122.94
369.993	120.94
370.219	106.94
370.445	109.94
370.672	113.94
370.898	120.94
371.124	108.94
371.35	117.94
371.576	122.94
371.802	118.94
372.028	108.94
372.254	111.94
372.48	108.94
372.706	111.94
372.932	104.94
373.158	114.94
373.384	113.94
373.61	122.94
373.835	108.94
374.061	109.94
374.287	118.94
374.513	123.94
374.739	106.94
374.965	122.94
375.191	112.94
375.416	116.94
375.642	109.94
375.868	127.94
376.094	119.94
376.319	109.94
376.545	112.94
376.771	115.94
376.997	114.94
377.222	114.94
377.448	115.94
377.674	100.94
377.899	121.94
378.125	118.94
378.35	115.94
378.576	103.94
378.802	108.94
379.027	110.94
379.253	103.94
379.478	112.94
379.704	110.94
379.929	112.94
380.155	113.94
380.38	118.94
380.606	108.94
380.831	117.94
381.057	124.94
381.282	106.94
381.507	120.94
381.733	111.94
381.958	106.94
382.184	105.94
382.409	118.94
382.634	122.94
382.86	121.94
383.085	122.94
383.31	116.94
383.535	119.94
383.761	134.94
383.986	135.94
384.211	122.94
384.436	125.94
384.662	129.94
384.887	123.94
385.112	110.94
385.337	128.94
385.562	119.94
385.787	118.94
386.013	134.94
386.238	131.94
386.463	132.94
386.688	149.94
386.913	108.94
387.138	110.94
387.363	133.94
387.588	139.94
387.813	129.94
388.038	123.94
388.263	111.94
388.488	127.94
388.713	129.94
388.938	118.94
389.163	125.94
389.387	117.94
389.612	117.94
389.837	127.94
390.062	152.94
390.287	137.94
390.512	136.94
390.736	135.94
390.961	127.94
391.186	124.94
391.411	136.94
391.636	126.94
391.86	144.94
392.085	134.94
392.31	143.94
392.534	122.94
392.759	137.94
392.984	129.94
393.208	125.94
393.433	152.94
393.658	148.94
393.882	124.94
394.107	143.94
394.331	133.94
394.556	122.94
394.78	138.94
395.005	129.94
395.229	127.94
395.454	143.94
395.678	128.94
395.903	161.94
396.127	159.94
396.352	145.94
396.576	142.94
396.801	133.94
397.025	130.94
397.249	119.94
397.474	156.94
397.698	152.94
397.922	166.94
398.147	128.94
398.371	139.94
398.595	162.94
398.82	150.94
399.044	148.94
399.268	169.94
399.492	169.94
399.717	190.94
399.941	175.94
400.165	174.94
400.389	161.94
400.613	170.94
400.837	158.94
401.062	164.94
401.286	146.94
401.51	164.94
401.734	161.94
401.958	148.94
402.182	174.94
402.406	166.94
402.63	172.94
402.854	169.94
403.078	167.94
403.302	174.94
403.526	167.94
403.75	188.94
403.974	156.94
404.198	176.94
404.422	167.94
404.645	149.94
404.869	187.94
405.093	170.94
405.317	169.94
405.541	175.94
405.765	173.94
405.988	159.94
406.212	175.94
406.436	178.94
406.66	187.94
406.883	172.94
407.107	175.94
407.331	189.94
407.555	196.94
407.778	204.94
408.002	190.94
408.226	180.94
408.449	185.94
408.673	170.94
408.896	173.94
409.12	178.94
409.344	190.94
409.567	193.94
409.791	192.94
410.014	189.94
410.238	185.94
410.461	174.94
410.685	180.94
410.908	180.94
411.132	175.94
411.355	156.94
411.578	181.94
411.802	173.94
412.025	178.94
412.249	155.94
412.472	169.94
412.695	180.94
412.919	156.94
413.142	176.94
413.365	180.94
413.589	170.94
413.812	176.94
414.035	170.94
414.258	171.94
414.482	174.94
414.705	182.94
414.928	189.94
415.151	178.94
415.374	170.94
415.597	158.94
415.821	174.94
416.044	182.94
416.267	181.94
416.49	173.94
416.713	164.94
416.936	168.94
417.159	168.94
417.382	180.94
417.605	160.94
417.828	173.94
418.051	168.94
418.274	177.94
418.497	165.94
418.72	192.94
418.943	176.94
419.166	173.94
419.389	191.94
419.611	182.94
419.834	183.94
420.057	191.94
420.28	177.94
420.503	168.94
420.726	177.94
420.948	180.94
421.171	198.94
421.394	188.94
421.617	191.94
421.839	183.94
422.062	172.94
422.285	159.94
422.507	181.94
422.73	161.94
422.953	191.94
423.175	167.94
423.398	188.94
423.621	168.94
423.843	182.94
424.066	198.94
424.288	188.94
424.511	197.94
424.733	167.94
424.956	197.94
425.178	184.94
425.401	175.94
425.623	197.94
425.846	194.94
426.068	157.94
426.291	172.94
426.513	180.94
426.735	175.94
426.958	181.94
427.18	178.94
427.402	178.94
427.625	171.94
427.847	173.94
428.069	169.94
428.292	159.94
428.514	141.94
428.736	162.94
428.958	166.94
429.181	171.94
429.403	173.94
429.625	176.94
429.847	160.94
430.069	165.94
430.292	169.94
430.514	169.94
430.736	168.94
430.958	156.94
431.18	162.94
431.402	161.94
431.624	160.94
431.846	151.94
432.068	143.94
432.29	141.94
432.512	170.94
432.734	169.94
432.956	176.94
433.178	183.94
433.4	173.94
433.622	181.94
433.844	192.94
434.066	153.94
434.287	166.94
434.509	173.94
434.731	166.94
434.953	174.94
435.175	176.94
435.397	175.94
435.618	173.94
435.84	172.94
436.062	160.94
436.284	159.94
436.505	172.94
436.727	151.94
436.949	164.94
437.17	158.94
437.392	155.94
437.614	152.94
437.835	154.94
438.057	155.94
438.278	162.94
438.5	154.94
438.721	162.94
438.943	172.94
439.165	181.94
439.386	173.94
439.608	182.94
439.829	170.94
440.05	189.94
440.272	188.94
440.493	167.94
440.715	179.94
440.936	180.94
441.158	186.94
441.379	188.94
441.6	192.94
441.822	186.94
442.043	184.94
442.264	193.94
442.486	184.94
442.707	192.94
442.928	188.94
443.149	190.94
443.371	194.94
443.592	170.94
443.813	167.94
444.034	151.94
444.255	179.94
444.476	200.94
444.698	188.94
444.919	198.94
445.14	366.94
445.361	266.94
445.582	199.94
445.803	171.94
446.024	170.94
446.245	188.94
446.466	196.94
446.687	178.94
446.908	178.94
447.129	180.94
447.35	172.94
447.571	169.94
447.792	166.94
448.013	169.94
448.234	175.94
448.455	164.94
448.675	168.94
448.896	178.94
449.117	157.94
449.338	168.94
449.559	170.94
449.779	165.94
450	143.94
450.221	164.94
450.442	151.94
450.662	166.94
450.883	158.94
451.104	169.94
451.324	165.94
451.545	165.94
451.766	169.94
451.986	155.94
452.207	162.94
452.428	156.94
452.648	149.94
452.869	134.94
453.089	146.94
453.31	137.94
453.53	139.94
453.751	147.94
453.971	156.94
454.192	161.94
454.412	135.94
454.633	144.94
454.853	153.94
455.073	155.94
455.294	164.94
455.514	168.94
455.734	169.94
455.955	149.94
456.175	139.94
456.395	148.94
456.616	134.94
456.836	162.94
457.056	154.94
457.276	137.94
457.497	142.94
457.717	143.94
457.937	149.94
458.157	152.94
458.377	149.94
458.598	147.94
458.818	139.94
459.038	137.94
459.258	158.94
459.478	146.94
459.698	160.94
459.918	164.94
460.138	160.94
460.358	174.94
460.578	158.94
460.798	166.94
461.018	170.94
461.238	170.94
461.458	181.94
461.678	167.94
461.898	174.94
462.118	166.94
462.338	170.94
462.558	182.94
462.777	174.94
462.997	200.94
463.217	208.94
463.437	193.94
463.657	189.94
463.876	166.94
464.096	177.94
464.316	182.94
464.536	188.94
464.755	193.94
464.975	178.94
465.195	173.94
465.414	164.94
465.634	163.94
465.854	176.94
466.073	175.94
466.293	164.94
466.512	170.94
466.732	154.94
466.951	164.94
467.171	184.94
467.391	169.94
467.61	162.94
467.829	162.94
468.049	163.94
468.268	177.94
468.488	175.94
468.707	154.94
468.927	172.94
469.146	170.94
469.365	175.94
469.585	166.94
469.804	163.94
470.023	175.94
470.243	171.94
470.462	176.94
470.681	171.94
470.901	174.94
471.12	179.94
471.339	170.94
471.558	167.94
471.777	160.94
471.997	175.94
472.216	162.94
472.435	169.94
472.654	155.94
472.873	157.94
473.092	165.94
473.311	156.94
473.53	153.94
473.749	168.94
473.968	169.94
474.187	158.94
474.406	141.94
474.625	160.94
474.844	174.94
475.063	170.94
475.282	158.94
475.501	154.94
475.72	152.94
475.939	151.94
476.158	178.94
476.377	176.94
476.596	151.94
476.814	154.94
477.033	156.94
477.252	152.94
477.471	180.94
477.69	165.94
477.908	170.94
478.127	179.94
478.346	170.94
478.564	177.94
478.783	186.94
479.002	181.94
479.22	192.94
479.439	183.94
479.658	163.94
479.876	162.94
480.095	159.94
480.313	176.94
480.532	168.94
480.751	154.94
480.969	164.94
481.188	151.94
481.406	169.94
481.624	156.94
481.843	160.94
482.061	161.94
482.28	172.94
482.498	165.94
482.717	161.94
482.935	172.94
483.153	166.94
483.372	174.94
483.59	174.94
483.808	180.94
484.027	166.94
484.245	163.94
484.463	173.94
484.681	200.94
484.9	186.94
485.118	182.94
485.336	170.94
485.554	175.94
485.772	180.94
485.99	160.94
486.209	156.94
486.427	168.94
486.645	165.94
486.863	180.94
487.081	150.94
487.299	169.94
487.517	189.94
487.735	200.94
487.953	216.94
488.171	191.94
488.389	186.94
488.607	175.94
488.825	153.94
489.043	160.94
489.261	178.94
489.479	162.94
489.696	169.94
489.914	181.94
490.132	199.94
490.35	190.94
490.568	182.94
490.786	198.94
491.003	198.94
491.221	198.94
491.439	196.94
491.657	198.94
491.874	206.94
492.092	216.94
492.31	237.94
492.527	220.94
492.745	194.94
492.963	215.94
493.18	208.94
493.398	207.94
493.615	213.94
493.833	188.94
494.05	216.94
494.268	200.94
494.485	201.94
494.703	204.94
494.92	196.94
495.138	206.94
495.355	209.94
495.573	194.94
495.79	203.94
496.008	207.94
496.225	177.94
496.442	196.94
496.66	208.94
496.877	217.94
497.094	209.94
497.312	189.94
497.529	196.94
497.746	206.94
497.963	196.94
498.181	202.94
498.398	192.94
498.615	208.94
498.832	189.94
499.049	232.94
499.267	240.94
499.484	240.94
499.701	261.94
499.918	304.94
500.135	340.94
500.352	364.94
500.569	346.94
500.786	366.94
501.003	305.94
501.22	299.94
501.437	282.94
501.654	242.94
501.871	223.94
502.088	226.94
502.305	206.94
502.522	202.94
502.739	219.94
502.956	191.94
503.172	198.94
503.389	192.94
503.606	184.94
503.823	193.94
504.04	196.94
504.256	194.94
504.473	182.94
504.69	173.94
504.907	210.94
505.123	181.94
505.34	166.94
505.557	181.94
505.773	165.94
505.99	168.94
506.207	165.94
506.423	164.94
