Data from SampA_HRD10591_00030.txt Node
Date: Mon Jan 19 11:26:56 EST 2026
User: Yrep
Spectrometer: HR+D1059
Trigger mode: 0
Integration Time (sec): 3.443000E-1
Scans to average: 1
Electric dark correction enabled: true
Nonlinearity correction enabled: false
Boxcar width: 0
XAxis mode: Wavelengths
Number of Pixels in Spectrum: 2048
>>>>>Begin Spectral Data<<<<<
223.165	-28.69
223.4	-28.69
223.635	-28.69
223.869	-27.69
224.104	-44.69
224.338	-4.69
224.573	-14.69
224.808	-5.69
225.042	2.31
225.277	7.31
225.511	1.31
225.746	17.31
225.98	2.31
226.215	9.31
226.449	16.31
226.683	23.31
226.918	20.31
227.152	26.31
227.387	35.31
227.621	25.31
227.856	51.31
228.09	35.31
228.324	56.31
228.559	67.31
228.793	65.31
229.027	65.31
229.262	60.31
229.496	63.31
229.73	69.31
229.964	72.31
230.199	71.31
230.433	49.31
230.667	90.31
230.901	83.31
231.136	73.31
231.37	83.31
231.604	87.31
231.838	67.31
232.072	82.31
232.306	79.31
232.541	100.31
232.775	85.31
233.009	88.31
233.243	77.31
233.477	90.31
233.711	104.31
233.945	74.31
234.179	89.31
234.413	87.31
234.647	64.31
234.881	79.31
235.115	79.31
235.349	81.31
235.583	87.31
235.817	84.31
236.051	87.31
236.285	75.31
236.519	68.31
236.753	75.31
236.987	92.31
237.221	64.31
237.455	83.31
237.689	67.31
237.922	37.31
238.156	66.31
238.39	89.31
238.624	74.31
238.858	86.31
239.091	79.31
239.325	64.31
239.559	74.31
239.793	76.31
240.027	93.31
240.26	73.31
240.494	87.31
240.728	83.31
240.961	84.31
241.195	85.31
241.429	79.31
241.662	75.31
241.896	79.31
242.13	92.31
242.363	72.31
242.597	87.31
242.83	73.31
243.064	77.31
243.298	93.31
243.531	63.31
243.765	65.31
243.998	85.31
244.232	95.31
244.465	102.31
244.699	83.31
244.932	86.31
245.166	92.31
245.399	81.31
245.633	67.31
245.866	70.31
246.099	85.31
246.333	69.31
246.566	85.31
246.8	91.31
247.033	84.31
247.266	85.31
247.5	83.31
247.733	95.31
247.966	77.31
248.2	88.31
248.433	73.31
248.666	84.31
248.899	91.31
249.133	81.31
249.366	103.31
249.599	92.31
249.832	75.31
250.066	99.31
250.299	91.31
250.532	90.31
250.765	85.31
250.998	88.31
251.231	99.31
251.465	74.31
251.698	97.31
251.931	94.31
252.164	100.31
252.397	89.31
252.63	82.31
252.863	84.31
253.096	76.31
253.329	102.31
253.562	97.31
253.795	93.31
254.028	95.31
254.261	94.31
254.494	81.31
254.727	102.31
254.96	95.31
255.193	77.31
255.426	89.31
255.659	83.31
255.892	84.31
256.124	94.31
256.357	87.31
256.59	99.31
256.823	92.31
257.056	86.31
257.289	81.31
257.521	89.31
257.754	84.31
257.987	83.31
258.22	103.31
258.452	85.31
258.685	85.31
258.918	89.31
259.151	107.31
259.383	106.31
259.616	91.31
259.849	89.31
260.081	92.31
260.314	88.31
260.547	78.31
260.779	102.31
261.012	103.31
261.244	98.31
261.477	99.31
261.71	98.31
261.942	105.31
262.175	93.31
262.407	83.31
262.64	94.31
262.872	104.31
263.105	88.31
263.337	99.31
263.57	93.31
263.802	97.31
264.035	97.31
264.267	103.31
264.499	90.31
264.732	97.31
264.964	105.31
265.197	93.31
265.429	103.31
265.661	85.31
265.894	98.31
266.126	110.31
266.358	88.31
266.591	106.31
266.823	98.31
267.055	95.31
267.287	92.31
267.52	104.31
267.752	93.31
267.984	116.31
268.216	100.31
268.448	103.31
268.681	112.31
268.913	99.31
269.145	101.31
269.377	98.31
269.609	97.31
269.841	97.31
270.073	104.31
270.306	97.31
270.538	91.31
270.77	101.31
271.002	99.31
271.234	109.31
271.466	111.31
271.698	110.31
271.93	101.31
272.162	105.31
272.394	107.31
272.626	91.31
272.858	99.31
273.09	97.31
273.322	101.31
273.553	91.31
273.785	97.31
274.017	107.31
274.249	112.31
274.481	108.31
274.713	108.31
274.945	109.31
275.176	96.31
275.408	101.31
275.64	105.31
275.872	112.31
276.104	100.31
276.335	103.31
276.567	100.31
276.799	108.31
277.031	101.31
277.262	105.31
277.494	108.31
277.726	98.31
277.957	98.31
278.189	111.31
278.421	93.31
278.652	103.31
278.884	108.31
279.115	123.31
279.347	109.31
279.579	111.31
279.81	100.31
280.042	116.31
280.273	106.31
280.505	109.31
280.736	95.31
280.968	103.31
281.199	121.31
281.431	124.31
281.662	120.31
281.894	116.31
282.125	119.31
282.356	114.31
282.588	94.31
282.819	105.31
283.051	108.31
283.282	100.31
283.513	124.31
283.745	113.31
283.976	100.31
284.207	124.31
284.439	108.31
284.67	114.31
284.901	115.31
285.132	109.31
285.364	128.31
285.595	126.31
285.826	125.31
286.057	106.31
286.288	119.31
286.52	117.31
286.751	105.31
286.982	129.31
287.213	117.31
287.444	128.31
287.675	130.31
287.906	120.31
288.138	117.31
288.369	110.31
288.6	100.31
288.831	88.31
289.062	133.31
289.293	125.31
289.524	116.31
289.755	115.31
289.986	106.31
290.217	114.31
290.448	123.31
290.679	122.31
290.91	120.31
291.141	111.31
291.371	123.31
291.602	112.31
291.833	108.31
292.064	112.31
292.295	110.31
292.526	107.31
292.757	115.31
292.987	113.31
293.218	131.31
293.449	120.31
293.68	114.31
293.91	116.31
294.141	121.31
294.372	129.31
294.603	120.31
294.833	121.31
295.064	110.31
295.295	107.31
295.525	112.31
295.756	130.31
295.987	131.31
296.217	119.31
296.448	135.31
296.679	108.31
296.909	117.31
297.14	131.31
297.37	128.31
297.601	120.31
297.831	124.31
298.062	128.31
298.292	124.31
298.523	123.31
298.753	125.31
298.984	127.31
299.214	111.31
299.445	120.31
299.675	136.31
299.905	135.31
300.136	122.31
300.366	123.31
300.597	116.31
300.827	118.31
301.057	129.31
301.288	116.31
301.518	109.31
301.748	131.31
301.979	171.31
302.209	103.31
302.439	119.31
302.669	113.31
302.9	121.31
303.13	120.31
303.36	117.31
303.59	116.31
303.82	132.31
304.051	133.31
304.281	131.31
304.511	134.31
304.741	121.31
304.971	132.31
305.201	122.31
305.431	114.31
305.661	122.31
305.891	122.31
306.121	124.31
306.352	130.31
306.582	128.31
306.812	123.31
307.042	117.31
307.272	125.31
307.502	123.31
307.731	131.31
307.961	116.31
308.191	143.31
308.421	122.31
308.651	124.31
308.881	120.31
309.111	121.31
309.341	125.31
309.571	121.31
309.8	120.31
310.03	133.31
310.26	115.31
310.49	130.31
310.72	122.31
310.949	128.31
311.179	119.31
311.409	127.31
311.639	130.31
311.868	140.31
312.098	121.31
312.328	132.31
312.557	141.31
312.787	124.31
313.017	113.31
313.246	132.31
313.476	116.31
313.706	120.31
313.935	113.31
314.165	124.31
314.394	134.31
314.624	148.31
314.853	123.31
315.083	130.31
315.312	124.31
315.542	125.31
315.771	142.31
316.001	115.31
316.23	127.31
316.46	122.31
316.689	102.31
316.919	111.31
317.148	132.31
317.377	139.31
317.607	122.31
317.836	126.31
318.065	136.31
318.295	130.31
318.524	111.31
318.753	127.31
318.983	121.31
319.212	132.31
319.441	133.31
319.67	124.31
319.9	131.31
320.129	121.31
320.358	108.31
320.587	122.31
320.816	121.31
321.046	113.31
321.275	128.31
321.504	122.31
321.733	133.31
321.962	115.31
322.191	120.31
322.42	109.31
322.649	130.31
322.878	131.31
323.108	136.31
323.337	118.31
323.566	131.31
323.795	123.31
324.024	155.31
324.253	134.31
324.482	126.31
324.71	139.31
324.939	145.31
325.168	134.31
325.397	141.31
325.626	133.31
325.855	154.31
326.084	139.31
326.313	135.31
326.542	152.31
326.77	138.31
326.999	134.31
327.228	136.31
327.457	134.31
327.686	113.31
327.914	131.31
328.143	147.31
328.372	142.31
328.6	128.31
328.829	130.31
329.058	139.31
329.287	128.31
329.515	122.31
329.744	141.31
329.972	130.31
330.201	148.31
330.43	121.31
330.658	140.31
330.887	128.31
331.115	138.31
331.344	128.31
331.572	146.31
331.801	136.31
332.03	158.31
332.258	156.31
332.486	142.31
332.715	152.31
332.943	144.31
333.172	142.31
333.4	156.31
333.629	165.31
333.857	155.31
334.085	154.31
334.314	141.31
334.542	150.31
334.771	150.31
334.999	140.31
335.227	153.31
335.455	142.31
335.684	156.31
335.912	138.31
336.14	151.31
336.369	136.31
336.597	139.31
336.825	145.31
337.053	136.31
337.281	153.31
337.51	147.31
337.738	148.31
337.966	130.31
338.194	130.31
338.422	143.31
338.65	131.31
338.878	141.31
339.106	129.31
339.334	147.31
339.562	133.31
339.79	141.31
340.018	122.31
340.246	127.31
340.474	128.31
340.702	122.31
340.93	132.31
341.158	127.31
341.386	159.31
341.614	138.31
341.842	143.31
342.07	147.31
342.298	141.31
342.526	144.31
342.754	133.31
342.981	143.31
343.209	130.31
343.437	149.31
343.665	140.31
343.893	152.31
344.12	166.31
344.348	144.31
344.576	141.31
344.804	150.31
345.031	140.31
345.259	140.31
345.487	133.31
345.714	147.31
345.942	131.31
346.17	134.31
346.397	141.31
346.625	147.31
346.853	139.31
347.08	141.31
347.308	133.31
347.535	134.31
347.763	140.31
347.99	138.31
348.218	136.31
348.445	126.31
348.673	116.31
348.9	131.31
349.128	124.31
349.355	131.31
349.583	137.31
349.81	131.31
350.037	133.31
350.265	117.31
350.492	128.31
350.72	134.31
350.947	140.31
351.174	142.31
351.402	134.31
351.629	124.31
351.856	124.31
352.083	150.31
352.311	138.31
352.538	137.31
352.765	151.31
352.992	142.31
353.22	145.31
353.447	139.31
353.674	122.31
353.901	144.31
354.128	135.31
354.355	122.31
354.583	141.31
354.81	132.31
355.037	149.31
355.264	137.31
355.491	133.31
355.718	127.31
355.945	138.31
356.172	144.31
356.399	120.31
356.626	121.31
356.853	138.31
357.08	129.31
357.307	146.31
357.534	124.31
357.761	123.31
357.988	132.31
358.215	143.31
358.441	134.31
358.668	139.31
358.895	148.31
359.122	124.31
359.349	137.31
359.576	133.31
359.802	127.31
360.029	142.31
360.256	139.31
360.483	145.31
360.709	131.31
360.936	150.31
361.163	134.31
361.39	132.31
361.616	147.31
361.843	133.31
362.07	157.31
362.296	136.31
362.523	131.31
362.749	144.31
362.976	147.31
363.203	127.31
363.429	129.31
363.656	141.31
363.882	112.31
364.109	115.31
364.335	144.31
364.562	121.31
364.788	114.31
365.015	139.31
365.241	135.31
365.468	149.31
365.694	163.31
365.92	137.31
366.147	133.31
366.373	129.31
366.599	137.31
366.826	132.31
367.052	127.31
367.278	120.31
367.505	135.31
367.731	148.31
367.957	149.31
368.184	134.31
368.41	151.31
368.636	142.31
368.862	128.31
369.089	135.31
369.315	132.31
369.541	128.31
369.767	135.31
369.993	131.31
370.219	125.31
370.445	127.31
370.672	120.31
370.898	117.31
371.124	129.31
371.35	121.31
371.576	131.31
371.802	139.31
372.028	140.31
372.254	124.31
372.48	151.31
372.706	155.31
372.932	141.31
373.158	146.31
373.384	141.31
373.61	159.31
373.835	144.31
374.061	139.31
374.287	155.31
374.513	162.31
374.739	163.31
374.965	151.31
375.191	163.31
375.416	162.31
375.642	146.31
375.868	161.31
376.094	144.31
376.319	131.31
376.545	153.31
376.771	145.31
376.997	149.31
377.222	143.31
377.448	147.31
377.674	151.31
377.899	143.31
378.125	154.31
378.35	164.31
378.576	134.31
378.802	135.31
379.027	150.31
379.253	154.31
379.478	148.31
379.704	153.31
379.929	143.31
380.155	132.31
380.38	141.31
380.606	145.31
380.831	153.31
381.057	156.31
381.282	145.31
381.507	145.31
381.733	137.31
381.958	168.31
382.184	142.31
382.409	142.31
382.634	146.31
382.86	142.31
383.085	161.31
383.31	162.31
383.535	164.31
383.761	156.31
383.986	146.31
384.211	161.31
384.436	165.31
384.662	164.31
384.887	180.31
385.112	160.31
385.337	166.31
385.562	173.31
385.787	147.31
386.013	176.31
386.238	159.31
386.463	164.31
386.688	178.31
386.913	171.31
387.138	169.31
387.363	180.31
387.588	169.31
387.813	156.31
388.038	185.31
388.263	167.31
388.488	164.31
388.713	177.31
388.938	162.31
389.163	176.31
389.387	161.31
389.612	156.31
389.837	167.31
390.062	161.31
390.287	173.31
390.512	164.31
390.736	175.31
390.961	174.31
391.186	164.31
391.411	184.31
391.636	173.31
391.86	188.31
392.085	170.31
392.31	183.31
392.534	183.31
392.759	191.31
392.984	181.31
393.208	172.31
393.433	172.31
393.658	189.31
393.882	187.31
394.107	191.31
394.331	185.31
394.556	187.31
394.78	191.31
395.005	192.31
395.229	181.31
395.454	194.31
395.678	195.31
395.903	197.31
396.127	198.31
396.352	193.31
396.576	180.31
396.801	178.31
397.025	186.31
397.249	201.31
397.474	195.31
397.698	181.31
397.922	205.31
398.147	200.31
398.371	192.31
398.595	200.31
398.82	226.31
399.044	244.31
399.268	251.31
399.492	288.31
399.717	283.31
399.941	281.31
400.165	271.31
400.389	249.31
400.613	244.31
400.837	234.31
401.062	232.31
401.286	220.31
401.51	234.31
401.734	219.31
401.958	245.31
402.182	229.31
402.406	218.31
402.63	244.31
402.854	247.31
403.078	259.31
403.302	264.31
403.526	252.31
403.75	267.31
403.974	263.31
404.198	273.31
404.422	265.31
404.645	265.31
404.869	259.31
405.093	263.31
405.317	259.31
405.541	257.31
405.765	261.31
405.988	266.31
406.212	285.31
406.436	255.31
406.66	281.31
406.883	276.31
407.107	281.31
407.331	277.31
407.555	276.31
407.778	299.31
408.002	298.31
408.226	261.31
408.449	284.31
408.673	261.31
408.896	279.31
409.12	266.31
409.344	277.31
409.567	287.31
409.791	280.31
410.014	284.31
410.238	286.31
410.461	269.31
410.685	265.31
410.908	268.31
411.132	281.31
411.355	276.31
411.578	255.31
411.802	266.31
412.025	257.31
412.249	267.31
412.472	258.31
412.695	264.31
412.919	255.31
413.142	263.31
413.365	259.31
413.589	261.31
413.812	237.31
414.035	284.31
414.258	269.31
414.482	266.31
414.705	274.31
414.928	283.31
415.151	268.31
415.374	271.31
415.597	255.31
415.821	256.31
416.044	257.31
416.267	266.31
416.49	253.31
416.713	246.31
416.936	250.31
417.159	260.31
417.382	238.31
417.605	252.31
417.828	282.31
418.051	259.31
418.274	265.31
418.497	267.31
418.72	274.31
418.943	285.31
419.166	289.31
419.389	285.31
419.611	300.31
419.834	285.31
420.057	280.31
420.28	249.31
420.503	258.31
420.726	273.31
420.948	275.31
421.171	279.31
421.394	280.31
421.617	303.31
421.839	256.31
422.062	289.31
422.285	267.31
422.507	283.31
422.73	256.31
422.953	255.31
423.175	267.31
423.398	273.31
423.621	289.31
423.843	295.31
424.066	296.31
424.288	284.31
424.511	277.31
424.733	292.31
424.956	289.31
425.178	285.31
425.401	275.31
425.623	268.31
425.846	261.31
426.068	265.31
426.291	265.31
426.513	258.31
426.735	269.31
426.958	277.31
427.18	249.31
427.402	270.31
427.625	257.31
427.847	258.31
428.069	268.31
428.292	269.31
428.514	275.31
428.736	235.31
428.958	250.31
429.181	249.31
429.403	246.31
429.625	249.31
429.847	235.31
430.069	239.31
430.292	263.31
430.514	250.31
430.736	244.31
430.958	226.31
431.18	239.31
431.402	242.31
431.624	230.31
431.846	218.31
432.068	229.31
432.29	200.31
432.512	244.31
432.734	240.31
432.956	247.31
433.178	264.31
433.4	273.31
433.622	252.31
433.844	261.31
434.066	247.31
434.287	231.31
434.509	236.31
434.731	250.31
434.953	252.31
435.175	259.31
435.397	263.31
435.618	247.31
435.84	255.31
436.062	248.31
436.284	234.31
436.505	239.31
436.727	246.31
436.949	258.31
437.17	232.31
437.392	243.31
437.614	221.31
437.835	224.31
438.057	233.31
438.278	221.31
438.5	252.31
438.721	239.31
438.943	247.31
439.165	250.31
439.386	265.31
439.608	259.31
439.829	251.31
440.05	256.31
440.272	267.31
440.493	271.31
440.715	268.31
440.936	271.31
441.158	277.31
441.379	289.31
441.6	267.31
441.822	286.31
442.043	252.31
442.264	295.31
442.486	269.31
442.707	263.31
442.928	262.31
443.149	275.31
443.371	288.31
443.592	261.31
443.813	271.31
444.034	292.31
444.255	291.31
444.476	295.31
444.698	308.31
444.919	324.31
445.14	536.31
445.361	416.31
445.582	289.31
445.803	266.31
446.024	284.31
446.245	276.31
446.466	300.31
446.687	277.31
446.908	276.31
447.129	256.31
447.35	256.31
447.571	257.31
447.792	246.31
448.013	250.31
448.234	251.31
448.455	250.31
448.675	258.31
448.896	255.31
449.117	260.31
449.338	255.31
449.559	224.31
449.779	261.31
450	230.31
450.221	255.31
450.442	247.31
450.662	245.31
450.883	248.31
451.104	233.31
451.324	233.31
451.545	248.31
451.766	221.31
451.986	227.31
452.207	233.31
452.428	235.31
452.648	229.31
452.869	233.31
453.089	211.31
453.31	206.31
453.53	208.31
453.751	212.31
453.971	206.31
454.192	229.31
454.412	204.31
454.633	200.31
454.853	204.31
455.073	200.31
455.294	234.31
455.514	237.31
455.734	216.31
455.955	223.31
456.175	204.31
456.395	196.31
456.616	194.31
456.836	215.31
457.056	220.31
457.276	192.31
457.497	211.31
457.717	195.31
457.937	193.31
458.157	204.31
458.377	200.31
458.598	212.31
458.818	200.31
459.038	195.31
459.258	194.31
459.478	224.31
459.698	212.31
459.918	237.31
460.138	260.31
460.358	244.31
460.578	273.31
460.798	275.31
461.018	273.31
461.238	252.31
461.458	255.31
461.678	247.31
461.898	248.31
462.118	278.31
462.338	277.31
462.558	261.31
462.777	285.31
462.997	318.31
463.217	315.31
463.437	304.31
463.657	292.31
463.876	281.31
464.096	269.31
464.316	290.31
464.536	278.31
464.755	269.31
464.975	283.31
465.195	261.31
465.414	245.31
465.634	247.31
465.854	247.31
466.073	244.31
466.293	248.31
466.512	244.31
466.732	244.31
466.951	248.31
467.171	255.31
467.391	247.31
467.61	262.31
467.829	251.31
468.049	239.31
468.268	236.31
468.488	229.31
468.707	232.31
468.927	226.31
469.146	250.31
469.365	242.31
469.585	234.31
469.804	239.31
470.023	240.31
470.243	275.31
470.462	255.31
470.681	261.31
470.901	270.31
471.12	268.31
471.339	247.31
471.558	247.31
471.777	253.31
471.997	223.31
472.216	244.31
472.435	207.31
472.654	219.31
472.873	220.31
473.092	224.31
473.311	216.31
473.53	236.31
473.749	216.31
473.968	230.31
474.187	220.31
474.406	215.31
474.625	225.31
474.844	255.31
475.063	218.31
475.282	218.31
475.501	216.31
475.72	240.31
475.939	233.31
476.158	241.31
476.377	237.31
476.596	238.31
476.814	227.31
477.033	210.31
477.252	229.31
477.471	255.31
477.69	261.31
477.908	247.31
478.127	281.31
478.346	256.31
478.564	263.31
478.783	265.31
479.002	269.31
479.22	263.31
479.439	253.31
479.658	249.31
479.876	252.31
480.095	259.31
480.313	277.31
480.532	280.31
480.751	262.31
480.969	224.31
481.188	234.31
481.406	228.31
481.624	226.31
481.843	201.31
482.061	226.31
482.28	231.31
482.498	242.31
482.717	223.31
482.935	255.31
483.153	256.31
483.372	278.31
483.59	273.31
483.808	255.31
484.027	236.31
484.245	261.31
484.463	267.31
484.681	279.31
484.9	264.31
485.118	267.31
485.336	241.31
485.554	247.31
485.772	243.31
485.99	255.31
486.209	238.31
486.427	239.31
486.645	263.31
486.863	262.31
487.081	266.31
487.299	271.31
487.517	276.31
487.735	311.31
487.953	300.31
488.171	293.31
488.389	285.31
488.607	271.31
488.825	261.31
489.043	253.31
489.261	268.31
489.479	263.31
489.696	259.31
489.914	284.31
490.132	259.31
490.35	292.31
490.568	299.31
490.786	313.31
491.003	314.31
491.221	313.31
491.439	313.31
491.657	313.31
491.874	324.31
492.092	355.31
492.31	367.31
492.527	335.31
492.745	340.31
492.963	324.31
493.18	328.31
493.398	326.31
493.615	347.31
493.833	340.31
494.05	315.31
494.268	284.31
494.485	301.31
494.703	300.31
494.92	306.31
495.138	310.31
495.355	314.31
495.573	303.31
495.79	301.31
496.008	325.31
496.225	307.31
496.442	301.31
496.66	304.31
496.877	310.31
497.094	313.31
497.312	310.31
497.529	313.31
497.746	309.31
497.963	312.31
498.181	316.31
498.398	317.31
498.615	321.31
498.832	328.31
499.049	351.31
499.267	384.31
499.484	410.31
499.701	457.31
499.918	490.31
500.135	560.31
500.352	603.31
500.569	631.31
500.786	627.31
501.003	585.31
501.22	517.31
501.437	480.31
501.654	452.31
501.871	390.31
502.088	372.31
502.305	358.31
502.522	339.31
502.739	323.31
502.956	306.31
503.172	301.31
503.389	274.31
503.606	282.31
503.823	284.31
504.04	282.31
504.256	281.31
504.473	281.31
504.69	290.31
504.907	298.31
505.123	280.31
