Data from SampA_HRD10591_00011.txt Node
Date: Mon Jan 19 11:26:50 EST 2026
User: Yrep
Spectrometer: HR+D1059
Trigger mode: 0
Integration Time (sec): 3.443000E-1
Scans to average: 1
Electric dark correction enabled: true
Nonlinearity correction enabled: false
Boxcar width: 0
XAxis mode: Wavelengths
Number of Pixels in Spectrum: 2048
>>>>>Begin Spectral Data<<<<<
223.165	-15.5
223.4	-15.5
223.635	-15.5
223.869	-27.5
224.104	-18.5
224.338	-19.5
224.573	-27.5
224.808	-28.5
225.042	-16.5
225.277	-3.5
225.511	9.5
225.746	8.5
225.98	5.5
226.215	16.5
226.449	18.5
226.683	17.5
226.918	19.5
227.152	61.5
227.387	45.5
227.621	30.5
227.856	53.5
228.09	50.5
228.324	48.5
228.559	45.5
228.793	61.5
229.027	59.5
229.262	62.5
229.496	64.5
229.73	70.5
229.964	69.5
230.199	85.5
230.433	79.5
230.667	76.5
230.901	69.5
231.136	86.5
231.37	88.5
231.604	91.5
231.838	82.5
232.072	73.5
232.306	73.5
232.541	61.5
232.775	81.5
233.009	81.5
233.243	82.5
233.477	89.5
233.711	67.5
233.945	79.5
234.179	72.5
234.413	75.5
234.647	92.5
234.881	87.5
235.115	90.5
235.349	80.5
235.583	93.5
235.817	81.5
236.051	83.5
236.285	77.5
236.519	83.5
236.753	74.5
236.987	71.5
237.221	78.5
237.455	72.5
237.689	83.5
237.922	75.5
238.156	64.5
238.39	73.5
238.624	80.5
238.858	75.5
239.091	70.5
239.325	80.5
239.559	83.5
239.793	82.5
240.027	87.5
240.26	82.5
240.494	74.5
240.728	75.5
240.961	100.5
241.195	91.5
241.429	77.5
241.662	78.5
241.896	81.5
242.13	88.5
242.363	84.5
242.597	78.5
242.83	73.5
243.064	73.5
243.298	92.5
243.531	92.5
243.765	93.5
243.998	72.5
244.232	85.5
244.465	75.5
244.699	87.5
244.932	90.5
245.166	74.5
245.399	86.5
245.633	63.5
245.866	77.5
246.099	61.5
246.333	83.5
246.566	89.5
246.8	61.5
247.033	78.5
247.266	85.5
247.5	81.5
247.733	84.5
247.966	86.5
248.2	78.5
248.433	69.5
248.666	87.5
248.899	93.5
249.133	69.5
249.366	101.5
249.599	67.5
249.832	80.5
250.066	98.5
250.299	93.5
250.532	76.5
250.765	74.5
250.998	81.5
251.231	89.5
251.465	75.5
251.698	80.5
251.931	68.5
252.164	89.5
252.397	87.5
252.63	79.5
252.863	87.5
253.096	77.5
253.329	98.5
253.562	70.5
253.795	83.5
254.028	79.5
254.261	85.5
254.494	73.5
254.727	91.5
254.96	84.5
255.193	89.5
255.426	88.5
255.659	89.5
255.892	94.5
256.124	76.5
256.357	83.5
256.59	78.5
256.823	68.5
257.056	85.5
257.289	83.5
257.521	77.5
257.754	91.5
257.987	76.5
258.22	86.5
258.452	74.5
258.685	85.5
258.918	78.5
259.151	91.5
259.383	91.5
259.616	80.5
259.849	93.5
260.081	99.5
260.314	76.5
260.547	71.5
260.779	76.5
261.012	82.5
261.244	78.5
261.477	93.5
261.71	80.5
261.942	102.5
262.175	83.5
262.407	85.5
262.64	91.5
262.872	83.5
263.105	79.5
263.337	95.5
263.57	85.5
263.802	96.5
264.035	104.5
264.267	81.5
264.499	81.5
264.732	85.5
264.964	84.5
265.197	104.5
265.429	100.5
265.661	83.5
265.894	88.5
266.126	92.5
266.358	92.5
266.591	87.5
266.823	87.5
267.055	83.5
267.287	88.5
267.52	90.5
267.752	84.5
267.984	99.5
268.216	75.5
268.448	109.5
268.681	94.5
268.913	85.5
269.145	95.5
269.377	102.5
269.609	91.5
269.841	86.5
270.073	73.5
270.306	84.5
270.538	88.5
270.77	84.5
271.002	92.5
271.234	105.5
271.466	95.5
271.698	85.5
271.93	88.5
272.162	94.5
272.394	99.5
272.626	93.5
272.858	97.5
273.09	89.5
273.322	90.5
273.553	77.5
273.785	101.5
274.017	94.5
274.249	89.5
274.481	85.5
274.713	97.5
274.945	96.5
275.176	94.5
275.408	103.5
275.64	101.5
275.872	90.5
276.104	97.5
276.335	96.5
276.567	83.5
276.799	99.5
277.031	84.5
277.262	98.5
277.494	100.5
277.726	89.5
277.957	74.5
278.189	102.5
278.421	94.5
278.652	92.5
278.884	94.5
279.115	102.5
279.347	87.5
279.579	94.5
279.81	108.5
280.042	99.5
280.273	92.5
280.505	90.5
280.736	89.5
280.968	99.5
281.199	96.5
281.431	98.5
281.662	104.5
281.894	85.5
282.125	92.5
282.356	94.5
282.588	93.5
282.819	98.5
283.051	94.5
283.282	92.5
283.513	107.5
283.745	100.5
283.976	105.5
284.207	97.5
284.439	95.5
284.67	101.5
284.901	109.5
285.132	76.5
285.364	93.5
285.595	96.5
285.826	90.5
286.057	101.5
286.288	94.5
286.52	85.5
286.751	87.5
286.982	99.5
287.213	88.5
287.444	90.5
287.675	100.5
287.906	98.5
288.138	108.5
288.369	89.5
288.6	104.5
288.831	82.5
289.062	93.5
289.293	77.5
289.524	86.5
289.755	111.5
289.986	93.5
290.217	98.5
290.448	99.5
290.679	92.5
290.91	106.5
291.141	97.5
291.371	93.5
291.602	101.5
291.833	96.5
292.064	89.5
292.295	108.5
292.526	96.5
292.757	92.5
292.987	93.5
293.218	87.5
293.449	87.5
293.68	106.5
293.91	111.5
294.141	104.5
294.372	108.5
294.603	97.5
294.833	107.5
295.064	101.5
295.295	91.5
295.525	101.5
295.756	101.5
295.987	111.5
296.217	100.5
296.448	101.5
296.679	103.5
296.909	94.5
297.14	106.5
297.37	102.5
297.601	85.5
297.831	106.5
298.062	104.5
298.292	86.5
298.523	110.5
298.753	101.5
298.984	93.5
299.214	97.5
299.445	105.5
299.675	105.5
299.905	99.5
300.136	94.5
300.366	103.5
300.597	101.5
300.827	95.5
301.057	111.5
301.288	111.5
301.518	100.5
301.748	89.5
301.979	137.5
302.209	106.5
302.439	98.5
302.669	109.5
302.9	96.5
303.13	103.5
303.36	95.5
303.59	116.5
303.82	113.5
304.051	102.5
304.281	101.5
304.511	108.5
304.741	101.5
304.971	88.5
305.201	107.5
305.431	107.5
305.661	88.5
305.891	106.5
306.121	107.5
306.352	110.5
306.582	109.5
306.812	95.5
307.042	101.5
307.272	97.5
307.502	89.5
307.731	96.5
307.961	106.5
308.191	88.5
308.421	107.5
308.651	99.5
308.881	93.5
309.111	101.5
309.341	99.5
309.571	98.5
309.8	119.5
310.03	101.5
310.26	90.5
310.49	91.5
310.72	90.5
310.949	95.5
311.179	96.5
311.409	113.5
311.639	116.5
311.868	117.5
312.098	104.5
312.328	118.5
312.557	106.5
312.787	103.5
313.017	117.5
313.246	114.5
313.476	105.5
313.706	108.5
313.935	95.5
314.165	99.5
314.394	110.5
314.624	103.5
314.853	99.5
315.083	89.5
315.312	117.5
315.542	107.5
315.771	103.5
316.001	114.5
316.23	113.5
316.46	111.5
316.689	102.5
316.919	104.5
317.148	97.5
317.377	104.5
317.607	115.5
317.836	104.5
318.065	105.5
318.295	92.5
318.524	121.5
318.753	113.5
318.983	110.5
319.212	100.5
319.441	108.5
319.67	113.5
319.9	109.5
320.129	108.5
320.358	110.5
320.587	112.5
320.816	97.5
321.046	109.5
321.275	94.5
321.504	84.5
321.733	93.5
321.962	93.5
322.191	101.5
322.42	102.5
322.649	103.5
322.878	94.5
323.108	118.5
323.337	120.5
323.566	108.5
323.795	106.5
324.024	107.5
324.253	111.5
324.482	117.5
324.71	99.5
324.939	100.5
325.168	97.5
325.397	106.5
325.626	106.5
325.855	98.5
326.084	120.5
326.313	96.5
326.542	118.5
326.77	114.5
326.999	118.5
327.228	98.5
327.457	120.5
327.686	114.5
327.914	115.5
328.143	120.5
328.372	114.5
328.6	110.5
328.829	102.5
329.058	93.5
329.287	123.5
329.515	112.5
329.744	101.5
329.972	101.5
330.201	108.5
330.43	104.5
330.658	109.5
330.887	115.5
331.115	115.5
331.344	116.5
331.572	123.5
331.801	99.5
332.03	100.5
332.258	116.5
332.486	111.5
332.715	122.5
332.943	109.5
333.172	123.5
333.4	123.5
333.629	122.5
333.857	124.5
334.085	124.5
334.314	117.5
334.542	107.5
334.771	123.5
334.999	118.5
335.227	131.5
335.455	128.5
335.684	130.5
335.912	110.5
336.14	104.5
336.369	124.5
336.597	94.5
336.825	114.5
337.053	109.5
337.281	112.5
337.51	113.5
337.738	109.5
337.966	93.5
338.194	117.5
338.422	104.5
338.65	102.5
338.878	115.5
339.106	100.5
339.334	118.5
339.562	108.5
339.79	92.5
340.018	106.5
340.246	108.5
340.474	110.5
340.702	108.5
340.93	107.5
341.158	108.5
341.386	109.5
341.614	102.5
341.842	108.5
342.07	109.5
342.298	110.5
342.526	109.5
342.754	94.5
342.981	101.5
343.209	117.5
343.437	141.5
343.665	108.5
343.893	119.5
344.12	130.5
344.348	106.5
344.576	113.5
344.804	112.5
345.031	105.5
345.259	102.5
345.487	109.5
345.714	97.5
345.942	118.5
346.17	107.5
346.397	88.5
346.625	108.5
346.853	97.5
347.08	106.5
347.308	104.5
347.535	121.5
347.763	94.5
347.99	105.5
348.218	109.5
348.445	97.5
348.673	105.5
348.9	114.5
349.128	103.5
349.355	109.5
349.583	115.5
349.81	103.5
350.037	105.5
350.265	109.5
350.492	105.5
350.72	115.5
350.947	102.5
351.174	100.5
351.402	97.5
351.629	95.5
351.856	98.5
352.083	118.5
352.311	117.5
352.538	104.5
352.765	112.5
352.992	115.5
353.22	117.5
353.447	107.5
353.674	113.5
353.901	118.5
354.128	104.5
354.355	102.5
354.583	114.5
354.81	99.5
355.037	98.5
355.264	127.5
355.491	102.5
355.718	94.5
355.945	109.5
356.172	106.5
356.399	104.5
356.626	102.5
356.853	104.5
357.08	118.5
357.307	109.5
357.534	109.5
357.761	97.5
357.988	115.5
358.215	110.5
358.441	111.5
358.668	125.5
358.895	109.5
359.122	93.5
359.349	98.5
359.576	92.5
359.802	110.5
360.029	105.5
360.256	105.5
360.483	110.5
360.709	108.5
360.936	124.5
361.163	91.5
361.39	95.5
361.616	109.5
361.843	113.5
362.07	107.5
362.296	106.5
362.523	100.5
362.749	111.5
362.976	104.5
363.203	117.5
363.429	106.5
363.656	103.5
363.882	100.5
364.109	117.5
364.335	119.5
364.562	113.5
364.788	96.5
365.015	106.5
365.241	102.5
365.468	116.5
365.694	97.5
365.92	120.5
366.147	107.5
366.373	109.5
366.599	111.5
366.826	105.5
367.052	107.5
367.278	108.5
367.505	108.5
367.731	131.5
367.957	111.5
368.184	109.5
368.41	106.5
368.636	109.5
368.862	107.5
369.089	115.5
369.315	110.5
369.541	98.5
369.767	103.5
369.993	120.5
370.219	111.5
370.445	98.5
370.672	97.5
370.898	93.5
371.124	103.5
371.35	106.5
371.576	113.5
371.802	107.5
372.028	106.5
372.254	108.5
372.48	117.5
372.706	113.5
372.932	114.5
373.158	101.5
373.384	125.5
373.61	122.5
373.835	117.5
374.061	117.5
374.287	130.5
374.513	111.5
374.739	100.5
374.965	103.5
375.191	102.5
375.416	112.5
375.642	100.5
375.868	116.5
376.094	103.5
376.319	112.5
376.545	94.5
376.771	110.5
376.997	110.5
377.222	108.5
377.448	107.5
377.674	130.5
377.899	99.5
378.125	116.5
378.35	115.5
378.576	112.5
378.802	106.5
379.027	126.5
379.253	116.5
379.478	112.5
379.704	121.5
379.929	118.5
380.155	119.5
380.38	96.5
380.606	107.5
380.831	107.5
381.057	131.5
381.282	114.5
381.507	113.5
381.733	107.5
381.958	120.5
382.184	111.5
382.409	101.5
382.634	118.5
382.86	124.5
383.085	122.5
383.31	125.5
383.535	123.5
383.761	126.5
383.986	112.5
384.211	116.5
384.436	118.5
384.662	103.5
384.887	109.5
385.112	115.5
385.337	128.5
385.562	104.5
385.787	118.5
386.013	129.5
386.238	122.5
386.463	114.5
386.688	140.5
386.913	118.5
387.138	120.5
387.363	121.5
387.588	128.5
387.813	131.5
388.038	110.5
388.263	131.5
388.488	120.5
388.713	140.5
388.938	130.5
389.163	109.5
389.387	128.5
389.612	122.5
389.837	120.5
390.062	124.5
390.287	112.5
390.512	124.5
390.736	117.5
390.961	126.5
391.186	148.5
391.411	148.5
391.636	157.5
391.86	126.5
392.085	134.5
392.31	140.5
392.534	125.5
392.759	146.5
392.984	132.5
393.208	125.5
393.433	121.5
393.658	119.5
393.882	134.5
394.107	129.5
394.331	128.5
394.556	145.5
394.78	139.5
395.005	132.5
395.229	136.5
395.454	146.5
395.678	143.5
395.903	132.5
396.127	130.5
396.352	133.5
396.576	123.5
396.801	142.5
397.025	144.5
397.249	120.5
397.474	133.5
397.698	153.5
397.922	149.5
398.147	147.5
398.371	136.5
398.595	130.5
398.82	147.5
399.044	149.5
399.268	171.5
399.492	174.5
399.717	198.5
399.941	163.5
400.165	169.5
400.389	149.5
400.613	158.5
400.837	156.5
401.062	133.5
401.286	151.5
401.51	150.5
401.734	168.5
401.958	162.5
402.182	169.5
402.406	157.5
402.63	159.5
402.854	173.5
403.078	166.5
403.302	160.5
403.526	165.5
403.75	182.5
403.974	170.5
404.198	171.5
404.422	175.5
404.645	159.5
404.869	158.5
405.093	170.5
405.317	169.5
405.541	163.5
405.765	168.5
405.988	167.5
406.212	171.5
406.436	164.5
406.66	166.5
406.883	176.5
407.107	182.5
407.331	179.5
407.555	173.5
407.778	185.5
408.002	172.5
408.226	178.5
408.449	180.5
408.673	172.5
408.896	169.5
409.12	170.5
409.344	162.5
409.567	188.5
409.791	173.5
410.014	184.5
410.238	184.5
410.461	170.5
410.685	176.5
410.908	157.5
411.132	187.5
411.355	168.5
411.578	175.5
411.802	155.5
412.025	189.5
412.249	164.5
412.472	171.5
412.695	169.5
412.919	162.5
413.142	170.5
413.365	179.5
413.589	173.5
413.812	171.5
414.035	170.5
414.258	159.5
414.482	164.5
414.705	173.5
414.928	174.5
415.151	178.5
415.374	184.5
415.597	150.5
415.821	170.5
416.044	162.5
416.267	164.5
416.49	178.5
416.713	173.5
416.936	181.5
417.159	187.5
417.382	168.5
417.605	162.5
417.828	189.5
418.051	181.5
418.274	177.5
418.497	188.5
418.72	169.5
418.943	184.5
419.166	188.5
419.389	194.5
419.611	171.5
419.834	178.5
420.057	176.5
420.28	177.5
420.503	174.5
420.726	177.5
420.948	172.5
421.171	180.5
421.394	169.5
421.617	170.5
421.839	189.5
422.062	180.5
422.285	174.5
422.507	151.5
422.73	168.5
422.953	188.5
423.175	193.5
423.398	188.5
423.621	178.5
423.843	175.5
424.066	181.5
424.288	173.5
424.511	172.5
424.733	182.5
424.956	184.5
425.178	189.5
425.401	168.5
425.623	185.5
425.846	164.5
426.068	170.5
426.291	169.5
426.513	180.5
426.735	181.5
426.958	168.5
427.18	184.5
427.402	183.5
427.625	165.5
427.847	155.5
428.069	165.5
428.292	151.5
428.514	175.5
428.736	168.5
428.958	164.5
429.181	154.5
429.403	165.5
429.625	161.5
429.847	176.5
430.069	179.5
430.292	169.5
430.514	162.5
430.736	149.5
430.958	160.5
431.18	170.5
431.402	164.5
431.624	164.5
431.846	145.5
432.068	157.5
432.29	148.5
432.512	159.5
432.734	145.5
432.956	169.5
433.178	172.5
433.4	150.5
433.622	164.5
433.844	177.5
434.066	156.5
434.287	130.5
434.509	143.5
434.731	150.5
434.953	176.5
435.175	170.5
435.397	175.5
435.618	174.5
435.84	153.5
436.062	156.5
436.284	146.5
436.505	164.5
436.727	174.5
436.949	172.5
437.17	154.5
437.392	151.5
437.614	171.5
437.835	138.5
438.057	154.5
438.278	133.5
438.5	157.5
438.721	161.5
438.943	177.5
439.165	173.5
439.386	165.5
439.608	195.5
439.829	168.5
440.05	167.5
440.272	174.5
440.493	181.5
440.715	173.5
440.936	196.5
441.158	176.5
441.379	170.5
441.6	170.5
441.822	175.5
442.043	179.5
442.264	188.5
442.486	174.5
442.707	179.5
442.928	180.5
443.149	177.5
443.371	182.5
443.592	172.5
443.813	199.5
444.034	162.5
444.255	192.5
444.476	189.5
444.698	210.5
444.919	203.5
445.14	377.5
445.361	262.5
445.582	190.5
445.803	177.5
446.024	179.5
446.245	188.5
446.466	180.5
446.687	165.5
446.908	165.5
447.129	182.5
447.35	154.5
447.571	178.5
447.792	169.5
448.013	174.5
448.234	188.5
448.455	164.5
448.675	165.5
448.896	169.5
449.117	179.5
449.338	158.5
449.559	147.5
449.779	172.5
450	157.5
450.221	151.5
450.442	163.5
450.662	161.5
450.883	158.5
451.104	153.5
451.324	161.5
451.545	147.5
451.766	159.5
451.986	152.5
452.207	151.5
452.428	147.5
452.648	156.5
452.869	157.5
453.089	154.5
453.31	151.5
453.53	164.5
453.751	143.5
453.971	154.5
454.192	141.5
454.412	151.5
454.633	150.5
454.853	128.5
455.073	146.5
455.294	145.5
455.514	172.5
455.734	157.5
455.955	152.5
456.175	155.5
456.395	154.5
456.616	129.5
456.836	139.5
457.056	149.5
457.276	141.5
457.497	133.5
457.717	150.5
457.937	157.5
458.157	146.5
458.377	130.5
458.598	123.5
458.818	140.5
459.038	129.5
459.258	130.5
459.478	149.5
459.698	157.5
459.918	170.5
460.138	138.5
460.358	166.5
460.578	170.5
460.798	168.5
461.018	188.5
461.238	181.5
461.458	176.5
461.678	173.5
461.898	176.5
462.118	167.5
462.338	184.5
462.558	176.5
462.777	183.5
462.997	201.5
463.217	178.5
463.437	188.5
463.657	185.5
463.876	188.5
464.096	171.5
464.316	181.5
464.536	184.5
464.755	179.5
464.975	173.5
465.195	180.5
465.414	180.5
465.634	164.5
465.854	165.5
466.073	169.5
466.293	155.5
466.512	158.5
466.732	156.5
466.951	150.5
467.171	157.5
467.391	152.5
467.61	166.5
467.829	163.5
468.049	158.5
468.268	154.5
468.488	156.5
468.707	157.5
468.927	169.5
469.146	163.5
469.365	171.5
469.585	152.5
469.804	162.5
470.023	171.5
470.243	181.5
470.462	184.5
470.681	176.5
470.901	166.5
471.12	165.5
471.339	171.5
471.558	165.5
471.777	165.5
471.997	157.5
472.216	156.5
472.435	155.5
472.654	164.5
472.873	157.5
473.092	156.5
473.311	165.5
473.53	144.5
473.749	158.5
473.968	152.5
474.187	136.5
474.406	150.5
474.625	153.5
474.844	168.5
475.063	148.5
475.282	160.5
475.501	153.5
475.72	143.5
475.939	170.5
476.158	139.5
476.377	170.5
476.596	156.5
476.814	145.5
477.033	152.5
477.252	153.5
477.471	163.5
477.69	138.5
477.908	174.5
478.127	166.5
478.346	167.5
478.564	189.5
478.783	176.5
479.002	187.5
479.22	181.5
479.439	177.5
479.658	152.5
479.876	158.5
480.095	155.5
480.313	173.5
480.532	173.5
480.751	162.5
480.969	156.5
481.188	150.5
481.406	130.5
481.624	146.5
481.843	150.5
482.061	157.5
482.28	144.5
482.498	151.5
482.717	158.5
482.935	174.5
483.153	174.5
483.372	171.5
483.59	176.5
483.808	170.5
484.027	168.5
484.245	184.5
484.463	158.5
484.681	202.5
484.9	172.5
485.118	168.5
485.336	173.5
485.554	154.5
485.772	152.5
485.99	149.5
486.209	165.5
486.427	157.5
486.645	172.5
486.863	168.5
487.081	178.5
487.299	179.5
487.517	169.5
487.735	176.5
487.953	180.5
488.171	211.5
488.389	195.5
488.607	176.5
488.825	168.5
489.043	156.5
489.261	174.5
489.479	171.5
489.696	171.5
489.914	198.5
490.132	178.5
490.35	182.5
490.568	185.5
490.786	187.5
491.003	194.5
491.221	196.5
491.439	198.5
491.657	199.5
491.874	230.5
492.092	211.5
492.31	225.5
492.527	221.5
492.745	182.5
492.963	216.5
493.18	218.5
493.398	195.5
493.615	202.5
493.833	191.5
494.05	214.5
494.268	214.5
494.485	214.5
494.703	206.5
494.92	198.5
495.138	186.5
495.355	192.5
495.573	196.5
495.79	184.5
496.008	198.5
496.225	196.5
496.442	187.5
496.66	201.5
496.877	199.5
497.094	201.5
497.312	192.5
497.529	181.5
497.746	183.5
497.963	196.5
498.181	201.5
498.398	199.5
498.615	209.5
498.832	205.5
499.049	204.5
499.267	250.5
499.484	250.5
499.701	253.5
499.918	286.5
500.135	307.5
500.352	345.5
500.569	328.5
500.786	327.5
501.003	323.5
501.22	290.5
501.437	288.5
501.654	244.5
501.871	238.5
502.088	220.5
502.305	234.5
502.522	209.5
502.739	220.5
502.956	196.5
503.172	193.5
503.389	186.5
503.606	189.5
503.823	189.5
504.04	187.5
504.256	181.5
504.473	179.5
504.69	197.5
504.907	207.5
505.123	187.5
505.34	181.5
505.557	167.5
505.773	175.5
505.99	184.5
506.207	153.5
506.423	167.5
506.64	160.5
506.856	179.5
507.073	147.5
507.289	156.5
507.506	175.5
507.722	158.5
507.939	153.5
508.155	135.5
508.372	145.5
508.588	131.5
508.805	151.5
509.021	158.5
509.238	151.5
509.454	153.5
509.67	149.5
509.887	147.5
510.103	144.5
510.319	129.5
510.536	129.5
510.752	122.5
510.968	139.5
511.184	136.5
511.401	140.5
511.617	127.5
511.833	146.5
512.049	140.5
512.265	144.5
512.481	136.5
512.698	137.5
512.914	143.5
513.13	145.5
513.346	152.5
513.562	149.5
513.778	154.5
513.994	128.5
514.21	153.5
514.426	140.5
514.642	152.5
514.858	138.5
515.074	132.5
515.29	157.5
515.506	141.5
515.721	136.5
515.937	154.5
516.153	163.5
516.369	145.5
516.585	157.5
516.801	158.5
517.016	168.5
517.232	152.5
517.448	182.5
517.664	173.5
517.879	174.5
518.095	166.5
518.311	188.5
518.527	157.5
518.742	158.5
518.958	171.5
519.173	164.5
519.389	153.5
519.605	161.5
519.82	145.5
520.036	156.5
520.251	148.5
520.467	155.5
520.682	153.5
520.898	138.5
521.113	140.5
521.329	157.5
521.544	141.5
521.76	150.5
521.975	135.5
522.19	139.5
522.406	144.5
522.621	153.5
522.836	157.5
523.052	158.5
523.267	150.5
523.482	151.5
523.698	135.5
523.913	150.5
524.128	140.5
524.343	149.5
524.559	163.5
524.774	142.5
524.989	136.5
525.204	149.5
525.419	142.5
