Data from SampA_HRD10591_00037.txt Node
Date: Mon Jan 19 11:26:59 EST 2026
User: Yrep
Spectrometer: HR+D1059
Trigger mode: 0
Integration Time (sec): 3.443000E-1
Scans to average: 1
Electric dark correction enabled: true
Nonlinearity correction enabled: false
Boxcar width: 0
XAxis mode: Wavelengths
Number of Pixels in Spectrum: 2048
>>>>>Begin Spectral Data<<<<<
223.165	-28.19
223.4	-28.19
223.635	-28.19
223.869	-21.19
224.104	-10.19
224.338	-18.19
224.573	-23.19
224.808	-4.19
225.042	1.81
225.277	4.81
225.511	10.81
225.746	8.81
225.98	-3.19
226.215	10.81
226.449	18.81
226.683	17.81
226.918	15.81
227.152	18.81
227.387	34.81
227.621	29.81
227.856	50.81
228.09	52.81
228.324	44.81
228.559	55.81
228.793	65.81
229.027	63.81
229.262	78.81
229.496	70.81
229.73	63.81
229.964	85.81
230.199	72.81
230.433	87.81
230.667	82.81
230.901	84.81
231.136	79.81
231.37	78.81
231.604	80.81
231.838	89.81
232.072	88.81
232.306	80.81
232.541	80.81
232.775	94.81
233.009	89.81
233.243	95.81
233.477	88.81
233.711	74.81
233.945	96.81
234.179	87.81
234.413	93.81
234.647	87.81
234.881	104.81
235.115	99.81
235.349	99.81
235.583	108.81
235.817	96.81
236.051	94.81
236.285	80.81
236.519	83.81
236.753	78.81
236.987	114.81
237.221	79.81
237.455	89.81
237.689	100.81
237.922	96.81
238.156	95.81
238.39	82.81
238.624	84.81
238.858	84.81
239.091	94.81
239.325	95.81
239.559	86.81
239.793	90.81
240.027	88.81
240.26	78.81
240.494	91.81
240.728	66.81
240.961	86.81
241.195	100.81
241.429	89.81
241.662	84.81
241.896	79.81
242.13	93.81
242.363	74.81
242.597	80.81
242.83	95.81
243.064	79.81
243.298	85.81
243.531	96.81
243.765	104.81
243.998	89.81
244.232	88.81
244.465	62.81
244.699	94.81
244.932	95.81
245.166	95.81
245.399	113.81
245.633	101.81
245.866	83.81
246.099	102.81
246.333	97.81
246.566	102.81
246.8	96.81
247.033	97.81
247.266	89.81
247.5	95.81
247.733	83.81
247.966	100.81
248.2	119.81
248.433	92.81
248.666	98.81
248.899	88.81
249.133	82.81
249.366	94.81
249.599	95.81
249.832	93.81
250.066	84.81
250.299	88.81
250.532	92.81
250.765	111.81
250.998	91.81
251.231	86.81
251.465	86.81
251.698	89.81
251.931	91.81
252.164	90.81
252.397	89.81
252.63	105.81
252.863	103.81
253.096	102.81
253.329	103.81
253.562	97.81
253.795	101.81
254.028	89.81
254.261	98.81
254.494	99.81
254.727	109.81
254.96	93.81
255.193	97.81
255.426	98.81
255.659	102.81
255.892	88.81
256.124	84.81
256.357	109.81
256.59	93.81
256.823	104.81
257.056	98.81
257.289	105.81
257.521	101.81
257.754	104.81
257.987	96.81
258.22	106.81
258.452	113.81
258.685	100.81
258.918	94.81
259.151	111.81
259.383	99.81
259.616	88.81
259.849	92.81
260.081	92.81
260.314	112.81
260.547	107.81
260.779	108.81
261.012	110.81
261.244	98.81
261.477	98.81
261.71	107.81
261.942	117.81
262.175	91.81
262.407	111.81
262.64	98.81
262.872	98.81
263.105	103.81
263.337	110.81
263.57	97.81
263.802	103.81
264.035	110.81
264.267	96.81
264.499	123.81
264.732	108.81
264.964	107.81
265.197	112.81
265.429	106.81
265.661	109.81
265.894	107.81
266.126	110.81
266.358	98.81
266.591	113.81
266.823	121.81
267.055	109.81
267.287	107.81
267.52	107.81
267.752	115.81
267.984	114.81
268.216	107.81
268.448	119.81
268.681	100.81
268.913	99.81
269.145	107.81
269.377	109.81
269.609	91.81
269.841	95.81
270.073	112.81
270.306	113.81
270.538	109.81
270.77	114.81
271.002	113.81
271.234	100.81
271.466	98.81
271.698	131.81
271.93	100.81
272.162	107.81
272.394	111.81
272.626	91.81
272.858	107.81
273.09	122.81
273.322	110.81
273.553	115.81
273.785	124.81
274.017	120.81
274.249	119.81
274.481	110.81
274.713	97.81
274.945	115.81
275.176	99.81
275.408	112.81
275.64	106.81
275.872	115.81
276.104	112.81
276.335	121.81
276.567	114.81
276.799	105.81
277.031	109.81
277.262	114.81
277.494	114.81
277.726	122.81
277.957	97.81
278.189	111.81
278.421	113.81
278.652	111.81
278.884	105.81
279.115	107.81
279.347	119.81
279.579	115.81
279.81	114.81
280.042	104.81
280.273	111.81
280.505	111.81
280.736	104.81
280.968	120.81
281.199	110.81
281.431	128.81
281.662	112.81
281.894	116.81
282.125	119.81
282.356	113.81
282.588	117.81
282.819	111.81
283.051	112.81
283.282	111.81
283.513	134.81
283.745	130.81
283.976	113.81
284.207	93.81
284.439	120.81
284.67	119.81
284.901	110.81
285.132	110.81
285.364	123.81
285.595	123.81
285.826	113.81
286.057	111.81
286.288	120.81
286.52	134.81
286.751	108.81
286.982	130.81
287.213	109.81
287.444	120.81
287.675	118.81
287.906	125.81
288.138	124.81
288.369	124.81
288.6	119.81
288.831	111.81
289.062	119.81
289.293	122.81
289.524	111.81
289.755	117.81
289.986	122.81
290.217	128.81
290.448	127.81
290.679	112.81
290.91	138.81
291.141	126.81
291.371	116.81
291.602	123.81
291.833	104.81
292.064	132.81
292.295	133.81
292.526	119.81
292.757	128.81
292.987	130.81
293.218	119.81
293.449	122.81
293.68	127.81
293.91	130.81
294.141	124.81
294.372	122.81
294.603	126.81
294.833	127.81
295.064	126.81
295.295	121.81
295.525	125.81
295.756	136.81
295.987	130.81
296.217	127.81
296.448	116.81
296.679	129.81
296.909	122.81
297.14	123.81
297.37	139.81
297.601	117.81
297.831	124.81
298.062	131.81
298.292	126.81
298.523	124.81
298.753	116.81
298.984	129.81
299.214	141.81
299.445	143.81
299.675	114.81
299.905	139.81
300.136	125.81
300.366	142.81
300.597	139.81
300.827	126.81
301.057	131.81
301.288	134.81
301.518	131.81
301.748	141.81
301.979	172.81
302.209	135.81
302.439	130.81
302.669	126.81
302.9	116.81
303.13	123.81
303.36	134.81
303.59	118.81
303.82	131.81
304.051	128.81
304.281	142.81
304.511	152.81
304.741	135.81
304.971	110.81
305.201	131.81
305.431	128.81
305.661	141.81
305.891	123.81
306.121	127.81
306.352	136.81
306.582	120.81
306.812	113.81
307.042	139.81
307.272	125.81
307.502	137.81
307.731	138.81
307.961	124.81
308.191	127.81
308.421	120.81
308.651	124.81
308.881	136.81
309.111	143.81
309.341	133.81
309.571	125.81
309.8	128.81
310.03	148.81
310.26	158.81
310.49	127.81
310.72	131.81
310.949	135.81
311.179	134.81
311.409	124.81
311.639	138.81
311.868	135.81
312.098	115.81
312.328	146.81
312.557	139.81
312.787	132.81
313.017	126.81
313.246	138.81
313.476	150.81
313.706	132.81
313.935	124.81
314.165	131.81
314.394	130.81
314.624	129.81
314.853	128.81
315.083	135.81
315.312	126.81
315.542	134.81
315.771	134.81
316.001	122.81
316.23	143.81
316.46	130.81
316.689	136.81
316.919	130.81
317.148	150.81
317.377	136.81
317.607	139.81
317.836	142.81
318.065	125.81
318.295	144.81
318.524	130.81
318.753	136.81
318.983	116.81
319.212	125.81
319.441	135.81
319.67	129.81
319.9	136.81
320.129	137.81
320.358	140.81
320.587	134.81
320.816	136.81
321.046	130.81
321.275	136.81
321.504	124.81
321.733	125.81
321.962	124.81
322.191	134.81
322.42	136.81
322.649	142.81
322.878	138.81
323.108	134.81
323.337	123.81
323.566	140.81
323.795	155.81
324.024	135.81
324.253	142.81
324.482	141.81
324.71	117.81
324.939	138.81
325.168	130.81
325.397	137.81
325.626	146.81
325.855	135.81
326.084	135.81
326.313	139.81
326.542	130.81
326.77	143.81
326.999	131.81
327.228	124.81
327.457	136.81
327.686	134.81
327.914	148.81
328.143	142.81
328.372	153.81
328.6	134.81
328.829	153.81
329.058	151.81
329.287	134.81
329.515	144.81
329.744	133.81
329.972	133.81
330.201	131.81
330.43	138.81
330.658	136.81
330.887	144.81
331.115	133.81
331.344	130.81
331.572	158.81
331.801	155.81
332.03	148.81
332.258	154.81
332.486	155.81
332.715	150.81
332.943	164.81
333.172	154.81
333.4	150.81
333.629	153.81
333.857	155.81
334.085	156.81
334.314	176.81
334.542	175.81
334.771	157.81
334.999	148.81
335.227	159.81
335.455	155.81
335.684	158.81
335.912	160.81
336.14	150.81
336.369	159.81
336.597	159.81
336.825	146.81
337.053	142.81
337.281	148.81
337.51	149.81
337.738	152.81
337.966	145.81
338.194	147.81
338.422	140.81
338.65	135.81
338.878	154.81
339.106	152.81
339.334	158.81
339.562	134.81
339.79	144.81
340.018	146.81
340.246	129.81
340.474	144.81
340.702	142.81
340.93	146.81
341.158	138.81
341.386	138.81
341.614	132.81
341.842	134.81
342.07	157.81
342.298	142.81
342.526	136.81
342.754	129.81
342.981	152.81
343.209	131.81
343.437	172.81
343.665	159.81
343.893	156.81
344.12	155.81
344.348	156.81
344.576	152.81
344.804	140.81
345.031	151.81
345.259	139.81
345.487	132.81
345.714	134.81
345.942	136.81
346.17	150.81
346.397	151.81
346.625	143.81
346.853	135.81
347.08	155.81
347.308	144.81
347.535	128.81
347.763	145.81
347.99	150.81
348.218	145.81
348.445	131.81
348.673	143.81
348.9	144.81
349.128	128.81
349.355	134.81
349.583	126.81
349.81	144.81
350.037	154.81
350.265	154.81
350.492	151.81
350.72	138.81
350.947	127.81
351.174	154.81
351.402	126.81
351.629	148.81
351.856	142.81
352.083	134.81
352.311	130.81
352.538	136.81
352.765	123.81
352.992	144.81
353.22	136.81
353.447	146.81
353.674	135.81
353.901	148.81
354.128	147.81
354.355	136.81
354.583	125.81
354.81	148.81
355.037	153.81
355.264	136.81
355.491	158.81
355.718	130.81
355.945	140.81
356.172	152.81
356.399	137.81
356.626	138.81
356.853	140.81
357.08	154.81
357.307	134.81
357.534	133.81
357.761	138.81
357.988	155.81
358.215	164.81
358.441	132.81
358.668	141.81
358.895	142.81
359.122	131.81
359.349	130.81
359.576	127.81
359.802	140.81
360.029	154.81
360.256	153.81
360.483	135.81
360.709	138.81
360.936	165.81
361.163	148.81
361.39	147.81
361.616	124.81
361.843	130.81
362.07	148.81
362.296	128.81
362.523	131.81
362.749	132.81
362.976	142.81
363.203	135.81
363.429	147.81
363.656	152.81
363.882	155.81
364.109	136.81
364.335	151.81
364.562	118.81
364.788	134.81
365.015	151.81
365.241	125.81
365.468	150.81
365.694	148.81
365.92	143.81
366.147	135.81
366.373	119.81
366.599	138.81
366.826	144.81
367.052	144.81
367.278	154.81
367.505	144.81
367.731	152.81
367.957	152.81
368.184	134.81
368.41	118.81
368.636	158.81
368.862	155.81
369.089	138.81
369.315	140.81
369.541	142.81
369.767	151.81
369.993	147.81
370.219	164.81
370.445	144.81
370.672	158.81
370.898	137.81
371.124	159.81
371.35	144.81
371.576	146.81
371.802	156.81
372.028	154.81
372.254	142.81
372.48	167.81
372.706	150.81
372.932	138.81
373.158	146.81
373.384	158.81
373.61	154.81
373.835	149.81
374.061	153.81
374.287	163.81
374.513	159.81
374.739	168.81
374.965	169.81
375.191	159.81
375.416	170.81
375.642	160.81
375.868	152.81
376.094	140.81
376.319	157.81
376.545	162.81
376.771	153.81
376.997	140.81
377.222	166.81
377.448	162.81
377.674	162.81
377.899	145.81
378.125	153.81
378.35	152.81
378.576	151.81
378.802	144.81
379.027	126.81
379.253	152.81
379.478	142.81
379.704	139.81
379.929	154.81
380.155	151.81
380.38	150.81
380.606	139.81
380.831	158.81
381.057	172.81
381.282	127.81
381.507	148.81
381.733	150.81
381.958	167.81
382.184	156.81
382.409	165.81
382.634	163.81
382.86	164.81
383.085	165.81
383.31	164.81
383.535	168.81
383.761	169.81
383.986	160.81
384.211	178.81
384.436	168.81
384.662	160.81
384.887	158.81
385.112	159.81
385.337	170.81
385.562	172.81
385.787	177.81
386.013	179.81
386.238	178.81
386.463	170.81
386.688	178.81
386.913	188.81
387.138	166.81
387.363	181.81
387.588	169.81
387.813	178.81
388.038	173.81
388.263	176.81
388.488	174.81
388.713	166.81
388.938	154.81
389.163	158.81
389.387	170.81
389.612	188.81
389.837	164.81
390.062	170.81
390.287	178.81
390.512	163.81
390.736	178.81
390.961	184.81
391.186	187.81
391.411	202.81
391.636	198.81
391.86	201.81
392.085	206.81
392.31	180.81
392.534	191.81
392.759	193.81
392.984	187.81
393.208	195.81
393.433	189.81
393.658	176.81
393.882	184.81
394.107	195.81
394.331	189.81
394.556	200.81
394.78	185.81
395.005	207.81
395.229	196.81
395.454	204.81
395.678	202.81
395.903	215.81
396.127	211.81
396.352	186.81
396.576	201.81
396.801	196.81
397.025	202.81
397.249	191.81
397.474	214.81
397.698	196.81
397.922	200.81
398.147	216.81
398.371	219.81
398.595	225.81
398.82	228.81
399.044	244.81
399.268	250.81
399.492	284.81
399.717	307.81
399.941	275.81
400.165	263.81
400.389	248.81
400.613	246.81
400.837	231.81
401.062	228.81
401.286	241.81
401.51	243.81
401.734	240.81
401.958	220.81
402.182	225.81
402.406	231.81
402.63	242.81
402.854	248.81
403.078	258.81
403.302	257.81
403.526	254.81
403.75	265.81
403.974	271.81
404.198	272.81
404.422	277.81
404.645	254.81
404.869	244.81
405.093	273.81
405.317	266.81
405.541	264.81
405.765	264.81
405.988	257.81
406.212	252.81
406.436	266.81
406.66	277.81
406.883	290.81
407.107	283.81
407.331	279.81
407.555	305.81
407.778	302.81
408.002	287.81
408.226	268.81
408.449	282.81
408.673	266.81
408.896	281.81
409.12	265.81
409.344	286.81
409.567	269.81
409.791	276.81
410.014	276.81
410.238	284.81
410.461	289.81
410.685	282.81
410.908	272.81
411.132	251.81
411.355	265.81
411.578	281.81
411.802	272.81
412.025	266.81
412.249	287.81
412.472	276.81
412.695	254.81
412.919	264.81
413.142	259.81
413.365	273.81
413.589	264.81
413.812	259.81
414.035	280.81
414.258	272.81
414.482	282.81
414.705	279.81
414.928	252.81
415.151	262.81
415.374	274.81
415.597	254.81
415.821	270.81
416.044	268.81
416.267	256.81
416.49	256.81
416.713	253.81
416.936	266.81
417.159	274.81
417.382	288.81
417.605	280.81
417.828	279.81
418.051	282.81
418.274	294.81
418.497	275.81
418.72	292.81
418.943	279.81
419.166	300.81
419.389	293.81
419.611	292.81
419.834	296.81
420.057	275.81
420.28	282.81
420.503	273.81
420.726	283.81
420.948	270.81
421.171	273.81
421.394	288.81
421.617	296.81
421.839	290.81
422.062	274.81
422.285	270.81
422.507	265.81
422.73	276.81
422.953	297.81
423.175	280.81
423.398	265.81
423.621	283.81
423.843	293.81
424.066	313.81
424.288	297.81
424.511	292.81
424.733	294.81
424.956	272.81
425.178	271.81
425.401	281.81
425.623	282.81
425.846	257.81
426.068	270.81
426.291	250.81
426.513	266.81
426.735	258.81
426.958	261.81
427.18	276.81
427.402	264.81
427.625	244.81
427.847	256.81
428.069	238.81
428.292	256.81
428.514	273.81
428.736	246.81
428.958	248.81
429.181	248.81
429.403	254.81
429.625	247.81
429.847	260.81
430.069	273.81
430.292	286.81
430.514	259.81
430.736	268.81
430.958	262.81
431.18	246.81
431.402	243.81
431.624	232.81
431.846	252.81
432.068	225.81
432.29	229.81
432.512	263.81
432.734	245.81
432.956	264.81
433.178	282.81
433.4	254.81
433.622	266.81
433.844	248.81
434.066	252.81
434.287	244.81
434.509	226.81
434.731	244.81
434.953	257.81
435.175	270.81
435.397	278.81
435.618	248.81
435.84	221.81
436.062	226.81
436.284	247.81
436.505	249.81
436.727	255.81
436.949	252.81
437.17	243.81
437.392	246.81
437.614	235.81
437.835	222.81
438.057	229.81
438.278	245.81
438.5	250.81
438.721	250.81
438.943	260.81
439.165	267.81
439.386	250.81
439.608	276.81
439.829	268.81
440.05	284.81
440.272	262.81
440.493	270.81
440.715	268.81
440.936	266.81
441.158	271.81
441.379	284.81
441.6	282.81
441.822	298.81
442.043	276.81
442.264	285.81
442.486	270.81
442.707	282.81
442.928	289.81
443.149	297.81
443.371	296.81
443.592	278.81
443.813	278.81
444.034	302.81
444.255	283.81
444.476	298.81
444.698	323.81
444.919	332.81
445.14	561.81
445.361	429.81
445.582	290.81
445.803	279.81
446.024	289.81
446.245	298.81
446.466	274.81
446.687	274.81
446.908	288.81
447.129	272.81
447.35	269.81
447.571	279.81
447.792	262.81
448.013	251.81
448.234	288.81
448.455	246.81
448.675	268.81
448.896	255.81
449.117	249.81
449.338	265.81
449.559	254.81
449.779	232.81
450	253.81
450.221	268.81
450.442	237.81
450.662	236.81
450.883	250.81
451.104	262.81
451.324	234.81
451.545	245.81
451.766	244.81
451.986	251.81
452.207	246.81
452.428	240.81
452.648	248.81
452.869	232.81
453.089	223.81
453.31	212.81
453.53	212.81
453.751	220.81
453.971	222.81
454.192	221.81
454.412	219.81
454.633	227.81
454.853	233.81
455.073	221.81
455.294	220.81
455.514	242.81
455.734	232.81
455.955	212.81
456.175	237.81
456.395	226.81
456.616	214.81
456.836	222.81
457.056	209.81
457.276	214.81
457.497	207.81
457.717	214.81
457.937	221.81
458.157	205.81
458.377	210.81
458.598	183.81
458.818	208.81
459.038	203.81
459.258	216.81
459.478	216.81
459.698	207.81
459.918	259.81
460.138	247.81
460.358	263.81
460.578	268.81
460.798	279.81
461.018	259.81
461.238	272.81
461.458	286.81
461.678	248.81
461.898	273.81
462.118	286.81
462.338	276.81
462.558	273.81
462.777	276.81
462.997	313.81
463.217	335.81
463.437	333.81
463.657	308.81
463.876	278.81
464.096	299.81
464.316	292.81
464.536	291.81
464.755	289.81
464.975	294.81
465.195	268.81
465.414	252.81
465.634	266.81
465.854	244.81
466.073	248.81
466.293	260.81
466.512	243.81
466.732	244.81
466.951	268.81
467.171	264.81
467.391	245.81
467.61	245.81
467.829	241.81
468.049	240.81
468.268	249.81
468.488	245.81
468.707	237.81
468.927	256.81
469.146	236.81
469.365	247.81
469.585	248.81
469.804	272.81
470.023	260.81
470.243	266.81
470.462	259.81
470.681	262.81
470.901	248.81
471.12	258.81
471.339	258.81
471.558	256.81
471.777	251.81
471.997	234.81
472.216	247.81
472.435	223.81
472.654	228.81
472.873	239.81
473.092	215.81
473.311	248.81
473.53	261.81
473.749	248.81
473.968	249.81
474.187	236.81
474.406	231.81
474.625	249.81
474.844	241.81
475.063	239.81
475.282	238.81
475.501	226.81
475.72	264.81
475.939	259.81
476.158	230.81
476.377	254.81
476.596	228.81
476.814	231.81
477.033	244.81
477.252	241.81
477.471	263.81
477.69	251.81
477.908	266.81
478.127	288.81
478.346	284.81
478.564	277.81
478.783	274.81
479.002	286.81
479.22	284.81
479.439	281.81
479.658	273.81
479.876	261.81
480.095	267.81
480.313	278.81
480.532	282.81
480.751	265.81
480.969	245.81
481.188	234.81
481.406	237.81
481.624	217.81
481.843	220.81
482.061	219.81
482.28	248.81
482.498	247.81
482.717	233.81
482.935	253.81
483.153	268.81
483.372	268.81
483.59	283.81
483.808	266.81
484.027	264.81
484.245	258.81
484.463	250.81
484.681	273.81
484.9	279.81
485.118	276.81
485.336	249.81
485.554	236.81
485.772	243.81
485.99	236.81
486.209	245.81
486.427	256.81
486.645	266.81
486.863	290.81
487.081	287.81
487.299	279.81
487.517	296.81
487.735	286.81
487.953	314.81
488.171	328.81
488.389	287.81
488.607	284.81
488.825	263.81
489.043	263.81
489.261	280.81
489.479	264.81
489.696	263.81
489.914	270.81
490.132	301.81
490.35	306.81
490.568	292.81
490.786	298.81
491.003	307.81
491.221	300.81
491.439	336.81
491.657	328.81
491.874	358.81
492.092	379.81
492.31	370.81
492.527	361.81
492.745	334.81
492.963	341.81
493.18	344.81
493.398	332.81
493.615	335.81
493.833	332.81
494.05	326.81
494.268	329.81
494.485	321.81
494.703	323.81
494.92	318.81
495.138	313.81
495.355	330.81
495.573	326.81
495.79	312.81
496.008	314.81
496.225	331.81
496.442	326.81
496.66	323.81
496.877	323.81
497.094	315.81
497.312	316.81
497.529	316.81
497.746	317.81
497.963	303.81
498.181	306.81
498.398	314.81
498.615	340.81
498.832	332.81
499.049	370.81
499.267	383.81
499.484	429.81
499.701	473.81
499.918	504.81
500.135	564.81
500.352	627.81
500.569	641.81
500.786	615.81
501.003	544.81
501.22	495.81
501.437	465.81
501.654	417.81
501.871	403.81
502.088	378.81
502.305	352.81
502.522	362.81
502.739	350.81
502.956	327.81
503.172	304.81
503.389	283.81
503.606	314.81
503.823	299.81
504.04	295.81
504.256	305.81
504.473	285.81
