Data from SampA_HRD10591_00012.txt Node
Date: Mon Jan 19 11:26:50 EST 2026
User: Yrep
Spectrometer: HR+D1059
Trigger mode: 0
Integration Time (sec): 3.443000E-1
Scans to average: 1
Electric dark correction enabled: true
Nonlinearity correction enabled: false
Boxcar width: 0
XAxis mode: Wavelengths
Number of Pixels in Spectrum: 2048
>>>>>Begin Spectral Data<<<<<
223.165	-24.88
223.4	-24.88
223.635	-24.88
223.869	-9.88
224.104	-18.88
224.338	-10.88
224.573	-3.88
224.808	-18.88
225.042	-10.88
225.277	-2.88
225.511	7.12
225.746	1.12
225.98	1.12
226.215	9.12
226.449	12.12
226.683	10.12
226.918	21.12
227.152	39.12
227.387	45.12
227.621	32.12
227.856	56.12
228.09	47.12
228.324	48.12
228.559	67.12
228.793	69.12
229.027	66.12
229.262	69.12
229.496	81.12
229.73	67.12
229.964	87.12
230.199	78.12
230.433	77.12
230.667	71.12
230.901	73.12
231.136	81.12
231.37	83.12
231.604	86.12
231.838	82.12
232.072	91.12
232.306	82.12
232.541	95.12
232.775	76.12
233.009	87.12
233.243	93.12
233.477	85.12
233.711	83.12
233.945	85.12
234.179	91.12
234.413	86.12
234.647	95.12
234.881	85.12
235.115	75.12
235.349	88.12
235.583	94.12
235.817	93.12
236.051	75.12
236.285	87.12
236.519	89.12
236.753	94.12
236.987	72.12
237.221	81.12
237.455	87.12
237.689	90.12
237.922	83.12
238.156	88.12
238.39	74.12
238.624	67.12
238.858	93.12
239.091	96.12
239.325	82.12
239.559	90.12
239.793	90.12
240.027	98.12
240.26	77.12
240.494	82.12
240.728	82.12
240.961	85.12
241.195	97.12
241.429	81.12
241.662	93.12
241.896	87.12
242.13	92.12
242.363	91.12
242.597	96.12
242.83	81.12
243.064	86.12
243.298	91.12
243.531	98.12
243.765	93.12
243.998	95.12
244.232	83.12
244.465	86.12
244.699	95.12
244.932	85.12
245.166	89.12
245.399	85.12
245.633	96.12
245.866	75.12
246.099	97.12
246.333	91.12
246.566	86.12
246.8	86.12
247.033	102.12
247.266	81.12
247.5	97.12
247.733	83.12
247.966	86.12
248.2	89.12
248.433	76.12
248.666	86.12
248.899	86.12
249.133	86.12
249.366	110.12
249.599	84.12
249.832	93.12
250.066	104.12
250.299	85.12
250.532	83.12
250.765	105.12
250.998	88.12
251.231	93.12
251.465	99.12
251.698	106.12
251.931	90.12
252.164	105.12
252.397	81.12
252.63	89.12
252.863	83.12
253.096	94.12
253.329	100.12
253.562	94.12
253.795	108.12
254.028	97.12
254.261	98.12
254.494	94.12
254.727	101.12
254.96	98.12
255.193	89.12
255.426	108.12
255.659	106.12
255.892	118.12
256.124	93.12
256.357	117.12
256.59	87.12
256.823	96.12
257.056	102.12
257.289	90.12
257.521	92.12
257.754	97.12
257.987	84.12
258.22	120.12
258.452	94.12
258.685	93.12
258.918	93.12
259.151	98.12
259.383	92.12
259.616	95.12
259.849	85.12
260.081	112.12
260.314	95.12
260.547	102.12
260.779	85.12
261.012	103.12
261.244	115.12
261.477	96.12
261.71	98.12
261.942	107.12
262.175	105.12
262.407	102.12
262.64	106.12
262.872	105.12
263.105	111.12
263.337	110.12
263.57	97.12
263.802	92.12
264.035	96.12
264.267	103.12
264.499	94.12
264.732	112.12
264.964	96.12
265.197	96.12
265.429	96.12
265.661	99.12
265.894	110.12
266.126	125.12
266.358	98.12
266.591	103.12
266.823	103.12
267.055	93.12
267.287	118.12
267.52	104.12
267.752	109.12
267.984	97.12
268.216	96.12
268.448	103.12
268.681	122.12
268.913	101.12
269.145	114.12
269.377	111.12
269.609	106.12
269.841	119.12
270.073	99.12
270.306	110.12
270.538	104.12
270.77	104.12
271.002	115.12
271.234	109.12
271.466	100.12
271.698	109.12
271.93	107.12
272.162	126.12
272.394	127.12
272.626	97.12
272.858	98.12
273.09	107.12
273.322	115.12
273.553	99.12
273.785	105.12
274.017	110.12
274.249	111.12
274.481	104.12
274.713	107.12
274.945	109.12
275.176	112.12
275.408	118.12
275.64	112.12
275.872	122.12
276.104	114.12
276.335	112.12
276.567	117.12
276.799	109.12
277.031	117.12
277.262	110.12
277.494	106.12
277.726	113.12
277.957	123.12
278.189	105.12
278.421	96.12
278.652	111.12
278.884	114.12
279.115	111.12
279.347	104.12
279.579	123.12
279.81	110.12
280.042	110.12
280.273	109.12
280.505	111.12
280.736	121.12
280.968	118.12
281.199	109.12
281.431	115.12
281.662	97.12
281.894	123.12
282.125	117.12
282.356	111.12
282.588	124.12
282.819	111.12
283.051	102.12
283.282	110.12
283.513	119.12
283.745	124.12
283.976	102.12
284.207	113.12
284.439	128.12
284.67	122.12
284.901	121.12
285.132	118.12
285.364	102.12
285.595	115.12
285.826	129.12
286.057	122.12
286.288	115.12
286.52	130.12
286.751	108.12
286.982	123.12
287.213	113.12
287.444	119.12
287.675	121.12
287.906	116.12
288.138	115.12
288.369	119.12
288.6	126.12
288.831	115.12
289.062	122.12
289.293	117.12
289.524	100.12
289.755	126.12
289.986	127.12
290.217	116.12
290.448	135.12
290.679	126.12
290.91	116.12
291.141	111.12
291.371	136.12
291.602	128.12
291.833	133.12
292.064	143.12
292.295	133.12
292.526	117.12
292.757	133.12
292.987	127.12
293.218	123.12
293.449	111.12
293.68	125.12
293.91	117.12
294.141	140.12
294.372	133.12
294.603	112.12
294.833	121.12
295.064	114.12
295.295	107.12
295.525	143.12
295.756	117.12
295.987	106.12
296.217	123.12
296.448	125.12
296.679	126.12
296.909	120.12
297.14	122.12
297.37	119.12
297.601	129.12
297.831	136.12
298.062	125.12
298.292	126.12
298.523	150.12
298.753	127.12
298.984	115.12
299.214	148.12
299.445	117.12
299.675	117.12
299.905	137.12
300.136	124.12
300.366	120.12
300.597	138.12
300.827	135.12
301.057	126.12
301.288	137.12
301.518	145.12
301.748	155.12
301.979	188.12
302.209	143.12
302.439	126.12
302.669	119.12
302.9	136.12
303.13	144.12
303.36	136.12
303.59	130.12
303.82	122.12
304.051	132.12
304.281	124.12
304.511	126.12
304.741	130.12
304.971	127.12
305.201	132.12
305.431	135.12
305.661	122.12
305.891	133.12
306.121	136.12
306.352	117.12
306.582	141.12
306.812	130.12
307.042	120.12
307.272	135.12
307.502	114.12
307.731	128.12
307.961	130.12
308.191	131.12
308.421	135.12
308.651	135.12
308.881	126.12
309.111	128.12
309.341	119.12
309.571	137.12
309.8	117.12
310.03	129.12
310.26	116.12
310.49	135.12
310.72	134.12
310.949	137.12
311.179	120.12
311.409	153.12
311.639	140.12
311.868	137.12
312.098	126.12
312.328	143.12
312.557	124.12
312.787	130.12
313.017	126.12
313.246	131.12
313.476	114.12
313.706	143.12
313.935	142.12
314.165	131.12
314.394	147.12
314.624	125.12
314.853	135.12
315.083	130.12
315.312	137.12
315.542	128.12
315.771	122.12
316.001	128.12
316.23	138.12
316.46	122.12
316.689	138.12
316.919	134.12
317.148	157.12
317.377	137.12
317.607	123.12
317.836	127.12
318.065	141.12
318.295	151.12
318.524	123.12
318.753	127.12
318.983	142.12
319.212	130.12
319.441	134.12
319.67	140.12
319.9	144.12
320.129	122.12
320.358	133.12
320.587	135.12
320.816	136.12
321.046	143.12
321.275	141.12
321.504	148.12
321.733	134.12
321.962	127.12
322.191	124.12
322.42	126.12
322.649	125.12
322.878	137.12
323.108	159.12
323.337	141.12
323.566	131.12
323.795	140.12
324.024	142.12
324.253	136.12
324.482	129.12
324.71	134.12
324.939	146.12
325.168	122.12
325.397	118.12
325.626	133.12
325.855	123.12
326.084	143.12
326.313	140.12
326.542	158.12
326.77	133.12
326.999	145.12
327.228	128.12
327.457	151.12
327.686	152.12
327.914	136.12
328.143	138.12
328.372	140.12
328.6	144.12
328.829	127.12
329.058	139.12
329.287	141.12
329.515	127.12
329.744	133.12
329.972	147.12
330.201	122.12
330.43	153.12
330.658	141.12
330.887	145.12
331.115	136.12
331.344	135.12
331.572	136.12
331.801	143.12
332.03	138.12
332.258	146.12
332.486	160.12
332.715	149.12
332.943	154.12
333.172	152.12
333.4	162.12
333.629	161.12
333.857	168.12
334.085	160.12
334.314	166.12
334.542	174.12
334.771	167.12
334.999	157.12
335.227	159.12
335.455	152.12
335.684	172.12
335.912	157.12
336.14	151.12
336.369	156.12
336.597	157.12
336.825	147.12
337.053	149.12
337.281	149.12
337.51	159.12
337.738	149.12
337.966	140.12
338.194	154.12
338.422	149.12
338.65	139.12
338.878	164.12
339.106	142.12
339.334	142.12
339.562	145.12
339.79	137.12
340.018	152.12
340.246	145.12
340.474	156.12
340.702	147.12
340.93	142.12
341.158	150.12
341.386	152.12
341.614	130.12
341.842	149.12
342.07	144.12
342.298	138.12
342.526	151.12
342.754	141.12
342.981	150.12
343.209	137.12
343.437	172.12
343.665	161.12
343.893	160.12
344.12	163.12
344.348	137.12
344.576	139.12
344.804	130.12
345.031	141.12
345.259	154.12
345.487	153.12
345.714	147.12
345.942	152.12
346.17	134.12
346.397	150.12
346.625	134.12
346.853	135.12
347.08	151.12
347.308	142.12
347.535	129.12
347.763	155.12
347.99	155.12
348.218	152.12
348.445	131.12
348.673	148.12
348.9	135.12
349.128	138.12
349.355	143.12
349.583	131.12
349.81	141.12
350.037	148.12
350.265	127.12
350.492	137.12
350.72	148.12
350.947	135.12
351.174	134.12
351.402	139.12
351.629	132.12
351.856	124.12
352.083	134.12
352.311	155.12
352.538	146.12
352.765	129.12
352.992	149.12
353.22	133.12
353.447	133.12
353.674	137.12
353.901	145.12
354.128	140.12
354.355	127.12
354.583	122.12
354.81	142.12
355.037	146.12
355.264	140.12
355.491	132.12
355.718	150.12
355.945	151.12
356.172	139.12
356.399	130.12
356.626	133.12
356.853	139.12
357.08	145.12
357.307	131.12
357.534	120.12
357.761	139.12
357.988	148.12
358.215	145.12
358.441	123.12
358.668	128.12
358.895	132.12
359.122	136.12
359.349	134.12
359.576	141.12
359.802	122.12
360.029	139.12
360.256	149.12
360.483	135.12
360.709	142.12
360.936	162.12
361.163	141.12
361.39	124.12
361.616	135.12
361.843	151.12
362.07	144.12
362.296	143.12
362.523	127.12
362.749	140.12
362.976	122.12
363.203	153.12
363.429	135.12
363.656	142.12
363.882	137.12
364.109	149.12
364.335	145.12
364.562	133.12
364.788	126.12
365.015	161.12
365.241	151.12
365.468	138.12
365.694	154.12
365.92	131.12
366.147	130.12
366.373	146.12
366.599	161.12
366.826	134.12
367.052	132.12
367.278	138.12
367.505	139.12
367.731	151.12
367.957	153.12
368.184	129.12
368.41	137.12
368.636	149.12
368.862	131.12
369.089	153.12
369.315	142.12
369.541	139.12
369.767	153.12
369.993	144.12
370.219	141.12
370.445	145.12
370.672	144.12
370.898	139.12
371.124	133.12
371.35	134.12
371.576	149.12
371.802	152.12
372.028	144.12
372.254	159.12
372.48	159.12
372.706	154.12
372.932	149.12
373.158	156.12
373.384	160.12
373.61	159.12
373.835	145.12
374.061	164.12
374.287	149.12
374.513	156.12
374.739	146.12
374.965	162.12
375.191	162.12
375.416	148.12
375.642	160.12
375.868	161.12
376.094	157.12
376.319	151.12
376.545	138.12
376.771	162.12
376.997	157.12
377.222	147.12
377.448	153.12
377.674	144.12
377.899	150.12
378.125	166.12
378.35	154.12
378.576	155.12
378.802	160.12
379.027	143.12
379.253	142.12
379.478	151.12
379.704	163.12
379.929	156.12
380.155	153.12
380.38	144.12
380.606	141.12
380.831	159.12
381.057	172.12
381.282	146.12
381.507	157.12
381.733	159.12
381.958	174.12
382.184	141.12
382.409	168.12
382.634	157.12
382.86	155.12
383.085	167.12
383.31	145.12
383.535	171.12
383.761	160.12
383.986	155.12
384.211	171.12
384.436	175.12
384.662	169.12
384.887	158.12
385.112	181.12
385.337	174.12
385.562	161.12
385.787	174.12
386.013	179.12
386.238	182.12
386.463	196.12
386.688	189.12
386.913	182.12
387.138	166.12
387.363	171.12
387.588	184.12
387.813	171.12
388.038	183.12
388.263	180.12
388.488	178.12
388.713	172.12
388.938	182.12
389.163	172.12
389.387	171.12
389.612	158.12
389.837	166.12
390.062	174.12
390.287	185.12
390.512	169.12
390.736	163.12
390.961	192.12
391.186	184.12
391.411	159.12
391.636	171.12
391.86	185.12
392.085	209.12
392.31	180.12
392.534	189.12
392.759	194.12
392.984	193.12
393.208	176.12
393.433	179.12
393.658	190.12
393.882	191.12
394.107	196.12
394.331	195.12
394.556	203.12
394.78	214.12
395.005	200.12
395.229	190.12
395.454	222.12
395.678	208.12
395.903	210.12
396.127	205.12
396.352	196.12
396.576	206.12
396.801	210.12
397.025	201.12
397.249	198.12
397.474	222.12
397.698	210.12
397.922	216.12
398.147	204.12
398.371	219.12
398.595	207.12
398.82	229.12
399.044	231.12
399.268	274.12
399.492	297.12
399.717	305.12
399.941	286.12
400.165	285.12
400.389	255.12
400.613	224.12
400.837	230.12
401.062	212.12
401.286	242.12
401.51	245.12
401.734	239.12
401.958	235.12
402.182	256.12
402.406	247.12
402.63	251.12
402.854	248.12
403.078	249.12
403.302	247.12
403.526	265.12
403.75	269.12
403.974	265.12
404.198	274.12
404.422	272.12
404.645	265.12
404.869	283.12
405.093	258.12
405.317	273.12
405.541	264.12
405.765	273.12
405.988	261.12
406.212	275.12
406.436	261.12
406.66	268.12
406.883	276.12
407.107	274.12
407.331	289.12
407.555	314.12
407.778	292.12
408.002	292.12
408.226	285.12
408.449	283.12
408.673	269.12
408.896	272.12
409.12	270.12
409.344	282.12
409.567	296.12
409.791	289.12
410.014	283.12
410.238	283.12
410.461	282.12
410.685	271.12
410.908	274.12
411.132	267.12
411.355	268.12
411.578	291.12
411.802	273.12
412.025	271.12
412.249	279.12
412.472	276.12
412.695	272.12
412.919	263.12
413.142	261.12
413.365	277.12
413.589	266.12
413.812	270.12
414.035	278.12
414.258	267.12
414.482	267.12
414.705	248.12
414.928	272.12
415.151	265.12
415.374	267.12
415.597	274.12
415.821	273.12
416.044	267.12
416.267	272.12
416.49	282.12
416.713	268.12
416.936	271.12
417.159	263.12
417.382	274.12
417.605	268.12
417.828	284.12
418.051	276.12
418.274	284.12
418.497	274.12
418.72	297.12
418.943	282.12
419.166	298.12
419.389	301.12
419.611	292.12
419.834	295.12
420.057	282.12
420.28	285.12
420.503	287.12
420.726	294.12
420.948	287.12
421.171	283.12
421.394	296.12
421.617	277.12
421.839	275.12
422.062	283.12
422.285	271.12
422.507	271.12
422.73	274.12
422.953	292.12
423.175	300.12
423.398	284.12
423.621	303.12
423.843	301.12
424.066	300.12
424.288	298.12
424.511	293.12
424.733	309.12
424.956	296.12
425.178	277.12
425.401	289.12
425.623	287.12
425.846	271.12
426.068	284.12
426.291	279.12
426.513	261.12
426.735	274.12
426.958	267.12
427.18	277.12
427.402	256.12
427.625	266.12
427.847	262.12
428.069	271.12
428.292	243.12
428.514	259.12
428.736	250.12
428.958	249.12
429.181	248.12
429.403	233.12
429.625	248.12
429.847	254.12
430.069	251.12
430.292	265.12
430.514	261.12
430.736	254.12
430.958	245.12
431.18	259.12
431.402	246.12
431.624	254.12
431.846	248.12
432.068	238.12
432.29	238.12
432.512	247.12
432.734	240.12
432.956	264.12
433.178	271.12
433.4	267.12
433.622	262.12
433.844	258.12
434.066	239.12
434.287	250.12
434.509	222.12
434.731	243.12
434.953	255.12
435.175	266.12
435.397	268.12
435.618	255.12
435.84	245.12
436.062	247.12
436.284	246.12
436.505	265.12
436.727	276.12
436.949	266.12
437.17	268.12
437.392	265.12
437.614	240.12
437.835	238.12
438.057	235.12
438.278	241.12
438.5	237.12
438.721	253.12
438.943	251.12
439.165	251.12
439.386	253.12
439.608	272.12
439.829	279.12
440.05	279.12
440.272	278.12
440.493	250.12
440.715	270.12
440.936	275.12
441.158	301.12
441.379	288.12
441.6	299.12
441.822	304.12
442.043	290.12
442.264	280.12
442.486	292.12
442.707	279.12
442.928	303.12
443.149	299.12
443.371	263.12
443.592	277.12
443.813	287.12
444.034	280.12
444.255	302.12
444.476	299.12
444.698	319.12
444.919	356.12
445.14	495.12
445.361	376.12
445.582	281.12
445.803	266.12
446.024	287.12
446.245	293.12
446.466	284.12
446.687	287.12
446.908	290.12
447.129	294.12
447.35	269.12
447.571	294.12
447.792	271.12
448.013	261.12
448.234	263.12
448.455	245.12
448.675	240.12
448.896	245.12
449.117	241.12
449.338	246.12
449.559	250.12
449.779	257.12
450	258.12
450.221	251.12
450.442	258.12
450.662	258.12
450.883	239.12
451.104	257.12
451.324	269.12
451.545	261.12
451.766	239.12
451.986	246.12
452.207	249.12
452.428	241.12
452.648	244.12
452.869	222.12
453.089	234.12
453.31	242.12
453.53	222.12
453.751	232.12
453.971	229.12
454.192	221.12
454.412	214.12
454.633	225.12
454.853	226.12
455.073	222.12
455.294	232.12
455.514	239.12
455.734	239.12
455.955	225.12
456.175	216.12
456.395	209.12
456.616	224.12
456.836	205.12
457.056	223.12
457.276	214.12
457.497	208.12
457.717	193.12
457.937	211.12
458.157	208.12
458.377	210.12
458.598	207.12
458.818	202.12
459.038	208.12
459.258	214.12
459.478	214.12
459.698	230.12
459.918	236.12
460.138	240.12
460.358	264.12
460.578	271.12
460.798	270.12
461.018	259.12
461.238	283.12
461.458	286.12
461.678	270.12
461.898	288.12
462.118	281.12
462.338	281.12
462.558	291.12
462.777	299.12
462.997	311.12
463.217	340.12
463.437	287.12
463.657	303.12
463.876	285.12
464.096	277.12
464.316	297.12
464.536	283.12
464.755	283.12
464.975	264.12
465.195	265.12
465.414	250.12
465.634	246.12
465.854	253.12
466.073	259.12
466.293	263.12
466.512	265.12
466.732	256.12
466.951	248.12
467.171	263.12
467.391	275.12
467.61	256.12
467.829	255.12
468.049	250.12
468.268	240.12
468.488	249.12
468.707	237.12
468.927	252.12
469.146	242.12
469.365	242.12
469.585	270.12
469.804	283.12
470.023	271.12
470.243	296.12
470.462	272.12
470.681	261.12
470.901	267.12
471.12	261.12
471.339	276.12
471.558	268.12
471.777	260.12
471.997	256.12
472.216	263.12
472.435	241.12
472.654	219.12
472.873	228.12
473.092	233.12
473.311	243.12
473.53	237.12
473.749	232.12
473.968	241.12
474.187	242.12
474.406	234.12
474.625	242.12
474.844	254.12
475.063	235.12
475.282	224.12
475.501	224.12
475.72	246.12
475.939	253.12
476.158	237.12
476.377	240.12
476.596	234.12
476.814	229.12
477.033	219.12
477.252	257.12
477.471	248.12
477.69	275.12
477.908	279.12
478.127	280.12
478.346	285.12
478.564	282.12
478.783	287.12
479.002	296.12
479.22	272.12
479.439	287.12
479.658	264.12
479.876	238.12
480.095	261.12
480.313	276.12
480.532	285.12
480.751	251.12
480.969	253.12
481.188	230.12
481.406	233.12
481.624	237.12
481.843	219.12
482.061	221.12
482.28	246.12
482.498	247.12
482.717	238.12
482.935	256.12
483.153	268.12
483.372	291.12
483.59	284.12
483.808	258.12
484.027	263.12
484.245	275.12
484.463	267.12
484.681	287.12
484.9	270.12
485.118	280.12
485.336	257.12
485.554	256.12
485.772	242.12
485.99	255.12
486.209	251.12
486.427	235.12
486.645	271.12
486.863	272.12
487.081	271.12
487.299	250.12
487.517	271.12
487.735	311.12
487.953	320.12
488.171	319.12
488.389	297.12
488.607	272.12
488.825	279.12
489.043	265.12
489.261	274.12
489.479	274.12
489.696	269.12
489.914	286.12
490.132	307.12
490.35	308.12
490.568	307.12
490.786	312.12
491.003	310.12
491.221	313.12
491.439	332.12
491.657	331.12
491.874	344.12
492.092	374.12
492.31	378.12
492.527	359.12
492.745	332.12
492.963	327.12
493.18	330.12
493.398	341.12
493.615	330.12
493.833	333.12
494.05	335.12
494.268	347.12
494.485	332.12
494.703	313.12
494.92	325.12
495.138	318.12
495.355	325.12
495.573	310.12
495.79	320.12
496.008	334.12
496.225	319.12
496.442	313.12
496.66	336.12
496.877	317.12
497.094	337.12
497.312	319.12
497.529	323.12
497.746	326.12
497.963	317.12
498.181	338.12
498.398	344.12
498.615	337.12
498.832	329.12
499.049	375.12
499.267	425.12
499.484	433.12
499.701	468.12
499.918	535.12
500.135	579.12
500.352	639.12
500.569	632.12
500.786	638.12
501.003	597.12
501.22	524.12
501.437	489.12
501.654	439.12
501.871	390.12
502.088	389.12
502.305	376.12
502.522	347.12
502.739	355.12
502.956	330.12
503.172	322.12
503.389	301.12
503.606	299.12
503.823	293.12
504.04	296.12
504.256	290.12
504.473	293.12
504.69	340.12
