Data from SampA_HRD10591_00075.txt Node
Date: Mon Jan 19 11:27:12 EST 2026
User: Yrep
Spectrometer: HR+D1059
Trigger mode: 0
Integration Time (sec): 3.443000E-1
Scans to average: 1
Electric dark correction enabled: true
Nonlinearity correction enabled: false
Boxcar width: 0
XAxis mode: Wavelengths
Number of Pixels in Spectrum: 2048
>>>>>Begin Spectral Data<<<<<
223.165	-18.25
223.4	-18.25
223.635	-18.25
223.869	-10.25
224.104	-32.25
224.338	-13.25
224.573	-16.25
224.808	-13.25
225.042	-21.25
225.277	-4.25
225.511	-1.25
225.746	7.75
225.98	19.75
226.215	12.75
226.449	14.75
226.683	27.75
226.918	27.75
227.152	19.75
227.387	25.75
227.621	34.75
227.856	57.75
228.09	31.75
228.324	53.75
228.559	56.75
228.793	66.75
229.027	77.75
229.262	71.75
229.496	78.75
229.73	85.75
229.964	87.75
230.199	86.75
230.433	93.75
230.667	84.75
230.901	84.75
231.136	88.75
231.37	89.75
231.604	104.75
231.838	85.75
232.072	82.75
232.306	91.75
232.541	82.75
232.775	94.75
233.009	107.75
233.243	100.75
233.477	85.75
233.711	96.75
233.945	94.75
234.179	86.75
234.413	101.75
234.647	87.75
234.881	89.75
235.115	100.75
235.349	95.75
235.583	105.75
235.817	101.75
236.051	85.75
236.285	85.75
236.519	93.75
236.753	80.75
236.987	82.75
237.221	95.75
237.455	86.75
237.689	95.75
237.922	99.75
238.156	87.75
238.39	92.75
238.624	101.75
238.858	99.75
239.091	83.75
239.325	100.75
239.559	85.75
239.793	96.75
240.027	106.75
240.26	90.75
240.494	99.75
240.728	84.75
240.961	101.75
241.195	98.75
241.429	98.75
241.662	93.75
241.896	95.75
242.13	106.75
242.363	84.75
242.597	93.75
242.83	110.75
243.064	89.75
243.298	107.75
243.531	101.75
243.765	108.75
243.998	105.75
244.232	105.75
244.465	91.75
244.699	109.75
244.932	103.75
245.166	91.75
245.399	110.75
245.633	109.75
245.866	101.75
246.099	99.75
246.333	106.75
246.566	105.75
246.8	109.75
247.033	110.75
247.266	105.75
247.5	106.75
247.733	95.75
247.966	98.75
248.2	99.75
248.433	109.75
248.666	109.75
248.899	116.75
249.133	97.75
249.366	116.75
249.599	115.75
249.832	110.75
250.066	129.75
250.299	118.75
250.532	100.75
250.765	101.75
250.998	97.75
251.231	107.75
251.465	99.75
251.698	111.75
251.931	106.75
252.164	93.75
252.397	108.75
252.63	125.75
252.863	104.75
253.096	116.75
253.329	114.75
253.562	123.75
253.795	131.75
254.028	109.75
254.261	111.75
254.494	114.75
254.727	124.75
254.96	120.75
255.193	110.75
255.426	104.75
255.659	110.75
255.892	132.75
256.124	121.75
256.357	118.75
256.59	122.75
256.823	129.75
257.056	113.75
257.289	115.75
257.521	118.75
257.754	102.75
257.987	106.75
258.22	109.75
258.452	118.75
258.685	107.75
258.918	112.75
259.151	119.75
259.383	133.75
259.616	121.75
259.849	121.75
260.081	125.75
260.314	115.75
260.547	121.75
260.779	118.75
261.012	122.75
261.244	109.75
261.477	138.75
261.71	131.75
261.942	125.75
262.175	124.75
262.407	130.75
262.64	118.75
262.872	125.75
263.105	127.75
263.337	121.75
263.57	126.75
263.802	140.75
264.035	130.75
264.267	131.75
264.499	127.75
264.732	121.75
264.964	126.75
265.197	132.75
265.429	118.75
265.661	142.75
265.894	114.75
266.126	147.75
266.358	129.75
266.591	142.75
266.823	135.75
267.055	122.75
267.287	133.75
267.52	133.75
267.752	142.75
267.984	155.75
268.216	129.75
268.448	140.75
268.681	154.75
268.913	140.75
269.145	149.75
269.377	140.75
269.609	137.75
269.841	134.75
270.073	139.75
270.306	132.75
270.538	139.75
270.77	141.75
271.002	151.75
271.234	125.75
271.466	150.75
271.698	147.75
271.93	137.75
272.162	148.75
272.394	155.75
272.626	139.75
272.858	133.75
273.09	145.75
273.322	146.75
273.553	154.75
273.785	144.75
274.017	142.75
274.249	146.75
274.481	141.75
274.713	135.75
274.945	144.75
275.176	137.75
275.408	144.75
275.64	163.75
275.872	150.75
276.104	165.75
276.335	173.75
276.567	134.75
276.799	148.75
277.031	156.75
277.262	136.75
277.494	141.75
277.726	158.75
277.957	154.75
278.189	153.75
278.421	132.75
278.652	156.75
278.884	151.75
279.115	149.75
279.347	168.75
279.579	167.75
279.81	152.75
280.042	149.75
280.273	142.75
280.505	141.75
280.736	155.75
280.968	152.75
281.199	163.75
281.431	171.75
281.662	166.75
281.894	165.75
282.125	163.75
282.356	174.75
282.588	175.75
282.819	151.75
283.051	156.75
283.282	153.75
283.513	166.75
283.745	167.75
283.976	158.75
284.207	167.75
284.439	159.75
284.67	155.75
284.901	168.75
285.132	153.75
285.364	168.75
285.595	169.75
285.826	174.75
286.057	172.75
286.288	169.75
286.52	171.75
286.751	174.75
286.982	172.75
287.213	170.75
287.444	171.75
287.675	156.75
287.906	174.75
288.138	183.75
288.369	164.75
288.6	168.75
288.831	188.75
289.062	177.75
289.293	184.75
289.524	171.75
289.755	174.75
289.986	162.75
290.217	195.75
290.448	181.75
290.679	175.75
290.91	170.75
291.141	176.75
291.371	173.75
291.602	168.75
291.833	162.75
292.064	172.75
292.295	179.75
292.526	183.75
292.757	177.75
292.987	175.75
293.218	194.75
293.449	182.75
293.68	174.75
293.91	173.75
294.141	180.75
294.372	177.75
294.603	177.75
294.833	175.75
295.064	174.75
295.295	173.75
295.525	171.75
295.756	172.75
295.987	172.75
296.217	188.75
296.448	188.75
296.679	182.75
296.909	177.75
297.14	194.75
297.37	185.75
297.601	173.75
297.831	181.75
298.062	185.75
298.292	182.75
298.523	193.75
298.753	193.75
298.984	187.75
299.214	194.75
299.445	173.75
299.675	174.75
299.905	176.75
300.136	174.75
300.366	193.75
300.597	199.75
300.827	198.75
301.057	207.75
301.288	206.75
301.518	186.75
301.748	189.75
301.979	206.75
302.209	182.75
302.439	180.75
302.669	213.75
302.9	197.75
303.13	204.75
303.36	194.75
303.59	180.75
303.82	202.75
304.051	197.75
304.281	195.75
304.511	234.75
304.741	191.75
304.971	193.75
305.201	177.75
305.431	194.75
305.661	187.75
305.891	186.75
306.121	189.75
306.352	199.75
306.582	206.75
306.812	179.75
307.042	198.75
307.272	188.75
307.502	183.75
307.731	187.75
307.961	190.75
308.191	188.75
308.421	194.75
308.651	199.75
308.881	202.75
309.111	187.75
309.341	184.75
309.571	183.75
309.8	193.75
310.03	197.75
310.26	187.75
310.49	183.75
310.72	203.75
310.949	192.75
311.179	187.75
311.409	192.75
311.639	197.75
311.868	191.75
312.098	199.75
312.328	205.75
312.557	186.75
312.787	193.75
313.017	197.75
313.246	205.75
313.476	204.75
313.706	199.75
313.935	194.75
314.165	209.75
314.394	201.75
314.624	197.75
314.853	212.75
315.083	201.75
315.312	202.75
315.542	204.75
315.771	209.75
316.001	188.75
316.23	195.75
316.46	196.75
316.689	202.75
316.919	201.75
317.148	203.75
317.377	219.75
317.607	199.75
317.836	195.75
318.065	201.75
318.295	200.75
318.524	187.75
318.753	214.75
318.983	214.75
319.212	218.75
319.441	201.75
319.67	204.75
319.9	215.75
320.129	211.75
320.358	208.75
320.587	181.75
320.816	205.75
321.046	207.75
321.275	206.75
321.504	217.75
321.733	182.75
321.962	213.75
322.191	206.75
322.42	210.75
322.649	195.75
322.878	203.75
323.108	220.75
323.337	217.75
323.566	222.75
323.795	210.75
324.024	211.75
324.253	209.75
324.482	219.75
324.71	216.75
324.939	197.75
325.168	209.75
325.397	222.75
325.626	213.75
325.855	210.75
326.084	215.75
326.313	207.75
326.542	213.75
326.77	213.75
326.999	206.75
327.228	230.75
327.457	217.75
327.686	213.75
327.914	224.75
328.143	218.75
328.372	217.75
328.6	242.75
328.829	223.75
329.058	212.75
329.287	215.75
329.515	204.75
329.744	205.75
329.972	221.75
330.201	219.75
330.43	229.75
330.658	207.75
330.887	231.75
331.115	230.75
331.344	219.75
331.572	247.75
331.801	238.75
332.03	241.75
332.258	257.75
332.486	237.75
332.715	252.75
332.943	260.75
333.172	279.75
333.4	273.75
333.629	273.75
333.857	254.75
334.085	287.75
334.314	268.75
334.542	269.75
334.771	254.75
334.999	267.75
335.227	289.75
335.455	264.75
335.684	259.75
335.912	269.75
336.14	257.75
336.369	258.75
336.597	252.75
336.825	252.75
337.053	254.75
337.281	253.75
337.51	245.75
337.738	261.75
337.966	238.75
338.194	229.75
338.422	229.75
338.65	229.75
338.878	235.75
339.106	234.75
339.334	239.75
339.562	226.75
339.79	209.75
340.018	215.75
340.246	230.75
340.474	230.75
340.702	230.75
340.93	221.75
341.158	227.75
341.386	234.75
341.614	237.75
341.842	222.75
342.07	213.75
342.298	230.75
342.526	236.75
342.754	244.75
342.981	246.75
343.209	250.75
343.437	275.75
343.665	267.75
343.893	265.75
344.12	272.75
344.348	242.75
344.576	234.75
344.804	244.75
345.031	229.75
345.259	214.75
345.487	234.75
345.714	216.75
345.942	219.75
346.17	236.75
346.397	216.75
346.625	223.75
346.853	230.75
347.08	215.75
347.308	228.75
347.535	210.75
347.763	229.75
347.99	226.75
348.218	223.75
348.445	214.75
348.673	221.75
348.9	221.75
349.128	222.75
349.355	211.75
349.583	216.75
349.81	223.75
350.037	210.75
350.265	211.75
350.492	222.75
350.72	216.75
350.947	212.75
351.174	220.75
351.402	224.75
351.629	200.75
351.856	222.75
352.083	207.75
352.311	226.75
352.538	203.75
352.765	205.75
352.992	233.75
353.22	217.75
353.447	220.75
353.674	215.75
353.901	209.75
354.128	234.75
354.355	213.75
354.583	214.75
354.81	238.75
355.037	241.75
355.264	221.75
355.491	227.75
355.718	204.75
355.945	201.75
356.172	226.75
356.399	221.75
356.626	225.75
356.853	232.75
357.08	216.75
357.307	201.75
357.534	208.75
357.761	213.75
357.988	210.75
358.215	221.75
358.441	212.75
358.668	226.75
358.895	214.75
359.122	225.75
359.349	202.75
359.576	214.75
359.802	212.75
360.029	217.75
360.256	218.75
360.483	214.75
360.709	224.75
360.936	245.75
361.163	228.75
361.39	219.75
361.616	229.75
361.843	211.75
362.07	214.75
362.296	232.75
362.523	221.75
362.749	226.75
362.976	204.75
363.203	225.75
363.429	216.75
363.656	204.75
363.882	197.75
364.109	210.75
364.335	229.75
364.562	231.75
364.788	215.75
365.015	221.75
365.241	211.75
365.468	228.75
365.694	223.75
365.92	237.75
366.147	215.75
366.373	227.75
366.599	222.75
366.826	227.75
367.052	228.75
367.278	236.75
367.505	198.75
367.731	241.75
367.957	233.75
368.184	226.75
368.41	215.75
368.636	220.75
368.862	213.75
369.089	230.75
369.315	226.75
369.541	241.75
369.767	225.75
369.993	228.75
370.219	243.75
370.445	220.75
370.672	221.75
370.898	231.75
371.124	236.75
371.35	239.75
371.576	223.75
371.802	222.75
372.028	236.75
372.254	230.75
372.48	230.75
372.706	250.75
372.932	265.75
373.158	245.75
373.384	244.75
373.61	246.75
373.835	221.75
374.061	241.75
374.287	249.75
374.513	265.75
374.739	253.75
374.965	243.75
375.191	255.75
375.416	238.75
375.642	247.75
375.868	245.75
376.094	244.75
376.319	234.75
376.545	236.75
376.771	249.75
376.997	250.75
377.222	232.75
377.448	243.75
377.674	249.75
377.899	238.75
378.125	234.75
378.35	248.75
378.576	219.75
378.802	229.75
379.027	241.75
379.253	242.75
379.478	223.75
379.704	257.75
379.929	254.75
380.155	228.75
380.38	237.75
380.606	218.75
380.831	243.75
381.057	247.75
381.282	252.75
381.507	222.75
381.733	230.75
381.958	233.75
382.184	237.75
382.409	241.75
382.634	249.75
382.86	263.75
383.085	263.75
383.31	260.75
383.535	266.75
383.761	274.75
383.986	284.75
384.211	282.75
384.436	282.75
384.662	279.75
384.887	274.75
385.112	283.75
385.337	266.75
385.562	267.75
385.787	287.75
386.013	294.75
386.238	294.75
386.463	299.75
386.688	321.75
386.913	283.75
387.138	269.75
387.363	290.75
387.588	280.75
387.813	260.75
388.038	298.75
388.263	261.75
388.488	273.75
388.713	275.75
388.938	280.75
389.163	295.75
389.387	273.75
389.612	277.75
389.837	282.75
390.062	287.75
390.287	298.75
390.512	296.75
390.736	295.75
390.961	301.75
391.186	315.75
391.411	306.75
391.636	304.75
391.86	329.75
392.085	332.75
392.31	325.75
392.534	318.75
392.759	327.75
392.984	321.75
393.208	297.75
393.433	302.75
393.658	311.75
393.882	311.75
394.107	311.75
394.331	297.75
394.556	304.75
394.78	306.75
395.005	325.75
395.229	304.75
395.454	311.75
395.678	328.75
395.903	332.75
396.127	341.75
396.352	312.75
396.576	315.75
396.801	325.75
397.025	345.75
397.249	346.75
397.474	349.75
397.698	339.75
397.922	365.75
398.147	342.75
398.371	345.75
398.595	385.75
398.82	402.75
399.044	425.75
399.268	469.75
399.492	539.75
399.717	529.75
399.941	514.75
400.165	480.75
400.389	418.75
400.613	401.75
400.837	387.75
401.062	385.75
401.286	373.75
401.51	389.75
401.734	389.75
401.958	391.75
402.182	394.75
402.406	408.75
402.63	407.75
402.854	420.75
403.078	425.75
403.302	439.75
403.526	445.75
403.75	436.75
403.974	473.75
404.198	470.75
404.422	473.75
404.645	461.75
404.869	474.75
405.093	446.75
405.317	456.75
405.541	449.75
405.765	427.75
405.988	444.75
406.212	437.75
406.436	452.75
406.66	482.75
406.883	477.75
407.107	490.75
407.331	497.75
407.555	499.75
407.778	494.75
408.002	490.75
408.226	468.75
408.449	476.75
408.673	478.75
408.896	476.75
409.12	455.75
409.344	464.75
409.567	449.75
409.791	447.75
410.014	459.75
410.238	469.75
410.461	474.75
410.685	445.75
410.908	451.75
411.132	450.75
411.355	461.75
411.578	458.75
411.802	436.75
412.025	440.75
412.249	443.75
412.472	435.75
412.695	414.75
412.919	427.75
413.142	431.75
413.365	441.75
413.589	413.75
413.812	433.75
414.035	415.75
414.258	445.75
414.482	435.75
414.705	449.75
414.928	438.75
415.151	427.75
415.374	447.75
415.597	446.75
415.821	429.75
416.044	420.75
416.267	420.75
416.49	426.75
416.713	440.75
416.936	446.75
417.159	408.75
417.382	432.75
417.605	431.75
417.828	441.75
418.051	451.75
418.274	460.75
418.497	454.75
418.72	455.75
418.943	449.75
419.166	462.75
419.389	471.75
419.611	485.75
419.834	467.75
420.057	453.75
420.28	446.75
420.503	447.75
420.726	442.75
420.948	434.75
421.171	459.75
421.394	424.75
421.617	451.75
421.839	463.75
422.062	482.75
422.285	486.75
422.507	472.75
422.73	433.75
422.953	449.75
423.175	460.75
423.398	468.75
423.621	466.75
423.843	475.75
424.066	468.75
424.288	471.75
424.511	465.75
424.733	479.75
424.956	469.75
425.178	449.75
425.401	460.75
425.623	454.75
425.846	429.75
426.068	450.75
426.291	440.75
426.513	433.75
426.735	422.75
426.958	411.75
427.18	407.75
427.402	412.75
427.625	416.75
427.847	397.75
428.069	401.75
428.292	394.75
428.514	381.75
428.736	413.75
428.958	388.75
429.181	379.75
429.403	411.75
429.625	400.75
429.847	413.75
430.069	401.75
430.292	386.75
430.514	381.75
430.736	380.75
430.958	378.75
431.18	381.75
431.402	397.75
431.624	389.75
431.846	380.75
432.068	348.75
432.29	391.75
432.512	374.75
432.734	393.75
432.956	413.75
433.178	427.75
433.4	413.75
433.622	401.75
433.844	425.75
434.066	402.75
434.287	380.75
434.509	372.75
434.731	402.75
434.953	404.75
435.175	431.75
435.397	420.75
435.618	387.75
435.84	378.75
436.062	385.75
436.284	393.75
436.505	418.75
436.727	407.75
436.949	378.75
437.17	404.75
437.392	387.75
437.614	369.75
437.835	346.75
438.057	350.75
438.278	363.75
438.5	371.75
438.721	372.75
438.943	400.75
439.165	403.75
439.386	402.75
439.608	415.75
439.829	415.75
440.05	427.75
440.272	414.75
440.493	412.75
440.715	414.75
440.936	460.75
441.158	426.75
441.379	433.75
441.6	446.75
441.822	462.75
442.043	427.75
442.264	438.75
442.486	431.75
442.707	433.75
442.928	433.75
443.149	435.75
443.371	465.75
443.592	459.75
443.813	454.75
444.034	453.75
444.255	455.75
444.476	485.75
444.698	526.75
444.919	523.75
445.14	761.75
445.361	572.75
445.582	445.75
445.803	439.75
446.024	446.75
446.245	445.75
446.466	405.75
446.687	409.75
446.908	413.75
447.129	408.75
447.35	430.75
447.571	405.75
447.792	393.75
448.013	395.75
448.234	388.75
448.455	389.75
448.675	385.75
448.896	369.75
449.117	397.75
449.338	379.75
449.559	364.75
449.779	369.75
450	392.75
450.221	369.75
450.442	379.75
450.662	379.75
450.883	367.75
451.104	380.75
451.324	371.75
451.545	397.75
451.766	384.75
451.986	356.75
452.207	373.75
452.428	360.75
452.648	361.75
452.869	351.75
453.089	341.75
453.31	333.75
453.53	340.75
453.751	333.75
453.971	345.75
454.192	323.75
454.412	323.75
454.633	342.75
454.853	344.75
455.073	348.75
455.294	362.75
455.514	389.75
455.734	374.75
455.955	321.75
456.175	337.75
456.395	314.75
456.616	326.75
456.836	343.75
457.056	339.75
457.276	307.75
457.497	332.75
457.717	309.75
457.937	335.75
458.157	328.75
458.377	324.75
458.598	338.75
458.818	342.75
459.038	336.75
459.258	345.75
459.478	353.75
459.698	365.75
459.918	405.75
460.138	393.75
460.358	444.75
460.578	438.75
460.798	429.75
461.018	446.75
461.238	447.75
461.458	425.75
461.678	418.75
461.898	442.75
462.118	455.75
462.338	465.75
462.558	485.75
462.777	504.75
462.997	529.75
463.217	567.75
463.437	536.75
463.657	503.75
463.876	479.75
464.096	505.75
464.316	500.75
464.536	489.75
464.755	489.75
464.975	460.75
465.195	440.75
465.414	417.75
465.634	397.75
465.854	395.75
466.073	381.75
466.293	369.75
466.512	380.75
466.732	393.75
466.951	415.75
467.171	391.75
467.391	386.75
467.61	369.75
467.829	380.75
468.049	385.75
468.268	361.75
468.488	367.75
468.707	374.75
468.927	370.75
469.146	379.75
469.365	387.75
469.585	388.75
469.804	406.75
470.023	402.75
470.243	408.75
470.462	423.75
470.681	403.75
470.901	406.75
471.12	387.75
471.339	392.75
471.558	375.75
471.777	389.75
471.997	393.75
472.216	370.75
472.435	351.75
472.654	354.75
472.873	353.75
473.092	344.75
473.311	371.75
473.53	366.75
473.749	358.75
473.968	377.75
474.187	358.75
474.406	348.75
474.625	358.75
474.844	383.75
475.063	345.75
475.282	358.75
475.501	341.75
475.72	342.75
475.939	356.75
476.158	369.75
476.377	368.75
476.596	351.75
476.814	354.75
477.033	364.75
477.252	369.75
477.471	399.75
477.69	418.75
477.908	410.75
478.127	425.75
478.346	419.75
478.564	438.75
478.783	440.75
479.002	462.75
479.22	455.75
479.439	458.75
479.658	429.75
479.876	413.75
480.095	429.75
480.313	447.75
480.532	453.75
480.751	445.75
480.969	420.75
481.188	410.75
481.406	378.75
481.624	366.75
481.843	345.75
482.061	361.75
482.28	356.75
482.498	379.75
482.717	363.75
482.935	389.75
483.153	412.75
483.372	439.75
483.59	397.75
483.808	401.75
484.027	405.75
484.245	413.75
484.463	425.75
484.681	441.75
484.9	417.75
485.118	403.75
485.336	410.75
485.554	385.75
485.772	381.75
485.99	394.75
486.209	408.75
486.427	401.75
486.645	408.75
486.863	429.75
487.081	423.75
487.299	431.75
487.517	415.75
487.735	455.75
487.953	466.75
488.171	483.75
488.389	454.75
488.607	413.75
488.825	398.75
489.043	413.75
489.261	407.75
489.479	418.75
489.696	422.75
489.914	429.75
490.132	445.75
490.35	444.75
490.568	453.75
490.786	461.75
491.003	478.75
491.221	487.75
491.439	445.75
491.657	484.75
491.874	498.75
492.092	554.75
492.31	526.75
492.527	529.75
492.745	487.75
492.963	519.75
493.18	485.75
493.398	513.75
493.615	509.75
493.833	485.75
494.05	463.75
494.268	487.75
494.485	503.75
494.703	489.75
494.92	480.75
495.138	467.75
495.355	495.75
495.573	482.75
495.79	470.75
496.008	499.75
496.225	525.75
496.442	486.75
496.66	517.75
496.877	505.75
497.094	494.75
497.312	505.75
497.529	509.75
497.746	509.75
497.963	496.75
498.181	523.75
498.398	547.75
498.615	555.75
498.832	577.75
499.049	635.75
499.267	694.75
499.484	747.75
499.701	847.75
499.918	917.75
500.135	1021.75
500.352	1156.75
500.569	1162.75
500.786	1134.75
501.003	1029.75
501.22	935.75
501.437	824.75
501.654	747.75
501.871	707.75
502.088	635.75
502.305	629.75
502.522	578.75
502.739	556.75
502.956	543.75
503.172	517.75
503.389	513.75
