Data from SampA_HRD10591_00062.txt Node
Date: Mon Jan 19 11:27:07 EST 2026
User: Yrep
Spectrometer: HR+D1059
Trigger mode: 0
Integration Time (sec): 3.443000E-1
Scans to average: 1
Electric dark correction enabled: true
Nonlinearity correction enabled: false
Boxcar width: 0
XAxis mode: Wavelengths
Number of Pixels in Spectrum: 2048
>>>>>Begin Spectral Data<<<<<
223.165	-23.44
223.4	-23.44
223.635	-23.44
223.869	-20.44
224.104	-19.44
224.338	-17.44
224.573	-11.44
224.808	-13.44
225.042	-8.44
225.277	4.56
225.511	-11.44
225.746	4.56
225.98	16.56
226.215	9.56
226.449	18.56
226.683	28.56
226.918	20.56
227.152	22.56
227.387	25.56
227.621	26.56
227.856	43.56
228.09	52.56
228.324	39.56
228.559	68.56
228.793	81.56
229.027	84.56
229.262	72.56
229.496	66.56
229.73	71.56
229.964	84.56
230.199	68.56
230.433	85.56
230.667	90.56
230.901	82.56
231.136	81.56
231.37	79.56
231.604	92.56
231.838	79.56
232.072	80.56
232.306	78.56
232.541	85.56
232.775	80.56
233.009	92.56
233.243	88.56
233.477	79.56
233.711	86.56
233.945	83.56
234.179	78.56
234.413	95.56
234.647	86.56
234.881	84.56
235.115	77.56
235.349	94.56
235.583	79.56
235.817	76.56
236.051	74.56
236.285	94.56
236.519	85.56
236.753	89.56
236.987	79.56
237.221	74.56
237.455	94.56
237.689	88.56
237.922	94.56
238.156	73.56
238.39	80.56
238.624	72.56
238.858	96.56
239.091	84.56
239.325	92.56
239.559	87.56
239.793	81.56
240.027	94.56
240.26	78.56
240.494	90.56
240.728	98.56
240.961	86.56
241.195	98.56
241.429	95.56
241.662	86.56
241.896	80.56
242.13	85.56
242.363	88.56
242.597	85.56
242.83	107.56
243.064	81.56
243.298	85.56
243.531	105.56
243.765	79.56
243.998	89.56
244.232	105.56
244.465	84.56
244.699	90.56
244.932	107.56
245.166	96.56
245.399	99.56
245.633	101.56
245.866	95.56
246.099	98.56
246.333	85.56
246.566	89.56
246.8	97.56
247.033	104.56
247.266	99.56
247.5	98.56
247.733	85.56
247.966	90.56
248.2	87.56
248.433	81.56
248.666	103.56
248.899	89.56
249.133	94.56
249.366	106.56
249.599	91.56
249.832	92.56
250.066	99.56
250.299	87.56
250.532	75.56
250.765	88.56
250.998	96.56
251.231	93.56
251.465	104.56
251.698	89.56
251.931	99.56
252.164	85.56
252.397	99.56
252.63	97.56
252.863	90.56
253.096	84.56
253.329	98.56
253.562	101.56
253.795	94.56
254.028	94.56
254.261	85.56
254.494	97.56
254.727	95.56
254.96	95.56
255.193	98.56
255.426	96.56
255.659	97.56
255.892	112.56
256.124	94.56
256.357	106.56
256.59	121.56
256.823	101.56
257.056	121.56
257.289	105.56
257.521	106.56
257.754	85.56
257.987	92.56
258.22	111.56
258.452	94.56
258.685	105.56
258.918	91.56
259.151	100.56
259.383	93.56
259.616	100.56
259.849	93.56
260.081	100.56
260.314	101.56
260.547	105.56
260.779	113.56
261.012	105.56
261.244	90.56
261.477	115.56
261.71	98.56
261.942	104.56
262.175	106.56
262.407	89.56
262.64	89.56
262.872	104.56
263.105	104.56
263.337	109.56
263.57	109.56
263.802	108.56
264.035	104.56
264.267	100.56
264.499	96.56
264.732	109.56
264.964	112.56
265.197	109.56
265.429	116.56
265.661	103.56
265.894	93.56
266.126	101.56
266.358	117.56
266.591	102.56
266.823	107.56
267.055	101.56
267.287	113.56
267.52	117.56
267.752	99.56
267.984	107.56
268.216	99.56
268.448	117.56
268.681	112.56
268.913	108.56
269.145	125.56
269.377	100.56
269.609	90.56
269.841	108.56
270.073	104.56
270.306	103.56
270.538	113.56
270.77	118.56
271.002	119.56
271.234	98.56
271.466	109.56
271.698	104.56
271.93	107.56
272.162	117.56
272.394	117.56
272.626	114.56
272.858	109.56
273.09	117.56
273.322	111.56
273.553	114.56
273.785	110.56
274.017	104.56
274.249	109.56
274.481	128.56
274.713	123.56
274.945	116.56
275.176	110.56
275.408	112.56
275.64	127.56
275.872	124.56
276.104	135.56
276.335	95.56
276.567	102.56
276.799	118.56
277.031	108.56
277.262	111.56
277.494	122.56
277.726	109.56
277.957	133.56
278.189	119.56
278.421	120.56
278.652	104.56
278.884	111.56
279.115	114.56
279.347	110.56
279.579	127.56
279.81	113.56
280.042	111.56
280.273	119.56
280.505	120.56
280.736	121.56
280.968	125.56
281.199	115.56
281.431	114.56
281.662	110.56
281.894	135.56
282.125	125.56
282.356	120.56
282.588	127.56
282.819	118.56
283.051	124.56
283.282	121.56
283.513	126.56
283.745	128.56
283.976	114.56
284.207	127.56
284.439	120.56
284.67	114.56
284.901	135.56
285.132	125.56
285.364	121.56
285.595	134.56
285.826	135.56
286.057	152.56
286.288	128.56
286.52	139.56
286.751	118.56
286.982	119.56
287.213	127.56
287.444	125.56
287.675	127.56
287.906	146.56
288.138	117.56
288.369	130.56
288.6	125.56
288.831	132.56
289.062	137.56
289.293	122.56
289.524	116.56
289.755	125.56
289.986	130.56
290.217	138.56
290.448	126.56
290.679	127.56
290.91	128.56
291.141	132.56
291.371	129.56
291.602	121.56
291.833	135.56
292.064	123.56
292.295	132.56
292.526	122.56
292.757	134.56
292.987	123.56
293.218	127.56
293.449	126.56
293.68	134.56
293.91	116.56
294.141	124.56
294.372	141.56
294.603	117.56
294.833	103.56
295.064	130.56
295.295	138.56
295.525	126.56
295.756	141.56
295.987	118.56
296.217	129.56
296.448	129.56
296.679	141.56
296.909	140.56
297.14	118.56
297.37	146.56
297.601	133.56
297.831	148.56
298.062	135.56
298.292	138.56
298.523	136.56
298.753	123.56
298.984	135.56
299.214	123.56
299.445	128.56
299.675	134.56
299.905	145.56
300.136	132.56
300.366	123.56
300.597	119.56
300.827	146.56
301.057	139.56
301.288	127.56
301.518	130.56
301.748	146.56
301.979	191.56
302.209	150.56
302.439	140.56
302.669	151.56
302.9	141.56
303.13	150.56
303.36	150.56
303.59	142.56
303.82	148.56
304.051	148.56
304.281	143.56
304.511	154.56
304.741	147.56
304.971	127.56
305.201	146.56
305.431	134.56
305.661	137.56
305.891	129.56
306.121	148.56
306.352	150.56
306.582	133.56
306.812	134.56
307.042	147.56
307.272	141.56
307.502	132.56
307.731	130.56
307.961	132.56
308.191	123.56
308.421	136.56
308.651	127.56
308.881	141.56
309.111	129.56
309.341	132.56
309.571	142.56
309.8	142.56
310.03	133.56
310.26	134.56
310.49	146.56
310.72	140.56
310.949	124.56
311.179	141.56
311.409	140.56
311.639	135.56
311.868	139.56
312.098	140.56
312.328	137.56
312.557	145.56
312.787	138.56
313.017	142.56
313.246	162.56
313.476	153.56
313.706	138.56
313.935	136.56
314.165	141.56
314.394	136.56
314.624	143.56
314.853	142.56
315.083	141.56
315.312	153.56
315.542	139.56
315.771	153.56
316.001	139.56
316.23	150.56
316.46	131.56
316.689	136.56
316.919	141.56
317.148	145.56
317.377	135.56
317.607	132.56
317.836	142.56
318.065	139.56
318.295	136.56
318.524	139.56
318.753	134.56
318.983	124.56
319.212	144.56
319.441	156.56
319.67	136.56
319.9	137.56
320.129	140.56
320.358	129.56
320.587	161.56
320.816	152.56
321.046	136.56
321.275	133.56
321.504	142.56
321.733	127.56
321.962	140.56
322.191	128.56
322.42	143.56
322.649	124.56
322.878	140.56
323.108	141.56
323.337	146.56
323.566	156.56
323.795	149.56
324.024	147.56
324.253	146.56
324.482	145.56
324.71	142.56
324.939	155.56
325.168	151.56
325.397	148.56
325.626	158.56
325.855	154.56
326.084	154.56
326.313	153.56
326.542	161.56
326.77	177.56
326.999	162.56
327.228	147.56
327.457	153.56
327.686	150.56
327.914	152.56
328.143	147.56
328.372	146.56
328.6	158.56
328.829	156.56
329.058	137.56
329.287	137.56
329.515	151.56
329.744	157.56
329.972	140.56
330.201	142.56
330.43	155.56
330.658	136.56
330.887	142.56
331.115	148.56
331.344	149.56
331.572	174.56
331.801	166.56
332.03	163.56
332.258	161.56
332.486	163.56
332.715	156.56
332.943	163.56
333.172	183.56
333.4	171.56
333.629	184.56
333.857	171.56
334.085	168.56
334.314	189.56
334.542	168.56
334.771	157.56
334.999	169.56
335.227	149.56
335.455	157.56
335.684	171.56
335.912	154.56
336.14	166.56
336.369	166.56
336.597	161.56
336.825	164.56
337.053	168.56
337.281	170.56
337.51	160.56
337.738	151.56
337.966	142.56
338.194	161.56
338.422	158.56
338.65	159.56
338.878	160.56
339.106	154.56
339.334	149.56
339.562	146.56
339.79	154.56
340.018	156.56
340.246	157.56
340.474	150.56
340.702	142.56
340.93	155.56
341.158	155.56
341.386	153.56
341.614	144.56
341.842	152.56
342.07	140.56
342.298	151.56
342.526	160.56
342.754	155.56
342.981	149.56
343.209	171.56
343.437	190.56
343.665	152.56
343.893	172.56
344.12	170.56
344.348	190.56
344.576	168.56
344.804	146.56
345.031	154.56
345.259	142.56
345.487	146.56
345.714	155.56
345.942	154.56
346.17	152.56
346.397	171.56
346.625	140.56
346.853	154.56
347.08	158.56
347.308	159.56
347.535	144.56
347.763	136.56
347.99	154.56
348.218	166.56
348.445	139.56
348.673	153.56
348.9	150.56
349.128	140.56
349.355	126.56
349.583	135.56
349.81	166.56
350.037	143.56
350.265	159.56
350.492	135.56
350.72	162.56
350.947	161.56
351.174	138.56
351.402	151.56
351.629	147.56
351.856	130.56
352.083	143.56
352.311	128.56
352.538	138.56
352.765	160.56
352.992	156.56
353.22	146.56
353.447	140.56
353.674	145.56
353.901	155.56
354.128	157.56
354.355	165.56
354.583	149.56
354.81	157.56
355.037	152.56
355.264	144.56
355.491	156.56
355.718	158.56
355.945	143.56
356.172	144.56
356.399	146.56
356.626	165.56
356.853	146.56
357.08	151.56
357.307	143.56
357.534	137.56
357.761	157.56
357.988	159.56
358.215	140.56
358.441	144.56
358.668	136.56
358.895	138.56
359.122	127.56
359.349	152.56
359.576	140.56
359.802	136.56
360.029	159.56
360.256	138.56
360.483	138.56
360.709	133.56
360.936	155.56
361.163	163.56
361.39	152.56
361.616	150.56
361.843	152.56
362.07	137.56
362.296	152.56
362.523	139.56
362.749	145.56
362.976	143.56
363.203	162.56
363.429	145.56
363.656	151.56
363.882	158.56
364.109	169.56
364.335	154.56
364.562	154.56
364.788	154.56
365.015	148.56
365.241	137.56
365.468	166.56
365.694	158.56
365.92	140.56
366.147	150.56
366.373	154.56
366.599	134.56
366.826	151.56
367.052	119.56
367.278	155.56
367.505	160.56
367.731	161.56
367.957	141.56
368.184	144.56
368.41	144.56
368.636	158.56
368.862	152.56
369.089	164.56
369.315	141.56
369.541	155.56
369.767	151.56
369.993	158.56
370.219	150.56
370.445	154.56
370.672	149.56
370.898	155.56
371.124	152.56
371.35	152.56
371.576	162.56
371.802	162.56
372.028	160.56
372.254	167.56
372.48	146.56
372.706	167.56
372.932	174.56
373.158	168.56
373.384	166.56
373.61	150.56
373.835	159.56
374.061	156.56
374.287	160.56
374.513	165.56
374.739	170.56
374.965	160.56
375.191	163.56
375.416	161.56
375.642	166.56
375.868	166.56
376.094	175.56
376.319	154.56
376.545	149.56
376.771	150.56
376.997	148.56
377.222	158.56
377.448	168.56
377.674	151.56
377.899	159.56
378.125	159.56
378.35	167.56
378.576	160.56
378.802	163.56
379.027	171.56
379.253	168.56
379.478	162.56
379.704	166.56
379.929	161.56
380.155	160.56
380.38	165.56
380.606	150.56
380.831	167.56
381.057	166.56
381.282	171.56
381.507	155.56
381.733	179.56
381.958	168.56
382.184	180.56
382.409	175.56
382.634	182.56
382.86	176.56
383.085	162.56
383.31	175.56
383.535	186.56
383.761	167.56
383.986	190.56
384.211	166.56
384.436	190.56
384.662	185.56
384.887	167.56
385.112	167.56
385.337	184.56
385.562	164.56
385.787	182.56
386.013	193.56
386.238	178.56
386.463	184.56
386.688	209.56
386.913	188.56
387.138	183.56
387.363	175.56
387.588	185.56
387.813	171.56
388.038	189.56
388.263	201.56
388.488	177.56
388.713	188.56
388.938	174.56
389.163	175.56
389.387	177.56
389.612	167.56
389.837	187.56
390.062	189.56
390.287	172.56
390.512	189.56
390.736	184.56
390.961	192.56
391.186	190.56
391.411	204.56
391.636	191.56
391.86	198.56
392.085	201.56
392.31	209.56
392.534	201.56
392.759	205.56
392.984	199.56
393.208	207.56
393.433	209.56
393.658	196.56
393.882	180.56
394.107	194.56
394.331	184.56
394.556	179.56
394.78	197.56
395.005	196.56
395.229	197.56
395.454	204.56
395.678	201.56
395.903	217.56
396.127	209.56
396.352	196.56
396.576	195.56
396.801	196.56
397.025	190.56
397.249	211.56
397.474	218.56
397.698	218.56
397.922	207.56
398.147	215.56
398.371	233.56
398.595	222.56
398.82	228.56
399.044	268.56
399.268	271.56
399.492	315.56
399.717	337.56
399.941	306.56
400.165	280.56
400.389	255.56
400.613	261.56
400.837	266.56
401.062	249.56
401.286	249.56
401.51	225.56
401.734	235.56
401.958	254.56
402.182	255.56
402.406	265.56
402.63	256.56
402.854	254.56
403.078	265.56
403.302	276.56
403.526	286.56
403.75	296.56
403.974	292.56
404.198	277.56
404.422	288.56
404.645	273.56
404.869	277.56
405.093	279.56
405.317	294.56
405.541	281.56
405.765	268.56
405.988	278.56
406.212	282.56
406.436	267.56
406.66	288.56
406.883	282.56
407.107	299.56
407.331	311.56
407.555	334.56
407.778	316.56
408.002	305.56
408.226	308.56
408.449	301.56
408.673	309.56
408.896	296.56
409.12	287.56
409.344	288.56
409.567	277.56
409.791	306.56
410.014	296.56
410.238	303.56
410.461	304.56
410.685	304.56
410.908	275.56
411.132	320.56
411.355	297.56
411.578	301.56
411.802	286.56
412.025	284.56
412.249	285.56
412.472	266.56
412.695	285.56
412.919	259.56
413.142	297.56
413.365	283.56
413.589	281.56
413.812	276.56
414.035	289.56
414.258	265.56
414.482	280.56
414.705	296.56
414.928	299.56
415.151	290.56
415.374	297.56
415.597	282.56
415.821	277.56
416.044	285.56
416.267	296.56
416.49	289.56
416.713	278.56
416.936	305.56
417.159	280.56
417.382	286.56
417.605	293.56
417.828	293.56
418.051	289.56
418.274	282.56
418.497	313.56
418.72	288.56
418.943	276.56
419.166	318.56
419.389	294.56
419.611	306.56
419.834	313.56
420.057	301.56
420.28	288.56
420.503	287.56
420.726	301.56
420.948	288.56
421.171	274.56
421.394	301.56
421.617	301.56
421.839	292.56
422.062	302.56
422.285	274.56
422.507	310.56
422.73	302.56
422.953	294.56
423.175	307.56
423.398	313.56
423.621	308.56
423.843	330.56
424.066	289.56
424.288	313.56
424.511	312.56
424.733	316.56
424.956	310.56
425.178	312.56
425.401	308.56
425.623	294.56
425.846	281.56
426.068	286.56
426.291	274.56
426.513	277.56
426.735	273.56
426.958	271.56
427.18	266.56
427.402	269.56
427.625	284.56
427.847	273.56
428.069	284.56
428.292	282.56
428.514	275.56
428.736	281.56
428.958	291.56
429.181	282.56
429.403	273.56
429.625	262.56
429.847	241.56
430.069	277.56
430.292	266.56
430.514	267.56
430.736	262.56
430.958	257.56
431.18	266.56
431.402	268.56
431.624	260.56
431.846	240.56
432.068	248.56
432.29	241.56
432.512	266.56
432.734	284.56
432.956	296.56
433.178	274.56
433.4	289.56
433.622	275.56
433.844	263.56
434.066	266.56
434.287	248.56
434.509	247.56
434.731	270.56
434.953	276.56
435.175	268.56
435.397	264.56
435.618	262.56
435.84	249.56
436.062	268.56
436.284	250.56
436.505	268.56
436.727	278.56
436.949	274.56
437.17	260.56
437.392	260.56
437.614	238.56
437.835	238.56
438.057	236.56
438.278	232.56
438.5	256.56
438.721	254.56
438.943	267.56
439.165	263.56
439.386	277.56
439.608	289.56
439.829	283.56
440.05	290.56
440.272	284.56
440.493	282.56
440.715	282.56
440.936	302.56
441.158	297.56
441.379	293.56
441.6	316.56
441.822	302.56
442.043	296.56
442.264	286.56
442.486	316.56
442.707	290.56
442.928	288.56
443.149	299.56
443.371	310.56
443.592	288.56
443.813	302.56
444.034	299.56
444.255	325.56
444.476	318.56
444.698	339.56
444.919	344.56
445.14	532.56
445.361	389.56
445.582	317.56
445.803	300.56
446.024	278.56
446.245	296.56
446.466	282.56
446.687	283.56
446.908	285.56
447.129	268.56
447.35	288.56
447.571	296.56
447.792	272.56
448.013	279.56
448.234	268.56
448.455	266.56
448.675	266.56
448.896	263.56
449.117	266.56
449.338	280.56
449.559	266.56
449.779	258.56
450	254.56
450.221	264.56
450.442	262.56
450.662	278.56
450.883	263.56
451.104	270.56
451.324	252.56
451.545	250.56
451.766	254.56
451.986	250.56
452.207	256.56
452.428	242.56
452.648	235.56
452.869	238.56
453.089	234.56
453.31	231.56
453.53	245.56
453.751	221.56
453.971	233.56
454.192	232.56
454.412	246.56
454.633	238.56
454.853	224.56
455.073	249.56
455.294	246.56
455.514	243.56
455.734	238.56
455.955	233.56
456.175	220.56
456.395	219.56
456.616	209.56
456.836	218.56
457.056	229.56
457.276	219.56
457.497	216.56
457.717	217.56
457.937	223.56
458.157	232.56
458.377	216.56
458.598	206.56
458.818	215.56
459.038	221.56
459.258	238.56
459.478	237.56
459.698	237.56
459.918	253.56
460.138	264.56
460.358	281.56
460.578	300.56
460.798	299.56
461.018	304.56
461.238	277.56
461.458	271.56
461.678	286.56
461.898	282.56
462.118	296.56
462.338	319.56
462.558	309.56
462.777	307.56
462.997	321.56
463.217	338.56
463.437	341.56
463.657	318.56
463.876	313.56
464.096	288.56
464.316	313.56
464.536	311.56
464.755	297.56
464.975	269.56
465.195	283.56
465.414	256.56
465.634	279.56
465.854	269.56
466.073	262.56
466.293	283.56
466.512	258.56
466.732	268.56
466.951	253.56
467.171	258.56
467.391	262.56
467.61	270.56
467.829	266.56
468.049	261.56
468.268	254.56
468.488	263.56
468.707	252.56
468.927	265.56
469.146	270.56
469.365	269.56
469.585	261.56
469.804	270.56
470.023	269.56
470.243	274.56
470.462	273.56
470.681	272.56
470.901	283.56
471.12	267.56
471.339	278.56
471.558	268.56
471.777	260.56
471.997	269.56
472.216	257.56
472.435	233.56
472.654	235.56
472.873	252.56
473.092	241.56
473.311	256.56
473.53	251.56
473.749	265.56
473.968	255.56
474.187	238.56
474.406	225.56
474.625	265.56
474.844	255.56
475.063	239.56
475.282	247.56
475.501	225.56
475.72	276.56
475.939	246.56
476.158	254.56
476.377	255.56
476.596	248.56
476.814	242.56
477.033	244.56
477.252	264.56
477.471	256.56
477.69	267.56
477.908	288.56
478.127	284.56
478.346	277.56
478.564	292.56
478.783	288.56
479.002	298.56
479.22	306.56
479.439	308.56
479.658	278.56
479.876	274.56
480.095	267.56
480.313	298.56
480.532	286.56
480.751	289.56
480.969	252.56
481.188	241.56
481.406	233.56
481.624	237.56
481.843	222.56
482.061	231.56
482.28	247.56
482.498	246.56
482.717	256.56
482.935	273.56
483.153	280.56
483.372	276.56
483.59	279.56
483.808	254.56
484.027	270.56
484.245	292.56
484.463	290.56
484.681	294.56
484.9	301.56
485.118	284.56
485.336	273.56
485.554	250.56
485.772	249.56
485.99	267.56
486.209	274.56
486.427	273.56
486.645	279.56
486.863	290.56
487.081	293.56
487.299	281.56
487.517	286.56
487.735	325.56
487.953	310.56
488.171	315.56
488.389	314.56
488.607	295.56
488.825	267.56
489.043	264.56
489.261	280.56
489.479	282.56
489.696	302.56
489.914	282.56
490.132	291.56
490.35	312.56
490.568	330.56
490.786	312.56
491.003	344.56
491.221	339.56
491.439	345.56
491.657	360.56
491.874	360.56
492.092	373.56
492.31	367.56
492.527	371.56
492.745	357.56
492.963	338.56
493.18	346.56
493.398	339.56
493.615	345.56
493.833	345.56
494.05	332.56
494.268	342.56
494.485	330.56
494.703	341.56
494.92	332.56
495.138	332.56
495.355	332.56
495.573	325.56
495.79	324.56
496.008	333.56
496.225	325.56
496.442	332.56
496.66	319.56
496.877	346.56
497.094	354.56
497.312	319.56
497.529	342.56
497.746	350.56
497.963	343.56
498.181	333.56
498.398	345.56
498.615	356.56
498.832	372.56
499.049	396.56
499.267	415.56
499.484	453.56
499.701	501.56
499.918	566.56
500.135	622.56
500.352	678.56
500.569	682.56
500.786	671.56
501.003	605.56
501.22	556.56
501.437	525.56
501.654	455.56
501.871	435.56
502.088	400.56
502.305	401.56
502.522	383.56
502.739	371.56
502.956	349.56
503.172	333.56
503.389	331.56
503.606	311.56
503.823	313.56
504.04	299.56
504.256	325.56
504.473	309.56
