Data from SampA_HRD10591_00050.txt Node
Date: Mon Jan 19 11:27:03 EST 2026
User: Yrep
Spectrometer: HR+D1059
Trigger mode: 0
Integration Time (sec): 3.443000E-1
Scans to average: 1
Electric dark correction enabled: true
Nonlinearity correction enabled: false
Boxcar width: 0
XAxis mode: Wavelengths
Number of Pixels in Spectrum: 2048
>>>>>Begin Spectral Data<<<<<
223.165	-36.56
223.4	-36.56
223.635	-36.56
223.869	-18.56
224.104	-20.56
224.338	-14.56
224.573	-22.56
224.808	-16.56
225.042	-1.56
225.277	1.44
225.511	-14.56
225.746	12.44
225.98	10.44
226.215	21.44
226.449	24.44
226.683	22.44
226.918	33.44
227.152	19.44
227.387	41.44
227.621	37.44
227.856	43.44
228.09	60.44
228.324	50.44
228.559	69.44
228.793	69.44
229.027	64.44
229.262	80.44
229.496	68.44
229.73	65.44
229.964	79.44
230.199	84.44
230.433	72.44
230.667	95.44
230.901	72.44
231.136	84.44
231.37	76.44
231.604	82.44
231.838	84.44
232.072	93.44
232.306	84.44
232.541	106.44
232.775	82.44
233.009	93.44
233.243	84.44
233.477	83.44
233.711	95.44
233.945	86.44
234.179	78.44
234.413	90.44
234.647	108.44
234.881	93.44
235.115	95.44
235.349	83.44
235.583	81.44
235.817	87.44
236.051	84.44
236.285	101.44
236.519	85.44
236.753	94.44
236.987	92.44
237.221	84.44
237.455	92.44
237.689	80.44
237.922	77.44
238.156	81.44
238.39	75.44
238.624	88.44
238.858	97.44
239.091	76.44
239.325	68.44
239.559	86.44
239.793	101.44
240.027	85.44
240.26	96.44
240.494	79.44
240.728	87.44
240.961	76.44
241.195	84.44
241.429	90.44
241.662	81.44
241.896	95.44
242.13	85.44
242.363	73.44
242.597	84.44
242.83	102.44
243.064	100.44
243.298	74.44
243.531	92.44
243.765	91.44
243.998	87.44
244.232	113.44
244.465	103.44
244.699	96.44
244.932	81.44
245.166	89.44
245.399	105.44
245.633	86.44
245.866	102.44
246.099	85.44
246.333	103.44
246.566	94.44
246.8	99.44
247.033	81.44
247.266	87.44
247.5	98.44
247.733	81.44
247.966	93.44
248.2	102.44
248.433	98.44
248.666	93.44
248.899	102.44
249.133	102.44
249.366	95.44
249.599	92.44
249.832	91.44
250.066	111.44
250.299	108.44
250.532	85.44
250.765	107.44
250.998	103.44
251.231	108.44
251.465	87.44
251.698	90.44
251.931	79.44
252.164	115.44
252.397	106.44
252.63	109.44
252.863	75.44
253.096	106.44
253.329	106.44
253.562	104.44
253.795	101.44
254.028	91.44
254.261	92.44
254.494	96.44
254.727	90.44
254.96	107.44
255.193	117.44
255.426	87.44
255.659	96.44
255.892	117.44
256.124	98.44
256.357	100.44
256.59	108.44
256.823	90.44
257.056	95.44
257.289	97.44
257.521	105.44
257.754	103.44
257.987	108.44
258.22	100.44
258.452	105.44
258.685	100.44
258.918	112.44
259.151	105.44
259.383	110.44
259.616	104.44
259.849	89.44
260.081	110.44
260.314	97.44
260.547	101.44
260.779	104.44
261.012	117.44
261.244	108.44
261.477	112.44
261.71	117.44
261.942	117.44
262.175	111.44
262.407	97.44
262.64	100.44
262.872	105.44
263.105	113.44
263.337	112.44
263.57	113.44
263.802	116.44
264.035	102.44
264.267	108.44
264.499	108.44
264.732	113.44
264.964	98.44
265.197	102.44
265.429	100.44
265.661	118.44
265.894	108.44
266.126	114.44
266.358	119.44
266.591	106.44
266.823	108.44
267.055	105.44
267.287	112.44
267.52	107.44
267.752	114.44
267.984	104.44
268.216	114.44
268.448	117.44
268.681	103.44
268.913	107.44
269.145	110.44
269.377	115.44
269.609	118.44
269.841	112.44
270.073	102.44
270.306	118.44
270.538	101.44
270.77	111.44
271.002	125.44
271.234	111.44
271.466	114.44
271.698	126.44
271.93	110.44
272.162	110.44
272.394	111.44
272.626	103.44
272.858	102.44
273.09	112.44
273.322	108.44
273.553	115.44
273.785	105.44
274.017	121.44
274.249	104.44
274.481	101.44
274.713	119.44
274.945	134.44
275.176	109.44
275.408	111.44
275.64	116.44
275.872	134.44
276.104	126.44
276.335	116.44
276.567	114.44
276.799	106.44
277.031	98.44
277.262	126.44
277.494	119.44
277.726	117.44
277.957	103.44
278.189	100.44
278.421	112.44
278.652	106.44
278.884	121.44
279.115	110.44
279.347	122.44
279.579	122.44
279.81	115.44
280.042	110.44
280.273	115.44
280.505	130.44
280.736	118.44
280.968	120.44
281.199	116.44
281.431	121.44
281.662	116.44
281.894	127.44
282.125	133.44
282.356	119.44
282.588	129.44
282.819	139.44
283.051	113.44
283.282	121.44
283.513	129.44
283.745	125.44
283.976	127.44
284.207	125.44
284.439	121.44
284.67	117.44
284.901	120.44
285.132	129.44
285.364	135.44
285.595	116.44
285.826	117.44
286.057	141.44
286.288	115.44
286.52	132.44
286.751	127.44
286.982	109.44
287.213	127.44
287.444	130.44
287.675	133.44
287.906	147.44
288.138	127.44
288.369	133.44
288.6	126.44
288.831	122.44
289.062	120.44
289.293	134.44
289.524	124.44
289.755	129.44
289.986	128.44
290.217	120.44
290.448	134.44
290.679	128.44
290.91	148.44
291.141	132.44
291.371	125.44
291.602	141.44
291.833	129.44
292.064	136.44
292.295	121.44
292.526	136.44
292.757	128.44
292.987	110.44
293.218	125.44
293.449	124.44
293.68	144.44
293.91	124.44
294.141	127.44
294.372	119.44
294.603	150.44
294.833	131.44
295.064	136.44
295.295	138.44
295.525	132.44
295.756	146.44
295.987	118.44
296.217	131.44
296.448	154.44
296.679	125.44
296.909	132.44
297.14	138.44
297.37	143.44
297.601	127.44
297.831	134.44
298.062	123.44
298.292	142.44
298.523	130.44
298.753	140.44
298.984	146.44
299.214	134.44
299.445	135.44
299.675	140.44
299.905	141.44
300.136	124.44
300.366	141.44
300.597	140.44
300.827	142.44
301.057	136.44
301.288	137.44
301.518	149.44
301.748	138.44
301.979	190.44
302.209	123.44
302.439	144.44
302.669	125.44
302.9	128.44
303.13	141.44
303.36	134.44
303.59	127.44
303.82	132.44
304.051	148.44
304.281	153.44
304.511	157.44
304.741	122.44
304.971	117.44
305.201	148.44
305.431	136.44
305.661	142.44
305.891	152.44
306.121	142.44
306.352	140.44
306.582	127.44
306.812	133.44
307.042	141.44
307.272	148.44
307.502	128.44
307.731	135.44
307.961	140.44
308.191	141.44
308.421	130.44
308.651	140.44
308.881	137.44
309.111	144.44
309.341	143.44
309.571	145.44
309.8	127.44
310.03	134.44
310.26	132.44
310.49	134.44
310.72	121.44
310.949	125.44
311.179	143.44
311.409	134.44
311.639	135.44
311.868	148.44
312.098	156.44
312.328	137.44
312.557	146.44
312.787	156.44
313.017	143.44
313.246	141.44
313.476	148.44
313.706	140.44
313.935	138.44
314.165	140.44
314.394	130.44
314.624	152.44
314.853	150.44
315.083	149.44
315.312	140.44
315.542	133.44
315.771	148.44
316.001	136.44
316.23	147.44
316.46	118.44
316.689	135.44
316.919	137.44
317.148	132.44
317.377	136.44
317.607	148.44
317.836	134.44
318.065	138.44
318.295	153.44
318.524	149.44
318.753	156.44
318.983	152.44
319.212	141.44
319.441	144.44
319.67	140.44
319.9	147.44
320.129	135.44
320.358	142.44
320.587	159.44
320.816	130.44
321.046	152.44
321.275	163.44
321.504	138.44
321.733	133.44
321.962	137.44
322.191	131.44
322.42	138.44
322.649	133.44
322.878	148.44
323.108	150.44
323.337	155.44
323.566	147.44
323.795	149.44
324.024	144.44
324.253	137.44
324.482	160.44
324.71	169.44
324.939	150.44
325.168	156.44
325.397	149.44
325.626	149.44
325.855	140.44
326.084	150.44
326.313	159.44
326.542	141.44
326.77	168.44
326.999	159.44
327.228	154.44
327.457	156.44
327.686	160.44
327.914	144.44
328.143	151.44
328.372	155.44
328.6	129.44
328.829	156.44
329.058	147.44
329.287	152.44
329.515	154.44
329.744	165.44
329.972	141.44
330.201	166.44
330.43	159.44
330.658	152.44
330.887	152.44
331.115	148.44
331.344	162.44
331.572	155.44
331.801	153.44
332.03	172.44
332.258	163.44
332.486	171.44
332.715	149.44
332.943	170.44
333.172	168.44
333.4	175.44
333.629	173.44
333.857	180.44
334.085	188.44
334.314	176.44
334.542	168.44
334.771	191.44
334.999	182.44
335.227	173.44
335.455	163.44
335.684	169.44
335.912	161.44
336.14	184.44
336.369	157.44
336.597	168.44
336.825	162.44
337.053	180.44
337.281	172.44
337.51	166.44
337.738	170.44
337.966	161.44
338.194	145.44
338.422	140.44
338.65	162.44
338.878	172.44
339.106	153.44
339.334	178.44
339.562	161.44
339.79	140.44
340.018	131.44
340.246	145.44
340.474	150.44
340.702	156.44
340.93	150.44
341.158	167.44
341.386	157.44
341.614	162.44
341.842	154.44
342.07	156.44
342.298	150.44
342.526	138.44
342.754	154.44
342.981	143.44
343.209	163.44
343.437	190.44
343.665	158.44
343.893	161.44
344.12	171.44
344.348	167.44
344.576	146.44
344.804	154.44
345.031	151.44
345.259	151.44
345.487	144.44
345.714	152.44
345.942	158.44
346.17	160.44
346.397	141.44
346.625	164.44
346.853	155.44
347.08	146.44
347.308	160.44
347.535	168.44
347.763	148.44
347.99	144.44
348.218	152.44
348.445	153.44
348.673	153.44
348.9	162.44
349.128	165.44
349.355	147.44
349.583	153.44
349.81	148.44
350.037	160.44
350.265	163.44
350.492	149.44
350.72	155.44
350.947	130.44
351.174	163.44
351.402	137.44
351.629	155.44
351.856	155.44
352.083	148.44
352.311	139.44
352.538	139.44
352.765	137.44
352.992	176.44
353.22	143.44
353.447	151.44
353.674	158.44
353.901	138.44
354.128	145.44
354.355	148.44
354.583	139.44
354.81	150.44
355.037	139.44
355.264	155.44
355.491	139.44
355.718	143.44
355.945	157.44
356.172	134.44
356.399	148.44
356.626	147.44
356.853	143.44
357.08	152.44
357.307	144.44
357.534	142.44
357.761	154.44
357.988	161.44
358.215	151.44
358.441	140.44
358.668	162.44
358.895	164.44
359.122	141.44
359.349	160.44
359.576	168.44
359.802	153.44
360.029	151.44
360.256	152.44
360.483	133.44
360.709	132.44
360.936	172.44
361.163	145.44
361.39	148.44
361.616	144.44
361.843	135.44
362.07	156.44
362.296	160.44
362.523	146.44
362.749	155.44
362.976	162.44
363.203	146.44
363.429	145.44
363.656	156.44
363.882	147.44
364.109	170.44
364.335	156.44
364.562	141.44
364.788	148.44
365.015	143.44
365.241	153.44
365.468	158.44
365.694	155.44
365.92	174.44
366.147	144.44
366.373	157.44
366.599	148.44
366.826	148.44
367.052	165.44
367.278	169.44
367.505	159.44
367.731	170.44
367.957	164.44
368.184	135.44
368.41	146.44
368.636	164.44
368.862	162.44
369.089	148.44
369.315	154.44
369.541	176.44
369.767	160.44
369.993	155.44
370.219	153.44
370.445	153.44
370.672	154.44
370.898	149.44
371.124	157.44
371.35	158.44
371.576	150.44
371.802	180.44
372.028	156.44
372.254	168.44
372.48	161.44
372.706	149.44
372.932	155.44
373.158	174.44
373.384	175.44
373.61	162.44
373.835	165.44
374.061	160.44
374.287	134.44
374.513	168.44
374.739	172.44
374.965	167.44
375.191	167.44
375.416	177.44
375.642	186.44
375.868	181.44
376.094	169.44
376.319	154.44
376.545	162.44
376.771	169.44
376.997	133.44
377.222	150.44
377.448	166.44
377.674	165.44
377.899	162.44
378.125	162.44
378.35	154.44
378.576	157.44
378.802	174.44
379.027	166.44
379.253	170.44
379.478	162.44
379.704	168.44
379.929	160.44
380.155	151.44
380.38	162.44
380.606	157.44
380.831	175.44
381.057	176.44
381.282	165.44
381.507	174.44
381.733	172.44
381.958	172.44
382.184	160.44
382.409	168.44
382.634	183.44
382.86	175.44
383.085	166.44
383.31	183.44
383.535	190.44
383.761	176.44
383.986	184.44
384.211	168.44
384.436	177.44
384.662	177.44
384.887	183.44
385.112	193.44
385.337	176.44
385.562	173.44
385.787	193.44
386.013	188.44
386.238	184.44
386.463	188.44
386.688	214.44
386.913	172.44
387.138	174.44
387.363	178.44
387.588	198.44
387.813	189.44
388.038	184.44
388.263	176.44
388.488	186.44
388.713	197.44
388.938	189.44
389.163	193.44
389.387	196.44
389.612	186.44
389.837	183.44
390.062	186.44
390.287	185.44
390.512	185.44
390.736	199.44
390.961	191.44
391.186	212.44
391.411	202.44
391.636	207.44
391.86	209.44
392.085	216.44
392.31	215.44
392.534	203.44
392.759	213.44
392.984	192.44
393.208	198.44
393.433	199.44
393.658	208.44
393.882	191.44
394.107	204.44
394.331	213.44
394.556	214.44
394.78	225.44
395.005	210.44
395.229	214.44
395.454	226.44
395.678	225.44
395.903	218.44
396.127	214.44
396.352	229.44
396.576	201.44
396.801	206.44
397.025	222.44
397.249	220.44
397.474	215.44
397.698	231.44
397.922	238.44
398.147	220.44
398.371	236.44
398.595	247.44
398.82	245.44
399.044	260.44
399.268	271.44
399.492	332.44
399.717	345.44
399.941	328.44
400.165	287.44
400.389	264.44
400.613	270.44
400.837	264.44
401.062	247.44
401.286	256.44
401.51	264.44
401.734	266.44
401.958	245.44
402.182	282.44
402.406	282.44
402.63	267.44
402.854	258.44
403.078	282.44
403.302	272.44
403.526	284.44
403.75	308.44
403.974	299.44
404.198	288.44
404.422	299.44
404.645	290.44
404.869	277.44
405.093	296.44
405.317	303.44
405.541	304.44
405.765	283.44
405.988	285.44
406.212	296.44
406.436	306.44
406.66	312.44
406.883	304.44
407.107	330.44
407.331	329.44
407.555	310.44
407.778	332.44
408.002	318.44
408.226	304.44
408.449	305.44
408.673	303.44
408.896	308.44
409.12	320.44
409.344	311.44
409.567	305.44
409.791	293.44
410.014	316.44
410.238	305.44
410.461	304.44
410.685	310.44
410.908	313.44
411.132	300.44
411.355	316.44
411.578	305.44
411.802	299.44
412.025	310.44
412.249	317.44
412.472	298.44
412.695	296.44
412.919	299.44
413.142	306.44
413.365	291.44
413.589	284.44
413.812	272.44
414.035	309.44
414.258	285.44
414.482	304.44
414.705	282.44
414.928	302.44
415.151	300.44
415.374	300.44
415.597	286.44
415.821	308.44
416.044	276.44
416.267	279.44
416.49	282.44
416.713	297.44
416.936	304.44
417.159	282.44
417.382	288.44
417.605	306.44
417.828	297.44
418.051	297.44
418.274	316.44
418.497	293.44
418.72	301.44
418.943	320.44
419.166	328.44
419.389	328.44
419.611	319.44
419.834	326.44
420.057	320.44
420.28	313.44
420.503	317.44
420.726	309.44
420.948	285.44
421.171	299.44
421.394	287.44
421.617	309.44
421.839	310.44
422.062	302.44
422.285	304.44
422.507	312.44
422.73	305.44
422.953	311.44
423.175	310.44
423.398	294.44
423.621	318.44
423.843	324.44
424.066	328.44
424.288	347.44
424.511	328.44
424.733	324.44
424.956	309.44
425.178	295.44
425.401	304.44
425.623	315.44
425.846	309.44
426.068	282.44
426.291	289.44
426.513	272.44
426.735	305.44
426.958	305.44
427.18	295.44
427.402	286.44
427.625	297.44
427.847	280.44
428.069	282.44
428.292	291.44
428.514	287.44
428.736	265.44
428.958	288.44
429.181	276.44
429.403	278.44
429.625	289.44
429.847	296.44
430.069	281.44
430.292	293.44
430.514	284.44
430.736	277.44
430.958	275.44
431.18	284.44
431.402	269.44
431.624	275.44
431.846	264.44
432.068	268.44
432.29	246.44
432.512	285.44
432.734	282.44
432.956	265.44
433.178	277.44
433.4	287.44
433.622	314.44
433.844	276.44
434.066	281.44
434.287	268.44
434.509	274.44
434.731	292.44
434.953	299.44
435.175	307.44
435.397	295.44
435.618	277.44
435.84	272.44
436.062	273.44
436.284	279.44
436.505	279.44
436.727	282.44
436.949	290.44
437.17	265.44
437.392	263.44
437.614	253.44
437.835	246.44
438.057	246.44
438.278	248.44
438.5	248.44
438.721	290.44
438.943	259.44
439.165	288.44
439.386	295.44
439.608	284.44
439.829	286.44
440.05	289.44
440.272	294.44
440.493	306.44
440.715	306.44
440.936	290.44
441.158	313.44
441.379	315.44
441.6	324.44
441.822	314.44
442.043	326.44
442.264	313.44
442.486	315.44
442.707	310.44
442.928	313.44
443.149	325.44
443.371	327.44
443.592	309.44
443.813	310.44
444.034	306.44
444.255	348.44
444.476	332.44
444.698	356.44
444.919	369.44
445.14	583.44
445.361	441.44
445.582	325.44
445.803	308.44
446.024	304.44
446.245	309.44
446.466	306.44
446.687	289.44
446.908	299.44
447.129	289.44
447.35	311.44
447.571	272.44
447.792	282.44
448.013	250.44
448.234	278.44
448.455	289.44
448.675	257.44
448.896	273.44
449.117	257.44
449.338	255.44
449.559	274.44
449.779	286.44
450	285.44
450.221	272.44
450.442	279.44
450.662	274.44
450.883	295.44
451.104	285.44
451.324	273.44
451.545	289.44
451.766	262.44
451.986	266.44
452.207	268.44
452.428	254.44
452.648	270.44
452.869	251.44
453.089	237.44
453.31	248.44
453.53	262.44
453.751	229.44
453.971	248.44
454.192	239.44
454.412	234.44
454.633	225.44
454.853	257.44
455.073	234.44
455.294	264.44
455.514	276.44
455.734	255.44
455.955	246.44
456.175	245.44
456.395	228.44
456.616	212.44
456.836	231.44
457.056	239.44
457.276	218.44
457.497	240.44
457.717	232.44
457.937	242.44
458.157	251.44
458.377	213.44
458.598	236.44
458.818	229.44
459.038	210.44
459.258	230.44
459.478	229.44
459.698	251.44
459.918	275.44
460.138	276.44
460.358	281.44
460.578	313.44
460.798	288.44
461.018	307.44
461.238	315.44
461.458	299.44
461.678	298.44
461.898	302.44
462.118	291.44
462.338	308.44
462.558	318.44
462.777	335.44
462.997	350.44
463.217	364.44
463.437	351.44
463.657	330.44
463.876	325.44
464.096	328.44
464.316	327.44
464.536	336.44
464.755	314.44
464.975	308.44
465.195	307.44
465.414	284.44
465.634	274.44
465.854	283.44
466.073	247.44
466.293	274.44
466.512	288.44
466.732	263.44
466.951	277.44
467.171	309.44
467.391	284.44
467.61	262.44
467.829	268.44
468.049	277.44
468.268	269.44
468.488	270.44
468.707	281.44
468.927	288.44
469.146	273.44
469.365	269.44
469.585	278.44
469.804	274.44
470.023	294.44
470.243	288.44
470.462	280.44
470.681	313.44
470.901	290.44
471.12	281.44
471.339	279.44
471.558	271.44
471.777	248.44
471.997	254.44
472.216	264.44
472.435	239.44
472.654	240.44
472.873	242.44
473.092	235.44
473.311	265.44
473.53	271.44
473.749	261.44
473.968	286.44
474.187	241.44
474.406	246.44
474.625	252.44
474.844	241.44
475.063	256.44
475.282	248.44
475.501	239.44
475.72	265.44
475.939	273.44
476.158	250.44
476.377	267.44
476.596	262.44
476.814	251.44
477.033	255.44
477.252	251.44
477.471	276.44
477.69	281.44
477.908	303.44
478.127	310.44
478.346	300.44
478.564	304.44
478.783	297.44
479.002	290.44
479.22	285.44
479.439	291.44
479.658	290.44
479.876	291.44
480.095	294.44
480.313	305.44
480.532	285.44
480.751	281.44
480.969	303.44
481.188	284.44
481.406	270.44
481.624	250.44
481.843	264.44
482.061	266.44
482.28	256.44
482.498	274.44
482.717	269.44
482.935	266.44
483.153	293.44
483.372	301.44
483.59	313.44
483.808	270.44
484.027	296.44
484.245	304.44
484.463	299.44
484.681	312.44
484.9	298.44
485.118	300.44
485.336	284.44
485.554	269.44
485.772	265.44
485.99	270.44
486.209	279.44
486.427	276.44
486.645	287.44
486.863	306.44
487.081	303.44
487.299	312.44
487.517	301.44
487.735	323.44
487.953	335.44
488.171	334.44
488.389	330.44
488.607	312.44
488.825	291.44
489.043	290.44
489.261	294.44
489.479	299.44
489.696	318.44
489.914	310.44
490.132	312.44
490.35	317.44
490.568	324.44
490.786	324.44
491.003	325.44
491.221	346.44
491.439	341.44
491.657	361.44
491.874	383.44
492.092	394.44
492.31	419.44
492.527	394.44
492.745	365.44
492.963	333.44
493.18	369.44
493.398	372.44
493.615	369.44
493.833	369.44
494.05	357.44
494.268	343.44
494.485	343.44
494.703	352.44
494.92	350.44
495.138	368.44
495.355	358.44
495.573	351.44
495.79	341.44
496.008	365.44
496.225	358.44
496.442	335.44
496.66	361.44
496.877	358.44
497.094	356.44
497.312	369.44
497.529	348.44
497.746	364.44
497.963	352.44
498.181	349.44
498.398	350.44
498.615	378.44
498.832	374.44
499.049	404.44
499.267	460.44
499.484	480.44
499.701	521.44
499.918	583.44
500.135	660.44
500.352	723.44
500.569	742.44
500.786	714.44
501.003	660.44
501.22	586.44
501.437	553.44
501.654	483.44
501.871	462.44
502.088	410.44
502.305	383.44
502.522	383.44
502.739	399.44
502.956	349.44
503.172	357.44
503.389	338.44
503.606	322.44
503.823	333.44
504.04	334.44
