Data from SampA_HRD10591_00015.txt Node
Date: Mon Jan 19 11:26:51 EST 2026
User: Yrep
Spectrometer: HR+D1059
Trigger mode: 0
Integration Time (sec): 3.443000E-1
Scans to average: 1
Electric dark correction enabled: true
Nonlinearity correction enabled: false
Boxcar width: 0
XAxis mode: Wavelengths
Number of Pixels in Spectrum: 2048
>>>>>Begin Spectral Data<<<<<
223.165	-15.38
223.4	-15.38
223.635	-15.38
223.869	-29.38
224.104	-7.38
224.338	-17.38
224.573	-10.38
224.808	-17.38
225.042	-12.38
225.277	-7.38
225.511	-7.38
225.746	-0.38
225.98	10.62
226.215	16.62
226.449	25.62
226.683	16.62
226.918	22.62
227.152	32.62
227.387	36.62
227.621	44.62
227.856	52.62
228.09	51.62
228.324	38.62
228.559	58.62
228.793	63.62
229.027	79.62
229.262	69.62
229.496	62.62
229.73	82.62
229.964	84.62
230.199	71.62
230.433	75.62
230.667	86.62
230.901	85.62
231.136	72.62
231.37	84.62
231.604	90.62
231.838	80.62
232.072	90.62
232.306	75.62
232.541	92.62
232.775	80.62
233.009	69.62
233.243	90.62
233.477	91.62
233.711	81.62
233.945	81.62
234.179	97.62
234.413	92.62
234.647	88.62
234.881	72.62
235.115	93.62
235.349	86.62
235.583	89.62
235.817	85.62
236.051	94.62
236.285	84.62
236.519	81.62
236.753	85.62
236.987	83.62
237.221	89.62
237.455	82.62
237.689	79.62
237.922	89.62
238.156	80.62
238.39	88.62
238.624	79.62
238.858	87.62
239.091	81.62
239.325	84.62
239.559	91.62
239.793	76.62
240.027	93.62
240.26	82.62
240.494	84.62
240.728	69.62
240.961	81.62
241.195	89.62
241.429	78.62
241.662	84.62
241.896	74.62
242.13	90.62
242.363	85.62
242.597	75.62
242.83	80.62
243.064	75.62
243.298	86.62
243.531	87.62
243.765	73.62
243.998	74.62
244.232	101.62
244.465	91.62
244.699	63.62
244.932	83.62
245.166	81.62
245.399	76.62
245.633	94.62
245.866	76.62
246.099	105.62
246.333	78.62
246.566	81.62
246.8	91.62
247.033	76.62
247.266	98.62
247.5	88.62
247.733	87.62
247.966	97.62
248.2	91.62
248.433	88.62
248.666	94.62
248.899	98.62
249.133	79.62
249.366	86.62
249.599	86.62
249.832	88.62
250.066	85.62
250.299	92.62
250.532	84.62
250.765	78.62
250.998	82.62
251.231	81.62
251.465	89.62
251.698	97.62
251.931	79.62
252.164	92.62
252.397	100.62
252.63	94.62
252.863	75.62
253.096	87.62
253.329	80.62
253.562	82.62
253.795	77.62
254.028	87.62
254.261	89.62
254.494	74.62
254.727	82.62
254.96	81.62
255.193	84.62
255.426	86.62
255.659	89.62
255.892	101.62
256.124	80.62
256.357	89.62
256.59	90.62
256.823	84.62
257.056	85.62
257.289	79.62
257.521	83.62
257.754	91.62
257.987	92.62
258.22	86.62
258.452	86.62
258.685	88.62
258.918	88.62
259.151	95.62
259.383	99.62
259.616	76.62
259.849	80.62
260.081	93.62
260.314	80.62
260.547	84.62
260.779	99.62
261.012	87.62
261.244	78.62
261.477	101.62
261.71	86.62
261.942	90.62
262.175	76.62
262.407	76.62
262.64	89.62
262.872	86.62
263.105	92.62
263.337	94.62
263.57	99.62
263.802	92.62
264.035	95.62
264.267	105.62
264.499	94.62
264.732	106.62
264.964	93.62
265.197	75.62
265.429	94.62
265.661	107.62
265.894	95.62
266.126	94.62
266.358	100.62
266.591	97.62
266.823	99.62
267.055	81.62
267.287	90.62
267.52	82.62
267.752	94.62
267.984	105.62
268.216	85.62
268.448	105.62
268.681	99.62
268.913	96.62
269.145	106.62
269.377	100.62
269.609	86.62
269.841	98.62
270.073	97.62
270.306	103.62
270.538	100.62
270.77	100.62
271.002	96.62
271.234	103.62
271.466	93.62
271.698	92.62
271.93	104.62
272.162	80.62
272.394	108.62
272.626	99.62
272.858	97.62
273.09	90.62
273.322	111.62
273.553	107.62
273.785	99.62
274.017	98.62
274.249	96.62
274.481	95.62
274.713	94.62
274.945	109.62
275.176	98.62
275.408	92.62
275.64	102.62
275.872	97.62
276.104	108.62
276.335	90.62
276.567	101.62
276.799	92.62
277.031	100.62
277.262	93.62
277.494	106.62
277.726	92.62
277.957	100.62
278.189	111.62
278.421	102.62
278.652	92.62
278.884	106.62
279.115	81.62
279.347	103.62
279.579	95.62
279.81	88.62
280.042	101.62
280.273	115.62
280.505	97.62
280.736	98.62
280.968	101.62
281.199	96.62
281.431	99.62
281.662	102.62
281.894	89.62
282.125	92.62
282.356	108.62
282.588	98.62
282.819	92.62
283.051	95.62
283.282	90.62
283.513	133.62
283.745	99.62
283.976	106.62
284.207	85.62
284.439	105.62
284.67	103.62
284.901	109.62
285.132	100.62
285.364	95.62
285.595	119.62
285.826	96.62
286.057	112.62
286.288	108.62
286.52	100.62
286.751	105.62
286.982	99.62
287.213	92.62
287.444	102.62
287.675	90.62
287.906	117.62
288.138	112.62
288.369	101.62
288.6	111.62
288.831	103.62
289.062	121.62
289.293	118.62
289.524	111.62
289.755	125.62
289.986	106.62
290.217	117.62
290.448	90.62
290.679	107.62
290.91	108.62
291.141	108.62
291.371	111.62
291.602	118.62
291.833	99.62
292.064	121.62
292.295	98.62
292.526	104.62
292.757	110.62
292.987	118.62
293.218	102.62
293.449	97.62
293.68	104.62
293.91	102.62
294.141	112.62
294.372	108.62
294.603	110.62
294.833	97.62
295.064	104.62
295.295	103.62
295.525	105.62
295.756	109.62
295.987	115.62
296.217	100.62
296.448	90.62
296.679	94.62
296.909	105.62
297.14	104.62
297.37	107.62
297.601	104.62
297.831	104.62
298.062	115.62
298.292	116.62
298.523	120.62
298.753	109.62
298.984	107.62
299.214	116.62
299.445	97.62
299.675	98.62
299.905	102.62
300.136	108.62
300.366	97.62
300.597	103.62
300.827	98.62
301.057	112.62
301.288	104.62
301.518	110.62
301.748	121.62
301.979	146.62
302.209	102.62
302.439	113.62
302.669	113.62
302.9	97.62
303.13	108.62
303.36	101.62
303.59	113.62
303.82	109.62
304.051	123.62
304.281	116.62
304.511	119.62
304.741	111.62
304.971	97.62
305.201	108.62
305.431	114.62
305.661	105.62
305.891	109.62
306.121	113.62
306.352	104.62
306.582	117.62
306.812	110.62
307.042	110.62
307.272	106.62
307.502	105.62
307.731	121.62
307.961	96.62
308.191	108.62
308.421	108.62
308.651	116.62
308.881	109.62
309.111	87.62
309.341	106.62
309.571	109.62
309.8	98.62
310.03	106.62
310.26	117.62
310.49	114.62
310.72	115.62
310.949	100.62
311.179	109.62
311.409	116.62
311.639	124.62
311.868	96.62
312.098	112.62
312.328	121.62
312.557	110.62
312.787	120.62
313.017	112.62
313.246	101.62
313.476	116.62
313.706	111.62
313.935	108.62
314.165	103.62
314.394	108.62
314.624	108.62
314.853	110.62
315.083	117.62
315.312	101.62
315.542	103.62
315.771	109.62
316.001	118.62
316.23	113.62
316.46	104.62
316.689	100.62
316.919	94.62
317.148	114.62
317.377	119.62
317.607	104.62
317.836	112.62
318.065	112.62
318.295	104.62
318.524	127.62
318.753	109.62
318.983	98.62
319.212	115.62
319.441	119.62
319.67	103.62
319.9	116.62
320.129	107.62
320.358	101.62
320.587	119.62
320.816	117.62
321.046	119.62
321.275	113.62
321.504	107.62
321.733	102.62
321.962	106.62
322.191	117.62
322.42	117.62
322.649	106.62
322.878	116.62
323.108	107.62
323.337	103.62
323.566	119.62
323.795	116.62
324.024	115.62
324.253	105.62
324.482	95.62
324.71	113.62
324.939	110.62
325.168	116.62
325.397	130.62
325.626	121.62
325.855	93.62
326.084	111.62
326.313	90.62
326.542	108.62
326.77	129.62
326.999	107.62
327.228	118.62
327.457	103.62
327.686	108.62
327.914	109.62
328.143	115.62
328.372	107.62
328.6	104.62
328.829	130.62
329.058	128.62
329.287	118.62
329.515	101.62
329.744	121.62
329.972	114.62
330.201	123.62
330.43	105.62
330.658	109.62
330.887	99.62
331.115	121.62
331.344	104.62
331.572	122.62
331.801	131.62
332.03	110.62
332.258	128.62
332.486	126.62
332.715	129.62
332.943	116.62
333.172	121.62
333.4	122.62
333.629	118.62
333.857	118.62
334.085	118.62
334.314	125.62
334.542	127.62
334.771	120.62
334.999	134.62
335.227	132.62
335.455	126.62
335.684	119.62
335.912	118.62
336.14	128.62
336.369	117.62
336.597	120.62
336.825	134.62
337.053	98.62
337.281	112.62
337.51	113.62
337.738	125.62
337.966	124.62
338.194	125.62
338.422	119.62
338.65	127.62
338.878	113.62
339.106	109.62
339.334	119.62
339.562	116.62
339.79	104.62
340.018	98.62
340.246	115.62
340.474	121.62
340.702	109.62
340.93	127.62
341.158	102.62
341.386	119.62
341.614	114.62
341.842	95.62
342.07	120.62
342.298	102.62
342.526	115.62
342.754	113.62
342.981	127.62
343.209	110.62
343.437	152.62
343.665	127.62
343.893	124.62
344.12	141.62
344.348	119.62
344.576	121.62
344.804	96.62
345.031	108.62
345.259	115.62
345.487	106.62
345.714	106.62
345.942	118.62
346.17	128.62
346.397	117.62
346.625	104.62
346.853	114.62
347.08	105.62
347.308	121.62
347.535	105.62
347.763	103.62
347.99	107.62
348.218	120.62
348.445	104.62
348.673	98.62
348.9	113.62
349.128	110.62
349.355	111.62
349.583	122.62
349.81	110.62
350.037	111.62
350.265	107.62
350.492	119.62
350.72	108.62
350.947	118.62
351.174	127.62
351.402	111.62
351.629	94.62
351.856	116.62
352.083	110.62
352.311	130.62
352.538	106.62
352.765	108.62
352.992	125.62
353.22	108.62
353.447	116.62
353.674	116.62
353.901	120.62
354.128	121.62
354.355	108.62
354.583	112.62
354.81	127.62
355.037	108.62
355.264	141.62
355.491	117.62
355.718	110.62
355.945	117.62
356.172	120.62
356.399	107.62
356.626	107.62
356.853	125.62
357.08	117.62
357.307	118.62
357.534	114.62
357.761	110.62
357.988	117.62
358.215	126.62
358.441	127.62
358.668	110.62
358.895	103.62
359.122	114.62
359.349	120.62
359.576	110.62
359.802	110.62
360.029	109.62
360.256	113.62
360.483	106.62
360.709	106.62
360.936	144.62
361.163	102.62
361.39	116.62
361.616	98.62
361.843	101.62
362.07	119.62
362.296	113.62
362.523	102.62
362.749	105.62
362.976	107.62
363.203	111.62
363.429	103.62
363.656	115.62
363.882	113.62
364.109	128.62
364.335	126.62
364.562	106.62
364.788	101.62
365.015	114.62
365.241	126.62
365.468	106.62
365.694	103.62
365.92	98.62
366.147	108.62
366.373	116.62
366.599	118.62
366.826	108.62
367.052	113.62
367.278	114.62
367.505	110.62
367.731	123.62
367.957	113.62
368.184	123.62
368.41	119.62
368.636	110.62
368.862	127.62
369.089	117.62
369.315	109.62
369.541	109.62
369.767	111.62
369.993	110.62
370.219	130.62
370.445	111.62
370.672	105.62
370.898	129.62
371.124	104.62
371.35	110.62
371.576	120.62
371.802	108.62
372.028	121.62
372.254	116.62
372.48	109.62
372.706	107.62
372.932	117.62
373.158	124.62
373.384	131.62
373.61	122.62
373.835	136.62
374.061	112.62
374.287	120.62
374.513	118.62
374.739	125.62
374.965	132.62
375.191	123.62
375.416	140.62
375.642	132.62
375.868	125.62
376.094	108.62
376.319	116.62
376.545	126.62
376.771	140.62
376.997	112.62
377.222	113.62
377.448	115.62
377.674	119.62
377.899	123.62
378.125	110.62
378.35	121.62
378.576	118.62
378.802	115.62
379.027	128.62
379.253	124.62
379.478	124.62
379.704	99.62
379.929	112.62
380.155	114.62
380.38	108.62
380.606	114.62
380.831	133.62
381.057	136.62
381.282	127.62
381.507	114.62
381.733	123.62
381.958	115.62
382.184	116.62
382.409	105.62
382.634	117.62
382.86	113.62
383.085	130.62
383.31	136.62
383.535	123.62
383.761	116.62
383.986	136.62
384.211	116.62
384.436	101.62
384.662	135.62
384.887	143.62
385.112	127.62
385.337	129.62
385.562	134.62
385.787	128.62
386.013	119.62
386.238	117.62
386.463	133.62
386.688	168.62
386.913	145.62
387.138	137.62
387.363	114.62
387.588	135.62
387.813	128.62
388.038	128.62
388.263	139.62
388.488	132.62
388.713	135.62
388.938	134.62
389.163	134.62
389.387	118.62
389.612	118.62
389.837	134.62
390.062	125.62
390.287	133.62
390.512	123.62
390.736	119.62
390.961	126.62
391.186	107.62
391.411	126.62
391.636	130.62
391.86	135.62
392.085	130.62
392.31	133.62
392.534	140.62
392.759	152.62
392.984	128.62
393.208	129.62
393.433	111.62
393.658	140.62
393.882	137.62
394.107	144.62
394.331	132.62
394.556	130.62
394.78	137.62
395.005	139.62
395.229	132.62
395.454	153.62
395.678	135.62
395.903	156.62
396.127	137.62
396.352	134.62
396.576	142.62
396.801	145.62
397.025	137.62
397.249	135.62
397.474	152.62
397.698	142.62
397.922	144.62
398.147	155.62
398.371	176.62
398.595	163.62
398.82	142.62
399.044	162.62
399.268	188.62
399.492	191.62
399.717	205.62
399.941	198.62
400.165	181.62
400.389	174.62
400.613	181.62
400.837	161.62
401.062	152.62
401.286	161.62
401.51	161.62
401.734	162.62
401.958	158.62
402.182	166.62
402.406	177.62
402.63	167.62
402.854	172.62
403.078	176.62
403.302	174.62
403.526	182.62
403.75	183.62
403.974	181.62
404.198	186.62
404.422	192.62
404.645	170.62
404.869	170.62
405.093	166.62
405.317	174.62
405.541	182.62
405.765	167.62
405.988	163.62
406.212	186.62
406.436	164.62
406.66	186.62
406.883	186.62
407.107	191.62
407.331	178.62
407.555	185.62
407.778	190.62
408.002	194.62
408.226	184.62
408.449	185.62
408.673	185.62
408.896	175.62
409.12	175.62
409.344	183.62
409.567	192.62
409.791	171.62
410.014	194.62
410.238	185.62
410.461	178.62
410.685	177.62
410.908	180.62
411.132	191.62
411.355	176.62
411.578	173.62
411.802	174.62
412.025	177.62
412.249	184.62
412.472	184.62
412.695	171.62
412.919	187.62
413.142	182.62
413.365	175.62
413.589	169.62
413.812	177.62
414.035	183.62
414.258	168.62
414.482	168.62
414.705	192.62
414.928	185.62
415.151	168.62
415.374	187.62
415.597	172.62
415.821	194.62
416.044	182.62
416.267	190.62
416.49	177.62
416.713	171.62
416.936	171.62
417.159	182.62
417.382	196.62
417.605	177.62
417.828	189.62
418.051	181.62
418.274	197.62
418.497	180.62
418.72	192.62
418.943	192.62
419.166	182.62
419.389	210.62
419.611	196.62
419.834	181.62
420.057	192.62
420.28	186.62
420.503	178.62
420.726	174.62
420.948	170.62
421.171	165.62
421.394	188.62
421.617	196.62
421.839	192.62
422.062	188.62
422.285	176.62
422.507	178.62
422.73	192.62
422.953	182.62
423.175	184.62
423.398	184.62
423.621	195.62
423.843	187.62
424.066	185.62
424.288	185.62
424.511	187.62
424.733	192.62
424.956	198.62
425.178	197.62
425.401	183.62
425.623	185.62
425.846	189.62
426.068	170.62
426.291	185.62
426.513	173.62
426.735	168.62
426.958	178.62
427.18	180.62
427.402	182.62
427.625	180.62
427.847	178.62
428.069	169.62
428.292	163.62
428.514	153.62
428.736	172.62
428.958	164.62
429.181	169.62
429.403	162.62
429.625	174.62
429.847	156.62
430.069	160.62
430.292	180.62
430.514	158.62
430.736	176.62
430.958	158.62
431.18	145.62
431.402	150.62
431.624	177.62
431.846	167.62
432.068	173.62
432.29	162.62
432.512	174.62
432.734	161.62
432.956	171.62
433.178	170.62
433.4	178.62
433.622	185.62
433.844	179.62
434.066	162.62
434.287	168.62
434.509	152.62
434.731	177.62
434.953	177.62
435.175	176.62
435.397	171.62
435.618	156.62
435.84	147.62
436.062	154.62
436.284	154.62
436.505	160.62
436.727	187.62
436.949	183.62
437.17	170.62
437.392	175.62
437.614	173.62
437.835	144.62
438.057	153.62
438.278	153.62
438.5	161.62
438.721	174.62
438.943	173.62
439.165	188.62
439.386	187.62
439.608	183.62
439.829	179.62
440.05	190.62
440.272	179.62
440.493	165.62
440.715	180.62
440.936	190.62
441.158	181.62
441.379	176.62
441.6	184.62
441.822	185.62
442.043	186.62
442.264	190.62
442.486	174.62
442.707	180.62
442.928	184.62
443.149	196.62
443.371	203.62
443.592	190.62
443.813	176.62
444.034	173.62
444.255	190.62
444.476	208.62
444.698	208.62
444.919	200.62
445.14	381.62
445.361	279.62
445.582	214.62
445.803	201.62
446.024	184.62
446.245	188.62
446.466	188.62
446.687	190.62
446.908	180.62
447.129	204.62
447.35	187.62
447.571	181.62
447.792	166.62
448.013	166.62
448.234	167.62
448.455	156.62
448.675	175.62
448.896	177.62
449.117	177.62
449.338	149.62
449.559	169.62
449.779	170.62
450	173.62
450.221	164.62
450.442	167.62
450.662	166.62
450.883	157.62
451.104	176.62
451.324	161.62
451.545	161.62
451.766	157.62
451.986	163.62
452.207	157.62
452.428	152.62
452.648	167.62
452.869	147.62
453.089	168.62
453.31	139.62
453.53	148.62
453.751	156.62
453.971	153.62
454.192	153.62
454.412	167.62
454.633	150.62
454.853	154.62
455.073	151.62
455.294	142.62
455.514	150.62
455.734	148.62
455.955	144.62
456.175	135.62
456.395	162.62
456.616	152.62
456.836	141.62
457.056	144.62
457.276	151.62
457.497	164.62
457.717	145.62
457.937	145.62
458.157	137.62
458.377	155.62
458.598	155.62
458.818	152.62
459.038	148.62
459.258	158.62
459.478	141.62
459.698	160.62
459.918	148.62
460.138	174.62
460.358	157.62
460.578	162.62
460.798	174.62
461.018	177.62
461.238	193.62
461.458	185.62
461.678	181.62
461.898	196.62
462.118	211.62
462.338	180.62
462.558	183.62
462.777	181.62
462.997	202.62
463.217	223.62
463.437	201.62
463.657	187.62
463.876	196.62
464.096	191.62
464.316	182.62
464.536	193.62
464.755	193.62
464.975	193.62
465.195	182.62
465.414	186.62
465.634	169.62
465.854	160.62
466.073	150.62
466.293	169.62
466.512	173.62
466.732	174.62
466.951	162.62
467.171	162.62
467.391	168.62
467.61	156.62
467.829	170.62
468.049	158.62
468.268	169.62
468.488	170.62
468.707	188.62
468.927	177.62
469.146	164.62
469.365	177.62
469.585	184.62
469.804	173.62
470.023	154.62
470.243	162.62
470.462	181.62
470.681	187.62
470.901	171.62
471.12	189.62
471.339	175.62
471.558	160.62
471.777	153.62
471.997	156.62
472.216	168.62
472.435	152.62
472.654	170.62
472.873	168.62
473.092	145.62
473.311	159.62
473.53	156.62
473.749	181.62
473.968	173.62
474.187	167.62
474.406	167.62
474.625	146.62
474.844	168.62
475.063	165.62
475.282	161.62
475.501	163.62
475.72	181.62
475.939	164.62
476.158	167.62
476.377	166.62
476.596	167.62
476.814	156.62
477.033	169.62
477.252	159.62
477.471	172.62
477.69	185.62
477.908	182.62
478.127	174.62
478.346	187.62
478.564	178.62
478.783	181.62
479.002	171.62
479.22	184.62
479.439	185.62
479.658	176.62
479.876	172.62
480.095	184.62
480.313	180.62
480.532	188.62
480.751	177.62
480.969	153.62
481.188	161.62
481.406	160.62
481.624	154.62
481.843	169.62
482.061	154.62
482.28	172.62
482.498	175.62
482.717	168.62
482.935	183.62
483.153	173.62
483.372	198.62
483.59	170.62
483.808	159.62
484.027	159.62
484.245	179.62
484.463	176.62
484.681	187.62
484.9	180.62
485.118	174.62
485.336	166.62
485.554	168.62
485.772	162.62
485.99	175.62
486.209	168.62
486.427	163.62
486.645	184.62
486.863	168.62
487.081	160.62
487.299	188.62
487.517	176.62
487.735	197.62
487.953	207.62
488.171	207.62
488.389	197.62
488.607	184.62
488.825	168.62
489.043	172.62
489.261	187.62
489.479	174.62
489.696	170.62
489.914	174.62
490.132	189.62
490.35	184.62
490.568	191.62
490.786	206.62
491.003	198.62
491.221	196.62
491.439	218.62
491.657	204.62
491.874	220.62
492.092	221.62
492.31	236.62
492.527	234.62
492.745	218.62
492.963	219.62
493.18	236.62
493.398	229.62
493.615	206.62
493.833	197.62
494.05	197.62
494.268	216.62
494.485	204.62
494.703	187.62
494.92	207.62
495.138	196.62
495.355	211.62
495.573	201.62
495.79	192.62
496.008	206.62
496.225	198.62
496.442	211.62
496.66	218.62
496.877	211.62
497.094	207.62
497.312	212.62
497.529	216.62
497.746	202.62
497.963	197.62
498.181	200.62
498.398	212.62
498.615	196.62
498.832	216.62
499.049	236.62
499.267	260.62
499.484	278.62
499.701	282.62
499.918	302.62
500.135	343.62
500.352	378.62
500.569	379.62
500.786	358.62
501.003	333.62
501.22	324.62
501.437	282.62
501.654	265.62
501.871	262.62
502.088	236.62
502.305	228.62
502.522	211.62
502.739	225.62
502.956	200.62
503.172	208.62
503.389	214.62
503.606	193.62
503.823	201.62
504.04	225.62
504.256	201.62
504.473	200.62
504.69	191.62
504.907	197.62
505.123	180.62
505.34	178.62
505.557	189.62
505.773	187.62
505.99	176.62
