Data from SampA_HRD10591_00086.txt Node
Date: Mon Jan 19 11:27:16 EST 2026
User: Yrep
Spectrometer: HR+D1059
Trigger mode: 0
Integration Time (sec): 3.443000E-1
Scans to average: 1
Electric dark correction enabled: true
Nonlinearity correction enabled: false
Boxcar width: 0
XAxis mode: Wavelengths
Number of Pixels in Spectrum: 2048
>>>>>Begin Spectral Data<<<<<
223.165	-28.94
223.4	-28.94
223.635	-28.94
223.869	-22.94
224.104	-25.94
224.338	-13.94
224.573	-16.94
224.808	-2.94
225.042	-1.94
225.277	-11.94
225.511	7.06
225.746	4.06
225.98	-0.94
226.215	19.06
226.449	23.06
226.683	19.06
226.918	21.06
227.152	33.06
227.387	49.06
227.621	44.06
227.856	55.06
228.09	47.06
228.324	58.06
228.559	72.06
228.793	68.06
229.027	65.06
229.262	72.06
229.496	83.06
229.73	75.06
229.964	99.06
230.199	83.06
230.433	80.06
230.667	79.06
230.901	93.06
231.136	77.06
231.37	91.06
231.604	91.06
231.838	80.06
232.072	100.06
232.306	82.06
232.541	91.06
232.775	84.06
233.009	95.06
233.243	95.06
233.477	93.06
233.711	95.06
233.945	100.06
234.179	102.06
234.413	79.06
234.647	90.06
234.881	78.06
235.115	88.06
235.349	85.06
235.583	91.06
235.817	98.06
236.051	90.06
236.285	79.06
236.519	99.06
236.753	92.06
236.987	90.06
237.221	91.06
237.455	100.06
237.689	96.06
237.922	98.06
238.156	93.06
238.39	93.06
238.624	87.06
238.858	98.06
239.091	85.06
239.325	96.06
239.559	96.06
239.793	99.06
240.027	106.06
240.26	95.06
240.494	96.06
240.728	80.06
240.961	83.06
241.195	91.06
241.429	89.06
241.662	91.06
241.896	88.06
242.13	76.06
242.363	120.06
242.597	80.06
242.83	84.06
243.064	85.06
243.298	96.06
243.531	100.06
243.765	82.06
243.998	99.06
244.232	96.06
244.465	98.06
244.699	84.06
244.932	100.06
245.166	99.06
245.399	99.06
245.633	89.06
245.866	97.06
246.099	91.06
246.333	96.06
246.566	87.06
246.8	111.06
247.033	90.06
247.266	103.06
247.5	80.06
247.733	87.06
247.966	116.06
248.2	93.06
248.433	94.06
248.666	83.06
248.899	84.06
249.133	85.06
249.366	111.06
249.599	92.06
249.832	89.06
250.066	107.06
250.299	111.06
250.532	92.06
250.765	94.06
250.998	93.06
251.231	114.06
251.465	97.06
251.698	105.06
251.931	107.06
252.164	104.06
252.397	107.06
252.63	105.06
252.863	100.06
253.096	113.06
253.329	92.06
253.562	115.06
253.795	98.06
254.028	99.06
254.261	108.06
254.494	104.06
254.727	111.06
254.96	115.06
255.193	108.06
255.426	104.06
255.659	104.06
255.892	102.06
256.124	107.06
256.357	105.06
256.59	98.06
256.823	91.06
257.056	123.06
257.289	128.06
257.521	105.06
257.754	108.06
257.987	112.06
258.22	116.06
258.452	115.06
258.685	104.06
258.918	114.06
259.151	110.06
259.383	120.06
259.616	111.06
259.849	103.06
260.081	122.06
260.314	107.06
260.547	103.06
260.779	114.06
261.012	99.06
261.244	97.06
261.477	121.06
261.71	104.06
261.942	108.06
262.175	104.06
262.407	117.06
262.64	118.06
262.872	107.06
263.105	121.06
263.337	122.06
263.57	117.06
263.802	109.06
264.035	114.06
264.267	107.06
264.499	111.06
264.732	107.06
264.964	116.06
265.197	109.06
265.429	107.06
265.661	98.06
265.894	105.06
266.126	123.06
266.358	120.06
266.591	99.06
266.823	107.06
267.055	115.06
267.287	111.06
267.52	99.06
267.752	123.06
267.984	110.06
268.216	129.06
268.448	132.06
268.681	138.06
268.913	128.06
269.145	116.06
269.377	136.06
269.609	120.06
269.841	116.06
270.073	111.06
270.306	124.06
270.538	139.06
270.77	129.06
271.002	109.06
271.234	118.06
271.466	130.06
271.698	113.06
271.93	117.06
272.162	122.06
272.394	127.06
272.626	127.06
272.858	107.06
273.09	108.06
273.322	122.06
273.553	139.06
273.785	131.06
274.017	119.06
274.249	137.06
274.481	136.06
274.713	135.06
274.945	112.06
275.176	111.06
275.408	117.06
275.64	122.06
275.872	122.06
276.104	119.06
276.335	125.06
276.567	123.06
276.799	131.06
277.031	125.06
277.262	147.06
277.494	125.06
277.726	109.06
277.957	120.06
278.189	113.06
278.421	129.06
278.652	119.06
278.884	137.06
279.115	128.06
279.347	135.06
279.579	134.06
279.81	136.06
280.042	122.06
280.273	119.06
280.505	124.06
280.736	145.06
280.968	128.06
281.199	135.06
281.431	126.06
281.662	140.06
281.894	138.06
282.125	142.06
282.356	129.06
282.588	134.06
282.819	130.06
283.051	117.06
283.282	138.06
283.513	146.06
283.745	132.06
283.976	128.06
284.207	142.06
284.439	131.06
284.67	153.06
284.901	135.06
285.132	138.06
285.364	128.06
285.595	145.06
285.826	129.06
286.057	141.06
286.288	139.06
286.52	130.06
286.751	139.06
286.982	137.06
287.213	135.06
287.444	152.06
287.675	135.06
287.906	149.06
288.138	131.06
288.369	150.06
288.6	143.06
288.831	139.06
289.062	145.06
289.293	149.06
289.524	137.06
289.755	143.06
289.986	137.06
290.217	130.06
290.448	126.06
290.679	148.06
290.91	154.06
291.141	140.06
291.371	129.06
291.602	140.06
291.833	169.06
292.064	151.06
292.295	134.06
292.526	136.06
292.757	138.06
292.987	159.06
293.218	136.06
293.449	146.06
293.68	156.06
293.91	151.06
294.141	157.06
294.372	148.06
294.603	149.06
294.833	141.06
295.064	138.06
295.295	149.06
295.525	136.06
295.756	150.06
295.987	155.06
296.217	126.06
296.448	137.06
296.679	131.06
296.909	138.06
297.14	149.06
297.37	152.06
297.601	141.06
297.831	141.06
298.062	142.06
298.292	142.06
298.523	141.06
298.753	149.06
298.984	144.06
299.214	152.06
299.445	146.06
299.675	146.06
299.905	151.06
300.136	139.06
300.366	152.06
300.597	138.06
300.827	157.06
301.057	172.06
301.288	152.06
301.518	143.06
301.748	155.06
301.979	179.06
302.209	163.06
302.439	146.06
302.669	150.06
302.9	147.06
303.13	145.06
303.36	167.06
303.59	132.06
303.82	163.06
304.051	138.06
304.281	154.06
304.511	152.06
304.741	135.06
304.971	136.06
305.201	155.06
305.431	151.06
305.661	138.06
305.891	142.06
306.121	150.06
306.352	144.06
306.582	158.06
306.812	155.06
307.042	141.06
307.272	160.06
307.502	149.06
307.731	149.06
307.961	165.06
308.191	135.06
308.421	158.06
308.651	147.06
308.881	132.06
309.111	151.06
309.341	142.06
309.571	150.06
309.8	141.06
310.03	155.06
310.26	142.06
310.49	151.06
310.72	137.06
310.949	162.06
311.179	127.06
311.409	151.06
311.639	147.06
311.868	146.06
312.098	155.06
312.328	157.06
312.557	164.06
312.787	151.06
313.017	161.06
313.246	159.06
313.476	168.06
313.706	145.06
313.935	162.06
314.165	156.06
314.394	158.06
314.624	160.06
314.853	156.06
315.083	155.06
315.312	141.06
315.542	180.06
315.771	171.06
316.001	151.06
316.23	159.06
316.46	156.06
316.689	147.06
316.919	159.06
317.148	162.06
317.377	174.06
317.607	159.06
317.836	169.06
318.065	155.06
318.295	161.06
318.524	168.06
318.753	164.06
318.983	140.06
319.212	146.06
319.441	144.06
319.67	157.06
319.9	162.06
320.129	167.06
320.358	161.06
320.587	154.06
320.816	152.06
321.046	141.06
321.275	159.06
321.504	148.06
321.733	156.06
321.962	147.06
322.191	155.06
322.42	145.06
322.649	154.06
322.878	148.06
323.108	163.06
323.337	166.06
323.566	173.06
323.795	166.06
324.024	175.06
324.253	166.06
324.482	150.06
324.71	164.06
324.939	178.06
325.168	133.06
325.397	167.06
325.626	158.06
325.855	175.06
326.084	163.06
326.313	164.06
326.542	161.06
326.77	154.06
326.999	173.06
327.228	169.06
327.457	173.06
327.686	169.06
327.914	178.06
328.143	181.06
328.372	164.06
328.6	167.06
328.829	179.06
329.058	157.06
329.287	155.06
329.515	160.06
329.744	175.06
329.972	161.06
330.201	155.06
330.43	157.06
330.658	165.06
330.887	168.06
331.115	176.06
331.344	176.06
331.572	172.06
331.801	173.06
332.03	178.06
332.258	186.06
332.486	160.06
332.715	205.06
332.943	187.06
333.172	191.06
333.4	188.06
333.629	212.06
333.857	197.06
334.085	201.06
334.314	201.06
334.542	184.06
334.771	189.06
334.999	192.06
335.227	183.06
335.455	185.06
335.684	202.06
335.912	180.06
336.14	189.06
336.369	178.06
336.597	184.06
336.825	183.06
337.053	184.06
337.281	176.06
337.51	180.06
337.738	181.06
337.966	171.06
338.194	181.06
338.422	183.06
338.65	189.06
338.878	182.06
339.106	159.06
339.334	165.06
339.562	175.06
339.79	163.06
340.018	171.06
340.246	140.06
340.474	166.06
340.702	168.06
340.93	155.06
341.158	172.06
341.386	180.06
341.614	172.06
341.842	160.06
342.07	167.06
342.298	171.06
342.526	167.06
342.754	171.06
342.981	186.06
343.209	171.06
343.437	185.06
343.665	178.06
343.893	199.06
344.12	197.06
344.348	201.06
344.576	169.06
344.804	169.06
345.031	173.06
345.259	172.06
345.487	164.06
345.714	162.06
345.942	158.06
346.17	161.06
346.397	158.06
346.625	150.06
346.853	152.06
347.08	158.06
347.308	179.06
347.535	171.06
347.763	171.06
347.99	162.06
348.218	171.06
348.445	161.06
348.673	180.06
348.9	169.06
349.128	179.06
349.355	155.06
349.583	169.06
349.81	161.06
350.037	170.06
350.265	162.06
350.492	171.06
350.72	162.06
350.947	159.06
351.174	160.06
351.402	164.06
351.629	181.06
351.856	156.06
352.083	162.06
352.311	173.06
352.538	159.06
352.765	179.06
352.992	183.06
353.22	164.06
353.447	155.06
353.674	177.06
353.901	186.06
354.128	151.06
354.355	157.06
354.583	154.06
354.81	157.06
355.037	153.06
355.264	162.06
355.491	156.06
355.718	157.06
355.945	163.06
356.172	166.06
356.399	163.06
356.626	173.06
356.853	177.06
357.08	160.06
357.307	171.06
357.534	175.06
357.761	168.06
357.988	173.06
358.215	165.06
358.441	161.06
358.668	152.06
358.895	171.06
359.122	168.06
359.349	162.06
359.576	160.06
359.802	154.06
360.029	155.06
360.256	150.06
360.483	157.06
360.709	162.06
360.936	171.06
361.163	170.06
361.39	163.06
361.616	157.06
361.843	178.06
362.07	155.06
362.296	167.06
362.523	158.06
362.749	165.06
362.976	147.06
363.203	170.06
363.429	150.06
363.656	173.06
363.882	161.06
364.109	176.06
364.335	181.06
364.562	164.06
364.788	160.06
365.015	149.06
365.241	153.06
365.468	182.06
365.694	169.06
365.92	154.06
366.147	147.06
366.373	148.06
366.599	167.06
366.826	172.06
367.052	177.06
367.278	160.06
367.505	159.06
367.731	176.06
367.957	167.06
368.184	158.06
368.41	163.06
368.636	181.06
368.862	164.06
369.089	176.06
369.315	152.06
369.541	178.06
369.767	183.06
369.993	167.06
370.219	170.06
370.445	168.06
370.672	174.06
370.898	176.06
371.124	181.06
371.35	178.06
371.576	196.06
371.802	168.06
372.028	160.06
372.254	185.06
372.48	182.06
372.706	178.06
372.932	171.06
373.158	176.06
373.384	187.06
373.61	167.06
373.835	178.06
374.061	169.06
374.287	186.06
374.513	179.06
374.739	199.06
374.965	196.06
375.191	179.06
375.416	191.06
375.642	185.06
375.868	191.06
376.094	184.06
376.319	173.06
376.545	166.06
376.771	184.06
376.997	172.06
377.222	181.06
377.448	179.06
377.674	202.06
377.899	177.06
378.125	175.06
378.35	183.06
378.576	169.06
378.802	180.06
379.027	172.06
379.253	180.06
379.478	184.06
379.704	180.06
379.929	169.06
380.155	168.06
380.38	173.06
380.606	183.06
380.831	171.06
381.057	188.06
381.282	180.06
381.507	186.06
381.733	180.06
381.958	161.06
382.184	189.06
382.409	185.06
382.634	197.06
382.86	199.06
383.085	187.06
383.31	190.06
383.535	173.06
383.761	183.06
383.986	207.06
384.211	196.06
384.436	188.06
384.662	208.06
384.887	199.06
385.112	191.06
385.337	199.06
385.562	196.06
385.787	185.06
386.013	190.06
386.238	193.06
386.463	195.06
386.688	234.06
386.913	194.06
387.138	219.06
387.363	196.06
387.588	215.06
387.813	196.06
388.038	198.06
388.263	223.06
388.488	205.06
388.713	207.06
388.938	219.06
389.163	212.06
389.387	212.06
389.612	202.06
389.837	198.06
390.062	220.06
390.287	208.06
390.512	200.06
390.736	197.06
390.961	228.06
391.186	210.06
391.411	222.06
391.636	227.06
391.86	223.06
392.085	241.06
392.31	225.06
392.534	222.06
392.759	220.06
392.984	230.06
393.208	233.06
393.433	220.06
393.658	231.06
393.882	216.06
394.107	238.06
394.331	228.06
394.556	229.06
394.78	233.06
395.005	241.06
395.229	241.06
395.454	253.06
395.678	252.06
395.903	252.06
396.127	227.06
396.352	238.06
396.576	231.06
396.801	219.06
397.025	247.06
397.249	249.06
397.474	250.06
397.698	250.06
397.922	255.06
398.147	247.06
398.371	249.06
398.595	271.06
398.82	277.06
399.044	293.06
399.268	330.06
399.492	370.06
399.717	378.06
399.941	340.06
400.165	337.06
400.389	304.06
400.613	290.06
400.837	288.06
401.062	282.06
401.286	289.06
401.51	272.06
401.734	278.06
401.958	291.06
402.182	275.06
402.406	286.06
402.63	296.06
402.854	292.06
403.078	312.06
403.302	305.06
403.526	342.06
403.75	318.06
403.974	309.06
404.198	339.06
404.422	336.06
404.645	332.06
404.869	325.06
405.093	326.06
405.317	315.06
405.541	320.06
405.765	318.06
405.988	318.06
406.212	336.06
406.436	339.06
406.66	351.06
406.883	328.06
407.107	352.06
407.331	357.06
407.555	362.06
407.778	377.06
408.002	347.06
408.226	363.06
408.449	356.06
408.673	336.06
408.896	341.06
409.12	341.06
409.344	331.06
409.567	332.06
409.791	350.06
410.014	354.06
410.238	346.06
410.461	346.06
410.685	333.06
410.908	315.06
411.132	333.06
411.355	324.06
411.578	304.06
411.802	319.06
412.025	329.06
412.249	347.06
412.472	342.06
412.695	304.06
412.919	310.06
413.142	317.06
413.365	326.06
413.589	302.06
413.812	307.06
414.035	323.06
414.258	322.06
414.482	334.06
414.705	335.06
414.928	321.06
415.151	322.06
415.374	328.06
415.597	316.06
415.821	340.06
416.044	309.06
416.267	315.06
416.49	304.06
416.713	350.06
416.936	343.06
417.159	324.06
417.382	339.06
417.605	321.06
417.828	314.06
418.051	332.06
418.274	355.06
418.497	329.06
418.72	350.06
418.943	353.06
419.166	332.06
419.389	362.06
419.611	366.06
419.834	335.06
420.057	354.06
420.28	333.06
420.503	336.06
420.726	323.06
420.948	323.06
421.171	323.06
421.394	339.06
421.617	339.06
421.839	354.06
422.062	344.06
422.285	337.06
422.507	333.06
422.73	331.06
422.953	330.06
423.175	339.06
423.398	337.06
423.621	362.06
423.843	358.06
424.066	352.06
424.288	359.06
424.511	358.06
424.733	344.06
424.956	344.06
425.178	344.06
425.401	339.06
425.623	333.06
425.846	318.06
426.068	303.06
426.291	331.06
426.513	298.06
426.735	311.06
426.958	321.06
427.18	306.06
427.402	302.06
427.625	306.06
427.847	308.06
428.069	320.06
428.292	315.06
428.514	311.06
428.736	300.06
428.958	299.06
429.181	286.06
429.403	294.06
429.625	310.06
429.847	320.06
430.069	297.06
430.292	314.06
430.514	292.06
430.736	291.06
430.958	299.06
431.18	301.06
431.402	295.06
431.624	293.06
431.846	282.06
432.068	268.06
432.29	285.06
432.512	311.06
432.734	296.06
432.956	301.06
433.178	329.06
433.4	320.06
433.622	327.06
433.844	319.06
434.066	286.06
434.287	304.06
434.509	288.06
434.731	288.06
434.953	308.06
435.175	322.06
435.397	300.06
435.618	291.06
435.84	277.06
436.062	282.06
436.284	307.06
436.505	332.06
436.727	322.06
436.949	311.06
437.17	316.06
437.392	283.06
437.614	298.06
437.835	281.06
438.057	282.06
438.278	280.06
438.5	274.06
438.721	305.06
438.943	300.06
439.165	293.06
439.386	309.06
439.608	339.06
439.829	322.06
440.05	319.06
440.272	336.06
440.493	339.06
440.715	319.06
440.936	331.06
441.158	347.06
441.379	333.06
441.6	335.06
441.822	354.06
442.043	333.06
442.264	318.06
442.486	347.06
442.707	339.06
442.928	344.06
443.149	357.06
443.371	344.06
443.592	330.06
443.813	342.06
444.034	352.06
444.255	355.06
444.476	381.06
444.698	368.06
444.919	373.06
445.14	556.06
445.361	442.06
445.582	363.06
445.803	318.06
446.024	355.06
446.245	367.06
446.466	348.06
446.687	340.06
446.908	324.06
447.129	330.06
447.35	339.06
447.571	332.06
447.792	313.06
448.013	316.06
448.234	306.06
448.455	295.06
448.675	300.06
448.896	307.06
449.117	312.06
449.338	301.06
449.559	315.06
449.779	311.06
450	296.06
450.221	285.06
450.442	296.06
450.662	303.06
450.883	282.06
451.104	303.06
451.324	293.06
451.545	291.06
451.766	307.06
451.986	304.06
452.207	300.06
452.428	276.06
452.648	265.06
452.869	275.06
453.089	274.06
453.31	259.06
453.53	242.06
453.751	269.06
453.971	239.06
454.192	243.06
454.412	255.06
454.633	267.06
454.853	265.06
455.073	301.06
455.294	273.06
455.514	290.06
455.734	272.06
455.955	252.06
456.175	248.06
456.395	246.06
456.616	255.06
456.836	243.06
457.056	255.06
457.276	243.06
457.497	235.06
457.717	246.06
457.937	260.06
458.157	265.06
458.377	251.06
458.598	249.06
458.818	247.06
459.038	243.06
459.258	249.06
459.478	272.06
459.698	262.06
459.918	287.06
460.138	285.06
460.358	309.06
460.578	340.06
460.798	303.06
461.018	301.06
461.238	336.06
461.458	321.06
461.678	332.06
461.898	315.06
462.118	327.06
462.338	339.06
462.558	346.06
462.777	376.06
462.997	368.06
463.217	388.06
463.437	392.06
463.657	369.06
463.876	348.06
464.096	375.06
464.316	362.06
464.536	352.06
464.755	346.06
464.975	350.06
465.195	320.06
465.414	317.06
465.634	282.06
465.854	281.06
466.073	291.06
466.293	285.06
466.512	296.06
466.732	296.06
466.951	291.06
467.171	274.06
467.391	309.06
467.61	315.06
467.829	281.06
468.049	323.06
468.268	302.06
468.488	303.06
468.707	289.06
468.927	279.06
469.146	280.06
469.365	302.06
469.585	303.06
469.804	311.06
470.023	308.06
470.243	316.06
470.462	316.06
470.681	324.06
470.901	325.06
471.12	309.06
471.339	300.06
471.558	307.06
471.777	316.06
471.997	297.06
472.216	281.06
472.435	261.06
472.654	267.06
472.873	282.06
473.092	263.06
473.311	267.06
473.53	279.06
473.749	276.06
473.968	284.06
474.187	265.06
474.406	272.06
474.625	283.06
474.844	277.06
475.063	275.06
475.282	285.06
475.501	253.06
475.72	257.06
475.939	281.06
476.158	275.06
476.377	303.06
476.596	283.06
476.814	268.06
477.033	270.06
477.252	277.06
477.471	284.06
477.69	312.06
477.908	312.06
478.127	333.06
478.346	330.06
478.564	316.06
478.783	320.06
479.002	332.06
479.22	349.06
479.439	333.06
479.658	320.06
479.876	306.06
480.095	318.06
480.313	329.06
480.532	315.06
480.751	332.06
480.969	277.06
481.188	278.06
481.406	291.06
481.624	285.06
481.843	280.06
482.061	271.06
482.28	286.06
482.498	283.06
482.717	275.06
482.935	302.06
483.153	322.06
483.372	330.06
483.59	332.06
483.808	315.06
484.027	307.06
484.245	308.06
484.463	325.06
484.681	332.06
484.9	321.06
485.118	312.06
485.336	292.06
485.554	299.06
485.772	272.06
485.99	299.06
486.209	306.06
486.427	294.06
486.645	321.06
486.863	327.06
487.081	307.06
487.299	306.06
487.517	323.06
487.735	363.06
487.953	359.06
488.171	371.06
488.389	344.06
488.607	343.06
488.825	300.06
489.043	305.06
489.261	312.06
489.479	343.06
489.696	342.06
489.914	328.06
490.132	325.06
490.35	330.06
490.568	345.06
490.786	370.06
491.003	391.06
491.221	369.06
491.439	377.06
491.657	384.06
491.874	413.06
492.092	429.06
492.31	451.06
492.527	439.06
492.745	400.06
492.963	380.06
493.18	397.06
493.398	413.06
493.615	414.06
493.833	393.06
494.05	385.06
494.268	377.06
494.485	383.06
494.703	375.06
494.92	371.06
495.138	372.06
495.355	398.06
495.573	374.06
495.79	368.06
496.008	379.06
496.225	374.06
496.442	380.06
496.66	375.06
496.877	384.06
497.094	373.06
497.312	384.06
497.529	389.06
497.746	385.06
497.963	379.06
498.181	388.06
498.398	399.06
498.615	399.06
498.832	419.06
499.049	452.06
499.267	478.06
499.484	530.06
499.701	570.06
499.918	629.06
500.135	697.06
500.352	772.06
500.569	776.06
500.786	772.06
501.003	745.06
501.22	664.06
501.437	576.06
501.654	538.06
501.871	494.06
502.088	441.06
502.305	444.06
502.522	408.06
502.739	403.06
502.956	384.06
503.172	381.06
503.389	354.06
503.606	353.06
503.823	371.06
504.04	325.06
