Data from SampA_HRD10591_00036.txt Node
Date: Mon Jan 19 11:26:59 EST 2026
User: Yrep
Spectrometer: HR+D1059
Trigger mode: 0
Integration Time (sec): 3.443000E-1
Scans to average: 1
Electric dark correction enabled: true
Nonlinearity correction enabled: false
Boxcar width: 0
XAxis mode: Wavelengths
Number of Pixels in Spectrum: 2048
>>>>>Begin Spectral Data<<<<<
223.165	-16.25
223.4	-16.25
223.635	-16.25
223.869	-41.25
224.104	-36.25
224.338	-18.25
224.573	-24.25
224.808	-18.25
225.042	3.75
225.277	-2.25
225.511	10.75
225.746	7.75
225.98	14.75
226.215	16.75
226.449	10.75
226.683	25.75
226.918	29.75
227.152	36.75
227.387	40.75
227.621	42.75
227.856	46.75
228.09	47.75
228.324	51.75
228.559	55.75
228.793	58.75
229.027	63.75
229.262	65.75
229.496	69.75
229.73	82.75
229.964	80.75
230.199	85.75
230.433	86.75
230.667	83.75
230.901	66.75
231.136	82.75
231.37	79.75
231.604	82.75
231.838	84.75
232.072	85.75
232.306	73.75
232.541	70.75
232.775	80.75
233.009	68.75
233.243	95.75
233.477	78.75
233.711	87.75
233.945	70.75
234.179	76.75
234.413	88.75
234.647	76.75
234.881	77.75
235.115	89.75
235.349	84.75
235.583	91.75
235.817	72.75
236.051	78.75
236.285	65.75
236.519	95.75
236.753	78.75
236.987	76.75
237.221	74.75
237.455	85.75
237.689	74.75
237.922	80.75
238.156	79.75
238.39	70.75
238.624	86.75
238.858	93.75
239.091	74.75
239.325	80.75
239.559	86.75
239.793	71.75
240.027	89.75
240.26	82.75
240.494	84.75
240.728	54.75
240.961	76.75
241.195	87.75
241.429	85.75
241.662	89.75
241.896	74.75
242.13	86.75
242.363	68.75
242.597	74.75
242.83	93.75
243.064	75.75
243.298	76.75
243.531	70.75
243.765	87.75
243.998	85.75
244.232	93.75
244.465	83.75
244.699	75.75
244.932	75.75
245.166	75.75
245.399	74.75
245.633	83.75
245.866	88.75
246.099	78.75
246.333	86.75
246.566	84.75
246.8	76.75
247.033	76.75
247.266	70.75
247.5	76.75
247.733	83.75
247.966	91.75
248.2	82.75
248.433	86.75
248.666	78.75
248.899	95.75
249.133	73.75
249.366	100.75
249.599	101.75
249.832	90.75
250.066	89.75
250.299	79.75
250.532	83.75
250.765	76.75
250.998	86.75
251.231	100.75
251.465	85.75
251.698	86.75
251.931	78.75
252.164	84.75
252.397	93.75
252.63	92.75
252.863	82.75
253.096	91.75
253.329	85.75
253.562	83.75
253.795	76.75
254.028	99.75
254.261	91.75
254.494	76.75
254.727	82.75
254.96	86.75
255.193	89.75
255.426	75.75
255.659	82.75
255.892	92.75
256.124	91.75
256.357	84.75
256.59	72.75
256.823	82.75
257.056	75.75
257.289	83.75
257.521	75.75
257.754	92.75
257.987	78.75
258.22	94.75
258.452	83.75
258.685	91.75
258.918	86.75
259.151	83.75
259.383	86.75
259.616	82.75
259.849	88.75
260.081	95.75
260.314	95.75
260.547	76.75
260.779	85.75
261.012	79.75
261.244	86.75
261.477	95.75
261.71	87.75
261.942	98.75
262.175	90.75
262.407	75.75
262.64	73.75
262.872	89.75
263.105	80.75
263.337	93.75
263.57	75.75
263.802	89.75
264.035	102.75
264.267	91.75
264.499	90.75
264.732	96.75
264.964	82.75
265.197	84.75
265.429	89.75
265.661	92.75
265.894	94.75
266.126	97.75
266.358	96.75
266.591	86.75
266.823	87.75
267.055	81.75
267.287	92.75
267.52	102.75
267.752	90.75
267.984	90.75
268.216	101.75
268.448	96.75
268.681	98.75
268.913	95.75
269.145	89.75
269.377	99.75
269.609	89.75
269.841	92.75
270.073	81.75
270.306	86.75
270.538	83.75
270.77	83.75
271.002	95.75
271.234	103.75
271.466	110.75
271.698	96.75
271.93	99.75
272.162	91.75
272.394	85.75
272.626	86.75
272.858	87.75
273.09	88.75
273.322	92.75
273.553	85.75
273.785	92.75
274.017	99.75
274.249	96.75
274.481	98.75
274.713	89.75
274.945	106.75
275.176	103.75
275.408	99.75
275.64	93.75
275.872	95.75
276.104	115.75
276.335	100.75
276.567	91.75
276.799	100.75
277.031	87.75
277.262	85.75
277.494	103.75
277.726	88.75
277.957	94.75
278.189	88.75
278.421	93.75
278.652	111.75
278.884	108.75
279.115	99.75
279.347	96.75
279.579	104.75
279.81	93.75
280.042	90.75
280.273	90.75
280.505	105.75
280.736	97.75
280.968	91.75
281.199	98.75
281.431	109.75
281.662	101.75
281.894	83.75
282.125	104.75
282.356	88.75
282.588	88.75
282.819	104.75
283.051	117.75
283.282	96.75
283.513	110.75
283.745	86.75
283.976	93.75
284.207	95.75
284.439	97.75
284.67	119.75
284.901	93.75
285.132	98.75
285.364	94.75
285.595	95.75
285.826	98.75
286.057	100.75
286.288	93.75
286.52	107.75
286.751	95.75
286.982	96.75
287.213	103.75
287.444	111.75
287.675	109.75
287.906	97.75
288.138	94.75
288.369	110.75
288.6	112.75
288.831	107.75
289.062	103.75
289.293	100.75
289.524	96.75
289.755	103.75
289.986	102.75
290.217	96.75
290.448	90.75
290.679	99.75
290.91	108.75
291.141	93.75
291.371	110.75
291.602	94.75
291.833	92.75
292.064	96.75
292.295	103.75
292.526	91.75
292.757	96.75
292.987	104.75
293.218	94.75
293.449	99.75
293.68	106.75
293.91	100.75
294.141	116.75
294.372	105.75
294.603	100.75
294.833	101.75
295.064	97.75
295.295	100.75
295.525	87.75
295.756	101.75
295.987	94.75
296.217	113.75
296.448	104.75
296.679	108.75
296.909	98.75
297.14	94.75
297.37	102.75
297.601	99.75
297.831	118.75
298.062	106.75
298.292	92.75
298.523	112.75
298.753	113.75
298.984	93.75
299.214	89.75
299.445	100.75
299.675	110.75
299.905	109.75
300.136	108.75
300.366	82.75
300.597	102.75
300.827	100.75
301.057	91.75
301.288	95.75
301.518	103.75
301.748	102.75
301.979	131.75
302.209	106.75
302.439	96.75
302.669	106.75
302.9	83.75
303.13	108.75
303.36	116.75
303.59	110.75
303.82	94.75
304.051	103.75
304.281	99.75
304.511	109.75
304.741	105.75
304.971	95.75
305.201	98.75
305.431	120.75
305.661	117.75
305.891	112.75
306.121	100.75
306.352	96.75
306.582	103.75
306.812	97.75
307.042	94.75
307.272	108.75
307.502	111.75
307.731	106.75
307.961	119.75
308.191	102.75
308.421	99.75
308.651	99.75
308.881	116.75
309.111	100.75
309.341	109.75
309.571	106.75
309.8	89.75
310.03	112.75
310.26	104.75
310.49	89.75
310.72	98.75
310.949	97.75
311.179	102.75
311.409	108.75
311.639	101.75
311.868	107.75
312.098	113.75
312.328	107.75
312.557	107.75
312.787	98.75
313.017	125.75
313.246	112.75
313.476	120.75
313.706	103.75
313.935	106.75
314.165	104.75
314.394	114.75
314.624	112.75
314.853	104.75
315.083	106.75
315.312	101.75
315.542	100.75
315.771	104.75
316.001	103.75
316.23	108.75
316.46	107.75
316.689	94.75
316.919	105.75
317.148	104.75
317.377	111.75
317.607	115.75
317.836	104.75
318.065	96.75
318.295	115.75
318.524	99.75
318.753	119.75
318.983	105.75
319.212	103.75
319.441	117.75
319.67	113.75
319.9	102.75
320.129	113.75
320.358	111.75
320.587	98.75
320.816	96.75
321.046	102.75
321.275	97.75
321.504	105.75
321.733	115.75
321.962	119.75
322.191	90.75
322.42	98.75
322.649	105.75
322.878	112.75
323.108	107.75
323.337	103.75
323.566	109.75
323.795	115.75
324.024	103.75
324.253	118.75
324.482	101.75
324.71	107.75
324.939	102.75
325.168	113.75
325.397	119.75
325.626	127.75
325.855	108.75
326.084	106.75
326.313	108.75
326.542	104.75
326.77	113.75
326.999	107.75
327.228	111.75
327.457	110.75
327.686	119.75
327.914	103.75
328.143	123.75
328.372	109.75
328.6	101.75
328.829	103.75
329.058	99.75
329.287	106.75
329.515	116.75
329.744	127.75
329.972	106.75
330.201	116.75
330.43	104.75
330.658	118.75
330.887	119.75
331.115	100.75
331.344	109.75
331.572	110.75
331.801	117.75
332.03	103.75
332.258	114.75
332.486	121.75
332.715	106.75
332.943	107.75
333.172	117.75
333.4	112.75
333.629	122.75
333.857	122.75
334.085	137.75
334.314	107.75
334.542	121.75
334.771	110.75
334.999	106.75
335.227	109.75
335.455	119.75
335.684	114.75
335.912	110.75
336.14	116.75
336.369	121.75
336.597	112.75
336.825	130.75
337.053	105.75
337.281	126.75
337.51	119.75
337.738	124.75
337.966	115.75
338.194	102.75
338.422	111.75
338.65	109.75
338.878	125.75
339.106	105.75
339.334	107.75
339.562	114.75
339.79	115.75
340.018	102.75
340.246	106.75
340.474	109.75
340.702	94.75
340.93	90.75
341.158	105.75
341.386	115.75
341.614	112.75
341.842	101.75
342.07	107.75
342.298	118.75
342.526	102.75
342.754	108.75
342.981	111.75
343.209	107.75
343.437	154.75
343.665	118.75
343.893	113.75
344.12	122.75
344.348	116.75
344.576	115.75
344.804	116.75
345.031	106.75
345.259	122.75
345.487	110.75
345.714	111.75
345.942	104.75
346.17	95.75
346.397	111.75
346.625	113.75
346.853	110.75
347.08	98.75
347.308	110.75
347.535	117.75
347.763	97.75
347.99	107.75
348.218	106.75
348.445	106.75
348.673	99.75
348.9	110.75
349.128	109.75
349.355	101.75
349.583	112.75
349.81	110.75
350.037	108.75
350.265	116.75
350.492	96.75
350.72	99.75
350.947	104.75
351.174	112.75
351.402	115.75
351.629	94.75
351.856	105.75
352.083	106.75
352.311	104.75
352.538	108.75
352.765	117.75
352.992	123.75
353.22	106.75
353.447	96.75
353.674	121.75
353.901	120.75
354.128	104.75
354.355	88.75
354.583	106.75
354.81	112.75
355.037	112.75
355.264	98.75
355.491	93.75
355.718	102.75
355.945	99.75
356.172	107.75
356.399	109.75
356.626	106.75
356.853	110.75
357.08	117.75
357.307	109.75
357.534	102.75
357.761	108.75
357.988	118.75
358.215	114.75
358.441	94.75
358.668	102.75
358.895	126.75
359.122	122.75
359.349	103.75
359.576	114.75
359.802	103.75
360.029	112.75
360.256	92.75
360.483	105.75
360.709	104.75
360.936	119.75
361.163	100.75
361.39	116.75
361.616	111.75
361.843	97.75
362.07	106.75
362.296	110.75
362.523	112.75
362.749	102.75
362.976	99.75
363.203	128.75
363.429	115.75
363.656	108.75
363.882	101.75
364.109	109.75
364.335	117.75
364.562	104.75
364.788	96.75
365.015	114.75
365.241	107.75
365.468	99.75
365.694	107.75
365.92	112.75
366.147	117.75
366.373	97.75
366.599	111.75
366.826	109.75
367.052	101.75
367.278	118.75
367.505	123.75
367.731	133.75
367.957	130.75
368.184	91.75
368.41	93.75
368.636	100.75
368.862	103.75
369.089	120.75
369.315	108.75
369.541	112.75
369.767	101.75
369.993	111.75
370.219	109.75
370.445	118.75
370.672	123.75
370.898	105.75
371.124	105.75
371.35	119.75
371.576	118.75
371.802	92.75
372.028	109.75
372.254	107.75
372.48	111.75
372.706	114.75
372.932	108.75
373.158	131.75
373.384	110.75
373.61	131.75
373.835	118.75
374.061	112.75
374.287	109.75
374.513	118.75
374.739	116.75
374.965	114.75
375.191	136.75
375.416	126.75
375.642	111.75
375.868	125.75
376.094	123.75
376.319	112.75
376.545	104.75
376.771	132.75
376.997	130.75
377.222	117.75
377.448	114.75
377.674	113.75
377.899	107.75
378.125	100.75
378.35	101.75
378.576	101.75
378.802	115.75
379.027	106.75
379.253	101.75
379.478	126.75
379.704	123.75
379.929	128.75
380.155	117.75
380.38	111.75
380.606	119.75
380.831	115.75
381.057	122.75
381.282	109.75
381.507	116.75
381.733	106.75
381.958	100.75
382.184	115.75
382.409	117.75
382.634	121.75
382.86	95.75
383.085	128.75
383.31	124.75
383.535	131.75
383.761	113.75
383.986	113.75
384.211	115.75
384.436	118.75
384.662	112.75
384.887	122.75
385.112	116.75
385.337	132.75
385.562	122.75
385.787	126.75
386.013	132.75
386.238	120.75
386.463	131.75
386.688	154.75
386.913	120.75
387.138	114.75
387.363	118.75
387.588	136.75
387.813	130.75
388.038	130.75
388.263	132.75
388.488	112.75
388.713	121.75
388.938	108.75
389.163	114.75
389.387	136.75
389.612	132.75
389.837	118.75
390.062	124.75
390.287	145.75
390.512	125.75
390.736	114.75
390.961	140.75
391.186	150.75
391.411	120.75
391.636	122.75
391.86	127.75
392.085	135.75
392.31	140.75
392.534	115.75
392.759	124.75
392.984	144.75
393.208	148.75
393.433	123.75
393.658	126.75
393.882	134.75
394.107	134.75
394.331	131.75
394.556	135.75
394.78	127.75
395.005	132.75
395.229	138.75
395.454	136.75
395.678	137.75
395.903	127.75
396.127	140.75
396.352	146.75
396.576	138.75
396.801	130.75
397.025	140.75
397.249	147.75
397.474	136.75
397.698	140.75
397.922	142.75
398.147	131.75
398.371	123.75
398.595	150.75
398.82	167.75
399.044	150.75
399.268	169.75
399.492	180.75
399.717	202.75
399.941	179.75
400.165	166.75
400.389	170.75
400.613	153.75
400.837	171.75
401.062	152.75
401.286	153.75
401.51	153.75
401.734	141.75
401.958	163.75
402.182	149.75
402.406	164.75
402.63	166.75
402.854	155.75
403.078	162.75
403.302	153.75
403.526	168.75
403.75	172.75
403.974	160.75
404.198	170.75
404.422	181.75
404.645	185.75
404.869	170.75
405.093	162.75
405.317	163.75
405.541	176.75
405.765	159.75
405.988	157.75
406.212	168.75
406.436	169.75
406.66	172.75
406.883	197.75
407.107	184.75
407.331	178.75
407.555	179.75
407.778	195.75
408.002	173.75
408.226	182.75
408.449	165.75
408.673	152.75
408.896	167.75
409.12	181.75
409.344	187.75
409.567	176.75
409.791	187.75
410.014	199.75
410.238	175.75
410.461	165.75
410.685	179.75
410.908	163.75
411.132	168.75
411.355	168.75
411.578	182.75
411.802	167.75
412.025	175.75
412.249	168.75
412.472	163.75
412.695	164.75
412.919	166.75
413.142	166.75
413.365	178.75
413.589	168.75
413.812	173.75
414.035	175.75
414.258	170.75
414.482	175.75
414.705	186.75
414.928	183.75
415.151	168.75
415.374	159.75
415.597	175.75
415.821	175.75
416.044	171.75
416.267	186.75
416.49	191.75
416.713	169.75
416.936	180.75
417.159	186.75
417.382	157.75
417.605	168.75
417.828	170.75
418.051	182.75
418.274	171.75
418.497	190.75
418.72	183.75
418.943	188.75
419.166	181.75
419.389	188.75
419.611	173.75
419.834	177.75
420.057	194.75
420.28	194.75
420.503	166.75
420.726	179.75
420.948	166.75
421.171	172.75
421.394	164.75
421.617	185.75
421.839	164.75
422.062	182.75
422.285	196.75
422.507	181.75
422.73	165.75
422.953	173.75
423.175	168.75
423.398	180.75
423.621	184.75
423.843	183.75
424.066	166.75
424.288	177.75
424.511	184.75
424.733	179.75
424.956	168.75
425.178	170.75
425.401	179.75
425.623	183.75
425.846	180.75
426.068	167.75
426.291	176.75
426.513	181.75
426.735	169.75
426.958	158.75
427.18	142.75
427.402	167.75
427.625	166.75
427.847	166.75
428.069	177.75
428.292	160.75
428.514	165.75
428.736	146.75
428.958	158.75
429.181	166.75
429.403	172.75
429.625	154.75
429.847	163.75
430.069	168.75
430.292	171.75
430.514	154.75
430.736	160.75
430.958	160.75
431.18	161.75
431.402	156.75
431.624	159.75
431.846	134.75
432.068	152.75
432.29	167.75
432.512	169.75
432.734	166.75
432.956	152.75
433.178	185.75
433.4	188.75
433.622	176.75
433.844	158.75
434.066	166.75
434.287	147.75
434.509	152.75
434.731	151.75
434.953	166.75
435.175	154.75
435.397	169.75
435.618	167.75
435.84	164.75
436.062	154.75
436.284	170.75
436.505	166.75
436.727	168.75
436.949	160.75
437.17	170.75
437.392	150.75
437.614	155.75
437.835	136.75
438.057	149.75
438.278	154.75
438.5	159.75
438.721	163.75
438.943	181.75
439.165	188.75
439.386	158.75
439.608	169.75
439.829	194.75
440.05	186.75
440.272	182.75
440.493	167.75
440.715	177.75
440.936	187.75
441.158	177.75
441.379	179.75
441.6	164.75
441.822	169.75
442.043	188.75
442.264	174.75
442.486	174.75
442.707	174.75
442.928	172.75
443.149	171.75
443.371	176.75
443.592	176.75
443.813	189.75
444.034	190.75
444.255	183.75
444.476	175.75
444.698	182.75
444.919	197.75
445.14	442.75
445.361	302.75
445.582	194.75
445.803	178.75
446.024	175.75
446.245	173.75
446.466	172.75
446.687	163.75
446.908	163.75
447.129	185.75
447.35	159.75
447.571	182.75
447.792	168.75
448.013	163.75
448.234	170.75
448.455	153.75
448.675	165.75
448.896	155.75
449.117	161.75
449.338	150.75
449.559	168.75
449.779	152.75
450	142.75
450.221	150.75
450.442	159.75
450.662	181.75
450.883	158.75
451.104	160.75
451.324	159.75
451.545	164.75
451.766	173.75
451.986	157.75
452.207	162.75
452.428	140.75
452.648	168.75
452.869	163.75
453.089	167.75
453.31	154.75
453.53	164.75
453.751	154.75
453.971	150.75
454.192	130.75
454.412	153.75
454.633	157.75
454.853	151.75
455.073	150.75
455.294	147.75
455.514	157.75
455.734	158.75
455.955	145.75
456.175	144.75
456.395	135.75
456.616	146.75
456.836	147.75
457.056	137.75
457.276	131.75
457.497	139.75
457.717	143.75
457.937	133.75
458.157	149.75
458.377	146.75
458.598	120.75
458.818	139.75
459.038	142.75
459.258	135.75
459.478	127.75
459.698	152.75
459.918	152.75
460.138	149.75
460.358	167.75
460.578	180.75
460.798	170.75
461.018	170.75
461.238	180.75
461.458	189.75
461.678	188.75
461.898	171.75
462.118	179.75
462.338	175.75
462.558	174.75
462.777	160.75
462.997	186.75
463.217	187.75
463.437	194.75
463.657	178.75
463.876	179.75
464.096	178.75
464.316	192.75
464.536	192.75
464.755	173.75
464.975	162.75
465.195	174.75
465.414	166.75
465.634	149.75
465.854	163.75
466.073	158.75
466.293	165.75
466.512	163.75
466.732	159.75
466.951	164.75
467.171	166.75
467.391	170.75
467.61	160.75
467.829	172.75
468.049	174.75
468.268	156.75
468.488	156.75
468.707	167.75
468.927	164.75
469.146	149.75
469.365	166.75
469.585	170.75
469.804	158.75
470.023	175.75
470.243	183.75
470.462	156.75
470.681	174.75
470.901	172.75
471.12	158.75
471.339	167.75
471.558	175.75
471.777	169.75
471.997	158.75
472.216	159.75
472.435	136.75
472.654	144.75
472.873	151.75
473.092	158.75
473.311	163.75
473.53	147.75
473.749	153.75
473.968	175.75
474.187	159.75
474.406	149.75
474.625	157.75
474.844	155.75
475.063	150.75
475.282	154.75
475.501	142.75
475.72	164.75
475.939	160.75
476.158	158.75
476.377	164.75
476.596	164.75
476.814	143.75
477.033	152.75
477.252	168.75
477.471	178.75
477.69	168.75
477.908	184.75
478.127	178.75
478.346	189.75
478.564	171.75
478.783	170.75
479.002	169.75
479.22	172.75
479.439	190.75
479.658	182.75
479.876	178.75
480.095	165.75
480.313	173.75
480.532	171.75
480.751	177.75
480.969	159.75
481.188	132.75
481.406	156.75
481.624	141.75
481.843	142.75
482.061	149.75
482.28	158.75
482.498	157.75
482.717	162.75
482.935	160.75
483.153	160.75
483.372	182.75
483.59	170.75
483.808	177.75
484.027	183.75
484.245	176.75
484.463	169.75
484.681	183.75
484.9	158.75
485.118	182.75
485.336	173.75
485.554	148.75
485.772	157.75
485.99	156.75
486.209	170.75
486.427	163.75
486.645	157.75
486.863	176.75
487.081	179.75
487.299	174.75
487.517	185.75
487.735	198.75
487.953	191.75
488.171	198.75
488.389	196.75
488.607	178.75
488.825	172.75
489.043	170.75
489.261	177.75
489.479	172.75
489.696	170.75
489.914	173.75
490.132	178.75
490.35	184.75
490.568	190.75
490.786	202.75
491.003	175.75
491.221	201.75
491.439	206.75
491.657	215.75
491.874	227.75
492.092	222.75
492.31	231.75
492.527	219.75
492.745	206.75
492.963	185.75
493.18	206.75
493.398	218.75
493.615	217.75
493.833	202.75
494.05	199.75
494.268	192.75
494.485	202.75
494.703	202.75
494.92	194.75
495.138	206.75
495.355	200.75
495.573	213.75
495.79	202.75
496.008	204.75
496.225	201.75
496.442	197.75
496.66	210.75
496.877	202.75
497.094	203.75
497.312	206.75
497.529	194.75
497.746	187.75
497.963	183.75
498.181	187.75
498.398	199.75
498.615	189.75
498.832	217.75
499.049	243.75
499.267	236.75
499.484	243.75
499.701	261.75
499.918	298.75
500.135	318.75
500.352	334.75
500.569	352.75
500.786	355.75
501.003	331.75
501.22	296.75
501.437	286.75
501.654	245.75
501.871	244.75
502.088	217.75
502.305	229.75
502.522	217.75
502.739	212.75
502.956	202.75
503.172	195.75
503.389	186.75
503.606	177.75
503.823	196.75
504.04	177.75
504.256	185.75
504.473	198.75
504.69	188.75
504.907	210.75
505.123	176.75
505.34	179.75
505.557	165.75
505.773	170.75
505.99	178.75
506.207	155.75
506.423	187.75
506.64	167.75
506.856	159.75
