Data from SampA_HRD10591_00039.txt Node
Date: Mon Jan 19 11:27:00 EST 2026
User: Yrep
Spectrometer: HR+D1059
Trigger mode: 0
Integration Time (sec): 3.443000E-1
Scans to average: 1
Electric dark correction enabled: true
Nonlinearity correction enabled: false
Boxcar width: 0
XAxis mode: Wavelengths
Number of Pixels in Spectrum: 2048
>>>>>Begin Spectral Data<<<<<
223.165	-27.69
223.4	-27.69
223.635	-27.69
223.869	-24.69
224.104	-24.69
224.338	-19.69
224.573	-22.69
224.808	-12.69
225.042	0.31
225.277	-1.69
225.511	5.31
225.746	12.31
225.98	8.31
226.215	-0.69
226.449	27.31
226.683	28.31
226.918	24.31
227.152	28.31
227.387	25.31
227.621	35.31
227.856	44.31
228.09	46.31
228.324	66.31
228.559	59.31
228.793	63.31
229.027	56.31
229.262	63.31
229.496	68.31
229.73	74.31
229.964	88.31
230.199	84.31
230.433	79.31
230.667	78.31
230.901	76.31
231.136	103.31
231.37	96.31
231.604	66.31
231.838	79.31
232.072	94.31
232.306	83.31
232.541	77.31
232.775	84.31
233.009	83.31
233.243	87.31
233.477	86.31
233.711	91.31
233.945	91.31
234.179	98.31
234.413	78.31
234.647	94.31
234.881	86.31
235.115	82.31
235.349	84.31
235.583	98.31
235.817	90.31
236.051	78.31
236.285	64.31
236.519	79.31
236.753	89.31
236.987	86.31
237.221	70.31
237.455	82.31
237.689	87.31
237.922	68.31
238.156	79.31
238.39	91.31
238.624	104.31
238.858	101.31
239.091	99.31
239.325	83.31
239.559	83.31
239.793	88.31
240.027	95.31
240.26	83.31
240.494	91.31
240.728	85.31
240.961	93.31
241.195	83.31
241.429	115.31
241.662	85.31
241.896	88.31
242.13	81.31
242.363	98.31
242.597	97.31
242.83	109.31
243.064	87.31
243.298	108.31
243.531	103.31
243.765	80.31
243.998	99.31
244.232	96.31
244.465	84.31
244.699	106.31
244.932	80.31
245.166	105.31
245.399	96.31
245.633	88.31
245.866	83.31
246.099	99.31
246.333	97.31
246.566	101.31
246.8	91.31
247.033	101.31
247.266	97.31
247.5	90.31
247.733	96.31
247.966	101.31
248.2	99.31
248.433	92.31
248.666	91.31
248.899	96.31
249.133	92.31
249.366	105.31
249.599	114.31
249.832	99.31
250.066	102.31
250.299	104.31
250.532	99.31
250.765	108.31
250.998	106.31
251.231	75.31
251.465	106.31
251.698	96.31
251.931	102.31
252.164	100.31
252.397	96.31
252.63	107.31
252.863	94.31
253.096	103.31
253.329	113.31
253.562	107.31
253.795	110.31
254.028	100.31
254.261	115.31
254.494	85.31
254.727	130.31
254.96	106.31
255.193	110.31
255.426	96.31
255.659	104.31
255.892	114.31
256.124	110.31
256.357	105.31
256.59	111.31
256.823	120.31
257.056	103.31
257.289	97.31
257.521	115.31
257.754	102.31
257.987	116.31
258.22	114.31
258.452	113.31
258.685	103.31
258.918	115.31
259.151	115.31
259.383	117.31
259.616	115.31
259.849	119.31
260.081	119.31
260.314	112.31
260.547	108.31
260.779	115.31
261.012	109.31
261.244	116.31
261.477	134.31
261.71	122.31
261.942	110.31
262.175	121.31
262.407	110.31
262.64	107.31
262.872	123.31
263.105	127.31
263.337	111.31
263.57	126.31
263.802	131.31
264.035	126.31
264.267	120.31
264.499	113.31
264.732	115.31
264.964	130.31
265.197	122.31
265.429	125.31
265.661	103.31
265.894	112.31
266.126	132.31
266.358	108.31
266.591	111.31
266.823	126.31
267.055	115.31
267.287	115.31
267.52	119.31
267.752	114.31
267.984	119.31
268.216	115.31
268.448	129.31
268.681	135.31
268.913	117.31
269.145	127.31
269.377	136.31
269.609	114.31
269.841	137.31
270.073	116.31
270.306	119.31
270.538	115.31
270.77	126.31
271.002	131.31
271.234	125.31
271.466	120.31
271.698	116.31
271.93	122.31
272.162	119.31
272.394	127.31
272.626	133.31
272.858	115.31
273.09	121.31
273.322	146.31
273.553	126.31
273.785	125.31
274.017	125.31
274.249	120.31
274.481	130.31
274.713	123.31
274.945	129.31
275.176	130.31
275.408	137.31
275.64	126.31
275.872	130.31
276.104	124.31
276.335	133.31
276.567	123.31
276.799	133.31
277.031	141.31
277.262	128.31
277.494	141.31
277.726	131.31
277.957	128.31
278.189	142.31
278.421	128.31
278.652	136.31
278.884	142.31
279.115	135.31
279.347	135.31
279.579	141.31
279.81	123.31
280.042	125.31
280.273	140.31
280.505	127.31
280.736	134.31
280.968	130.31
281.199	122.31
281.431	158.31
281.662	148.31
281.894	150.31
282.125	134.31
282.356	146.31
282.588	142.31
282.819	122.31
283.051	135.31
283.282	140.31
283.513	150.31
283.745	144.31
283.976	123.31
284.207	140.31
284.439	139.31
284.67	158.31
284.901	139.31
285.132	138.31
285.364	146.31
285.595	147.31
285.826	136.31
286.057	160.31
286.288	149.31
286.52	139.31
286.751	140.31
286.982	151.31
287.213	144.31
287.444	149.31
287.675	154.31
287.906	147.31
288.138	145.31
288.369	132.31
288.6	140.31
288.831	150.31
289.062	141.31
289.293	171.31
289.524	148.31
289.755	144.31
289.986	139.31
290.217	154.31
290.448	155.31
290.679	151.31
290.91	159.31
291.141	163.31
291.371	166.31
291.602	167.31
291.833	148.31
292.064	163.31
292.295	145.31
292.526	133.31
292.757	147.31
292.987	151.31
293.218	135.31
293.449	163.31
293.68	159.31
293.91	137.31
294.141	162.31
294.372	154.31
294.603	144.31
294.833	152.31
295.064	152.31
295.295	133.31
295.525	159.31
295.756	154.31
295.987	164.31
296.217	152.31
296.448	156.31
296.679	151.31
296.909	167.31
297.14	178.31
297.37	166.31
297.601	156.31
297.831	170.31
298.062	169.31
298.292	155.31
298.523	163.31
298.753	149.31
298.984	163.31
299.214	156.31
299.445	154.31
299.675	150.31
299.905	164.31
300.136	149.31
300.366	159.31
300.597	173.31
300.827	165.31
301.057	153.31
301.288	167.31
301.518	165.31
301.748	178.31
301.979	219.31
302.209	159.31
302.439	159.31
302.669	166.31
302.9	154.31
303.13	156.31
303.36	166.31
303.59	162.31
303.82	151.31
304.051	175.31
304.281	185.31
304.511	167.31
304.741	168.31
304.971	158.31
305.201	166.31
305.431	161.31
305.661	154.31
305.891	175.31
306.121	165.31
306.352	155.31
306.582	157.31
306.812	144.31
307.042	183.31
307.272	164.31
307.502	160.31
307.731	150.31
307.961	182.31
308.191	174.31
308.421	127.31
308.651	150.31
308.881	168.31
309.111	151.31
309.341	145.31
309.571	171.31
309.8	146.31
310.03	167.31
310.26	169.31
310.49	160.31
310.72	159.31
310.949	163.31
311.179	168.31
311.409	179.31
311.639	172.31
311.868	164.31
312.098	162.31
312.328	156.31
312.557	169.31
312.787	158.31
313.017	162.31
313.246	182.31
313.476	173.31
313.706	167.31
313.935	172.31
314.165	177.31
314.394	173.31
314.624	169.31
314.853	177.31
315.083	180.31
315.312	174.31
315.542	179.31
315.771	171.31
316.001	166.31
316.23	158.31
316.46	166.31
316.689	177.31
316.919	167.31
317.148	185.31
317.377	179.31
317.607	149.31
317.836	167.31
318.065	173.31
318.295	162.31
318.524	181.31
318.753	187.31
318.983	182.31
319.212	165.31
319.441	174.31
319.67	167.31
319.9	168.31
320.129	182.31
320.358	174.31
320.587	156.31
320.816	161.31
321.046	172.31
321.275	178.31
321.504	177.31
321.733	184.31
321.962	176.31
322.191	163.31
322.42	168.31
322.649	179.31
322.878	186.31
323.108	163.31
323.337	172.31
323.566	178.31
323.795	181.31
324.024	190.31
324.253	160.31
324.482	169.31
324.71	174.31
324.939	194.31
325.168	180.31
325.397	187.31
325.626	179.31
325.855	162.31
326.084	174.31
326.313	184.31
326.542	183.31
326.77	182.31
326.999	184.31
327.228	181.31
327.457	176.31
327.686	178.31
327.914	169.31
328.143	172.31
328.372	177.31
328.6	182.31
328.829	181.31
329.058	188.31
329.287	181.31
329.515	175.31
329.744	187.31
329.972	197.31
330.201	192.31
330.43	171.31
330.658	172.31
330.887	176.31
331.115	189.31
331.344	180.31
331.572	198.31
331.801	197.31
332.03	208.31
332.258	218.31
332.486	202.31
332.715	216.31
332.943	218.31
333.172	221.31
333.4	228.31
333.629	212.31
333.857	224.31
334.085	209.31
334.314	227.31
334.542	204.31
334.771	232.31
334.999	210.31
335.227	204.31
335.455	212.31
335.684	200.31
335.912	206.31
336.14	207.31
336.369	195.31
336.597	199.31
336.825	218.31
337.053	197.31
337.281	209.31
337.51	210.31
337.738	209.31
337.966	199.31
338.194	184.31
338.422	183.31
338.65	189.31
338.878	188.31
339.106	182.31
339.334	195.31
339.562	197.31
339.79	194.31
340.018	205.31
340.246	207.31
340.474	182.31
340.702	186.31
340.93	197.31
341.158	188.31
341.386	187.31
341.614	179.31
341.842	187.31
342.07	190.31
342.298	174.31
342.526	183.31
342.754	182.31
342.981	198.31
343.209	196.31
343.437	222.31
343.665	202.31
343.893	219.31
344.12	210.31
344.348	220.31
344.576	188.31
344.804	203.31
345.031	174.31
345.259	199.31
345.487	177.31
345.714	191.31
345.942	194.31
346.17	190.31
346.397	196.31
346.625	182.31
346.853	175.31
347.08	187.31
347.308	212.31
347.535	188.31
347.763	184.31
347.99	181.31
348.218	194.31
348.445	196.31
348.673	175.31
348.9	178.31
349.128	194.31
349.355	195.31
349.583	196.31
349.81	179.31
350.037	179.31
350.265	179.31
350.492	153.31
350.72	165.31
350.947	183.31
351.174	182.31
351.402	178.31
351.629	180.31
351.856	155.31
352.083	176.31
352.311	196.31
352.538	170.31
352.765	166.31
352.992	199.31
353.22	168.31
353.447	182.31
353.674	182.31
353.901	171.31
354.128	186.31
354.355	168.31
354.583	182.31
354.81	181.31
355.037	189.31
355.264	191.31
355.491	187.31
355.718	187.31
355.945	179.31
356.172	188.31
356.399	197.31
356.626	170.31
356.853	174.31
357.08	190.31
357.307	181.31
357.534	180.31
357.761	165.31
357.988	184.31
358.215	170.31
358.441	178.31
358.668	180.31
358.895	179.31
359.122	179.31
359.349	188.31
359.576	179.31
359.802	184.31
360.029	189.31
360.256	178.31
360.483	172.31
360.709	175.31
360.936	200.31
361.163	176.31
361.39	180.31
361.616	183.31
361.843	192.31
362.07	182.31
362.296	180.31
362.523	181.31
362.749	190.31
362.976	170.31
363.203	187.31
363.429	175.31
363.656	183.31
363.882	170.31
364.109	187.31
364.335	184.31
364.562	178.31
364.788	184.31
365.015	187.31
365.241	187.31
365.468	188.31
365.694	189.31
365.92	181.31
366.147	180.31
366.373	186.31
366.599	172.31
366.826	176.31
367.052	200.31
367.278	186.31
367.505	182.31
367.731	202.31
367.957	191.31
368.184	189.31
368.41	191.31
368.636	183.31
368.862	183.31
369.089	185.31
369.315	184.31
369.541	197.31
369.767	185.31
369.993	183.31
370.219	199.31
370.445	181.31
370.672	176.31
370.898	187.31
371.124	188.31
371.35	179.31
371.576	189.31
371.802	184.31
372.028	178.31
372.254	199.31
372.48	196.31
372.706	196.31
372.932	214.31
373.158	209.31
373.384	203.31
373.61	230.31
373.835	200.31
374.061	198.31
374.287	192.31
374.513	211.31
374.739	198.31
374.965	205.31
375.191	223.31
375.416	210.31
375.642	213.31
375.868	211.31
376.094	212.31
376.319	184.31
376.545	216.31
376.771	195.31
376.997	200.31
377.222	192.31
377.448	220.31
377.674	190.31
377.899	186.31
378.125	195.31
378.35	209.31
378.576	192.31
378.802	188.31
379.027	187.31
379.253	199.31
379.478	197.31
379.704	195.31
379.929	191.31
380.155	195.31
380.38	200.31
380.606	204.31
380.831	185.31
381.057	203.31
381.282	207.31
381.507	184.31
381.733	209.31
381.958	198.31
382.184	203.31
382.409	206.31
382.634	219.31
382.86	221.31
383.085	221.31
383.31	207.31
383.535	231.31
383.761	211.31
383.986	202.31
384.211	232.31
384.436	229.31
384.662	222.31
384.887	222.31
385.112	220.31
385.337	236.31
385.562	232.31
385.787	213.31
386.013	238.31
386.238	238.31
386.463	235.31
386.688	279.31
386.913	242.31
387.138	228.31
387.363	227.31
387.588	235.31
387.813	224.31
388.038	223.31
388.263	233.31
388.488	240.31
388.713	229.31
388.938	230.31
389.163	232.31
389.387	245.31
389.612	227.31
389.837	251.31
390.062	219.31
390.287	234.31
390.512	237.31
390.736	227.31
390.961	241.31
391.186	237.31
391.411	262.31
391.636	270.31
391.86	262.31
392.085	270.31
392.31	255.31
392.534	247.31
392.759	273.31
392.984	254.31
393.208	268.31
393.433	263.31
393.658	245.31
393.882	262.31
394.107	249.31
394.331	251.31
394.556	260.31
394.78	269.31
395.005	258.31
395.229	243.31
395.454	280.31
395.678	256.31
395.903	255.31
396.127	281.31
396.352	274.31
396.576	266.31
396.801	267.31
397.025	262.31
397.249	284.31
397.474	298.31
397.698	271.31
397.922	276.31
398.147	272.31
398.371	281.31
398.595	294.31
398.82	307.31
399.044	330.31
399.268	371.31
399.492	405.31
399.717	436.31
399.941	404.31
400.165	384.31
400.389	332.31
400.613	329.31
400.837	327.31
401.062	325.31
401.286	325.31
401.51	325.31
401.734	319.31
401.958	305.31
402.182	330.31
402.406	321.31
402.63	328.31
402.854	339.31
403.078	354.31
403.302	363.31
403.526	391.31
403.75	354.31
403.974	370.31
404.198	364.31
404.422	377.31
404.645	352.31
404.869	359.31
405.093	371.31
405.317	348.31
405.541	381.31
405.765	374.31
405.988	360.31
406.212	366.31
406.436	357.31
406.66	378.31
406.883	388.31
407.107	400.31
407.331	413.31
407.555	429.31
407.778	412.31
408.002	393.31
408.226	371.31
408.449	388.31
408.673	374.31
408.896	368.31
409.12	382.31
409.344	374.31
409.567	386.31
409.791	409.31
410.014	388.31
410.238	376.31
410.461	362.31
410.685	372.31
410.908	374.31
411.132	373.31
411.355	357.31
411.578	359.31
411.802	359.31
412.025	356.31
412.249	364.31
412.472	363.31
412.695	364.31
412.919	338.31
413.142	347.31
413.365	358.31
413.589	352.31
413.812	341.31
414.035	359.31
414.258	358.31
414.482	384.31
414.705	358.31
414.928	379.31
415.151	351.31
415.374	364.31
415.597	351.31
415.821	353.31
416.044	339.31
416.267	349.31
416.49	366.31
416.713	382.31
416.936	374.31
417.159	359.31
417.382	346.31
417.605	379.31
417.828	359.31
418.051	374.31
418.274	371.31
418.497	383.31
418.72	344.31
418.943	364.31
419.166	402.31
419.389	398.31
419.611	386.31
419.834	374.31
420.057	378.31
420.28	377.31
420.503	358.31
420.726	361.31
420.948	352.31
421.171	353.31
421.394	386.31
421.617	358.31
421.839	386.31
422.062	367.31
422.285	368.31
422.507	384.31
422.73	367.31
422.953	368.31
423.175	382.31
423.398	380.31
423.621	382.31
423.843	400.31
424.066	411.31
424.288	395.31
424.511	371.31
424.733	387.31
424.956	368.31
425.178	391.31
425.401	364.31
425.623	365.31
425.846	344.31
426.068	340.31
426.291	355.31
426.513	335.31
426.735	356.31
426.958	363.31
427.18	330.31
427.402	333.31
427.625	338.31
427.847	314.31
428.069	336.31
428.292	324.31
428.514	352.31
428.736	342.31
428.958	336.31
429.181	331.31
429.403	332.31
429.625	316.31
429.847	316.31
430.069	323.31
430.292	348.31
430.514	327.31
430.736	310.31
430.958	325.31
431.18	319.31
431.402	303.31
431.624	308.31
431.846	324.31
432.068	306.31
432.29	308.31
432.512	326.31
432.734	322.31
432.956	324.31
433.178	335.31
433.4	322.31
433.622	338.31
433.844	337.31
434.066	338.31
434.287	323.31
434.509	318.31
434.731	314.31
434.953	342.31
435.175	356.31
435.397	365.31
435.618	351.31
435.84	330.31
436.062	311.31
436.284	316.31
436.505	318.31
436.727	338.31
436.949	325.31
437.17	318.31
437.392	307.31
437.614	322.31
437.835	302.31
438.057	297.31
438.278	301.31
438.5	303.31
438.721	317.31
438.943	336.31
439.165	337.31
439.386	324.31
439.608	342.31
439.829	331.31
440.05	341.31
440.272	339.31
440.493	355.31
440.715	346.31
440.936	352.31
441.158	355.31
441.379	352.31
441.6	371.31
441.822	393.31
442.043	366.31
442.264	373.31
442.486	360.31
442.707	373.31
442.928	361.31
443.149	373.31
443.371	379.31
443.592	379.31
443.813	358.31
444.034	356.31
444.255	382.31
444.476	384.31
444.698	414.31
444.919	444.31
445.14	663.31
445.361	502.31
445.582	390.31
445.803	362.31
446.024	359.31
446.245	374.31
446.466	343.31
446.687	334.31
446.908	342.31
447.129	356.31
447.35	341.31
447.571	351.31
447.792	348.31
448.013	323.31
448.234	312.31
448.455	319.31
448.675	315.31
448.896	326.31
449.117	314.31
449.338	315.31
449.559	332.31
449.779	328.31
450	336.31
450.221	335.31
450.442	330.31
450.662	305.31
450.883	328.31
451.104	312.31
451.324	316.31
451.545	323.31
451.766	304.31
451.986	316.31
452.207	310.31
452.428	310.31
452.648	310.31
452.869	293.31
453.089	298.31
453.31	296.31
453.53	273.31
453.751	274.31
453.971	284.31
454.192	287.31
454.412	278.31
454.633	286.31
454.853	284.31
455.073	270.31
455.294	288.31
455.514	297.31
455.734	280.31
455.955	274.31
456.175	273.31
456.395	265.31
456.616	272.31
456.836	279.31
457.056	280.31
457.276	262.31
457.497	279.31
457.717	283.31
457.937	278.31
458.157	278.31
458.377	266.31
458.598	271.31
458.818	286.31
459.038	274.31
459.258	274.31
459.478	284.31
459.698	317.31
459.918	314.31
460.138	342.31
460.358	373.31
460.578	358.31
460.798	367.31
461.018	365.31
461.238	349.31
461.458	362.31
461.678	359.31
461.898	357.31
462.118	369.31
462.338	370.31
462.558	363.31
462.777	407.31
462.997	437.31
463.217	442.31
463.437	443.31
463.657	399.31
463.876	395.31
464.096	387.31
464.316	399.31
464.536	408.31
464.755	384.31
464.975	394.31
465.195	358.31
465.414	344.31
465.634	333.31
465.854	323.31
466.073	331.31
466.293	327.31
466.512	317.31
466.732	322.31
466.951	318.31
467.171	343.31
467.391	353.31
467.61	329.31
467.829	331.31
468.049	308.31
468.268	311.31
468.488	306.31
468.707	338.31
468.927	331.31
469.146	311.31
469.365	303.31
469.585	323.31
469.804	338.31
470.023	328.31
470.243	352.31
470.462	328.31
470.681	341.31
470.901	337.31
471.12	346.31
471.339	335.31
471.558	331.31
471.777	332.31
471.997	317.31
472.216	312.31
472.435	287.31
472.654	285.31
472.873	299.31
473.092	310.31
473.311	299.31
473.53	268.31
473.749	302.31
473.968	327.31
474.187	284.31
474.406	303.31
474.625	299.31
474.844	295.31
475.063	304.31
475.282	309.31
475.501	310.31
475.72	335.31
475.939	286.31
476.158	319.31
476.377	326.31
476.596	310.31
476.814	291.31
477.033	289.31
477.252	308.31
477.471	314.31
477.69	329.31
477.908	350.31
478.127	354.31
478.346	346.31
478.564	367.31
478.783	377.31
479.002	360.31
479.22	370.31
479.439	377.31
479.658	344.31
479.876	364.31
480.095	353.31
480.313	361.31
480.532	400.31
480.751	346.31
480.969	332.31
481.188	318.31
481.406	306.31
481.624	331.31
481.843	296.31
482.061	328.31
482.28	339.31
482.498	339.31
482.717	308.31
482.935	335.31
483.153	344.31
483.372	351.31
483.59	355.31
483.808	341.31
484.027	343.31
484.245	348.31
484.463	356.31
484.681	379.31
484.9	340.31
485.118	351.31
485.336	342.31
485.554	332.31
485.772	352.31
485.99	311.31
486.209	342.31
486.427	339.31
486.645	336.31
486.863	351.31
487.081	362.31
487.299	337.31
487.517	388.31
487.735	387.31
487.953	386.31
488.171	386.31
488.389	362.31
488.607	361.31
488.825	354.31
489.043	353.31
489.261	348.31
489.479	371.31
489.696	336.31
489.914	346.31
490.132	355.31
490.35	374.31
490.568	376.31
490.786	395.31
491.003	409.31
491.221	398.31
491.439	426.31
491.657	423.31
491.874	436.31
492.092	443.31
492.31	471.31
492.527	444.31
492.745	422.31
492.963	438.31
493.18	438.31
493.398	430.31
493.615	419.31
493.833	405.31
494.05	419.31
494.268	404.31
494.485	416.31
494.703	404.31
494.92	407.31
495.138	402.31
495.355	413.31
495.573	423.31
495.79	409.31
496.008	420.31
496.225	408.31
496.442	421.31
496.66	431.31
496.877	435.31
497.094	445.31
497.312	441.31
497.529	405.31
497.746	420.31
497.963	428.31
498.181	451.31
498.398	462.31
498.615	441.31
498.832	480.31
499.049	518.31
499.267	559.31
499.484	597.31
499.701	681.31
499.918	740.31
500.135	807.31
500.352	884.31
500.569	920.31
500.786	917.31
501.003	831.31
501.22	748.31
501.437	660.31
501.654	590.31
501.871	574.31
502.088	523.31
502.305	488.31
502.522	476.31
502.739	456.31
502.956	435.31
503.172	402.31
503.389	404.31
503.606	404.31
503.823	394.31
