Data from SampA_HRD10591_00043.txt Node
Date: Mon Jan 19 11:27:01 EST 2026
User: Yrep
Spectrometer: HR+D1059
Trigger mode: 0
Integration Time (sec): 3.443000E-1
Scans to average: 1
Electric dark correction enabled: true
Nonlinearity correction enabled: false
Boxcar width: 0
XAxis mode: Wavelengths
Number of Pixels in Spectrum: 2048
>>>>>Begin Spectral Data<<<<<
223.165	-6.25
223.4	-6.25
223.635	-6.25
223.869	-21.25
224.104	-27.25
224.338	-6.25
224.573	-19.25
224.808	-26.25
225.042	-1.25
225.277	-12.25
225.511	-7.25
225.746	-1.25
225.98	13.75
226.215	15.75
226.449	16.75
226.683	22.75
226.918	32.75
227.152	26.75
227.387	39.75
227.621	32.75
227.856	64.75
228.09	54.75
228.324	62.75
228.559	63.75
228.793	62.75
229.027	59.75
229.262	78.75
229.496	81.75
229.73	66.75
229.964	93.75
230.199	90.75
230.433	73.75
230.667	88.75
230.901	85.75
231.136	73.75
231.37	85.75
231.604	87.75
231.838	85.75
232.072	103.75
232.306	95.75
232.541	98.75
232.775	87.75
233.009	95.75
233.243	77.75
233.477	91.75
233.711	96.75
233.945	99.75
234.179	82.75
234.413	79.75
234.647	77.75
234.881	104.75
235.115	84.75
235.349	91.75
235.583	95.75
235.817	87.75
236.051	101.75
236.285	93.75
236.519	94.75
236.753	86.75
236.987	92.75
237.221	87.75
237.455	92.75
237.689	93.75
237.922	95.75
238.156	86.75
238.39	98.75
238.624	86.75
238.858	85.75
239.091	79.75
239.325	86.75
239.559	83.75
239.793	93.75
240.027	102.75
240.26	94.75
240.494	83.75
240.728	95.75
240.961	88.75
241.195	85.75
241.429	95.75
241.662	92.75
241.896	89.75
242.13	95.75
242.363	86.75
242.597	103.75
242.83	101.75
243.064	102.75
243.298	90.75
243.531	86.75
243.765	93.75
243.998	98.75
244.232	104.75
244.465	97.75
244.699	100.75
244.932	93.75
245.166	97.75
245.399	102.75
245.633	102.75
245.866	102.75
246.099	109.75
246.333	98.75
246.566	102.75
246.8	89.75
247.033	104.75
247.266	106.75
247.5	80.75
247.733	104.75
247.966	95.75
248.2	103.75
248.433	91.75
248.666	93.75
248.899	94.75
249.133	97.75
249.366	114.75
249.599	104.75
249.832	111.75
250.066	104.75
250.299	99.75
250.532	107.75
250.765	103.75
250.998	109.75
251.231	99.75
251.465	98.75
251.698	85.75
251.931	117.75
252.164	103.75
252.397	93.75
252.63	115.75
252.863	95.75
253.096	89.75
253.329	102.75
253.562	101.75
253.795	92.75
254.028	112.75
254.261	108.75
254.494	105.75
254.727	107.75
254.96	105.75
255.193	104.75
255.426	100.75
255.659	108.75
255.892	106.75
256.124	121.75
256.357	110.75
256.59	121.75
256.823	111.75
257.056	117.75
257.289	102.75
257.521	108.75
257.754	100.75
257.987	107.75
258.22	120.75
258.452	94.75
258.685	113.75
258.918	105.75
259.151	111.75
259.383	115.75
259.616	104.75
259.849	115.75
260.081	131.75
260.314	116.75
260.547	105.75
260.779	116.75
261.012	134.75
261.244	115.75
261.477	117.75
261.71	108.75
261.942	116.75
262.175	121.75
262.407	129.75
262.64	116.75
262.872	103.75
263.105	107.75
263.337	116.75
263.57	105.75
263.802	100.75
264.035	122.75
264.267	113.75
264.499	108.75
264.732	132.75
264.964	116.75
265.197	122.75
265.429	124.75
265.661	138.75
265.894	105.75
266.126	125.75
266.358	114.75
266.591	133.75
266.823	128.75
267.055	135.75
267.287	118.75
267.52	112.75
267.752	130.75
267.984	119.75
268.216	121.75
268.448	123.75
268.681	120.75
268.913	110.75
269.145	120.75
269.377	125.75
269.609	103.75
269.841	110.75
270.073	116.75
270.306	105.75
270.538	114.75
270.77	114.75
271.002	131.75
271.234	119.75
271.466	110.75
271.698	127.75
271.93	134.75
272.162	128.75
272.394	141.75
272.626	117.75
272.858	130.75
273.09	118.75
273.322	123.75
273.553	129.75
273.785	121.75
274.017	126.75
274.249	131.75
274.481	134.75
274.713	113.75
274.945	130.75
275.176	139.75
275.408	137.75
275.64	124.75
275.872	128.75
276.104	134.75
276.335	129.75
276.567	135.75
276.799	120.75
277.031	129.75
277.262	123.75
277.494	130.75
277.726	133.75
277.957	125.75
278.189	127.75
278.421	129.75
278.652	155.75
278.884	156.75
279.115	138.75
279.347	137.75
279.579	159.75
279.81	127.75
280.042	150.75
280.273	137.75
280.505	142.75
280.736	126.75
280.968	124.75
281.199	142.75
281.431	138.75
281.662	133.75
281.894	136.75
282.125	126.75
282.356	148.75
282.588	145.75
282.819	143.75
283.051	154.75
283.282	127.75
283.513	143.75
283.745	151.75
283.976	138.75
284.207	132.75
284.439	137.75
284.67	158.75
284.901	157.75
285.132	147.75
285.364	143.75
285.595	147.75
285.826	142.75
286.057	152.75
286.288	140.75
286.52	137.75
286.751	150.75
286.982	148.75
287.213	147.75
287.444	143.75
287.675	162.75
287.906	159.75
288.138	145.75
288.369	135.75
288.6	143.75
288.831	150.75
289.062	148.75
289.293	154.75
289.524	143.75
289.755	153.75
289.986	153.75
290.217	142.75
290.448	149.75
290.679	141.75
290.91	161.75
291.141	176.75
291.371	154.75
291.602	149.75
291.833	157.75
292.064	155.75
292.295	159.75
292.526	137.75
292.757	160.75
292.987	162.75
293.218	152.75
293.449	149.75
293.68	154.75
293.91	141.75
294.141	137.75
294.372	146.75
294.603	130.75
294.833	152.75
295.064	169.75
295.295	149.75
295.525	149.75
295.756	136.75
295.987	155.75
296.217	148.75
296.448	154.75
296.679	142.75
296.909	146.75
297.14	170.75
297.37	175.75
297.601	152.75
297.831	152.75
298.062	168.75
298.292	161.75
298.523	152.75
298.753	146.75
298.984	138.75
299.214	142.75
299.445	154.75
299.675	151.75
299.905	166.75
300.136	146.75
300.366	153.75
300.597	161.75
300.827	172.75
301.057	149.75
301.288	165.75
301.518	172.75
301.748	164.75
301.979	211.75
302.209	175.75
302.439	143.75
302.669	154.75
302.9	174.75
303.13	172.75
303.36	154.75
303.59	165.75
303.82	150.75
304.051	171.75
304.281	165.75
304.511	171.75
304.741	144.75
304.971	156.75
305.201	161.75
305.431	167.75
305.661	160.75
305.891	161.75
306.121	166.75
306.352	167.75
306.582	161.75
306.812	149.75
307.042	165.75
307.272	166.75
307.502	158.75
307.731	166.75
307.961	161.75
308.191	162.75
308.421	146.75
308.651	157.75
308.881	141.75
309.111	172.75
309.341	153.75
309.571	164.75
309.8	169.75
310.03	159.75
310.26	158.75
310.49	162.75
310.72	160.75
310.949	162.75
311.179	159.75
311.409	165.75
311.639	165.75
311.868	166.75
312.098	163.75
312.328	159.75
312.557	170.75
312.787	155.75
313.017	170.75
313.246	154.75
313.476	175.75
313.706	174.75
313.935	166.75
314.165	169.75
314.394	165.75
314.624	163.75
314.853	177.75
315.083	175.75
315.312	191.75
315.542	166.75
315.771	173.75
316.001	175.75
316.23	166.75
316.46	150.75
316.689	166.75
316.919	166.75
317.148	176.75
317.377	155.75
317.607	168.75
317.836	150.75
318.065	168.75
318.295	155.75
318.524	160.75
318.753	171.75
318.983	180.75
319.212	173.75
319.441	170.75
319.67	171.75
319.9	161.75
320.129	158.75
320.358	177.75
320.587	161.75
320.816	159.75
321.046	161.75
321.275	194.75
321.504	156.75
321.733	164.75
321.962	165.75
322.191	190.75
322.42	178.75
322.649	165.75
322.878	185.75
323.108	181.75
323.337	171.75
323.566	171.75
323.795	184.75
324.024	178.75
324.253	158.75
324.482	169.75
324.71	175.75
324.939	177.75
325.168	175.75
325.397	201.75
325.626	179.75
325.855	182.75
326.084	181.75
326.313	181.75
326.542	167.75
326.77	184.75
326.999	181.75
327.228	174.75
327.457	188.75
327.686	167.75
327.914	171.75
328.143	188.75
328.372	175.75
328.6	179.75
328.829	185.75
329.058	183.75
329.287	186.75
329.515	186.75
329.744	183.75
329.972	184.75
330.201	187.75
330.43	181.75
330.658	173.75
330.887	182.75
331.115	185.75
331.344	193.75
331.572	199.75
331.801	171.75
332.03	194.75
332.258	200.75
332.486	189.75
332.715	209.75
332.943	203.75
333.172	226.75
333.4	230.75
333.629	211.75
333.857	213.75
334.085	226.75
334.314	230.75
334.542	210.75
334.771	202.75
334.999	211.75
335.227	192.75
335.455	193.75
335.684	215.75
335.912	190.75
336.14	192.75
336.369	200.75
336.597	180.75
336.825	183.75
337.053	202.75
337.281	214.75
337.51	185.75
337.738	206.75
337.966	177.75
338.194	185.75
338.422	184.75
338.65	194.75
338.878	192.75
339.106	167.75
339.334	195.75
339.562	187.75
339.79	178.75
340.018	178.75
340.246	198.75
340.474	188.75
340.702	177.75
340.93	171.75
341.158	194.75
341.386	177.75
341.614	178.75
341.842	186.75
342.07	178.75
342.298	201.75
342.526	178.75
342.754	183.75
342.981	184.75
343.209	210.75
343.437	230.75
343.665	210.75
343.893	222.75
344.12	207.75
344.348	209.75
344.576	199.75
344.804	197.75
345.031	194.75
345.259	187.75
345.487	185.75
345.714	182.75
345.942	182.75
346.17	175.75
346.397	177.75
346.625	174.75
346.853	182.75
347.08	177.75
347.308	187.75
347.535	193.75
347.763	195.75
347.99	191.75
348.218	189.75
348.445	194.75
348.673	167.75
348.9	186.75
349.128	181.75
349.355	176.75
349.583	178.75
349.81	181.75
350.037	179.75
350.265	177.75
350.492	169.75
350.72	189.75
350.947	176.75
351.174	171.75
351.402	178.75
351.629	175.75
351.856	174.75
352.083	185.75
352.311	178.75
352.538	159.75
352.765	187.75
352.992	190.75
353.22	181.75
353.447	175.75
353.674	175.75
353.901	186.75
354.128	183.75
354.355	181.75
354.583	181.75
354.81	188.75
355.037	176.75
355.264	182.75
355.491	174.75
355.718	181.75
355.945	184.75
356.172	173.75
356.399	178.75
356.626	174.75
356.853	184.75
357.08	181.75
357.307	178.75
357.534	193.75
357.761	184.75
357.988	178.75
358.215	191.75
358.441	176.75
358.668	167.75
358.895	192.75
359.122	177.75
359.349	167.75
359.576	177.75
359.802	180.75
360.029	186.75
360.256	184.75
360.483	177.75
360.709	169.75
360.936	186.75
361.163	178.75
361.39	166.75
361.616	190.75
361.843	174.75
362.07	178.75
362.296	187.75
362.523	176.75
362.749	176.75
362.976	175.75
363.203	198.75
363.429	169.75
363.656	183.75
363.882	165.75
364.109	170.75
364.335	188.75
364.562	192.75
364.788	169.75
365.015	183.75
365.241	189.75
365.468	191.75
365.694	167.75
365.92	188.75
366.147	184.75
366.373	174.75
366.599	174.75
366.826	179.75
367.052	189.75
367.278	192.75
367.505	167.75
367.731	205.75
367.957	191.75
368.184	181.75
368.41	169.75
368.636	168.75
368.862	189.75
369.089	199.75
369.315	187.75
369.541	191.75
369.767	202.75
369.993	193.75
370.219	193.75
370.445	190.75
370.672	190.75
370.898	182.75
371.124	190.75
371.35	194.75
371.576	199.75
371.802	200.75
372.028	179.75
372.254	185.75
372.48	185.75
372.706	185.75
372.932	208.75
373.158	188.75
373.384	214.75
373.61	215.75
373.835	206.75
374.061	192.75
374.287	207.75
374.513	213.75
374.739	214.75
374.965	224.75
375.191	200.75
375.416	194.75
375.642	206.75
375.868	218.75
376.094	214.75
376.319	190.75
376.545	205.75
376.771	181.75
376.997	190.75
377.222	197.75
377.448	195.75
377.674	190.75
377.899	191.75
378.125	182.75
378.35	204.75
378.576	186.75
378.802	183.75
379.027	192.75
379.253	199.75
379.478	201.75
379.704	193.75
379.929	202.75
380.155	204.75
380.38	181.75
380.606	207.75
380.831	200.75
381.057	215.75
381.282	191.75
381.507	201.75
381.733	220.75
381.958	219.75
382.184	218.75
382.409	220.75
382.634	216.75
382.86	216.75
383.085	223.75
383.31	209.75
383.535	234.75
383.761	213.75
383.986	224.75
384.211	207.75
384.436	232.75
384.662	215.75
384.887	220.75
385.112	213.75
385.337	240.75
385.562	214.75
385.787	228.75
386.013	238.75
386.238	232.75
386.463	221.75
386.688	254.75
386.913	224.75
387.138	227.75
387.363	231.75
387.588	246.75
387.813	241.75
388.038	238.75
388.263	222.75
388.488	227.75
388.713	233.75
388.938	231.75
389.163	231.75
389.387	245.75
389.612	226.75
389.837	232.75
390.062	237.75
390.287	234.75
390.512	227.75
390.736	220.75
390.961	232.75
391.186	234.75
391.411	251.75
391.636	256.75
391.86	258.75
392.085	259.75
392.31	267.75
392.534	271.75
392.759	266.75
392.984	253.75
393.208	251.75
393.433	247.75
393.658	248.75
393.882	249.75
394.107	253.75
394.331	250.75
394.556	249.75
394.78	266.75
395.005	250.75
395.229	256.75
395.454	262.75
395.678	285.75
395.903	255.75
396.127	269.75
396.352	278.75
396.576	247.75
396.801	255.75
397.025	249.75
397.249	270.75
397.474	299.75
397.698	274.75
397.922	282.75
398.147	274.75
398.371	290.75
398.595	294.75
398.82	308.75
399.044	328.75
399.268	358.75
399.492	393.75
399.717	425.75
399.941	410.75
400.165	376.75
400.389	347.75
400.613	306.75
400.837	321.75
401.062	323.75
401.286	321.75
401.51	316.75
401.734	305.75
401.958	305.75
402.182	305.75
402.406	334.75
402.63	326.75
402.854	332.75
403.078	349.75
403.302	347.75
403.526	343.75
403.75	353.75
403.974	355.75
404.198	360.75
404.422	369.75
404.645	352.75
404.869	365.75
405.093	364.75
405.317	353.75
405.541	351.75
405.765	355.75
405.988	365.75
406.212	353.75
406.436	353.75
406.66	365.75
406.883	378.75
407.107	415.75
407.331	403.75
407.555	414.75
407.778	397.75
408.002	396.75
408.226	388.75
408.449	392.75
408.673	380.75
408.896	362.75
409.12	378.75
409.344	361.75
409.567	372.75
409.791	390.75
410.014	382.75
410.238	376.75
410.461	368.75
410.685	374.75
410.908	368.75
411.132	367.75
411.355	352.75
411.578	362.75
411.802	350.75
412.025	338.75
412.249	358.75
412.472	363.75
412.695	361.75
412.919	331.75
413.142	354.75
413.365	341.75
413.589	338.75
413.812	342.75
414.035	365.75
414.258	351.75
414.482	363.75
414.705	354.75
414.928	368.75
415.151	372.75
415.374	354.75
415.597	351.75
415.821	347.75
416.044	348.75
416.267	337.75
416.49	351.75
416.713	351.75
416.936	346.75
417.159	358.75
417.382	337.75
417.605	353.75
417.828	358.75
418.051	367.75
418.274	375.75
418.497	350.75
418.72	381.75
418.943	361.75
419.166	391.75
419.389	394.75
419.611	377.75
419.834	371.75
420.057	357.75
420.28	367.75
420.503	350.75
420.726	361.75
420.948	338.75
421.171	349.75
421.394	373.75
421.617	371.75
421.839	363.75
422.062	372.75
422.285	367.75
422.507	390.75
422.73	377.75
422.953	378.75
423.175	363.75
423.398	379.75
423.621	373.75
423.843	363.75
424.066	360.75
424.288	381.75
424.511	376.75
424.733	370.75
424.956	379.75
425.178	385.75
425.401	368.75
425.623	372.75
425.846	355.75
426.068	354.75
426.291	348.75
426.513	333.75
426.735	345.75
426.958	333.75
427.18	339.75
427.402	348.75
427.625	341.75
427.847	337.75
428.069	330.75
428.292	323.75
428.514	328.75
428.736	333.75
428.958	325.75
429.181	305.75
429.403	327.75
429.625	323.75
429.847	314.75
430.069	312.75
430.292	336.75
430.514	303.75
430.736	304.75
430.958	323.75
431.18	327.75
431.402	315.75
431.624	325.75
431.846	314.75
432.068	288.75
432.29	295.75
432.512	303.75
432.734	313.75
432.956	311.75
433.178	335.75
433.4	342.75
433.622	337.75
433.844	351.75
434.066	334.75
434.287	318.75
434.509	315.75
434.731	322.75
434.953	345.75
435.175	355.75
435.397	352.75
435.618	325.75
435.84	343.75
436.062	303.75
436.284	314.75
436.505	333.75
436.727	321.75
436.949	337.75
437.17	323.75
437.392	318.75
437.614	303.75
437.835	298.75
438.057	292.75
438.278	287.75
438.5	319.75
438.721	334.75
438.943	334.75
439.165	327.75
439.386	323.75
439.608	341.75
439.829	338.75
440.05	343.75
440.272	343.75
440.493	346.75
440.715	350.75
440.936	341.75
441.158	357.75
441.379	355.75
441.6	360.75
441.822	371.75
442.043	380.75
442.264	362.75
442.486	357.75
442.707	358.75
442.928	354.75
443.149	369.75
443.371	355.75
443.592	388.75
443.813	375.75
444.034	360.75
444.255	375.75
444.476	403.75
444.698	413.75
444.919	413.75
445.14	644.75
445.361	504.75
445.582	368.75
445.803	362.75
446.024	362.75
446.245	367.75
446.466	345.75
446.687	336.75
446.908	346.75
447.129	338.75
447.35	320.75
447.571	337.75
447.792	314.75
448.013	329.75
448.234	326.75
448.455	318.75
448.675	329.75
448.896	314.75
449.117	330.75
449.338	314.75
449.559	299.75
449.779	318.75
450	307.75
450.221	313.75
450.442	299.75
450.662	299.75
450.883	313.75
451.104	330.75
451.324	316.75
451.545	310.75
451.766	290.75
451.986	287.75
452.207	311.75
452.428	291.75
452.648	302.75
452.869	283.75
453.089	289.75
453.31	279.75
453.53	273.75
453.751	292.75
453.971	280.75
454.192	280.75
454.412	287.75
454.633	286.75
454.853	275.75
455.073	276.75
455.294	288.75
455.514	305.75
455.734	286.75
455.955	270.75
456.175	272.75
456.395	271.75
456.616	267.75
456.836	272.75
457.056	271.75
457.276	273.75
457.497	270.75
457.717	249.75
457.937	279.75
458.157	273.75
458.377	286.75
458.598	293.75
458.818	266.75
459.038	282.75
459.258	279.75
459.478	295.75
459.698	306.75
459.918	321.75
460.138	346.75
460.358	379.75
460.578	368.75
460.798	349.75
461.018	347.75
461.238	353.75
461.458	370.75
461.678	359.75
461.898	370.75
462.118	368.75
462.338	351.75
462.558	401.75
462.777	399.75
462.997	428.75
463.217	448.75
463.437	419.75
463.657	381.75
463.876	377.75
464.096	389.75
464.316	413.75
464.536	394.75
464.755	397.75
464.975	386.75
465.195	349.75
465.414	320.75
465.634	344.75
465.854	328.75
466.073	327.75
466.293	326.75
466.512	317.75
466.732	321.75
466.951	322.75
467.171	329.75
467.391	313.75
467.61	327.75
467.829	332.75
468.049	312.75
468.268	329.75
468.488	311.75
468.707	310.75
468.927	319.75
469.146	296.75
469.365	335.75
469.585	314.75
469.804	347.75
470.023	349.75
470.243	338.75
470.462	331.75
470.681	344.75
470.901	348.75
471.12	338.75
471.339	338.75
471.558	316.75
471.777	311.75
471.997	301.75
472.216	312.75
472.435	301.75
472.654	292.75
472.873	289.75
473.092	285.75
473.311	297.75
473.53	278.75
473.749	288.75
473.968	294.75
474.187	302.75
474.406	293.75
474.625	295.75
474.844	308.75
475.063	302.75
475.282	288.75
475.501	280.75
475.72	292.75
475.939	302.75
476.158	300.75
476.377	293.75
476.596	310.75
476.814	292.75
477.033	285.75
477.252	308.75
477.471	313.75
477.69	329.75
477.908	343.75
478.127	343.75
478.346	339.75
478.564	364.75
478.783	345.75
479.002	350.75
479.22	373.75
479.439	351.75
479.658	349.75
479.876	331.75
480.095	327.75
480.313	364.75
480.532	368.75
480.751	355.75
480.969	325.75
481.188	318.75
481.406	314.75
481.624	323.75
481.843	298.75
482.061	310.75
482.28	306.75
482.498	304.75
482.717	302.75
482.935	344.75
483.153	339.75
483.372	345.75
483.59	346.75
483.808	330.75
484.027	323.75
484.245	342.75
484.463	351.75
484.681	352.75
484.9	361.75
485.118	342.75
485.336	320.75
485.554	349.75
485.772	320.75
485.99	317.75
486.209	329.75
486.427	332.75
486.645	341.75
486.863	342.75
487.081	353.75
487.299	352.75
487.517	343.75
487.735	366.75
487.953	414.75
488.171	411.75
488.389	376.75
488.607	359.75
488.825	352.75
489.043	346.75
489.261	328.75
489.479	342.75
489.696	357.75
489.914	365.75
490.132	343.75
490.35	370.75
490.568	348.75
490.786	370.75
491.003	386.75
491.221	396.75
491.439	379.75
491.657	403.75
491.874	431.75
492.092	440.75
492.31	463.75
492.527	438.75
492.745	419.75
492.963	412.75
493.18	405.75
493.398	401.75
493.615	416.75
493.833	420.75
494.05	396.75
494.268	383.75
494.485	393.75
494.703	377.75
494.92	394.75
495.138	385.75
495.355	400.75
495.573	389.75
495.79	403.75
496.008	409.75
496.225	411.75
496.442	384.75
496.66	423.75
496.877	417.75
497.094	410.75
497.312	408.75
497.529	410.75
497.746	424.75
497.963	422.75
498.181	410.75
498.398	422.75
498.615	434.75
498.832	480.75
499.049	505.75
499.267	542.75
499.484	584.75
499.701	638.75
499.918	712.75
500.135	824.75
500.352	889.75
500.569	895.75
500.786	892.75
501.003	815.75
501.22	728.75
501.437	659.75
501.654	610.75
501.871	531.75
502.088	509.75
502.305	483.75
502.522	464.75
502.739	457.75
502.956	433.75
503.172	439.75
503.389	401.75
503.606	393.75
503.823	391.75
