Data from SampA_HRD10591_00008.txt Node
Date: Mon Jan 19 11:26:49 EST 2026
User: Yrep
Spectrometer: HR+D1059
Trigger mode: 0
Integration Time (sec): 3.443000E-1
Scans to average: 1
Electric dark correction enabled: true
Nonlinearity correction enabled: false
Boxcar width: 0
XAxis mode: Wavelengths
Number of Pixels in Spectrum: 2048
>>>>>Begin Spectral Data<<<<<
223.165	-20.31
223.4	-20.31
223.635	-20.31
223.869	-34.31
224.104	-24.31
224.338	-19.31
224.573	-24.31
224.808	-9.31
225.042	-4.31
225.277	7.69
225.511	0.69
225.746	21.69
225.98	1.69
226.215	0.69
226.449	22.69
226.683	20.69
226.918	27.69
227.152	32.69
227.387	46.69
227.621	43.69
227.856	39.69
228.09	47.69
228.324	51.69
228.559	51.69
228.793	67.69
229.027	66.69
229.262	73.69
229.496	75.69
229.73	71.69
229.964	72.69
230.199	63.69
230.433	85.69
230.667	82.69
230.901	75.69
231.136	76.69
231.37	85.69
231.604	87.69
231.838	71.69
232.072	95.69
232.306	78.69
232.541	82.69
232.775	92.69
233.009	88.69
233.243	81.69
233.477	86.69
233.711	94.69
233.945	87.69
234.179	71.69
234.413	96.69
234.647	80.69
234.881	88.69
235.115	78.69
235.349	88.69
235.583	84.69
235.817	88.69
236.051	72.69
236.285	76.69
236.519	74.69
236.753	92.69
236.987	88.69
237.221	84.69
237.455	74.69
237.689	80.69
237.922	87.69
238.156	64.69
238.39	72.69
238.624	75.69
238.858	99.69
239.091	82.69
239.325	76.69
239.559	76.69
239.793	71.69
240.027	88.69
240.26	74.69
240.494	87.69
240.728	100.69
240.961	81.69
241.195	71.69
241.429	78.69
241.662	67.69
241.896	86.69
242.13	86.69
242.363	96.69
242.597	92.69
242.83	85.69
243.064	75.69
243.298	86.69
243.531	64.69
243.765	86.69
243.998	87.69
244.232	95.69
244.465	71.69
244.699	65.69
244.932	87.69
245.166	83.69
245.399	83.69
245.633	97.69
245.866	94.69
246.099	80.69
246.333	84.69
246.566	71.69
246.8	71.69
247.033	76.69
247.266	86.69
247.5	86.69
247.733	80.69
247.966	89.69
248.2	73.69
248.433	77.69
248.666	88.69
248.899	90.69
249.133	100.69
249.366	86.69
249.599	92.69
249.832	89.69
250.066	90.69
250.299	61.69
250.532	87.69
250.765	93.69
250.998	83.69
251.231	97.69
251.465	92.69
251.698	86.69
251.931	100.69
252.164	84.69
252.397	86.69
252.63	93.69
252.863	82.69
253.096	88.69
253.329	88.69
253.562	72.69
253.795	87.69
254.028	93.69
254.261	82.69
254.494	91.69
254.727	92.69
254.96	97.69
255.193	87.69
255.426	88.69
255.659	77.69
255.892	103.69
256.124	91.69
256.357	83.69
256.59	82.69
256.823	78.69
257.056	72.69
257.289	91.69
257.521	90.69
257.754	95.69
257.987	93.69
258.22	75.69
258.452	80.69
258.685	91.69
258.918	94.69
259.151	88.69
259.383	88.69
259.616	77.69
259.849	86.69
260.081	91.69
260.314	80.69
260.547	102.69
260.779	91.69
261.012	93.69
261.244	92.69
261.477	93.69
261.71	87.69
261.942	96.69
262.175	76.69
262.407	79.69
262.64	102.69
262.872	94.69
263.105	86.69
263.337	96.69
263.57	88.69
263.802	87.69
264.035	94.69
264.267	96.69
264.499	81.69
264.732	91.69
264.964	81.69
265.197	94.69
265.429	102.69
265.661	92.69
265.894	93.69
266.126	100.69
266.358	82.69
266.591	77.69
266.823	82.69
267.055	93.69
267.287	91.69
267.52	74.69
267.752	84.69
267.984	93.69
268.216	87.69
268.448	93.69
268.681	107.69
268.913	92.69
269.145	83.69
269.377	115.69
269.609	70.69
269.841	105.69
270.073	86.69
270.306	94.69
270.538	97.69
270.77	69.69
271.002	86.69
271.234	94.69
271.466	100.69
271.698	90.69
271.93	86.69
272.162	96.69
272.394	98.69
272.626	94.69
272.858	95.69
273.09	84.69
273.322	101.69
273.553	80.69
273.785	103.69
274.017	94.69
274.249	95.69
274.481	80.69
274.713	87.69
274.945	84.69
275.176	80.69
275.408	97.69
275.64	103.69
275.872	94.69
276.104	108.69
276.335	100.69
276.567	85.69
276.799	92.69
277.031	93.69
277.262	96.69
277.494	101.69
277.726	98.69
277.957	105.69
278.189	101.69
278.421	102.69
278.652	72.69
278.884	100.69
279.115	108.69
279.347	90.69
279.579	94.69
279.81	90.69
280.042	94.69
280.273	91.69
280.505	92.69
280.736	86.69
280.968	119.69
281.199	77.69
281.431	103.69
281.662	99.69
281.894	100.69
282.125	93.69
282.356	111.69
282.588	91.69
282.819	108.69
283.051	85.69
283.282	110.69
283.513	111.69
283.745	104.69
283.976	101.69
284.207	104.69
284.439	92.69
284.67	103.69
284.901	105.69
285.132	94.69
285.364	97.69
285.595	110.69
285.826	95.69
286.057	112.69
286.288	103.69
286.52	98.69
286.751	100.69
286.982	119.69
287.213	100.69
287.444	112.69
287.675	105.69
287.906	118.69
288.138	106.69
288.369	95.69
288.6	102.69
288.831	100.69
289.062	100.69
289.293	96.69
289.524	94.69
289.755	96.69
289.986	99.69
290.217	105.69
290.448	97.69
290.679	101.69
290.91	96.69
291.141	103.69
291.371	116.69
291.602	96.69
291.833	96.69
292.064	96.69
292.295	80.69
292.526	101.69
292.757	107.69
292.987	103.69
293.218	106.69
293.449	100.69
293.68	104.69
293.91	99.69
294.141	110.69
294.372	104.69
294.603	103.69
294.833	95.69
295.064	111.69
295.295	108.69
295.525	123.69
295.756	101.69
295.987	119.69
296.217	98.69
296.448	94.69
296.679	111.69
296.909	95.69
297.14	97.69
297.37	103.69
297.601	106.69
297.831	93.69
298.062	122.69
298.292	106.69
298.523	105.69
298.753	111.69
298.984	100.69
299.214	96.69
299.445	102.69
299.675	99.69
299.905	101.69
300.136	102.69
300.366	113.69
300.597	109.69
300.827	112.69
301.057	108.69
301.288	104.69
301.518	94.69
301.748	91.69
301.979	136.69
302.209	90.69
302.439	112.69
302.669	100.69
302.9	101.69
303.13	103.69
303.36	109.69
303.59	86.69
303.82	94.69
304.051	108.69
304.281	109.69
304.511	114.69
304.741	114.69
304.971	105.69
305.201	104.69
305.431	93.69
305.661	110.69
305.891	110.69
306.121	107.69
306.352	108.69
306.582	113.69
306.812	111.69
307.042	101.69
307.272	104.69
307.502	106.69
307.731	109.69
307.961	102.69
308.191	91.69
308.421	109.69
308.651	103.69
308.881	100.69
309.111	108.69
309.341	93.69
309.571	104.69
309.8	110.69
310.03	95.69
310.26	111.69
310.49	93.69
310.72	99.69
310.949	103.69
311.179	114.69
311.409	97.69
311.639	107.69
311.868	108.69
312.098	107.69
312.328	107.69
312.557	111.69
312.787	110.69
313.017	110.69
313.246	101.69
313.476	123.69
313.706	94.69
313.935	113.69
314.165	107.69
314.394	116.69
314.624	104.69
314.853	112.69
315.083	109.69
315.312	117.69
315.542	96.69
315.771	99.69
316.001	104.69
316.23	119.69
316.46	103.69
316.689	105.69
316.919	106.69
317.148	107.69
317.377	109.69
317.607	106.69
317.836	107.69
318.065	110.69
318.295	115.69
318.524	103.69
318.753	93.69
318.983	105.69
319.212	92.69
319.441	108.69
319.67	114.69
319.9	101.69
320.129	101.69
320.358	93.69
320.587	108.69
320.816	112.69
321.046	102.69
321.275	95.69
321.504	122.69
321.733	101.69
321.962	111.69
322.191	118.69
322.42	113.69
322.649	110.69
322.878	117.69
323.108	102.69
323.337	109.69
323.566	112.69
323.795	122.69
324.024	105.69
324.253	87.69
324.482	106.69
324.71	106.69
324.939	111.69
325.168	112.69
325.397	91.69
325.626	119.69
325.855	106.69
326.084	104.69
326.313	112.69
326.542	121.69
326.77	118.69
326.999	107.69
327.228	101.69
327.457	111.69
327.686	117.69
327.914	106.69
328.143	106.69
328.372	128.69
328.6	110.69
328.829	103.69
329.058	107.69
329.287	115.69
329.515	101.69
329.744	100.69
329.972	104.69
330.201	114.69
330.43	93.69
330.658	120.69
330.887	104.69
331.115	109.69
331.344	119.69
331.572	114.69
331.801	118.69
332.03	105.69
332.258	104.69
332.486	113.69
332.715	121.69
332.943	125.69
333.172	110.69
333.4	123.69
333.629	127.69
333.857	119.69
334.085	114.69
334.314	115.69
334.542	124.69
334.771	115.69
334.999	117.69
335.227	109.69
335.455	135.69
335.684	132.69
335.912	110.69
336.14	133.69
336.369	121.69
336.597	103.69
336.825	114.69
337.053	118.69
337.281	115.69
337.51	112.69
337.738	123.69
337.966	103.69
338.194	115.69
338.422	100.69
338.65	117.69
338.878	119.69
339.106	115.69
339.334	111.69
339.562	103.69
339.79	104.69
340.018	101.69
340.246	89.69
340.474	106.69
340.702	100.69
340.93	98.69
341.158	104.69
341.386	101.69
341.614	91.69
341.842	105.69
342.07	97.69
342.298	106.69
342.526	120.69
342.754	95.69
342.981	103.69
343.209	113.69
343.437	139.69
343.665	109.69
343.893	113.69
344.12	126.69
344.348	114.69
344.576	110.69
344.804	108.69
345.031	104.69
345.259	103.69
345.487	106.69
345.714	111.69
345.942	102.69
346.17	104.69
346.397	102.69
346.625	114.69
346.853	108.69
347.08	104.69
347.308	98.69
347.535	102.69
347.763	116.69
347.99	122.69
348.218	121.69
348.445	99.69
348.673	105.69
348.9	97.69
349.128	106.69
349.355	109.69
349.583	104.69
349.81	101.69
350.037	98.69
350.265	100.69
350.492	109.69
350.72	107.69
350.947	102.69
351.174	119.69
351.402	112.69
351.629	99.69
351.856	108.69
352.083	103.69
352.311	120.69
352.538	107.69
352.765	121.69
352.992	126.69
353.22	101.69
353.447	112.69
353.674	104.69
353.901	113.69
354.128	102.69
354.355	97.69
354.583	109.69
354.81	111.69
355.037	101.69
355.264	115.69
355.491	96.69
355.718	95.69
355.945	96.69
356.172	101.69
356.399	91.69
356.626	118.69
356.853	105.69
357.08	98.69
357.307	103.69
357.534	105.69
357.761	107.69
357.988	107.69
358.215	111.69
358.441	110.69
358.668	111.69
358.895	95.69
359.122	112.69
359.349	105.69
359.576	115.69
359.802	107.69
360.029	103.69
360.256	125.69
360.483	86.69
360.709	105.69
360.936	121.69
361.163	108.69
361.39	107.69
361.616	110.69
361.843	109.69
362.07	117.69
362.296	121.69
362.523	110.69
362.749	99.69
362.976	96.69
363.203	101.69
363.429	98.69
363.656	112.69
363.882	102.69
364.109	112.69
364.335	110.69
364.562	103.69
364.788	97.69
365.015	109.69
365.241	116.69
365.468	110.69
365.694	91.69
365.92	111.69
366.147	109.69
366.373	112.69
366.599	112.69
366.826	117.69
367.052	115.69
367.278	110.69
367.505	115.69
367.731	102.69
367.957	115.69
368.184	109.69
368.41	116.69
368.636	107.69
368.862	121.69
369.089	108.69
369.315	107.69
369.541	118.69
369.767	110.69
369.993	124.69
370.219	102.69
370.445	108.69
370.672	114.69
370.898	104.69
371.124	97.69
371.35	105.69
371.576	111.69
371.802	101.69
372.028	97.69
372.254	125.69
372.48	104.69
372.706	100.69
372.932	107.69
373.158	115.69
373.384	104.69
373.61	120.69
373.835	123.69
374.061	112.69
374.287	109.69
374.513	121.69
374.739	106.69
374.965	115.69
375.191	113.69
375.416	113.69
375.642	117.69
375.868	131.69
376.094	111.69
376.319	105.69
376.545	103.69
376.771	86.69
376.997	102.69
377.222	118.69
377.448	122.69
377.674	110.69
377.899	110.69
378.125	99.69
378.35	106.69
378.576	107.69
378.802	96.69
379.027	114.69
379.253	112.69
379.478	108.69
379.704	107.69
379.929	111.69
380.155	111.69
380.38	118.69
380.606	108.69
380.831	123.69
381.057	127.69
381.282	114.69
381.507	124.69
381.733	122.69
381.958	124.69
382.184	105.69
382.409	102.69
382.634	126.69
382.86	124.69
383.085	124.69
383.31	116.69
383.535	101.69
383.761	119.69
383.986	129.69
384.211	125.69
384.436	131.69
384.662	115.69
384.887	112.69
385.112	104.69
385.337	136.69
385.562	121.69
385.787	119.69
386.013	120.69
386.238	113.69
386.463	115.69
386.688	150.69
386.913	112.69
387.138	128.69
387.363	102.69
387.588	125.69
387.813	127.69
388.038	128.69
388.263	126.69
388.488	110.69
388.713	113.69
388.938	120.69
389.163	122.69
389.387	137.69
389.612	124.69
389.837	119.69
390.062	120.69
390.287	114.69
390.512	119.69
390.736	111.69
390.961	131.69
391.186	144.69
391.411	106.69
391.636	142.69
391.86	131.69
392.085	124.69
392.31	120.69
392.534	136.69
392.759	133.69
392.984	116.69
393.208	125.69
393.433	131.69
393.658	121.69
393.882	134.69
394.107	133.69
394.331	121.69
394.556	129.69
394.78	123.69
395.005	135.69
395.229	139.69
395.454	134.69
395.678	128.69
395.903	117.69
396.127	142.69
396.352	139.69
396.576	134.69
396.801	137.69
397.025	118.69
397.249	136.69
397.474	131.69
397.698	139.69
397.922	145.69
398.147	127.69
398.371	147.69
398.595	148.69
398.82	156.69
399.044	135.69
399.268	156.69
399.492	192.69
399.717	181.69
399.941	171.69
400.165	153.69
400.389	133.69
400.613	147.69
400.837	159.69
401.062	145.69
401.286	147.69
401.51	141.69
401.734	132.69
401.958	146.69
402.182	150.69
402.406	159.69
402.63	153.69
402.854	153.69
403.078	153.69
403.302	155.69
403.526	162.69
403.75	163.69
403.974	150.69
404.198	177.69
404.422	160.69
404.645	166.69
404.869	167.69
405.093	167.69
405.317	161.69
405.541	183.69
405.765	164.69
405.988	183.69
406.212	169.69
406.436	171.69
406.66	167.69
406.883	175.69
407.107	170.69
407.331	165.69
407.555	174.69
407.778	164.69
408.002	182.69
408.226	173.69
408.449	176.69
408.673	171.69
408.896	185.69
409.12	188.69
409.344	177.69
409.567	167.69
409.791	174.69
410.014	172.69
410.238	158.69
410.461	179.69
410.685	161.69
410.908	171.69
411.132	161.69
411.355	156.69
411.578	165.69
411.802	178.69
412.025	161.69
412.249	159.69
412.472	162.69
412.695	157.69
412.919	159.69
413.142	178.69
413.365	179.69
413.589	165.69
413.812	176.69
414.035	172.69
414.258	165.69
414.482	176.69
414.705	175.69
414.928	173.69
415.151	155.69
415.374	152.69
415.597	170.69
415.821	165.69
416.044	174.69
416.267	161.69
416.49	160.69
416.713	158.69
416.936	173.69
417.159	173.69
417.382	180.69
417.605	164.69
417.828	180.69
418.051	176.69
418.274	176.69
418.497	172.69
418.72	169.69
418.943	179.69
419.166	183.69
419.389	168.69
419.611	179.69
419.834	172.69
420.057	171.69
420.28	175.69
420.503	179.69
420.726	160.69
420.948	162.69
421.171	184.69
421.394	167.69
421.617	174.69
421.839	172.69
422.062	177.69
422.285	161.69
422.507	175.69
422.73	171.69
422.953	167.69
423.175	180.69
423.398	156.69
423.621	183.69
423.843	169.69
424.066	178.69
424.288	185.69
424.511	178.69
424.733	186.69
424.956	189.69
425.178	182.69
425.401	174.69
425.623	161.69
425.846	152.69
426.068	161.69
426.291	155.69
426.513	170.69
426.735	159.69
426.958	169.69
427.18	169.69
427.402	172.69
427.625	169.69
427.847	166.69
428.069	163.69
428.292	172.69
428.514	172.69
428.736	157.69
428.958	149.69
429.181	168.69
429.403	165.69
429.625	161.69
429.847	161.69
430.069	168.69
430.292	176.69
430.514	157.69
430.736	153.69
430.958	185.69
431.18	155.69
431.402	163.69
431.624	160.69
431.846	142.69
432.068	157.69
432.29	148.69
432.512	166.69
432.734	167.69
432.956	171.69
433.178	179.69
433.4	166.69
433.622	168.69
433.844	160.69
434.066	151.69
434.287	158.69
434.509	149.69
434.731	157.69
434.953	153.69
435.175	163.69
435.397	188.69
435.618	158.69
435.84	177.69
436.062	151.69
436.284	162.69
436.505	151.69
436.727	180.69
436.949	167.69
437.17	159.69
437.392	165.69
437.614	160.69
437.835	142.69
438.057	133.69
438.278	161.69
438.5	171.69
438.721	156.69
438.943	173.69
439.165	174.69
439.386	172.69
439.608	185.69
439.829	178.69
440.05	177.69
440.272	190.69
440.493	177.69
440.715	171.69
440.936	155.69
441.158	173.69
441.379	174.69
441.6	172.69
441.822	184.69
442.043	187.69
442.264	173.69
442.486	180.69
442.707	170.69
442.928	192.69
443.149	176.69
443.371	178.69
443.592	171.69
443.813	173.69
444.034	177.69
444.255	177.69
444.476	185.69
444.698	192.69
444.919	205.69
445.14	377.69
445.361	279.69
445.582	186.69
445.803	183.69
446.024	168.69
446.245	184.69
446.466	184.69
446.687	176.69
446.908	177.69
447.129	182.69
447.35	174.69
447.571	179.69
447.792	159.69
448.013	153.69
448.234	180.69
448.455	164.69
448.675	165.69
448.896	168.69
449.117	187.69
449.338	145.69
449.559	165.69
449.779	157.69
450	160.69
450.221	157.69
450.442	164.69
450.662	162.69
450.883	165.69
451.104	172.69
451.324	159.69
451.545	166.69
451.766	154.69
451.986	161.69
452.207	153.69
452.428	140.69
452.648	153.69
452.869	155.69
453.089	147.69
453.31	145.69
453.53	146.69
453.751	137.69
453.971	147.69
454.192	140.69
454.412	143.69
454.633	145.69
454.853	156.69
455.073	155.69
455.294	136.69
455.514	151.69
455.734	161.69
455.955	160.69
456.175	137.69
456.395	138.69
456.616	143.69
456.836	155.69
457.056	140.69
457.276	137.69
457.497	144.69
457.717	143.69
457.937	162.69
458.157	147.69
458.377	150.69
458.598	148.69
458.818	139.69
459.038	136.69
459.258	139.69
459.478	156.69
459.698	152.69
459.918	158.69
460.138	159.69
460.358	176.69
460.578	162.69
460.798	158.69
461.018	173.69
461.238	175.69
461.458	166.69
461.678	173.69
461.898	179.69
462.118	167.69
462.338	164.69
462.558	168.69
462.777	176.69
462.997	189.69
463.217	193.69
463.437	192.69
463.657	183.69
463.876	183.69
464.096	179.69
464.316	179.69
464.536	163.69
464.755	181.69
464.975	172.69
465.195	169.69
465.414	160.69
465.634	163.69
465.854	153.69
466.073	151.69
466.293	144.69
466.512	166.69
466.732	152.69
466.951	163.69
467.171	165.69
467.391	143.69
467.61	169.69
467.829	169.69
468.049	151.69
468.268	159.69
468.488	151.69
468.707	174.69
468.927	152.69
469.146	148.69
469.365	165.69
469.585	170.69
469.804	170.69
470.023	155.69
470.243	167.69
470.462	174.69
470.681	161.69
470.901	165.69
471.12	161.69
471.339	165.69
471.558	149.69
471.777	156.69
471.997	156.69
472.216	164.69
472.435	137.69
472.654	144.69
472.873	149.69
473.092	145.69
473.311	143.69
473.53	143.69
473.749	165.69
473.968	160.69
474.187	150.69
474.406	145.69
474.625	146.69
474.844	145.69
475.063	139.69
475.282	142.69
475.501	157.69
475.72	167.69
475.939	154.69
476.158	157.69
476.377	152.69
476.596	143.69
476.814	144.69
477.033	155.69
477.252	162.69
477.471	159.69
477.69	170.69
477.908	172.69
478.127	171.69
478.346	184.69
478.564	152.69
478.783	159.69
479.002	179.69
479.22	167.69
479.439	177.69
479.658	167.69
479.876	165.69
480.095	159.69
480.313	188.69
480.532	174.69
480.751	180.69
480.969	176.69
481.188	164.69
481.406	156.69
481.624	151.69
481.843	148.69
482.061	153.69
482.28	154.69
482.498	151.69
482.717	135.69
482.935	161.69
483.153	169.69
483.372	172.69
483.59	173.69
483.808	193.69
484.027	166.69
484.245	172.69
484.463	174.69
484.681	175.69
484.9	174.69
485.118	182.69
485.336	168.69
485.554	167.69
485.772	147.69
485.99	142.69
486.209	161.69
486.427	152.69
486.645	156.69
486.863	176.69
487.081	167.69
487.299	166.69
487.517	169.69
487.735	190.69
487.953	188.69
488.171	187.69
488.389	168.69
488.607	178.69
488.825	172.69
489.043	164.69
489.261	175.69
489.479	183.69
489.696	164.69
489.914	158.69
490.132	179.69
490.35	197.69
490.568	177.69
490.786	188.69
491.003	200.69
491.221	207.69
491.439	195.69
491.657	203.69
491.874	216.69
492.092	202.69
492.31	233.69
492.527	228.69
492.745	202.69
492.963	198.69
493.18	206.69
493.398	206.69
493.615	200.69
493.833	197.69
494.05	202.69
494.268	181.69
494.485	204.69
494.703	195.69
494.92	205.69
495.138	196.69
495.355	189.69
495.573	188.69
495.79	193.69
496.008	197.69
496.225	183.69
496.442	189.69
496.66	203.69
496.877	201.69
497.094	211.69
497.312	183.69
497.529	192.69
497.746	195.69
497.963	200.69
498.181	185.69
498.398	198.69
498.615	216.69
498.832	223.69
499.049	225.69
499.267	235.69
499.484	243.69
499.701	267.69
499.918	305.69
500.135	310.69
500.352	343.69
500.569	361.69
500.786	340.69
501.003	321.69
501.22	278.69
501.437	292.69
501.654	248.69
501.871	209.69
502.088	217.69
502.305	214.69
502.522	217.69
502.739	204.69
502.956	202.69
503.172	164.69
503.389	173.69
503.606	181.69
503.823	199.69
504.04	196.69
504.256	185.69
504.473	171.69
504.69	177.69
504.907	186.69
505.123	186.69
505.34	175.69
505.557	171.69
505.773	172.69
505.99	175.69
506.207	159.69
506.423	165.69
506.64	155.69
