Data from SampA_HRD10591_00001.txt Node
Date: Mon Jan 19 11:26:46 EST 2026
User: Yrep
Spectrometer: HR+D1059
Trigger mode: 0
Integration Time (sec): 3.443000E-1
Scans to average: 1
Electric dark correction enabled: true
Nonlinearity correction enabled: false
Boxcar width: 0
XAxis mode: Wavelengths
Number of Pixels in Spectrum: 2048
>>>>>Begin Spectral Data<<<<<
223.165	-15.38
223.4	-15.38
223.635	-15.38
223.869	-26.38
224.104	-10.38
224.338	-23.38
224.573	-31.38
224.808	-5.38
225.042	5.62
225.277	-22.38
225.511	-10.38
225.746	17.62
225.98	10.62
226.215	17.62
226.449	22.62
226.683	13.62
226.918	38.62
227.152	18.62
227.387	38.62
227.621	36.62
227.856	54.62
228.09	33.62
228.324	49.62
228.559	63.62
228.793	65.62
229.027	69.62
229.262	75.62
229.496	73.62
229.73	63.62
229.964	87.62
230.199	77.62
230.433	87.62
230.667	85.62
230.901	85.62
231.136	73.62
231.37	91.62
231.604	82.62
231.838	78.62
232.072	86.62
232.306	83.62
232.541	96.62
232.775	91.62
233.009	79.62
233.243	93.62
233.477	90.62
233.711	86.62
233.945	98.62
234.179	102.62
234.413	85.62
234.647	96.62
234.881	78.62
235.115	73.62
235.349	79.62
235.583	87.62
235.817	96.62
236.051	91.62
236.285	87.62
236.519	83.62
236.753	71.62
236.987	94.62
237.221	83.62
237.455	91.62
237.689	88.62
237.922	89.62
238.156	87.62
238.39	95.62
238.624	89.62
238.858	81.62
239.091	75.62
239.325	83.62
239.559	84.62
239.793	87.62
240.027	85.62
240.26	74.62
240.494	84.62
240.728	88.62
240.961	73.62
241.195	99.62
241.429	85.62
241.662	91.62
241.896	83.62
242.13	90.62
242.363	84.62
242.597	73.62
242.83	88.62
243.064	95.62
243.298	83.62
243.531	80.62
243.765	88.62
243.998	88.62
244.232	90.62
244.465	98.62
244.699	98.62
244.932	86.62
245.166	85.62
245.399	90.62
245.633	84.62
245.866	86.62
246.099	83.62
246.333	79.62
246.566	75.62
246.8	75.62
247.033	84.62
247.266	95.62
247.5	99.62
247.733	105.62
247.966	101.62
248.2	87.62
248.433	98.62
248.666	90.62
248.899	97.62
249.133	96.62
249.366	105.62
249.599	105.62
249.832	102.62
250.066	109.62
250.299	92.62
250.532	107.62
250.765	93.62
250.998	89.62
251.231	82.62
251.465	93.62
251.698	84.62
251.931	80.62
252.164	101.62
252.397	98.62
252.63	109.62
252.863	97.62
253.096	106.62
253.329	95.62
253.562	78.62
253.795	94.62
254.028	117.62
254.261	90.62
254.494	105.62
254.727	92.62
254.96	85.62
255.193	97.62
255.426	96.62
255.659	94.62
255.892	104.62
256.124	95.62
256.357	99.62
256.59	92.62
256.823	95.62
257.056	94.62
257.289	86.62
257.521	107.62
257.754	87.62
257.987	89.62
258.22	88.62
258.452	97.62
258.685	85.62
258.918	93.62
259.151	90.62
259.383	91.62
259.616	98.62
259.849	99.62
260.081	93.62
260.314	92.62
260.547	98.62
260.779	110.62
261.012	109.62
261.244	94.62
261.477	110.62
261.71	90.62
261.942	104.62
262.175	107.62
262.407	99.62
262.64	85.62
262.872	113.62
263.105	98.62
263.337	106.62
263.57	105.62
263.802	109.62
264.035	103.62
264.267	96.62
264.499	94.62
264.732	102.62
264.964	102.62
265.197	109.62
265.429	89.62
265.661	105.62
265.894	123.62
266.126	121.62
266.358	97.62
266.591	95.62
266.823	100.62
267.055	111.62
267.287	102.62
267.52	97.62
267.752	98.62
267.984	103.62
268.216	125.62
268.448	114.62
268.681	106.62
268.913	102.62
269.145	98.62
269.377	102.62
269.609	112.62
269.841	118.62
270.073	118.62
270.306	120.62
270.538	111.62
270.77	107.62
271.002	115.62
271.234	105.62
271.466	111.62
271.698	96.62
271.93	122.62
272.162	113.62
272.394	106.62
272.626	105.62
272.858	99.62
273.09	112.62
273.322	109.62
273.553	97.62
273.785	107.62
274.017	95.62
274.249	108.62
274.481	119.62
274.713	114.62
274.945	111.62
275.176	118.62
275.408	113.62
275.64	128.62
275.872	113.62
276.104	106.62
276.335	110.62
276.567	121.62
276.799	108.62
277.031	96.62
277.262	102.62
277.494	120.62
277.726	121.62
277.957	120.62
278.189	105.62
278.421	107.62
278.652	114.62
278.884	106.62
279.115	109.62
279.347	118.62
279.579	113.62
279.81	116.62
280.042	123.62
280.273	108.62
280.505	114.62
280.736	119.62
280.968	122.62
281.199	111.62
281.431	117.62
281.662	122.62
281.894	107.62
282.125	133.62
282.356	117.62
282.588	129.62
282.819	125.62
283.051	123.62
283.282	111.62
283.513	141.62
283.745	127.62
283.976	125.62
284.207	115.62
284.439	123.62
284.67	108.62
284.901	108.62
285.132	116.62
285.364	132.62
285.595	122.62
285.826	113.62
286.057	121.62
286.288	124.62
286.52	125.62
286.751	119.62
286.982	120.62
287.213	125.62
287.444	132.62
287.675	122.62
287.906	124.62
288.138	105.62
288.369	113.62
288.6	128.62
288.831	110.62
289.062	126.62
289.293	114.62
289.524	109.62
289.755	118.62
289.986	124.62
290.217	114.62
290.448	127.62
290.679	121.62
290.91	120.62
291.141	127.62
291.371	129.62
291.602	108.62
291.833	110.62
292.064	124.62
292.295	125.62
292.526	120.62
292.757	121.62
292.987	121.62
293.218	139.62
293.449	117.62
293.68	115.62
293.91	115.62
294.141	138.62
294.372	125.62
294.603	130.62
294.833	117.62
295.064	106.62
295.295	116.62
295.525	121.62
295.756	123.62
295.987	124.62
296.217	119.62
296.448	132.62
296.679	124.62
296.909	120.62
297.14	119.62
297.37	125.62
297.601	120.62
297.831	114.62
298.062	118.62
298.292	132.62
298.523	147.62
298.753	135.62
298.984	122.62
299.214	123.62
299.445	122.62
299.675	121.62
299.905	122.62
300.136	133.62
300.366	117.62
300.597	114.62
300.827	121.62
301.057	119.62
301.288	132.62
301.518	121.62
301.748	127.62
301.979	163.62
302.209	129.62
302.439	141.62
302.669	125.62
302.9	114.62
303.13	112.62
303.36	115.62
303.59	127.62
303.82	137.62
304.051	142.62
304.281	139.62
304.511	142.62
304.741	137.62
304.971	128.62
305.201	121.62
305.431	113.62
305.661	137.62
305.891	108.62
306.121	133.62
306.352	127.62
306.582	119.62
306.812	128.62
307.042	124.62
307.272	124.62
307.502	117.62
307.731	128.62
307.961	117.62
308.191	130.62
308.421	128.62
308.651	127.62
308.881	139.62
309.111	129.62
309.341	124.62
309.571	127.62
309.8	119.62
310.03	123.62
310.26	129.62
310.49	129.62
310.72	126.62
310.949	122.62
311.179	128.62
311.409	129.62
311.639	129.62
311.868	120.62
312.098	139.62
312.328	127.62
312.557	128.62
312.787	125.62
313.017	128.62
313.246	142.62
313.476	136.62
313.706	128.62
313.935	127.62
314.165	124.62
314.394	130.62
314.624	118.62
314.853	124.62
315.083	126.62
315.312	121.62
315.542	130.62
315.771	131.62
316.001	120.62
316.23	141.62
316.46	144.62
316.689	135.62
316.919	134.62
317.148	125.62
317.377	127.62
317.607	134.62
317.836	131.62
318.065	122.62
318.295	119.62
318.524	122.62
318.753	124.62
318.983	124.62
319.212	125.62
319.441	145.62
319.67	123.62
319.9	135.62
320.129	139.62
320.358	125.62
320.587	143.62
320.816	130.62
321.046	137.62
321.275	145.62
321.504	142.62
321.733	123.62
321.962	133.62
322.191	137.62
322.42	136.62
322.649	145.62
322.878	130.62
323.108	143.62
323.337	142.62
323.566	155.62
323.795	137.62
324.024	128.62
324.253	130.62
324.482	136.62
324.71	140.62
324.939	141.62
325.168	149.62
325.397	137.62
325.626	118.62
325.855	135.62
326.084	135.62
326.313	148.62
326.542	127.62
326.77	147.62
326.999	126.62
327.228	129.62
327.457	140.62
327.686	147.62
327.914	146.62
328.143	145.62
328.372	135.62
328.6	131.62
328.829	128.62
329.058	123.62
329.287	138.62
329.515	140.62
329.744	134.62
329.972	143.62
330.201	142.62
330.43	124.62
330.658	124.62
330.887	137.62
331.115	127.62
331.344	143.62
331.572	143.62
331.801	139.62
332.03	137.62
332.258	136.62
332.486	149.62
332.715	151.62
332.943	139.62
333.172	146.62
333.4	154.62
333.629	170.62
333.857	142.62
334.085	175.62
334.314	155.62
334.542	153.62
334.771	163.62
334.999	142.62
335.227	147.62
335.455	156.62
335.684	160.62
335.912	155.62
336.14	147.62
336.369	154.62
336.597	150.62
336.825	164.62
337.053	155.62
337.281	140.62
337.51	134.62
337.738	154.62
337.966	131.62
338.194	153.62
338.422	134.62
338.65	152.62
338.878	156.62
339.106	145.62
339.334	146.62
339.562	145.62
339.79	122.62
340.018	136.62
340.246	122.62
340.474	162.62
340.702	153.62
340.93	139.62
341.158	141.62
341.386	151.62
341.614	142.62
341.842	134.62
342.07	136.62
342.298	145.62
342.526	143.62
342.754	138.62
342.981	153.62
343.209	145.62
343.437	163.62
343.665	153.62
343.893	146.62
344.12	147.62
344.348	143.62
344.576	150.62
344.804	151.62
345.031	146.62
345.259	146.62
345.487	134.62
345.714	123.62
345.942	136.62
346.17	135.62
346.397	133.62
346.625	144.62
346.853	155.62
347.08	133.62
347.308	153.62
347.535	122.62
347.763	137.62
347.99	138.62
348.218	145.62
348.445	135.62
348.673	122.62
348.9	133.62
349.128	129.62
349.355	126.62
349.583	141.62
349.81	128.62
350.037	125.62
350.265	151.62
350.492	132.62
350.72	127.62
350.947	136.62
351.174	130.62
351.402	147.62
351.629	125.62
351.856	151.62
352.083	120.62
352.311	137.62
352.538	149.62
352.765	142.62
352.992	140.62
353.22	131.62
353.447	139.62
353.674	142.62
353.901	129.62
354.128	128.62
354.355	126.62
354.583	124.62
354.81	145.62
355.037	151.62
355.264	148.62
355.491	138.62
355.718	135.62
355.945	137.62
356.172	134.62
356.399	138.62
356.626	142.62
356.853	133.62
357.08	127.62
357.307	131.62
357.534	150.62
357.761	137.62
357.988	144.62
358.215	149.62
358.441	141.62
358.668	129.62
358.895	141.62
359.122	122.62
359.349	129.62
359.576	144.62
359.802	117.62
360.029	130.62
360.256	126.62
360.483	131.62
360.709	133.62
360.936	164.62
361.163	131.62
361.39	113.62
361.616	151.62
361.843	130.62
362.07	137.62
362.296	133.62
362.523	135.62
362.749	135.62
362.976	131.62
363.203	140.62
363.429	137.62
363.656	135.62
363.882	122.62
364.109	149.62
364.335	147.62
364.562	138.62
364.788	128.62
365.015	131.62
365.241	138.62
365.468	137.62
365.694	114.62
365.92	129.62
366.147	138.62
366.373	134.62
366.599	138.62
366.826	140.62
367.052	127.62
367.278	138.62
367.505	120.62
367.731	160.62
367.957	128.62
368.184	130.62
368.41	128.62
368.636	146.62
368.862	137.62
369.089	143.62
369.315	117.62
369.541	148.62
369.767	147.62
369.993	147.62
370.219	131.62
370.445	141.62
370.672	142.62
370.898	138.62
371.124	153.62
371.35	127.62
371.576	136.62
371.802	130.62
372.028	149.62
372.254	146.62
372.48	140.62
372.706	150.62
372.932	155.62
373.158	145.62
373.384	161.62
373.61	154.62
373.835	152.62
374.061	150.62
374.287	150.62
374.513	128.62
374.739	159.62
374.965	161.62
375.191	153.62
375.416	159.62
375.642	134.62
375.868	165.62
376.094	149.62
376.319	147.62
376.545	130.62
376.771	160.62
376.997	149.62
377.222	149.62
377.448	137.62
377.674	146.62
377.899	157.62
378.125	142.62
378.35	148.62
378.576	150.62
378.802	152.62
379.027	134.62
379.253	134.62
379.478	155.62
379.704	157.62
379.929	145.62
380.155	131.62
380.38	143.62
380.606	131.62
380.831	142.62
381.057	167.62
381.282	140.62
381.507	140.62
381.733	146.62
381.958	146.62
382.184	143.62
382.409	157.62
382.634	152.62
382.86	129.62
383.085	149.62
383.31	139.62
383.535	170.62
383.761	163.62
383.986	149.62
384.211	151.62
384.436	175.62
384.662	168.62
384.887	163.62
385.112	161.62
385.337	144.62
385.562	166.62
385.787	168.62
386.013	156.62
386.238	169.62
386.463	162.62
386.688	178.62
386.913	177.62
387.138	162.62
387.363	178.62
387.588	163.62
387.813	171.62
388.038	161.62
388.263	167.62
388.488	177.62
388.713	181.62
388.938	169.62
389.163	163.62
389.387	185.62
389.612	158.62
389.837	147.62
390.062	180.62
390.287	151.62
390.512	161.62
390.736	164.62
390.961	176.62
391.186	188.62
391.411	157.62
391.636	178.62
391.86	183.62
392.085	190.62
392.31	183.62
392.534	180.62
392.759	193.62
392.984	182.62
393.208	181.62
393.433	188.62
393.658	191.62
393.882	198.62
394.107	193.62
394.331	190.62
394.556	187.62
394.78	184.62
395.005	201.62
395.229	189.62
395.454	202.62
395.678	194.62
395.903	203.62
396.127	195.62
396.352	183.62
396.576	193.62
396.801	191.62
397.025	189.62
397.249	207.62
397.474	209.62
397.698	204.62
397.922	206.62
398.147	200.62
398.371	208.62
398.595	226.62
398.82	218.62
399.044	227.62
399.268	245.62
399.492	277.62
399.717	281.62
399.941	281.62
400.165	271.62
400.389	234.62
400.613	235.62
400.837	240.62
401.062	237.62
401.286	207.62
401.51	226.62
401.734	220.62
401.958	239.62
402.182	234.62
402.406	227.62
402.63	233.62
402.854	238.62
403.078	247.62
403.302	231.62
403.526	249.62
403.75	259.62
403.974	252.62
404.198	247.62
404.422	257.62
404.645	244.62
404.869	241.62
405.093	253.62
405.317	260.62
405.541	252.62
405.765	249.62
405.988	253.62
406.212	268.62
406.436	241.62
406.66	252.62
406.883	274.62
407.107	269.62
407.331	276.62
407.555	284.62
407.778	297.62
408.002	294.62
408.226	297.62
408.449	266.62
408.673	271.62
408.896	269.62
409.12	265.62
409.344	268.62
409.567	280.62
409.791	267.62
410.014	285.62
410.238	275.62
410.461	254.62
410.685	259.62
410.908	257.62
411.132	273.62
411.355	254.62
411.578	267.62
411.802	255.62
412.025	252.62
412.249	276.62
412.472	261.62
412.695	243.62
412.919	245.62
413.142	257.62
413.365	258.62
413.589	264.62
413.812	269.62
414.035	264.62
414.258	263.62
414.482	247.62
414.705	243.62
414.928	253.62
415.151	261.62
415.374	269.62
415.597	263.62
415.821	257.62
416.044	269.62
416.267	263.62
416.49	255.62
416.713	245.62
416.936	266.62
417.159	250.62
417.382	257.62
417.605	241.62
417.828	257.62
418.051	258.62
418.274	252.62
418.497	262.62
418.72	261.62
418.943	273.62
419.166	287.62
419.389	282.62
419.611	275.62
419.834	291.62
420.057	279.62
420.28	276.62
420.503	257.62
420.726	257.62
420.948	253.62
421.171	261.62
421.394	282.62
421.617	262.62
421.839	294.62
422.062	275.62
422.285	269.62
422.507	268.62
422.73	278.62
422.953	265.62
423.175	280.62
423.398	280.62
423.621	274.62
423.843	275.62
424.066	287.62
424.288	290.62
424.511	281.62
424.733	291.62
424.956	275.62
425.178	275.62
425.401	273.62
425.623	273.62
425.846	258.62
426.068	265.62
426.291	258.62
426.513	248.62
426.735	262.62
426.958	255.62
427.18	244.62
427.402	257.62
427.625	251.62
427.847	232.62
428.069	252.62
428.292	238.62
428.514	261.62
428.736	228.62
428.958	264.62
429.181	242.62
429.403	256.62
429.625	239.62
429.847	243.62
430.069	241.62
430.292	243.62
430.514	238.62
430.736	252.62
430.958	246.62
431.18	229.62
431.402	253.62
431.624	240.62
431.846	230.62
432.068	221.62
432.29	208.62
432.512	225.62
432.734	252.62
432.956	248.62
433.178	262.62
433.4	263.62
433.622	250.62
433.844	253.62
434.066	245.62
434.287	226.62
434.509	227.62
434.731	218.62
434.953	267.62
435.175	248.62
435.397	251.62
435.618	225.62
435.84	219.62
436.062	232.62
436.284	227.62
436.505	228.62
436.727	238.62
436.949	249.62
437.17	261.62
437.392	237.62
437.614	224.62
437.835	211.62
438.057	205.62
438.278	235.62
438.5	236.62
438.721	265.62
438.943	246.62
439.165	248.62
439.386	251.62
439.608	242.62
439.829	240.62
440.05	278.62
440.272	273.62
440.493	267.62
440.715	266.62
440.936	267.62
441.158	252.62
441.379	268.62
441.6	269.62
441.822	270.62
442.043	278.62
442.264	278.62
442.486	257.62
442.707	258.62
442.928	283.62
443.149	264.62
443.371	300.62
443.592	277.62
443.813	274.62
444.034	287.62
444.255	302.62
444.476	285.62
444.698	304.62
444.919	302.62
445.14	487.62
445.361	373.62
445.582	286.62
445.803	262.62
446.024	266.62
446.245	274.62
446.466	261.62
446.687	290.62
446.908	263.62
447.129	273.62
447.35	266.62
447.571	267.62
447.792	259.62
448.013	260.62
448.234	244.62
448.455	237.62
448.675	253.62
448.896	258.62
449.117	253.62
449.338	248.62
449.559	251.62
449.779	234.62
450	254.62
450.221	246.62
450.442	231.62
450.662	247.62
450.883	238.62
451.104	232.62
451.324	242.62
451.545	245.62
451.766	237.62
451.986	223.62
452.207	235.62
452.428	231.62
452.648	234.62
452.869	219.62
453.089	214.62
453.31	217.62
453.53	221.62
453.751	217.62
453.971	209.62
454.192	208.62
454.412	210.62
454.633	227.62
454.853	234.62
455.073	221.62
455.294	217.62
455.514	233.62
455.734	207.62
455.955	213.62
456.175	213.62
456.395	206.62
456.616	206.62
456.836	210.62
457.056	205.62
457.276	214.62
457.497	206.62
457.717	198.62
457.937	209.62
458.157	204.62
458.377	213.62
458.598	197.62
458.818	213.62
459.038	201.62
459.258	201.62
459.478	207.62
459.698	208.62
459.918	218.62
460.138	246.62
460.358	253.62
460.578	252.62
460.798	256.62
461.018	255.62
461.238	264.62
461.458	272.62
461.678	268.62
461.898	256.62
462.118	273.62
462.338	271.62
462.558	296.62
462.777	297.62
462.997	312.62
463.217	293.62
463.437	291.62
463.657	274.62
463.876	287.62
464.096	293.62
464.316	295.62
464.536	275.62
464.755	276.62
464.975	283.62
465.195	247.62
465.414	243.62
465.634	241.62
465.854	234.62
466.073	229.62
466.293	234.62
466.512	233.62
466.732	240.62
466.951	248.62
467.171	246.62
467.391	247.62
467.61	244.62
467.829	226.62
468.049	224.62
468.268	233.62
468.488	230.62
468.707	255.62
468.927	245.62
469.146	242.62
469.365	246.62
469.585	235.62
469.804	251.62
470.023	233.62
470.243	252.62
470.462	257.62
470.681	275.62
470.901	257.62
471.12	257.62
471.339	241.62
471.558	230.62
471.777	245.62
471.997	220.62
472.216	239.62
472.435	218.62
472.654	222.62
472.873	225.62
473.092	227.62
473.311	234.62
473.53	227.62
473.749	233.62
473.968	231.62
474.187	237.62
474.406	222.62
474.625	233.62
474.844	239.62
475.063	237.62
475.282	223.62
475.501	222.62
475.72	225.62
475.939	226.62
476.158	241.62
476.377	244.62
476.596	231.62
476.814	208.62
477.033	212.62
477.252	226.62
477.471	218.62
477.69	242.62
477.908	275.62
478.127	271.62
478.346	272.62
478.564	270.62
478.783	258.62
479.002	269.62
479.22	261.62
479.439	268.62
479.658	253.62
479.876	249.62
480.095	250.62
480.313	258.62
480.532	270.62
480.751	246.62
480.969	226.62
481.188	234.62
481.406	231.62
481.624	225.62
481.843	214.62
482.061	224.62
482.28	225.62
482.498	240.62
482.717	224.62
482.935	247.62
483.153	270.62
483.372	253.62
483.59	268.62
483.808	267.62
484.027	238.62
484.245	264.62
484.463	244.62
484.681	289.62
484.9	263.62
485.118	263.62
485.336	252.62
485.554	221.62
485.772	244.62
485.99	237.62
486.209	237.62
486.427	243.62
486.645	250.62
486.863	258.62
487.081	279.62
487.299	273.62
487.517	267.62
487.735	282.62
487.953	297.62
488.171	295.62
488.389	280.62
488.607	261.62
488.825	269.62
489.043	262.62
489.261	254.62
489.479	258.62
489.696	258.62
489.914	242.62
490.132	271.62
490.35	267.62
490.568	285.62
490.786	290.62
491.003	309.62
491.221	312.62
491.439	294.62
491.657	301.62
491.874	314.62
492.092	339.62
492.31	351.62
492.527	353.62
492.745	317.62
492.963	333.62
493.18	340.62
493.398	319.62
493.615	316.62
493.833	298.62
494.05	305.62
494.268	322.62
494.485	321.62
494.703	321.62
494.92	309.62
495.138	300.62
495.355	311.62
495.573	300.62
495.79	292.62
496.008	306.62
496.225	300.62
496.442	309.62
496.66	334.62
496.877	322.62
497.094	317.62
497.312	303.62
497.529	325.62
497.746	303.62
497.963	297.62
498.181	309.62
498.398	309.62
498.615	312.62
498.832	298.62
499.049	366.62
499.267	391.62
499.484	409.62
499.701	436.62
499.918	467.62
500.135	558.62
500.352	605.62
500.569	606.62
500.786	598.62
501.003	518.62
501.22	495.62
501.437	463.62
501.654	445.62
501.871	383.62
502.088	348.62
502.305	344.62
502.522	319.62
502.739	336.62
502.956	321.62
503.172	297.62
503.389	271.62
503.606	276.62
503.823	280.62
504.04	292.62
504.256	299.62
504.473	289.62
504.69	303.62
