Data from SampA_HRD10591_00023.txt Node
Date: Mon Jan 19 11:26:54 EST 2026
User: Yrep
Spectrometer: HR+D1059
Trigger mode: 0
Integration Time (sec): 3.443000E-1
Scans to average: 1
Electric dark correction enabled: true
Nonlinearity correction enabled: false
Boxcar width: 0
XAxis mode: Wavelengths
Number of Pixels in Spectrum: 2048
>>>>>Begin Spectral Data<<<<<
223.165	-28.56
223.4	-28.56
223.635	-28.56
223.869	-22.56
224.104	-31.56
224.338	-13.56
224.573	-16.56
224.808	-8.56
225.042	-11.56
225.277	-0.56
225.511	-6.56
225.746	12.44
225.98	5.44
226.215	18.44
226.449	21.44
226.683	22.44
226.918	31.44
227.152	28.44
227.387	36.44
227.621	27.44
227.856	53.44
228.09	33.44
228.324	51.44
228.559	59.44
228.793	80.44
229.027	53.44
229.262	80.44
229.496	63.44
229.73	83.44
229.964	79.44
230.199	67.44
230.433	65.44
230.667	83.44
230.901	78.44
231.136	79.44
231.37	84.44
231.604	89.44
231.838	89.44
232.072	85.44
232.306	81.44
232.541	77.44
232.775	87.44
233.009	90.44
233.243	89.44
233.477	65.44
233.711	85.44
233.945	80.44
234.179	80.44
234.413	85.44
234.647	78.44
234.881	74.44
235.115	68.44
235.349	84.44
235.583	89.44
235.817	88.44
236.051	87.44
236.285	73.44
236.519	89.44
236.753	76.44
236.987	79.44
237.221	65.44
237.455	88.44
237.689	81.44
237.922	82.44
238.156	85.44
238.39	85.44
238.624	81.44
238.858	68.44
239.091	81.44
239.325	79.44
239.559	67.44
239.793	86.44
240.027	97.44
240.26	92.44
240.494	105.44
240.728	90.44
240.961	93.44
241.195	83.44
241.429	73.44
241.662	85.44
241.896	90.44
242.13	85.44
242.363	69.44
242.597	79.44
242.83	72.44
243.064	87.44
243.298	83.44
243.531	94.44
243.765	74.44
243.998	86.44
244.232	89.44
244.465	83.44
244.699	81.44
244.932	75.44
245.166	102.44
245.399	92.44
245.633	87.44
245.866	92.44
246.099	85.44
246.333	93.44
246.566	93.44
246.8	93.44
247.033	86.44
247.266	81.44
247.5	97.44
247.733	80.44
247.966	89.44
248.2	92.44
248.433	74.44
248.666	103.44
248.899	96.44
249.133	87.44
249.366	93.44
249.599	85.44
249.832	84.44
250.066	93.44
250.299	99.44
250.532	102.44
250.765	92.44
250.998	93.44
251.231	90.44
251.465	84.44
251.698	92.44
251.931	111.44
252.164	92.44
252.397	81.44
252.63	97.44
252.863	103.44
253.096	101.44
253.329	93.44
253.562	90.44
253.795	104.44
254.028	105.44
254.261	102.44
254.494	83.44
254.727	101.44
254.96	92.44
255.193	99.44
255.426	104.44
255.659	94.44
255.892	106.44
256.124	100.44
256.357	99.44
256.59	105.44
256.823	100.44
257.056	101.44
257.289	103.44
257.521	93.44
257.754	103.44
257.987	109.44
258.22	100.44
258.452	112.44
258.685	96.44
258.918	101.44
259.151	100.44
259.383	97.44
259.616	100.44
259.849	97.44
260.081	96.44
260.314	102.44
260.547	87.44
260.779	108.44
261.012	106.44
261.244	112.44
261.477	101.44
261.71	104.44
261.942	106.44
262.175	89.44
262.407	101.44
262.64	106.44
262.872	101.44
263.105	113.44
263.337	107.44
263.57	99.44
263.802	106.44
264.035	110.44
264.267	95.44
264.499	103.44
264.732	108.44
264.964	108.44
265.197	110.44
265.429	101.44
265.661	83.44
265.894	104.44
266.126	115.44
266.358	116.44
266.591	107.44
266.823	123.44
267.055	104.44
267.287	117.44
267.52	107.44
267.752	96.44
267.984	108.44
268.216	107.44
268.448	109.44
268.681	111.44
268.913	121.44
269.145	120.44
269.377	109.44
269.609	104.44
269.841	96.44
270.073	99.44
270.306	94.44
270.538	106.44
270.77	110.44
271.002	106.44
271.234	119.44
271.466	118.44
271.698	109.44
271.93	101.44
272.162	100.44
272.394	105.44
272.626	110.44
272.858	130.44
273.09	116.44
273.322	113.44
273.553	105.44
273.785	118.44
274.017	101.44
274.249	98.44
274.481	108.44
274.713	114.44
274.945	111.44
275.176	117.44
275.408	106.44
275.64	107.44
275.872	115.44
276.104	116.44
276.335	131.44
276.567	128.44
276.799	107.44
277.031	125.44
277.262	118.44
277.494	118.44
277.726	108.44
277.957	124.44
278.189	104.44
278.421	120.44
278.652	106.44
278.884	115.44
279.115	113.44
279.347	117.44
279.579	133.44
279.81	126.44
280.042	120.44
280.273	130.44
280.505	120.44
280.736	122.44
280.968	126.44
281.199	123.44
281.431	104.44
281.662	108.44
281.894	113.44
282.125	125.44
282.356	132.44
282.588	118.44
282.819	113.44
283.051	110.44
283.282	117.44
283.513	143.44
283.745	108.44
283.976	112.44
284.207	123.44
284.439	132.44
284.67	109.44
284.901	120.44
285.132	129.44
285.364	119.44
285.595	127.44
285.826	123.44
286.057	115.44
286.288	118.44
286.52	110.44
286.751	124.44
286.982	146.44
287.213	131.44
287.444	128.44
287.675	126.44
287.906	140.44
288.138	135.44
288.369	121.44
288.6	119.44
288.831	120.44
289.062	127.44
289.293	143.44
289.524	139.44
289.755	113.44
289.986	133.44
290.217	147.44
290.448	123.44
290.679	150.44
290.91	133.44
291.141	129.44
291.371	133.44
291.602	137.44
291.833	143.44
292.064	133.44
292.295	131.44
292.526	135.44
292.757	131.44
292.987	132.44
293.218	130.44
293.449	122.44
293.68	123.44
293.91	120.44
294.141	131.44
294.372	131.44
294.603	130.44
294.833	136.44
295.064	132.44
295.295	134.44
295.525	141.44
295.756	138.44
295.987	121.44
296.217	136.44
296.448	131.44
296.679	143.44
296.909	132.44
297.14	133.44
297.37	140.44
297.601	153.44
297.831	146.44
298.062	130.44
298.292	153.44
298.523	159.44
298.753	157.44
298.984	133.44
299.214	125.44
299.445	132.44
299.675	128.44
299.905	124.44
300.136	101.44
300.366	133.44
300.597	139.44
300.827	151.44
301.057	143.44
301.288	156.44
301.518	119.44
301.748	125.44
301.979	168.44
302.209	145.44
302.439	134.44
302.669	159.44
302.9	124.44
303.13	143.44
303.36	145.44
303.59	145.44
303.82	153.44
304.051	153.44
304.281	152.44
304.511	162.44
304.741	140.44
304.971	134.44
305.201	161.44
305.431	147.44
305.661	144.44
305.891	134.44
306.121	131.44
306.352	132.44
306.582	128.44
306.812	132.44
307.042	146.44
307.272	148.44
307.502	153.44
307.731	133.44
307.961	151.44
308.191	165.44
308.421	134.44
308.651	144.44
308.881	141.44
309.111	138.44
309.341	140.44
309.571	148.44
309.8	136.44
310.03	129.44
310.26	133.44
310.49	128.44
310.72	150.44
310.949	139.44
311.179	137.44
311.409	144.44
311.639	143.44
311.868	157.44
312.098	150.44
312.328	146.44
312.557	142.44
312.787	129.44
313.017	164.44
313.246	151.44
313.476	135.44
313.706	139.44
313.935	157.44
314.165	147.44
314.394	136.44
314.624	138.44
314.853	145.44
315.083	149.44
315.312	145.44
315.542	144.44
315.771	163.44
316.001	135.44
316.23	141.44
316.46	145.44
316.689	132.44
316.919	138.44
317.148	149.44
317.377	133.44
317.607	151.44
317.836	149.44
318.065	148.44
318.295	152.44
318.524	137.44
318.753	148.44
318.983	146.44
319.212	156.44
319.441	161.44
319.67	148.44
319.9	146.44
320.129	131.44
320.358	147.44
320.587	145.44
320.816	143.44
321.046	146.44
321.275	164.44
321.504	138.44
321.733	147.44
321.962	143.44
322.191	132.44
322.42	136.44
322.649	151.44
322.878	149.44
323.108	147.44
323.337	157.44
323.566	139.44
323.795	147.44
324.024	140.44
324.253	152.44
324.482	135.44
324.71	136.44
324.939	143.44
325.168	142.44
325.397	128.44
325.626	148.44
325.855	140.44
326.084	146.44
326.313	144.44
326.542	150.44
326.77	146.44
326.999	157.44
327.228	143.44
327.457	149.44
327.686	163.44
327.914	150.44
328.143	161.44
328.372	158.44
328.6	155.44
328.829	171.44
329.058	168.44
329.287	157.44
329.515	160.44
329.744	155.44
329.972	142.44
330.201	152.44
330.43	143.44
330.658	152.44
330.887	159.44
331.115	160.44
331.344	157.44
331.572	171.44
331.801	161.44
332.03	148.44
332.258	151.44
332.486	162.44
332.715	154.44
332.943	163.44
333.172	191.44
333.4	180.44
333.629	186.44
333.857	184.44
334.085	191.44
334.314	183.44
334.542	182.44
334.771	179.44
334.999	185.44
335.227	190.44
335.455	177.44
335.684	179.44
335.912	149.44
336.14	169.44
336.369	160.44
336.597	165.44
336.825	173.44
337.053	148.44
337.281	161.44
337.51	157.44
337.738	179.44
337.966	157.44
338.194	187.44
338.422	162.44
338.65	161.44
338.878	157.44
339.106	169.44
339.334	168.44
339.562	167.44
339.79	162.44
340.018	146.44
340.246	168.44
340.474	147.44
340.702	173.44
340.93	174.44
341.158	153.44
341.386	173.44
341.614	141.44
341.842	144.44
342.07	139.44
342.298	165.44
342.526	148.44
342.754	155.44
342.981	154.44
343.209	163.44
343.437	187.44
343.665	162.44
343.893	187.44
344.12	186.44
344.348	163.44
344.576	168.44
344.804	162.44
345.031	151.44
345.259	161.44
345.487	157.44
345.714	168.44
345.942	153.44
346.17	145.44
346.397	147.44
346.625	163.44
346.853	153.44
347.08	152.44
347.308	150.44
347.535	162.44
347.763	155.44
347.99	167.44
348.218	146.44
348.445	163.44
348.673	152.44
348.9	146.44
349.128	167.44
349.355	158.44
349.583	167.44
349.81	161.44
350.037	154.44
350.265	151.44
350.492	139.44
350.72	157.44
350.947	163.44
351.174	169.44
351.402	156.44
351.629	164.44
351.856	148.44
352.083	158.44
352.311	153.44
352.538	137.44
352.765	155.44
352.992	159.44
353.22	161.44
353.447	155.44
353.674	145.44
353.901	149.44
354.128	170.44
354.355	162.44
354.583	160.44
354.81	161.44
355.037	159.44
355.264	151.44
355.491	155.44
355.718	148.44
355.945	151.44
356.172	135.44
356.399	147.44
356.626	163.44
356.853	152.44
357.08	152.44
357.307	157.44
357.534	156.44
357.761	168.44
357.988	169.44
358.215	146.44
358.441	167.44
358.668	138.44
358.895	152.44
359.122	164.44
359.349	138.44
359.576	159.44
359.802	153.44
360.029	143.44
360.256	135.44
360.483	148.44
360.709	155.44
360.936	177.44
361.163	156.44
361.39	154.44
361.616	149.44
361.843	141.44
362.07	174.44
362.296	170.44
362.523	155.44
362.749	137.44
362.976	164.44
363.203	168.44
363.429	156.44
363.656	152.44
363.882	153.44
364.109	147.44
364.335	150.44
364.562	164.44
364.788	134.44
365.015	145.44
365.241	157.44
365.468	155.44
365.694	153.44
365.92	152.44
366.147	154.44
366.373	160.44
366.599	150.44
366.826	160.44
367.052	177.44
367.278	164.44
367.505	153.44
367.731	174.44
367.957	158.44
368.184	142.44
368.41	152.44
368.636	155.44
368.862	164.44
369.089	162.44
369.315	169.44
369.541	164.44
369.767	162.44
369.993	164.44
370.219	171.44
370.445	160.44
370.672	148.44
370.898	152.44
371.124	152.44
371.35	176.44
371.576	173.44
371.802	141.44
372.028	151.44
372.254	176.44
372.48	169.44
372.706	159.44
372.932	171.44
373.158	175.44
373.384	178.44
373.61	149.44
373.835	168.44
374.061	172.44
374.287	172.44
374.513	167.44
374.739	179.44
374.965	182.44
375.191	164.44
375.416	158.44
375.642	172.44
375.868	175.44
376.094	185.44
376.319	180.44
376.545	187.44
376.771	175.44
376.997	156.44
377.222	180.44
377.448	170.44
377.674	164.44
377.899	154.44
378.125	171.44
378.35	175.44
378.576	152.44
378.802	188.44
379.027	174.44
379.253	160.44
379.478	180.44
379.704	165.44
379.929	167.44
380.155	147.44
380.38	169.44
380.606	173.44
380.831	170.44
381.057	188.44
381.282	168.44
381.507	172.44
381.733	168.44
381.958	156.44
382.184	170.44
382.409	167.44
382.634	173.44
382.86	170.44
383.085	181.44
383.31	193.44
383.535	196.44
383.761	192.44
383.986	193.44
384.211	180.44
384.436	184.44
384.662	194.44
384.887	198.44
385.112	183.44
385.337	197.44
385.562	199.44
385.787	184.44
386.013	191.44
386.238	193.44
386.463	197.44
386.688	217.44
386.913	194.44
387.138	198.44
387.363	178.44
387.588	213.44
387.813	207.44
388.038	203.44
388.263	189.44
388.488	197.44
388.713	205.44
388.938	194.44
389.163	188.44
389.387	193.44
389.612	193.44
389.837	201.44
390.062	196.44
390.287	202.44
390.512	187.44
390.736	184.44
390.961	195.44
391.186	208.44
391.411	199.44
391.636	207.44
391.86	199.44
392.085	215.44
392.31	200.44
392.534	212.44
392.759	210.44
392.984	214.44
393.208	226.44
393.433	194.44
393.658	213.44
393.882	205.44
394.107	215.44
394.331	215.44
394.556	229.44
394.78	205.44
395.005	212.44
395.229	225.44
395.454	214.44
395.678	227.44
395.903	232.44
396.127	222.44
396.352	228.44
396.576	224.44
396.801	217.44
397.025	225.44
397.249	223.44
397.474	248.44
397.698	216.44
397.922	235.44
398.147	249.44
398.371	240.44
398.595	242.44
398.82	252.44
399.044	287.44
399.268	299.44
399.492	365.44
399.717	365.44
399.941	339.44
400.165	309.44
400.389	308.44
400.613	289.44
400.837	281.44
401.062	272.44
401.286	249.44
401.51	258.44
401.734	261.44
401.958	268.44
402.182	292.44
402.406	262.44
402.63	285.44
402.854	301.44
403.078	307.44
403.302	281.44
403.526	297.44
403.75	306.44
403.974	319.44
404.198	299.44
404.422	314.44
404.645	299.44
404.869	308.44
405.093	304.44
405.317	297.44
405.541	311.44
405.765	303.44
405.988	309.44
406.212	296.44
406.436	304.44
406.66	320.44
406.883	305.44
407.107	326.44
407.331	328.44
407.555	350.44
407.778	353.44
408.002	331.44
408.226	335.44
408.449	339.44
408.673	327.44
408.896	344.44
409.12	323.44
409.344	333.44
409.567	322.44
409.791	329.44
410.014	335.44
410.238	314.44
410.461	322.44
410.685	319.44
410.908	305.44
411.132	328.44
411.355	329.44
411.578	316.44
411.802	310.44
412.025	309.44
412.249	321.44
412.472	303.44
412.695	295.44
412.919	314.44
413.142	301.44
413.365	303.44
413.589	316.44
413.812	292.44
414.035	301.44
414.258	324.44
414.482	304.44
414.705	294.44
414.928	315.44
415.151	327.44
415.374	317.44
415.597	316.44
415.821	324.44
416.044	310.44
416.267	296.44
416.49	302.44
416.713	295.44
416.936	315.44
417.159	290.44
417.382	310.44
417.605	307.44
417.828	307.44
418.051	311.44
418.274	323.44
418.497	321.44
418.72	324.44
418.943	315.44
419.166	330.44
419.389	331.44
419.611	343.44
419.834	316.44
420.057	336.44
420.28	308.44
420.503	311.44
420.726	311.44
420.948	306.44
421.171	324.44
421.394	304.44
421.617	333.44
421.839	332.44
422.062	323.44
422.285	323.44
422.507	332.44
422.73	328.44
422.953	320.44
423.175	317.44
423.398	325.44
423.621	331.44
423.843	327.44
424.066	324.44
424.288	326.44
424.511	332.44
424.733	338.44
424.956	341.44
425.178	319.44
425.401	317.44
425.623	316.44
425.846	319.44
426.068	309.44
426.291	307.44
426.513	308.44
426.735	293.44
426.958	296.44
427.18	304.44
427.402	299.44
427.625	304.44
427.847	280.44
428.069	298.44
428.292	307.44
428.514	290.44
428.736	319.44
428.958	289.44
429.181	283.44
429.403	286.44
429.625	291.44
429.847	274.44
430.069	296.44
430.292	285.44
430.514	281.44
430.736	269.44
430.958	284.44
431.18	271.44
431.402	276.44
431.624	260.44
431.846	271.44
432.068	266.44
432.29	261.44
432.512	258.44
432.734	280.44
432.956	297.44
433.178	307.44
433.4	297.44
433.622	308.44
433.844	287.44
434.066	273.44
434.287	275.44
434.509	280.44
434.731	285.44
434.953	285.44
435.175	307.44
435.397	320.44
435.618	290.44
435.84	263.44
436.062	289.44
436.284	282.44
436.505	284.44
436.727	324.44
436.949	278.44
437.17	294.44
437.392	275.44
437.614	274.44
437.835	273.44
438.057	267.44
438.278	265.44
438.5	264.44
438.721	290.44
438.943	288.44
439.165	284.44
439.386	307.44
439.608	312.44
439.829	310.44
440.05	305.44
440.272	295.44
440.493	298.44
440.715	302.44
440.936	299.44
441.158	319.44
441.379	327.44
441.6	325.44
441.822	332.44
442.043	342.44
442.264	331.44
442.486	302.44
442.707	339.44
442.928	316.44
443.149	327.44
443.371	323.44
443.592	329.44
443.813	334.44
444.034	343.44
444.255	362.44
444.476	338.44
444.698	360.44
444.919	375.44
445.14	578.44
445.361	422.44
445.582	343.44
445.803	301.44
446.024	314.44
446.245	304.44
446.466	312.44
446.687	308.44
446.908	307.44
447.129	316.44
447.35	289.44
447.571	295.44
447.792	299.44
448.013	290.44
448.234	290.44
448.455	289.44
448.675	286.44
448.896	255.44
449.117	289.44
449.338	285.44
449.559	300.44
449.779	291.44
450	287.44
450.221	272.44
450.442	279.44
450.662	284.44
450.883	273.44
451.104	272.44
451.324	272.44
451.545	275.44
451.766	285.44
451.986	273.44
452.207	278.44
452.428	260.44
452.648	258.44
452.869	252.44
453.089	225.44
453.31	266.44
453.53	255.44
453.751	251.44
453.971	265.44
454.192	241.44
454.412	231.44
454.633	264.44
454.853	263.44
455.073	265.44
455.294	261.44
455.514	266.44
455.734	268.44
455.955	256.44
456.175	245.44
456.395	239.44
456.616	241.44
456.836	248.44
457.056	242.44
457.276	235.44
457.497	236.44
457.717	219.44
457.937	236.44
458.157	236.44
458.377	232.44
458.598	227.44
458.818	243.44
459.038	247.44
459.258	239.44
459.478	246.44
459.698	257.44
459.918	275.44
460.138	293.44
460.358	297.44
460.578	311.44
460.798	303.44
461.018	315.44
461.238	304.44
461.458	305.44
461.678	309.44
461.898	296.44
462.118	314.44
462.338	339.44
462.558	332.44
462.777	349.44
462.997	392.44
463.217	397.44
463.437	382.44
463.657	351.44
463.876	343.44
464.096	345.44
464.316	351.44
464.536	333.44
464.755	335.44
464.975	313.44
465.195	321.44
465.414	303.44
465.634	279.44
465.854	278.44
466.073	290.44
466.293	263.44
466.512	271.44
466.732	290.44
466.951	278.44
467.171	287.44
467.391	281.44
467.61	277.44
467.829	287.44
468.049	287.44
468.268	269.44
468.488	271.44
468.707	250.44
468.927	266.44
469.146	289.44
469.365	271.44
469.585	289.44
469.804	270.44
470.023	289.44
470.243	296.44
470.462	296.44
470.681	308.44
470.901	306.44
471.12	306.44
471.339	315.44
471.558	279.44
471.777	277.44
471.997	280.44
472.216	271.44
472.435	243.44
472.654	255.44
472.873	257.44
473.092	281.44
473.311	271.44
473.53	264.44
473.749	263.44
473.968	287.44
474.187	258.44
474.406	279.44
474.625	275.44
474.844	251.44
475.063	238.44
475.282	250.44
475.501	246.44
475.72	250.44
475.939	269.44
476.158	265.44
476.377	272.44
476.596	264.44
476.814	281.44
477.033	238.44
477.252	250.44
477.471	277.44
477.69	310.44
477.908	308.44
478.127	311.44
478.346	304.44
478.564	327.44
478.783	313.44
479.002	337.44
479.22	312.44
479.439	310.44
479.658	296.44
479.876	304.44
480.095	300.44
480.313	311.44
480.532	333.44
480.751	297.44
480.969	273.44
481.188	255.44
481.406	267.44
481.624	255.44
481.843	246.44
482.061	267.44
482.28	287.44
482.498	279.44
482.717	281.44
482.935	296.44
483.153	292.44
483.372	312.44
483.59	308.44
483.808	295.44
484.027	294.44
484.245	290.44
484.463	319.44
484.681	341.44
484.9	322.44
485.118	316.44
485.336	327.44
485.554	305.44
485.772	275.44
485.99	274.44
486.209	288.44
486.427	291.44
486.645	304.44
486.863	321.44
487.081	298.44
487.299	319.44
487.517	311.44
487.735	356.44
487.953	372.44
488.171	340.44
488.389	347.44
488.607	307.44
488.825	283.44
489.043	307.44
489.261	302.44
489.479	311.44
489.696	313.44
489.914	310.44
490.132	320.44
490.35	319.44
490.568	336.44
490.786	339.44
491.003	359.44
491.221	342.44
491.439	356.44
491.657	369.44
491.874	383.44
492.092	386.44
492.31	414.44
492.527	390.44
492.745	383.44
492.963	384.44
493.18	362.44
493.398	365.44
493.615	395.44
493.833	360.44
494.05	362.44
494.268	365.44
494.485	342.44
494.703	359.44
494.92	366.44
495.138	361.44
495.355	354.44
495.573	368.44
495.79	370.44
496.008	339.44
496.225	355.44
496.442	337.44
496.66	357.44
496.877	383.44
497.094	387.44
497.312	350.44
497.529	383.44
497.746	356.44
497.963	343.44
498.181	371.44
498.398	388.44
498.615	381.44
498.832	404.44
499.049	436.44
499.267	473.44
499.484	511.44
499.701	545.44
499.918	617.44
500.135	710.44
500.352	743.44
500.569	786.44
500.786	747.44
501.003	705.44
501.22	615.44
501.437	568.44
501.654	495.44
501.871	443.44
502.088	425.44
502.305	428.44
502.522	409.44
502.739	409.44
502.956	385.44
503.172	357.44
503.389	342.44
503.606	336.44
503.823	323.44
504.04	333.44
504.256	359.44
