Data from SampA_HRD10591_00092.txt Node
Date: Mon Jan 19 11:27:18 EST 2026
User: Yrep
Spectrometer: HR+D1059
Trigger mode: 0
Integration Time (sec): 3.443000E-1
Scans to average: 1
Electric dark correction enabled: true
Nonlinearity correction enabled: false
Boxcar width: 0
XAxis mode: Wavelengths
Number of Pixels in Spectrum: 2048
>>>>>Begin Spectral Data<<<<<
223.165	-23.38
223.4	-23.38
223.635	-23.38
223.869	-29.38
224.104	-22.38
224.338	-11.38
224.573	-6.38
224.808	-12.38
225.042	-6.38
225.277	4.62
225.511	7.62
225.746	-3.38
225.98	10.62
226.215	18.62
226.449	8.62
226.683	11.62
226.918	30.62
227.152	22.62
227.387	39.62
227.621	37.62
227.856	36.62
228.09	56.62
228.324	62.62
228.559	61.62
228.793	47.62
229.027	76.62
229.262	62.62
229.496	58.62
229.73	76.62
229.964	84.62
230.199	91.62
230.433	90.62
230.667	83.62
230.901	94.62
231.136	80.62
231.37	79.62
231.604	86.62
231.838	75.62
232.072	87.62
232.306	85.62
232.541	80.62
232.775	85.62
233.009	72.62
233.243	79.62
233.477	90.62
233.711	86.62
233.945	76.62
234.179	88.62
234.413	98.62
234.647	83.62
234.881	80.62
235.115	96.62
235.349	78.62
235.583	91.62
235.817	87.62
236.051	85.62
236.285	80.62
236.519	89.62
236.753	89.62
236.987	93.62
237.221	90.62
237.455	79.62
237.689	95.62
237.922	77.62
238.156	72.62
238.39	92.62
238.624	76.62
238.858	82.62
239.091	85.62
239.325	89.62
239.559	86.62
239.793	79.62
240.027	79.62
240.26	72.62
240.494	83.62
240.728	83.62
240.961	75.62
241.195	81.62
241.429	89.62
241.662	69.62
241.896	83.62
242.13	84.62
242.363	81.62
242.597	72.62
242.83	84.62
243.064	74.62
243.298	82.62
243.531	76.62
243.765	97.62
243.998	104.62
244.232	99.62
244.465	88.62
244.699	76.62
244.932	82.62
245.166	79.62
245.399	64.62
245.633	74.62
245.866	89.62
246.099	79.62
246.333	88.62
246.566	83.62
246.8	96.62
247.033	84.62
247.266	84.62
247.5	85.62
247.733	85.62
247.966	90.62
248.2	93.62
248.433	83.62
248.666	94.62
248.899	90.62
249.133	92.62
249.366	95.62
249.599	90.62
249.832	90.62
250.066	96.62
250.299	87.62
250.532	102.62
250.765	99.62
250.998	97.62
251.231	91.62
251.465	102.62
251.698	96.62
251.931	93.62
252.164	90.62
252.397	105.62
252.63	83.62
252.863	104.62
253.096	96.62
253.329	96.62
253.562	81.62
253.795	100.62
254.028	95.62
254.261	88.62
254.494	104.62
254.727	104.62
254.96	92.62
255.193	88.62
255.426	103.62
255.659	92.62
255.892	88.62
256.124	98.62
256.357	95.62
256.59	92.62
256.823	94.62
257.056	72.62
257.289	93.62
257.521	92.62
257.754	85.62
257.987	89.62
258.22	104.62
258.452	97.62
258.685	107.62
258.918	89.62
259.151	86.62
259.383	90.62
259.616	107.62
259.849	88.62
260.081	97.62
260.314	88.62
260.547	85.62
260.779	96.62
261.012	105.62
261.244	98.62
261.477	101.62
261.71	92.62
261.942	89.62
262.175	93.62
262.407	101.62
262.64	88.62
262.872	88.62
263.105	91.62
263.337	97.62
263.57	99.62
263.802	105.62
264.035	100.62
264.267	101.62
264.499	103.62
264.732	103.62
264.964	83.62
265.197	94.62
265.429	88.62
265.661	105.62
265.894	100.62
266.126	82.62
266.358	110.62
266.591	109.62
266.823	99.62
267.055	94.62
267.287	110.62
267.52	95.62
267.752	104.62
267.984	101.62
268.216	105.62
268.448	112.62
268.681	115.62
268.913	109.62
269.145	110.62
269.377	103.62
269.609	99.62
269.841	116.62
270.073	87.62
270.306	110.62
270.538	108.62
270.77	103.62
271.002	109.62
271.234	104.62
271.466	116.62
271.698	106.62
271.93	101.62
272.162	117.62
272.394	116.62
272.626	101.62
272.858	116.62
273.09	113.62
273.322	101.62
273.553	126.62
273.785	111.62
274.017	96.62
274.249	103.62
274.481	103.62
274.713	105.62
274.945	112.62
275.176	102.62
275.408	117.62
275.64	112.62
275.872	111.62
276.104	110.62
276.335	122.62
276.567	103.62
276.799	103.62
277.031	106.62
277.262	102.62
277.494	119.62
277.726	101.62
277.957	107.62
278.189	103.62
278.421	122.62
278.652	109.62
278.884	112.62
279.115	120.62
279.347	105.62
279.579	102.62
279.81	116.62
280.042	105.62
280.273	108.62
280.505	117.62
280.736	110.62
280.968	130.62
281.199	123.62
281.431	112.62
281.662	128.62
281.894	108.62
282.125	105.62
282.356	105.62
282.588	104.62
282.819	105.62
283.051	96.62
283.282	113.62
283.513	118.62
283.745	105.62
283.976	102.62
284.207	108.62
284.439	107.62
284.67	112.62
284.901	117.62
285.132	118.62
285.364	113.62
285.595	109.62
285.826	101.62
286.057	119.62
286.288	114.62
286.52	119.62
286.751	106.62
286.982	107.62
287.213	115.62
287.444	133.62
287.675	130.62
287.906	115.62
288.138	117.62
288.369	122.62
288.6	102.62
288.831	104.62
289.062	133.62
289.293	120.62
289.524	116.62
289.755	111.62
289.986	107.62
290.217	118.62
290.448	117.62
290.679	121.62
290.91	124.62
291.141	111.62
291.371	141.62
291.602	112.62
291.833	124.62
292.064	115.62
292.295	116.62
292.526	107.62
292.757	108.62
292.987	116.62
293.218	124.62
293.449	133.62
293.68	135.62
293.91	109.62
294.141	128.62
294.372	127.62
294.603	128.62
294.833	118.62
295.064	119.62
295.295	112.62
295.525	116.62
295.756	122.62
295.987	137.62
296.217	126.62
296.448	124.62
296.679	120.62
296.909	124.62
297.14	132.62
297.37	141.62
297.601	113.62
297.831	110.62
298.062	136.62
298.292	125.62
298.523	119.62
298.753	119.62
298.984	118.62
299.214	126.62
299.445	110.62
299.675	118.62
299.905	118.62
300.136	113.62
300.366	122.62
300.597	119.62
300.827	140.62
301.057	126.62
301.288	127.62
301.518	128.62
301.748	127.62
301.979	166.62
302.209	128.62
302.439	130.62
302.669	134.62
302.9	124.62
303.13	131.62
303.36	137.62
303.59	123.62
303.82	126.62
304.051	137.62
304.281	131.62
304.511	149.62
304.741	121.62
304.971	134.62
305.201	135.62
305.431	131.62
305.661	129.62
305.891	107.62
306.121	124.62
306.352	123.62
306.582	119.62
306.812	127.62
307.042	124.62
307.272	129.62
307.502	133.62
307.731	131.62
307.961	140.62
308.191	107.62
308.421	118.62
308.651	140.62
308.881	125.62
309.111	127.62
309.341	135.62
309.571	112.62
309.8	125.62
310.03	123.62
310.26	121.62
310.49	115.62
310.72	124.62
310.949	128.62
311.179	131.62
311.409	122.62
311.639	127.62
311.868	121.62
312.098	141.62
312.328	128.62
312.557	127.62
312.787	117.62
313.017	140.62
313.246	122.62
313.476	139.62
313.706	134.62
313.935	122.62
314.165	123.62
314.394	135.62
314.624	139.62
314.853	142.62
315.083	133.62
315.312	114.62
315.542	137.62
315.771	128.62
316.001	123.62
316.23	138.62
316.46	139.62
316.689	118.62
316.919	120.62
317.148	121.62
317.377	125.62
317.607	138.62
317.836	124.62
318.065	133.62
318.295	122.62
318.524	119.62
318.753	133.62
318.983	130.62
319.212	133.62
319.441	135.62
319.67	124.62
319.9	123.62
320.129	129.62
320.358	134.62
320.587	129.62
320.816	129.62
321.046	125.62
321.275	149.62
321.504	141.62
321.733	119.62
321.962	145.62
322.191	125.62
322.42	119.62
322.649	124.62
322.878	147.62
323.108	137.62
323.337	146.62
323.566	143.62
323.795	137.62
324.024	137.62
324.253	149.62
324.482	133.62
324.71	128.62
324.939	150.62
325.168	139.62
325.397	136.62
325.626	146.62
325.855	141.62
326.084	138.62
326.313	135.62
326.542	133.62
326.77	149.62
326.999	137.62
327.228	140.62
327.457	137.62
327.686	121.62
327.914	136.62
328.143	152.62
328.372	144.62
328.6	132.62
328.829	136.62
329.058	124.62
329.287	123.62
329.515	128.62
329.744	153.62
329.972	125.62
330.201	142.62
330.43	139.62
330.658	149.62
330.887	147.62
331.115	143.62
331.344	143.62
331.572	147.62
331.801	136.62
332.03	139.62
332.258	142.62
332.486	152.62
332.715	148.62
332.943	151.62
333.172	150.62
333.4	158.62
333.629	165.62
333.857	154.62
334.085	157.62
334.314	176.62
334.542	155.62
334.771	163.62
334.999	150.62
335.227	153.62
335.455	169.62
335.684	150.62
335.912	167.62
336.14	154.62
336.369	143.62
336.597	152.62
336.825	135.62
337.053	146.62
337.281	163.62
337.51	137.62
337.738	148.62
337.966	149.62
338.194	133.62
338.422	126.62
338.65	160.62
338.878	145.62
339.106	149.62
339.334	146.62
339.562	133.62
339.79	131.62
340.018	131.62
340.246	147.62
340.474	143.62
340.702	138.62
340.93	131.62
341.158	144.62
341.386	125.62
341.614	137.62
341.842	141.62
342.07	147.62
342.298	139.62
342.526	130.62
342.754	137.62
342.981	124.62
343.209	133.62
343.437	169.62
343.665	151.62
343.893	165.62
344.12	159.62
344.348	138.62
344.576	144.62
344.804	142.62
345.031	148.62
345.259	135.62
345.487	141.62
345.714	141.62
345.942	143.62
346.17	132.62
346.397	129.62
346.625	140.62
346.853	131.62
347.08	139.62
347.308	137.62
347.535	146.62
347.763	157.62
347.99	142.62
348.218	143.62
348.445	127.62
348.673	123.62
348.9	152.62
349.128	149.62
349.355	140.62
349.583	139.62
349.81	135.62
350.037	127.62
350.265	138.62
350.492	131.62
350.72	126.62
350.947	134.62
351.174	135.62
351.402	128.62
351.629	128.62
351.856	152.62
352.083	127.62
352.311	135.62
352.538	137.62
352.765	140.62
352.992	169.62
353.22	141.62
353.447	132.62
353.674	152.62
353.901	156.62
354.128	126.62
354.355	134.62
354.583	127.62
354.81	139.62
355.037	145.62
355.264	166.62
355.491	139.62
355.718	142.62
355.945	147.62
356.172	134.62
356.399	116.62
356.626	136.62
356.853	135.62
357.08	139.62
357.307	133.62
357.534	121.62
357.761	138.62
357.988	143.62
358.215	148.62
358.441	151.62
358.668	141.62
358.895	147.62
359.122	149.62
359.349	147.62
359.576	141.62
359.802	127.62
360.029	132.62
360.256	152.62
360.483	125.62
360.709	125.62
360.936	151.62
361.163	130.62
361.39	141.62
361.616	122.62
361.843	140.62
362.07	140.62
362.296	127.62
362.523	128.62
362.749	118.62
362.976	128.62
363.203	151.62
363.429	131.62
363.656	125.62
363.882	151.62
364.109	147.62
364.335	139.62
364.562	133.62
364.788	138.62
365.015	140.62
365.241	142.62
365.468	136.62
365.694	134.62
365.92	139.62
366.147	132.62
366.373	138.62
366.599	145.62
366.826	141.62
367.052	132.62
367.278	152.62
367.505	131.62
367.731	145.62
367.957	138.62
368.184	124.62
368.41	144.62
368.636	149.62
368.862	144.62
369.089	125.62
369.315	135.62
369.541	157.62
369.767	141.62
369.993	126.62
370.219	133.62
370.445	130.62
370.672	136.62
370.898	140.62
371.124	139.62
371.35	145.62
371.576	133.62
371.802	140.62
372.028	143.62
372.254	138.62
372.48	152.62
372.706	152.62
372.932	138.62
373.158	168.62
373.384	160.62
373.61	152.62
373.835	136.62
374.061	151.62
374.287	135.62
374.513	128.62
374.739	131.62
374.965	148.62
375.191	157.62
375.416	157.62
375.642	150.62
375.868	157.62
376.094	143.62
376.319	161.62
376.545	154.62
376.771	154.62
376.997	157.62
377.222	144.62
377.448	139.62
377.674	148.62
377.899	139.62
378.125	153.62
378.35	139.62
378.576	152.62
378.802	154.62
379.027	134.62
379.253	169.62
379.478	140.62
379.704	133.62
379.929	162.62
380.155	161.62
380.38	142.62
380.606	165.62
380.831	155.62
381.057	155.62
381.282	156.62
381.507	151.62
381.733	160.62
381.958	163.62
382.184	141.62
382.409	158.62
382.634	156.62
382.86	156.62
383.085	166.62
383.31	150.62
383.535	157.62
383.761	156.62
383.986	155.62
384.211	152.62
384.436	169.62
384.662	166.62
384.887	167.62
385.112	154.62
385.337	159.62
385.562	150.62
385.787	166.62
386.013	179.62
386.238	156.62
386.463	149.62
386.688	202.62
386.913	175.62
387.138	163.62
387.363	168.62
387.588	169.62
387.813	185.62
388.038	184.62
388.263	168.62
388.488	174.62
388.713	171.62
388.938	174.62
389.163	176.62
389.387	180.62
389.612	164.62
389.837	175.62
390.062	188.62
390.287	168.62
390.512	186.62
390.736	180.62
390.961	192.62
391.186	177.62
391.411	189.62
391.636	196.62
391.86	195.62
392.085	189.62
392.31	195.62
392.534	201.62
392.759	187.62
392.984	176.62
393.208	197.62
393.433	201.62
393.658	188.62
393.882	203.62
394.107	190.62
394.331	207.62
394.556	180.62
394.78	210.62
395.005	189.62
395.229	197.62
395.454	196.62
395.678	210.62
395.903	198.62
396.127	209.62
396.352	207.62
396.576	192.62
396.801	201.62
397.025	198.62
397.249	216.62
397.474	234.62
397.698	227.62
397.922	213.62
398.147	190.62
398.371	221.62
398.595	236.62
398.82	235.62
399.044	237.62
399.268	266.62
399.492	304.62
399.717	327.62
399.941	277.62
400.165	277.62
400.389	254.62
400.613	243.62
400.837	253.62
401.062	253.62
401.286	239.62
401.51	227.62
401.734	236.62
401.958	248.62
402.182	255.62
402.406	244.62
402.63	250.62
402.854	263.62
403.078	261.62
403.302	266.62
403.526	275.62
403.75	270.62
403.974	276.62
404.198	283.62
404.422	282.62
404.645	282.62
404.869	279.62
405.093	274.62
405.317	260.62
405.541	276.62
405.765	277.62
405.988	263.62
406.212	263.62
406.436	284.62
406.66	281.62
406.883	297.62
407.107	289.62
407.331	313.62
407.555	310.62
407.778	298.62
408.002	298.62
408.226	300.62
408.449	303.62
408.673	289.62
408.896	286.62
409.12	270.62
409.344	312.62
409.567	294.62
409.791	279.62
410.014	285.62
410.238	317.62
410.461	288.62
410.685	304.62
410.908	288.62
411.132	276.62
411.355	294.62
411.578	290.62
411.802	298.62
412.025	292.62
412.249	263.62
412.472	293.62
412.695	282.62
412.919	292.62
413.142	282.62
413.365	284.62
413.589	268.62
413.812	281.62
414.035	292.62
414.258	275.62
414.482	277.62
414.705	275.62
414.928	272.62
415.151	278.62
415.374	277.62
415.597	273.62
415.821	285.62
416.044	273.62
416.267	270.62
416.49	278.62
416.713	269.62
416.936	288.62
417.159	292.62
417.382	287.62
417.605	286.62
417.828	283.62
418.051	289.62
418.274	281.62
418.497	293.62
418.72	298.62
418.943	292.62
419.166	299.62
419.389	322.62
419.611	318.62
419.834	308.62
420.057	294.62
420.28	292.62
420.503	289.62
420.726	279.62
420.948	292.62
421.171	288.62
421.394	288.62
421.617	289.62
421.839	302.62
422.062	295.62
422.285	288.62
422.507	316.62
422.73	293.62
422.953	299.62
423.175	301.62
423.398	287.62
423.621	293.62
423.843	285.62
424.066	300.62
424.288	314.62
424.511	315.62
424.733	302.62
424.956	279.62
425.178	307.62
425.401	296.62
425.623	292.62
425.846	300.62
426.068	294.62
426.291	284.62
426.513	298.62
426.735	292.62
426.958	281.62
427.18	271.62
427.402	271.62
427.625	270.62
427.847	257.62
428.069	277.62
428.292	287.62
428.514	273.62
428.736	270.62
428.958	277.62
429.181	279.62
429.403	276.62
429.625	266.62
429.847	264.62
430.069	265.62
430.292	275.62
430.514	265.62
430.736	265.62
430.958	270.62
431.18	255.62
431.402	252.62
431.624	244.62
431.846	245.62
432.068	217.62
432.29	221.62
432.512	261.62
432.734	263.62
432.956	264.62
433.178	269.62
433.4	267.62
433.622	276.62
433.844	269.62
434.066	265.62
434.287	245.62
434.509	239.62
434.731	263.62
434.953	259.62
435.175	290.62
435.397	279.62
435.618	248.62
435.84	250.62
436.062	257.62
436.284	263.62
436.505	250.62
436.727	267.62
436.949	265.62
437.17	254.62
437.392	268.62
437.614	243.62
437.835	245.62
438.057	240.62
438.278	242.62
438.5	254.62
438.721	255.62
438.943	275.62
439.165	274.62
439.386	272.62
439.608	287.62
439.829	293.62
440.05	278.62
440.272	297.62
440.493	289.62
440.715	265.62
440.936	284.62
441.158	287.62
441.379	303.62
441.6	320.62
441.822	307.62
442.043	320.62
442.264	298.62
442.486	307.62
442.707	291.62
442.928	309.62
443.149	308.62
443.371	310.62
443.592	288.62
443.813	291.62
444.034	307.62
444.255	323.62
444.476	324.62
444.698	338.62
444.919	344.62
445.14	510.62
445.361	391.62
445.582	323.62
445.803	312.62
446.024	292.62
446.245	308.62
446.466	287.62
446.687	299.62
446.908	290.62
447.129	299.62
447.35	297.62
447.571	287.62
447.792	264.62
448.013	289.62
448.234	281.62
448.455	261.62
448.675	277.62
448.896	256.62
449.117	267.62
449.338	267.62
449.559	280.62
449.779	249.62
450	254.62
450.221	284.62
450.442	279.62
450.662	265.62
450.883	272.62
451.104	263.62
451.324	271.62
451.545	261.62
451.766	255.62
451.986	263.62
452.207	250.62
452.428	267.62
452.648	248.62
452.869	231.62
453.089	224.62
453.31	229.62
453.53	226.62
453.751	222.62
453.971	219.62
454.192	232.62
454.412	220.62
454.633	226.62
454.853	245.62
455.073	247.62
455.294	224.62
455.514	254.62
455.734	243.62
455.955	241.62
456.175	224.62
456.395	232.62
456.616	216.62
456.836	222.62
457.056	214.62
457.276	205.62
457.497	231.62
457.717	224.62
457.937	224.62
458.157	211.62
458.377	197.62
458.598	209.62
458.818	208.62
459.038	214.62
459.258	213.62
459.478	224.62
459.698	224.62
459.918	238.62
460.138	244.62
460.358	262.62
460.578	293.62
460.798	291.62
461.018	289.62
461.238	264.62
461.458	279.62
461.678	253.62
461.898	275.62
462.118	283.62
462.338	292.62
462.558	299.62
462.777	307.62
462.997	313.62
463.217	325.62
463.437	315.62
463.657	316.62
463.876	304.62
464.096	298.62
464.316	308.62
464.536	310.62
464.755	313.62
464.975	281.62
465.195	269.62
465.414	263.62
465.634	245.62
465.854	248.62
466.073	253.62
466.293	271.62
466.512	259.62
466.732	256.62
466.951	280.62
467.171	271.62
467.391	266.62
467.61	272.62
467.829	265.62
468.049	268.62
468.268	255.62
468.488	246.62
468.707	255.62
468.927	273.62
469.146	251.62
469.365	275.62
469.585	285.62
469.804	268.62
470.023	278.62
470.243	283.62
470.462	276.62
470.681	288.62
470.901	276.62
471.12	280.62
471.339	269.62
471.558	281.62
471.777	268.62
471.997	249.62
472.216	248.62
472.435	240.62
472.654	226.62
472.873	238.62
473.092	223.62
473.311	247.62
473.53	246.62
473.749	249.62
473.968	249.62
474.187	248.62
474.406	235.62
474.625	238.62
474.844	260.62
475.063	238.62
475.282	242.62
475.501	256.62
475.72	260.62
475.939	255.62
476.158	250.62
476.377	247.62
476.596	263.62
476.814	241.62
477.033	223.62
477.252	245.62
477.471	250.62
477.69	275.62
477.908	267.62
478.127	287.62
478.346	289.62
478.564	272.62
478.783	279.62
479.002	280.62
479.22	297.62
479.439	276.62
479.658	269.62
479.876	264.62
480.095	262.62
480.313	288.62
480.532	284.62
480.751	269.62
480.969	230.62
481.188	254.62
481.406	228.62
481.624	221.62
481.843	223.62
482.061	232.62
482.28	264.62
482.498	233.62
482.717	230.62
482.935	258.62
483.153	275.62
483.372	284.62
483.59	299.62
483.808	270.62
484.027	272.62
484.245	272.62
484.463	273.62
484.681	314.62
484.9	277.62
485.118	285.62
485.336	253.62
485.554	236.62
485.772	248.62
485.99	244.62
486.209	259.62
486.427	261.62
486.645	262.62
486.863	289.62
487.081	293.62
487.299	280.62
487.517	292.62
487.735	301.62
487.953	325.62
488.171	328.62
488.389	303.62
488.607	307.62
488.825	280.62
489.043	284.62
489.261	274.62
489.479	283.62
489.696	282.62
489.914	272.62
490.132	298.62
490.35	296.62
490.568	317.62
490.786	324.62
491.003	308.62
491.221	320.62
491.439	342.62
491.657	343.62
491.874	368.62
492.092	403.62
492.31	389.62
492.527	383.62
492.745	383.62
492.963	364.62
493.18	380.62
493.398	360.62
493.615	386.62
493.833	363.62
494.05	344.62
494.268	341.62
494.485	343.62
494.703	366.62
494.92	345.62
495.138	319.62
495.355	341.62
495.573	351.62
495.79	341.62
496.008	356.62
496.225	345.62
496.442	333.62
496.66	325.62
496.877	340.62
497.094	337.62
497.312	334.62
497.529	351.62
497.746	335.62
497.963	320.62
498.181	319.62
498.398	325.62
498.615	329.62
498.832	348.62
499.049	348.62
499.267	407.62
499.484	439.62
499.701	502.62
499.918	523.62
500.135	604.62
500.352	639.62
500.569	674.62
500.786	655.62
501.003	595.62
501.22	529.62
501.437	481.62
501.654	444.62
501.871	397.62
502.088	397.62
502.305	347.62
502.522	353.62
502.739	361.62
502.956	316.62
503.172	321.62
503.389	293.62
503.606	278.62
503.823	311.62
504.04	318.62
504.256	319.62
504.473	299.62
504.69	320.62
