Data from SampA_HRD10591_00034.txt Node
Date: Mon Jan 19 11:26:58 EST 2026
User: Yrep
Spectrometer: HR+D1059
Trigger mode: 0
Integration Time (sec): 3.443000E-1
Scans to average: 1
Electric dark correction enabled: true
Nonlinearity correction enabled: false
Boxcar width: 0
XAxis mode: Wavelengths
Number of Pixels in Spectrum: 2048
>>>>>Begin Spectral Data<<<<<
223.165	-23.38
223.4	-23.38
223.635	-23.38
223.869	-24.38
224.104	-33.38
224.338	-12.38
224.573	-10.38
224.808	-11.38
225.042	-11.38
225.277	-1.38
225.511	-13.38
225.746	8.62
225.98	3.62
226.215	13.62
226.449	29.62
226.683	23.62
226.918	29.62
227.152	32.62
227.387	30.62
227.621	23.62
227.856	37.62
228.09	33.62
228.324	45.62
228.559	56.62
228.793	63.62
229.027	64.62
229.262	71.62
229.496	68.62
229.73	70.62
229.964	76.62
230.199	85.62
230.433	82.62
230.667	62.62
230.901	80.62
231.136	89.62
231.37	76.62
231.604	74.62
231.838	69.62
232.072	81.62
232.306	71.62
232.541	85.62
232.775	94.62
233.009	92.62
233.243	95.62
233.477	90.62
233.711	95.62
233.945	85.62
234.179	79.62
234.413	93.62
234.647	74.62
234.881	83.62
235.115	83.62
235.349	79.62
235.583	84.62
235.817	90.62
236.051	83.62
236.285	80.62
236.519	91.62
236.753	79.62
236.987	87.62
237.221	71.62
237.455	87.62
237.689	91.62
237.922	86.62
238.156	71.62
238.39	89.62
238.624	81.62
238.858	78.62
239.091	82.62
239.325	76.62
239.559	87.62
239.793	94.62
240.027	96.62
240.26	92.62
240.494	72.62
240.728	86.62
240.961	82.62
241.195	89.62
241.429	105.62
241.662	88.62
241.896	81.62
242.13	71.62
242.363	82.62
242.597	68.62
242.83	86.62
243.064	87.62
243.298	91.62
243.531	79.62
243.765	87.62
243.998	73.62
244.232	78.62
244.465	86.62
244.699	78.62
244.932	76.62
245.166	96.62
245.399	91.62
245.633	83.62
245.866	102.62
246.099	90.62
246.333	87.62
246.566	92.62
246.8	80.62
247.033	87.62
247.266	82.62
247.5	96.62
247.733	94.62
247.966	71.62
248.2	89.62
248.433	86.62
248.666	72.62
248.899	95.62
249.133	86.62
249.366	91.62
249.599	91.62
249.832	88.62
250.066	95.62
250.299	83.62
250.532	100.62
250.765	91.62
250.998	85.62
251.231	88.62
251.465	100.62
251.698	89.62
251.931	99.62
252.164	99.62
252.397	88.62
252.63	87.62
252.863	92.62
253.096	87.62
253.329	103.62
253.562	90.62
253.795	106.62
254.028	109.62
254.261	95.62
254.494	87.62
254.727	95.62
254.96	80.62
255.193	83.62
255.426	99.62
255.659	93.62
255.892	91.62
256.124	105.62
256.357	92.62
256.59	86.62
256.823	95.62
257.056	84.62
257.289	94.62
257.521	88.62
257.754	102.62
257.987	110.62
258.22	106.62
258.452	100.62
258.685	107.62
258.918	99.62
259.151	104.62
259.383	99.62
259.616	88.62
259.849	114.62
260.081	100.62
260.314	98.62
260.547	103.62
260.779	80.62
261.012	91.62
261.244	114.62
261.477	104.62
261.71	88.62
261.942	96.62
262.175	86.62
262.407	106.62
262.64	95.62
262.872	105.62
263.105	102.62
263.337	117.62
263.57	101.62
263.802	108.62
264.035	114.62
264.267	100.62
264.499	107.62
264.732	107.62
264.964	113.62
265.197	101.62
265.429	85.62
265.661	107.62
265.894	114.62
266.126	100.62
266.358	84.62
266.591	86.62
266.823	100.62
267.055	102.62
267.287	120.62
267.52	87.62
267.752	93.62
267.984	100.62
268.216	114.62
268.448	100.62
268.681	119.62
268.913	109.62
269.145	100.62
269.377	101.62
269.609	109.62
269.841	99.62
270.073	111.62
270.306	91.62
270.538	102.62
270.77	96.62
271.002	98.62
271.234	111.62
271.466	93.62
271.698	108.62
271.93	108.62
272.162	110.62
272.394	116.62
272.626	112.62
272.858	94.62
273.09	102.62
273.322	109.62
273.553	109.62
273.785	114.62
274.017	108.62
274.249	103.62
274.481	92.62
274.713	114.62
274.945	114.62
275.176	129.62
275.408	109.62
275.64	109.62
275.872	118.62
276.104	112.62
276.335	102.62
276.567	107.62
276.799	122.62
277.031	114.62
277.262	115.62
277.494	118.62
277.726	110.62
277.957	92.62
278.189	118.62
278.421	111.62
278.652	111.62
278.884	92.62
279.115	114.62
279.347	107.62
279.579	101.62
279.81	118.62
280.042	118.62
280.273	99.62
280.505	109.62
280.736	111.62
280.968	110.62
281.199	117.62
281.431	122.62
281.662	111.62
281.894	117.62
282.125	120.62
282.356	120.62
282.588	108.62
282.819	115.62
283.051	121.62
283.282	112.62
283.513	115.62
283.745	121.62
283.976	125.62
284.207	124.62
284.439	128.62
284.67	126.62
284.901	117.62
285.132	111.62
285.364	119.62
285.595	127.62
285.826	132.62
286.057	121.62
286.288	108.62
286.52	123.62
286.751	118.62
286.982	107.62
287.213	109.62
287.444	124.62
287.675	117.62
287.906	118.62
288.138	117.62
288.369	124.62
288.6	127.62
288.831	115.62
289.062	123.62
289.293	124.62
289.524	112.62
289.755	123.62
289.986	121.62
290.217	127.62
290.448	116.62
290.679	123.62
290.91	133.62
291.141	120.62
291.371	108.62
291.602	108.62
291.833	106.62
292.064	143.62
292.295	120.62
292.526	123.62
292.757	115.62
292.987	108.62
293.218	106.62
293.449	120.62
293.68	122.62
293.91	119.62
294.141	124.62
294.372	115.62
294.603	125.62
294.833	119.62
295.064	112.62
295.295	130.62
295.525	114.62
295.756	140.62
295.987	132.62
296.217	106.62
296.448	116.62
296.679	124.62
296.909	133.62
297.14	137.62
297.37	130.62
297.601	114.62
297.831	119.62
298.062	119.62
298.292	137.62
298.523	144.62
298.753	124.62
298.984	132.62
299.214	118.62
299.445	139.62
299.675	137.62
299.905	135.62
300.136	121.62
300.366	128.62
300.597	145.62
300.827	142.62
301.057	120.62
301.288	140.62
301.518	120.62
301.748	130.62
301.979	163.62
302.209	132.62
302.439	136.62
302.669	127.62
302.9	128.62
303.13	120.62
303.36	139.62
303.59	111.62
303.82	130.62
304.051	139.62
304.281	138.62
304.511	150.62
304.741	128.62
304.971	130.62
305.201	140.62
305.431	135.62
305.661	126.62
305.891	123.62
306.121	125.62
306.352	133.62
306.582	124.62
306.812	119.62
307.042	145.62
307.272	114.62
307.502	131.62
307.731	143.62
307.961	131.62
308.191	132.62
308.421	127.62
308.651	132.62
308.881	135.62
309.111	132.62
309.341	130.62
309.571	143.62
309.8	135.62
310.03	125.62
310.26	121.62
310.49	124.62
310.72	125.62
310.949	126.62
311.179	136.62
311.409	97.62
311.639	130.62
311.868	130.62
312.098	127.62
312.328	125.62
312.557	137.62
312.787	125.62
313.017	136.62
313.246	141.62
313.476	128.62
313.706	130.62
313.935	125.62
314.165	125.62
314.394	132.62
314.624	132.62
314.853	136.62
315.083	125.62
315.312	142.62
315.542	130.62
315.771	148.62
316.001	141.62
316.23	132.62
316.46	130.62
316.689	127.62
316.919	120.62
317.148	149.62
317.377	147.62
317.607	135.62
317.836	156.62
318.065	137.62
318.295	138.62
318.524	130.62
318.753	146.62
318.983	111.62
319.212	139.62
319.441	120.62
319.67	132.62
319.9	131.62
320.129	127.62
320.358	137.62
320.587	123.62
320.816	132.62
321.046	111.62
321.275	136.62
321.504	120.62
321.733	138.62
321.962	131.62
322.191	135.62
322.42	131.62
322.649	127.62
322.878	133.62
323.108	146.62
323.337	142.62
323.566	144.62
323.795	135.62
324.024	146.62
324.253	143.62
324.482	129.62
324.71	146.62
324.939	146.62
325.168	129.62
325.397	135.62
325.626	135.62
325.855	143.62
326.084	139.62
326.313	126.62
326.542	145.62
326.77	137.62
326.999	146.62
327.228	127.62
327.457	123.62
327.686	135.62
327.914	139.62
328.143	135.62
328.372	140.62
328.6	140.62
328.829	146.62
329.058	117.62
329.287	151.62
329.515	146.62
329.744	153.62
329.972	122.62
330.201	160.62
330.43	147.62
330.658	158.62
330.887	133.62
331.115	141.62
331.344	133.62
331.572	150.62
331.801	141.62
332.03	144.62
332.258	154.62
332.486	147.62
332.715	148.62
332.943	177.62
333.172	148.62
333.4	191.62
333.629	166.62
333.857	186.62
334.085	157.62
334.314	174.62
334.542	150.62
334.771	173.62
334.999	152.62
335.227	158.62
335.455	144.62
335.684	170.62
335.912	165.62
336.14	159.62
336.369	167.62
336.597	144.62
336.825	150.62
337.053	132.62
337.281	147.62
337.51	146.62
337.738	149.62
337.966	140.62
338.194	157.62
338.422	145.62
338.65	153.62
338.878	139.62
339.106	140.62
339.334	142.62
339.562	141.62
339.79	145.62
340.018	149.62
340.246	135.62
340.474	147.62
340.702	131.62
340.93	150.62
341.158	154.62
341.386	151.62
341.614	130.62
341.842	138.62
342.07	131.62
342.298	118.62
342.526	133.62
342.754	153.62
342.981	142.62
343.209	140.62
343.437	160.62
343.665	136.62
343.893	158.62
344.12	153.62
344.348	156.62
344.576	157.62
344.804	148.62
345.031	136.62
345.259	155.62
345.487	144.62
345.714	131.62
345.942	140.62
346.17	135.62
346.397	155.62
346.625	157.62
346.853	138.62
347.08	134.62
347.308	142.62
347.535	145.62
347.763	149.62
347.99	151.62
348.218	155.62
348.445	133.62
348.673	136.62
348.9	143.62
349.128	138.62
349.355	127.62
349.583	149.62
349.81	139.62
350.037	147.62
350.265	138.62
350.492	124.62
350.72	133.62
350.947	146.62
351.174	135.62
351.402	138.62
351.629	138.62
351.856	130.62
352.083	139.62
352.311	139.62
352.538	146.62
352.765	140.62
352.992	147.62
353.22	136.62
353.447	132.62
353.674	142.62
353.901	131.62
354.128	140.62
354.355	158.62
354.583	140.62
354.81	131.62
355.037	149.62
355.264	138.62
355.491	161.62
355.718	146.62
355.945	133.62
356.172	147.62
356.399	136.62
356.626	148.62
356.853	144.62
357.08	143.62
357.307	134.62
357.534	135.62
357.761	155.62
357.988	140.62
358.215	144.62
358.441	150.62
358.668	137.62
358.895	148.62
359.122	161.62
359.349	133.62
359.576	143.62
359.802	134.62
360.029	128.62
360.256	145.62
360.483	152.62
360.709	131.62
360.936	138.62
361.163	140.62
361.39	136.62
361.616	151.62
361.843	149.62
362.07	144.62
362.296	139.62
362.523	132.62
362.749	134.62
362.976	140.62
363.203	152.62
363.429	143.62
363.656	131.62
363.882	117.62
364.109	146.62
364.335	130.62
364.562	135.62
364.788	124.62
365.015	148.62
365.241	131.62
365.468	139.62
365.694	120.62
365.92	142.62
366.147	142.62
366.373	127.62
366.599	146.62
366.826	143.62
367.052	132.62
367.278	138.62
367.505	146.62
367.731	154.62
367.957	143.62
368.184	130.62
368.41	139.62
368.636	151.62
368.862	143.62
369.089	137.62
369.315	135.62
369.541	143.62
369.767	165.62
369.993	150.62
370.219	136.62
370.445	145.62
370.672	144.62
370.898	131.62
371.124	133.62
371.35	139.62
371.576	153.62
371.802	158.62
372.028	149.62
372.254	136.62
372.48	152.62
372.706	146.62
372.932	151.62
373.158	150.62
373.384	160.62
373.61	146.62
373.835	143.62
374.061	159.62
374.287	145.62
374.513	150.62
374.739	143.62
374.965	152.62
375.191	138.62
375.416	152.62
375.642	155.62
375.868	161.62
376.094	158.62
376.319	163.62
376.545	155.62
376.771	151.62
376.997	163.62
377.222	141.62
377.448	149.62
377.674	151.62
377.899	133.62
378.125	152.62
378.35	127.62
378.576	139.62
378.802	151.62
379.027	164.62
379.253	161.62
379.478	162.62
379.704	149.62
379.929	137.62
380.155	149.62
380.38	140.62
380.606	140.62
380.831	160.62
381.057	162.62
381.282	153.62
381.507	143.62
381.733	149.62
381.958	148.62
382.184	141.62
382.409	150.62
382.634	169.62
382.86	154.62
383.085	168.62
383.31	154.62
383.535	190.62
383.761	159.62
383.986	163.62
384.211	160.62
384.436	173.62
384.662	164.62
384.887	153.62
385.112	160.62
385.337	161.62
385.562	174.62
385.787	180.62
386.013	172.62
386.238	175.62
386.463	184.62
386.688	188.62
386.913	160.62
387.138	157.62
387.363	171.62
387.588	167.62
387.813	181.62
388.038	174.62
388.263	186.62
388.488	167.62
388.713	165.62
388.938	160.62
389.163	161.62
389.387	160.62
389.612	163.62
389.837	178.62
390.062	172.62
390.287	178.62
390.512	171.62
390.736	158.62
390.961	176.62
391.186	186.62
391.411	172.62
391.636	198.62
391.86	180.62
392.085	200.62
392.31	188.62
392.534	168.62
392.759	189.62
392.984	175.62
393.208	200.62
393.433	187.62
393.658	178.62
393.882	181.62
394.107	191.62
394.331	200.62
394.556	195.62
394.78	182.62
395.005	180.62
395.229	196.62
395.454	202.62
395.678	188.62
395.903	206.62
396.127	202.62
396.352	191.62
396.576	185.62
396.801	207.62
397.025	205.62
397.249	204.62
397.474	207.62
397.698	212.62
397.922	215.62
398.147	206.62
398.371	211.62
398.595	206.62
398.82	203.62
399.044	230.62
399.268	240.62
399.492	301.62
399.717	315.62
399.941	296.62
400.165	275.62
400.389	243.62
400.613	221.62
400.837	223.62
401.062	240.62
401.286	245.62
401.51	230.62
401.734	237.62
401.958	244.62
402.182	238.62
402.406	240.62
402.63	238.62
402.854	256.62
403.078	244.62
403.302	274.62
403.526	260.62
403.75	272.62
403.974	251.62
404.198	268.62
404.422	276.62
404.645	265.62
404.869	249.62
405.093	265.62
405.317	268.62
405.541	255.62
405.765	248.62
405.988	263.62
406.212	270.62
406.436	274.62
406.66	259.62
406.883	262.62
407.107	277.62
407.331	298.62
407.555	319.62
407.778	310.62
408.002	280.62
408.226	268.62
408.449	266.62
408.673	266.62
408.896	288.62
409.12	269.62
409.344	274.62
409.567	281.62
409.791	276.62
410.014	302.62
410.238	263.62
410.461	299.62
410.685	287.62
410.908	271.62
411.132	272.62
411.355	277.62
411.578	289.62
411.802	272.62
412.025	265.62
412.249	260.62
412.472	265.62
412.695	259.62
412.919	274.62
413.142	255.62
413.365	265.62
413.589	276.62
413.812	260.62
414.035	265.62
414.258	268.62
414.482	260.62
414.705	271.62
414.928	274.62
415.151	282.62
415.374	292.62
415.597	282.62
415.821	268.62
416.044	244.62
416.267	267.62
416.49	260.62
416.713	280.62
416.936	281.62
417.159	266.62
417.382	248.62
417.605	267.62
417.828	268.62
418.051	274.62
418.274	282.62
418.497	277.62
418.72	262.62
418.943	264.62
419.166	282.62
419.389	304.62
419.611	282.62
419.834	288.62
420.057	286.62
420.28	261.62
420.503	272.62
420.726	279.62
420.948	263.62
421.171	290.62
421.394	264.62
421.617	270.62
421.839	265.62
422.062	284.62
422.285	275.62
422.507	280.62
422.73	266.62
422.953	279.62
423.175	282.62
423.398	284.62
423.621	299.62
423.843	274.62
424.066	278.62
424.288	297.62
424.511	303.62
424.733	282.62
424.956	306.62
425.178	272.62
425.401	272.62
425.623	269.62
425.846	287.62
426.068	268.62
426.291	274.62
426.513	271.62
426.735	271.62
426.958	268.62
427.18	266.62
427.402	251.62
427.625	260.62
427.847	252.62
428.069	254.62
428.292	244.62
428.514	242.62
428.736	261.62
428.958	248.62
429.181	241.62
429.403	243.62
429.625	254.62
429.847	240.62
430.069	249.62
430.292	257.62
430.514	247.62
430.736	261.62
430.958	266.62
431.18	253.62
431.402	257.62
431.624	236.62
431.846	232.62
432.068	237.62
432.29	238.62
432.512	246.62
432.734	260.62
432.956	268.62
433.178	280.62
433.4	278.62
433.622	272.62
433.844	267.62
434.066	246.62
434.287	246.62
434.509	243.62
434.731	253.62
434.953	264.62
435.175	261.62
435.397	279.62
435.618	250.62
435.84	242.62
436.062	247.62
436.284	254.62
436.505	246.62
436.727	256.62
436.949	251.62
437.17	261.62
437.392	253.62
437.614	240.62
437.835	223.62
438.057	228.62
438.278	233.62
438.5	235.62
438.721	252.62
438.943	264.62
439.165	249.62
439.386	264.62
439.608	276.62
439.829	255.62
440.05	254.62
440.272	264.62
440.493	265.62
440.715	260.62
440.936	276.62
441.158	267.62
441.379	286.62
441.6	291.62
441.822	280.62
442.043	283.62
442.264	283.62
442.486	265.62
442.707	282.62
442.928	272.62
443.149	280.62
443.371	312.62
443.592	270.62
443.813	282.62
444.034	276.62
444.255	305.62
444.476	296.62
444.698	330.62
444.919	309.62
445.14	564.62
445.361	400.62
445.582	310.62
445.803	289.62
446.024	278.62
446.245	292.62
446.466	288.62
446.687	272.62
446.908	281.62
447.129	266.62
447.35	280.62
447.571	292.62
447.792	280.62
448.013	264.62
448.234	260.62
448.455	249.62
448.675	251.62
448.896	247.62
449.117	266.62
449.338	242.62
449.559	240.62
449.779	251.62
450	241.62
450.221	253.62
450.442	236.62
450.662	246.62
450.883	245.62
451.104	262.62
451.324	244.62
451.545	232.62
451.766	240.62
451.986	241.62
452.207	238.62
452.428	240.62
452.648	261.62
452.869	217.62
453.089	227.62
453.31	216.62
453.53	221.62
453.751	232.62
453.971	214.62
454.192	223.62
454.412	201.62
454.633	223.62
454.853	222.62
455.073	233.62
455.294	202.62
455.514	245.62
455.734	198.62
455.955	221.62
456.175	214.62
456.395	221.62
456.616	202.62
456.836	195.62
457.056	216.62
457.276	196.62
457.497	222.62
457.717	214.62
457.937	212.62
458.157	221.62
458.377	221.62
458.598	203.62
458.818	197.62
459.038	202.62
459.258	202.62
459.478	224.62
459.698	202.62
459.918	239.62
460.138	233.62
460.358	246.62
460.578	249.62
460.798	277.62
461.018	272.62
461.238	258.62
461.458	272.62
461.678	269.62
461.898	285.62
462.118	261.62
462.338	285.62
462.558	304.62
462.777	303.62
462.997	304.62
463.217	308.62
463.437	332.62
463.657	304.62
463.876	295.62
464.096	300.62
464.316	288.62
464.536	299.62
464.755	288.62
464.975	277.62
465.195	270.62
465.414	266.62
465.634	247.62
465.854	230.62
466.073	238.62
466.293	250.62
466.512	246.62
466.732	243.62
466.951	264.62
467.171	239.62
467.391	247.62
467.61	254.62
467.829	248.62
468.049	262.62
468.268	260.62
468.488	243.62
468.707	245.62
468.927	264.62
469.146	240.62
469.365	256.62
469.585	253.62
469.804	250.62
470.023	259.62
470.243	267.62
470.462	282.62
470.681	254.62
470.901	261.62
471.12	249.62
471.339	256.62
471.558	258.62
471.777	248.62
471.997	250.62
472.216	253.62
472.435	220.62
472.654	215.62
472.873	229.62
473.092	222.62
473.311	239.62
473.53	221.62
473.749	243.62
473.968	243.62
474.187	223.62
474.406	212.62
474.625	240.62
474.844	230.62
475.063	243.62
475.282	236.62
475.501	222.62
475.72	244.62
475.939	234.62
476.158	250.62
476.377	239.62
476.596	224.62
476.814	233.62
477.033	229.62
477.252	238.62
477.471	254.62
477.69	271.62
477.908	271.62
478.127	271.62
478.346	293.62
478.564	266.62
478.783	263.62
479.002	265.62
479.22	271.62
479.439	290.62
479.658	281.62
479.876	247.62
480.095	254.62
480.313	265.62
480.532	278.62
480.751	264.62
480.969	249.62
481.188	244.62
481.406	219.62
481.624	206.62
481.843	227.62
482.061	232.62
482.28	243.62
482.498	230.62
482.717	236.62
482.935	255.62
483.153	274.62
483.372	278.62
483.59	276.62
483.808	246.62
484.027	256.62
484.245	261.62
484.463	294.62
484.681	289.62
484.9	295.62
485.118	280.62
485.336	269.62
485.554	243.62
485.772	253.62
485.99	236.62
486.209	238.62
486.427	246.62
486.645	273.62
486.863	278.62
487.081	282.62
487.299	259.62
487.517	281.62
487.735	293.62
487.953	314.62
488.171	313.62
488.389	288.62
488.607	294.62
488.825	264.62
489.043	280.62
489.261	281.62
489.479	273.62
489.696	271.62
489.914	267.62
490.132	286.62
490.35	292.62
490.568	278.62
490.786	317.62
491.003	320.62
491.221	322.62
491.439	312.62
491.657	308.62
491.874	353.62
492.092	361.62
492.31	371.62
492.527	353.62
492.745	339.62
492.963	336.62
493.18	345.62
493.398	343.62
493.615	325.62
493.833	318.62
494.05	319.62
494.268	312.62
494.485	307.62
494.703	345.62
494.92	333.62
495.138	300.62
495.355	302.62
495.573	323.62
495.79	307.62
496.008	315.62
496.225	330.62
496.442	332.62
496.66	317.62
496.877	328.62
497.094	328.62
497.312	316.62
497.529	312.62
497.746	322.62
497.963	311.62
498.181	328.62
498.398	318.62
498.615	332.62
498.832	363.62
499.049	359.62
499.267	414.62
499.484	447.62
499.701	470.62
499.918	523.62
500.135	569.62
500.352	639.62
500.569	671.62
500.786	656.62
501.003	572.62
501.22	524.62
501.437	492.62
501.654	444.62
501.871	395.62
502.088	379.62
502.305	367.62
502.522	360.62
502.739	331.62
502.956	323.62
503.172	300.62
503.389	297.62
503.606	297.62
503.823	282.62
504.04	293.62
504.256	306.62
504.473	317.62
504.69	306.62
