Data from SampA_HRD10591_00087.txt Node
Date: Mon Jan 19 11:27:16 EST 2026
User: Yrep
Spectrometer: HR+D1059
Trigger mode: 0
Integration Time (sec): 3.443000E-1
Scans to average: 1
Electric dark correction enabled: true
Nonlinearity correction enabled: false
Boxcar width: 0
XAxis mode: Wavelengths
Number of Pixels in Spectrum: 2048
>>>>>Begin Spectral Data<<<<<
223.165	-21.19
223.4	-21.19
223.635	-21.19
223.869	-21.19
224.104	-37.19
224.338	-20.19
224.573	-17.19
224.808	-10.19
225.042	2.81
225.277	5.81
225.511	14.81
225.746	13.81
225.98	-5.19
226.215	0.81
226.449	30.81
226.683	13.81
226.918	23.81
227.152	25.81
227.387	48.81
227.621	41.81
227.856	43.81
228.09	35.81
228.324	61.81
228.559	70.81
228.793	67.81
229.027	69.81
229.262	69.81
229.496	80.81
229.73	71.81
229.964	63.81
230.199	89.81
230.433	86.81
230.667	83.81
230.901	75.81
231.136	96.81
231.37	87.81
231.604	78.81
231.838	82.81
232.072	70.81
232.306	74.81
232.541	90.81
232.775	87.81
233.009	97.81
233.243	74.81
233.477	83.81
233.711	75.81
233.945	86.81
234.179	89.81
234.413	90.81
234.647	88.81
234.881	86.81
235.115	86.81
235.349	70.81
235.583	86.81
235.817	89.81
236.051	81.81
236.285	74.81
236.519	93.81
236.753	95.81
236.987	88.81
237.221	88.81
237.455	85.81
237.689	86.81
237.922	57.81
238.156	85.81
238.39	79.81
238.624	75.81
238.858	80.81
239.091	85.81
239.325	83.81
239.559	70.81
239.793	84.81
240.027	77.81
240.26	75.81
240.494	82.81
240.728	91.81
240.961	73.81
241.195	95.81
241.429	80.81
241.662	93.81
241.896	78.81
242.13	78.81
242.363	89.81
242.597	92.81
242.83	84.81
243.064	80.81
243.298	81.81
243.531	81.81
243.765	93.81
243.998	80.81
244.232	81.81
244.465	82.81
244.699	95.81
244.932	97.81
245.166	75.81
245.399	86.81
245.633	86.81
245.866	84.81
246.099	90.81
246.333	83.81
246.566	82.81
246.8	77.81
247.033	88.81
247.266	89.81
247.5	80.81
247.733	73.81
247.966	81.81
248.2	78.81
248.433	75.81
248.666	90.81
248.899	90.81
249.133	84.81
249.366	95.81
249.599	90.81
249.832	88.81
250.066	95.81
250.299	84.81
250.532	95.81
250.765	90.81
250.998	103.81
251.231	97.81
251.465	92.81
251.698	87.81
251.931	83.81
252.164	78.81
252.397	97.81
252.63	79.81
252.863	96.81
253.096	96.81
253.329	72.81
253.562	71.81
253.795	97.81
254.028	86.81
254.261	96.81
254.494	89.81
254.727	95.81
254.96	89.81
255.193	79.81
255.426	94.81
255.659	78.81
255.892	87.81
256.124	93.81
256.357	82.81
256.59	94.81
256.823	75.81
257.056	87.81
257.289	93.81
257.521	96.81
257.754	86.81
257.987	85.81
258.22	83.81
258.452	91.81
258.685	92.81
258.918	93.81
259.151	81.81
259.383	89.81
259.616	87.81
259.849	94.81
260.081	101.81
260.314	109.81
260.547	83.81
260.779	88.81
261.012	97.81
261.244	99.81
261.477	110.81
261.71	82.81
261.942	95.81
262.175	96.81
262.407	89.81
262.64	82.81
262.872	91.81
263.105	94.81
263.337	96.81
263.57	87.81
263.802	91.81
264.035	88.81
264.267	86.81
264.499	91.81
264.732	94.81
264.964	90.81
265.197	107.81
265.429	99.81
265.661	88.81
265.894	104.81
266.126	107.81
266.358	89.81
266.591	89.81
266.823	95.81
267.055	89.81
267.287	106.81
267.52	104.81
267.752	88.81
267.984	108.81
268.216	110.81
268.448	94.81
268.681	106.81
268.913	90.81
269.145	76.81
269.377	106.81
269.609	89.81
269.841	101.81
270.073	86.81
270.306	87.81
270.538	99.81
270.77	87.81
271.002	97.81
271.234	102.81
271.466	105.81
271.698	88.81
271.93	93.81
272.162	103.81
272.394	114.81
272.626	109.81
272.858	87.81
273.09	87.81
273.322	109.81
273.553	101.81
273.785	84.81
274.017	110.81
274.249	95.81
274.481	107.81
274.713	87.81
274.945	97.81
275.176	90.81
275.408	90.81
275.64	86.81
275.872	78.81
276.104	105.81
276.335	103.81
276.567	90.81
276.799	91.81
277.031	98.81
277.262	96.81
277.494	99.81
277.726	90.81
277.957	95.81
278.189	102.81
278.421	91.81
278.652	108.81
278.884	105.81
279.115	96.81
279.347	95.81
279.579	105.81
279.81	107.81
280.042	97.81
280.273	104.81
280.505	94.81
280.736	100.81
280.968	93.81
281.199	105.81
281.431	101.81
281.662	99.81
281.894	99.81
282.125	112.81
282.356	101.81
282.588	81.81
282.819	96.81
283.051	96.81
283.282	92.81
283.513	102.81
283.745	103.81
283.976	109.81
284.207	85.81
284.439	103.81
284.67	95.81
284.901	116.81
285.132	87.81
285.364	87.81
285.595	110.81
285.826	107.81
286.057	104.81
286.288	109.81
286.52	99.81
286.751	94.81
286.982	102.81
287.213	107.81
287.444	105.81
287.675	100.81
287.906	109.81
288.138	103.81
288.369	103.81
288.6	95.81
288.831	88.81
289.062	110.81
289.293	102.81
289.524	88.81
289.755	106.81
289.986	98.81
290.217	104.81
290.448	98.81
290.679	106.81
290.91	107.81
291.141	105.81
291.371	105.81
291.602	96.81
291.833	105.81
292.064	99.81
292.295	96.81
292.526	118.81
292.757	117.81
292.987	109.81
293.218	97.81
293.449	93.81
293.68	107.81
293.91	107.81
294.141	117.81
294.372	113.81
294.603	111.81
294.833	106.81
295.064	102.81
295.295	96.81
295.525	112.81
295.756	94.81
295.987	118.81
296.217	99.81
296.448	107.81
296.679	97.81
296.909	119.81
297.14	113.81
297.37	103.81
297.601	94.81
297.831	91.81
298.062	112.81
298.292	106.81
298.523	96.81
298.753	92.81
298.984	107.81
299.214	98.81
299.445	106.81
299.675	108.81
299.905	109.81
300.136	102.81
300.366	99.81
300.597	111.81
300.827	101.81
301.057	103.81
301.288	98.81
301.518	103.81
301.748	114.81
301.979	145.81
302.209	101.81
302.439	98.81
302.669	106.81
302.9	102.81
303.13	122.81
303.36	110.81
303.59	118.81
303.82	116.81
304.051	112.81
304.281	127.81
304.511	107.81
304.741	97.81
304.971	106.81
305.201	98.81
305.431	119.81
305.661	107.81
305.891	96.81
306.121	117.81
306.352	114.81
306.582	109.81
306.812	108.81
307.042	99.81
307.272	110.81
307.502	117.81
307.731	107.81
307.961	109.81
308.191	100.81
308.421	102.81
308.651	114.81
308.881	109.81
309.111	119.81
309.341	108.81
309.571	94.81
309.8	102.81
310.03	98.81
310.26	107.81
310.49	110.81
310.72	106.81
310.949	121.81
311.179	99.81
311.409	93.81
311.639	105.81
311.868	109.81
312.098	126.81
312.328	112.81
312.557	118.81
312.787	112.81
313.017	121.81
313.246	107.81
313.476	112.81
313.706	109.81
313.935	100.81
314.165	107.81
314.394	99.81
314.624	97.81
314.853	102.81
315.083	113.81
315.312	110.81
315.542	107.81
315.771	114.81
316.001	101.81
316.23	109.81
316.46	105.81
316.689	120.81
316.919	118.81
317.148	112.81
317.377	111.81
317.607	118.81
317.836	99.81
318.065	106.81
318.295	101.81
318.524	115.81
318.753	116.81
318.983	104.81
319.212	113.81
319.441	107.81
319.67	114.81
319.9	104.81
320.129	117.81
320.358	86.81
320.587	91.81
320.816	107.81
321.046	123.81
321.275	106.81
321.504	115.81
321.733	88.81
321.962	128.81
322.191	114.81
322.42	100.81
322.649	106.81
322.878	112.81
323.108	131.81
323.337	121.81
323.566	113.81
323.795	101.81
324.024	101.81
324.253	98.81
324.482	107.81
324.71	107.81
324.939	117.81
325.168	111.81
325.397	95.81
325.626	119.81
325.855	113.81
326.084	111.81
326.313	110.81
326.542	109.81
326.77	115.81
326.999	107.81
327.228	118.81
327.457	108.81
327.686	122.81
327.914	112.81
328.143	95.81
328.372	113.81
328.6	113.81
328.829	119.81
329.058	122.81
329.287	98.81
329.515	98.81
329.744	100.81
329.972	109.81
330.201	107.81
330.43	111.81
330.658	104.81
330.887	94.81
331.115	115.81
331.344	114.81
331.572	128.81
331.801	114.81
332.03	124.81
332.258	118.81
332.486	124.81
332.715	127.81
332.943	104.81
333.172	112.81
333.4	114.81
333.629	111.81
333.857	144.81
334.085	128.81
334.314	145.81
334.542	139.81
334.771	112.81
334.999	129.81
335.227	116.81
335.455	122.81
335.684	117.81
335.912	121.81
336.14	121.81
336.369	117.81
336.597	115.81
336.825	115.81
337.053	109.81
337.281	122.81
337.51	110.81
337.738	108.81
337.966	119.81
338.194	109.81
338.422	112.81
338.65	102.81
338.878	119.81
339.106	113.81
339.334	114.81
339.562	115.81
339.79	124.81
340.018	109.81
340.246	114.81
340.474	97.81
340.702	115.81
340.93	111.81
341.158	96.81
341.386	99.81
341.614	113.81
341.842	109.81
342.07	105.81
342.298	111.81
342.526	112.81
342.754	111.81
342.981	107.81
343.209	122.81
343.437	148.81
343.665	108.81
343.893	129.81
344.12	134.81
344.348	128.81
344.576	121.81
344.804	106.81
345.031	120.81
345.259	110.81
345.487	135.81
345.714	99.81
345.942	98.81
346.17	128.81
346.397	131.81
346.625	119.81
346.853	113.81
347.08	119.81
347.308	107.81
347.535	109.81
347.763	98.81
347.99	113.81
348.218	109.81
348.445	104.81
348.673	110.81
348.9	110.81
349.128	107.81
349.355	107.81
349.583	106.81
349.81	108.81
350.037	115.81
350.265	112.81
350.492	114.81
350.72	93.81
350.947	117.81
351.174	103.81
351.402	108.81
351.629	99.81
351.856	117.81
352.083	103.81
352.311	96.81
352.538	99.81
352.765	113.81
352.992	127.81
353.22	118.81
353.447	102.81
353.674	118.81
353.901	117.81
354.128	112.81
354.355	117.81
354.583	99.81
354.81	107.81
355.037	107.81
355.264	113.81
355.491	111.81
355.718	114.81
355.945	114.81
356.172	110.81
356.399	112.81
356.626	113.81
356.853	101.81
357.08	89.81
357.307	125.81
357.534	105.81
357.761	106.81
357.988	114.81
358.215	118.81
358.441	102.81
358.668	128.81
358.895	117.81
359.122	110.81
359.349	114.81
359.576	116.81
359.802	103.81
360.029	110.81
360.256	110.81
360.483	120.81
360.709	110.81
360.936	118.81
361.163	105.81
361.39	131.81
361.616	110.81
361.843	118.81
362.07	108.81
362.296	105.81
362.523	122.81
362.749	97.81
362.976	110.81
363.203	124.81
363.429	116.81
363.656	114.81
363.882	99.81
364.109	111.81
364.335	127.81
364.562	117.81
364.788	117.81
365.015	116.81
365.241	112.81
365.468	113.81
365.694	114.81
365.92	112.81
366.147	107.81
366.373	97.81
366.599	106.81
366.826	96.81
367.052	111.81
367.278	117.81
367.505	110.81
367.731	113.81
367.957	126.81
368.184	112.81
368.41	118.81
368.636	122.81
368.862	123.81
369.089	118.81
369.315	110.81
369.541	115.81
369.767	126.81
369.993	120.81
370.219	107.81
370.445	105.81
370.672	106.81
370.898	103.81
371.124	109.81
371.35	106.81
371.576	120.81
371.802	102.81
372.028	113.81
372.254	109.81
372.48	121.81
372.706	112.81
372.932	125.81
373.158	125.81
373.384	120.81
373.61	105.81
373.835	119.81
374.061	125.81
374.287	124.81
374.513	108.81
374.739	98.81
374.965	97.81
375.191	117.81
375.416	117.81
375.642	135.81
375.868	123.81
376.094	127.81
376.319	112.81
376.545	111.81
376.771	119.81
376.997	127.81
377.222	119.81
377.448	114.81
377.674	117.81
377.899	99.81
378.125	97.81
378.35	127.81
378.576	110.81
378.802	111.81
379.027	109.81
379.253	119.81
379.478	112.81
379.704	125.81
379.929	124.81
380.155	111.81
380.38	107.81
380.606	110.81
380.831	118.81
381.057	127.81
381.282	111.81
381.507	111.81
381.733	114.81
381.958	120.81
382.184	111.81
382.409	122.81
382.634	122.81
382.86	111.81
383.085	133.81
383.31	122.81
383.535	115.81
383.761	118.81
383.986	147.81
384.211	114.81
384.436	114.81
384.662	141.81
384.887	113.81
385.112	124.81
385.337	113.81
385.562	129.81
385.787	128.81
386.013	128.81
386.238	106.81
386.463	125.81
386.688	153.81
386.913	124.81
387.138	107.81
387.363	130.81
387.588	132.81
387.813	134.81
388.038	123.81
388.263	137.81
388.488	122.81
388.713	122.81
388.938	119.81
389.163	122.81
389.387	121.81
389.612	131.81
389.837	123.81
390.062	122.81
390.287	134.81
390.512	118.81
390.736	107.81
390.961	134.81
391.186	136.81
391.411	134.81
391.636	127.81
391.86	145.81
392.085	135.81
392.31	122.81
392.534	116.81
392.759	146.81
392.984	137.81
393.208	122.81
393.433	139.81
393.658	124.81
393.882	155.81
394.107	126.81
394.331	163.81
394.556	145.81
394.78	129.81
395.005	144.81
395.229	129.81
395.454	144.81
395.678	126.81
395.903	158.81
396.127	138.81
396.352	134.81
396.576	130.81
396.801	141.81
397.025	125.81
397.249	143.81
397.474	164.81
397.698	159.81
397.922	145.81
398.147	129.81
398.371	153.81
398.595	151.81
398.82	160.81
399.044	151.81
399.268	191.81
399.492	192.81
399.717	201.81
399.941	189.81
400.165	178.81
400.389	177.81
400.613	160.81
400.837	172.81
401.062	164.81
401.286	171.81
401.51	162.81
401.734	155.81
401.958	151.81
402.182	158.81
402.406	167.81
402.63	166.81
402.854	171.81
403.078	168.81
403.302	182.81
403.526	158.81
403.75	175.81
403.974	163.81
404.198	170.81
404.422	175.81
404.645	170.81
404.869	170.81
405.093	181.81
405.317	177.81
405.541	183.81
405.765	184.81
405.988	181.81
406.212	184.81
406.436	163.81
406.66	191.81
406.883	175.81
407.107	189.81
407.331	180.81
407.555	198.81
407.778	187.81
408.002	189.81
408.226	185.81
408.449	193.81
408.673	182.81
408.896	179.81
409.12	175.81
409.344	166.81
409.567	183.81
409.791	209.81
410.014	182.81
410.238	178.81
410.461	166.81
410.685	180.81
410.908	173.81
411.132	185.81
411.355	158.81
411.578	189.81
411.802	161.81
412.025	180.81
412.249	162.81
412.472	179.81
412.695	178.81
412.919	187.81
413.142	178.81
413.365	171.81
413.589	183.81
413.812	172.81
414.035	189.81
414.258	182.81
414.482	158.81
414.705	182.81
414.928	185.81
415.151	188.81
415.374	163.81
415.597	185.81
415.821	166.81
416.044	171.81
416.267	175.81
416.49	181.81
416.713	187.81
416.936	166.81
417.159	185.81
417.382	166.81
417.605	187.81
417.828	166.81
418.051	191.81
418.274	170.81
418.497	174.81
418.72	166.81
418.943	195.81
419.166	202.81
419.389	197.81
419.611	197.81
419.834	187.81
420.057	197.81
420.28	177.81
420.503	160.81
420.726	168.81
420.948	184.81
421.171	185.81
421.394	176.81
421.617	188.81
421.839	200.81
422.062	192.81
422.285	175.81
422.507	201.81
422.73	186.81
422.953	182.81
423.175	166.81
423.398	186.81
423.621	212.81
423.843	188.81
424.066	208.81
424.288	187.81
424.511	177.81
424.733	187.81
424.956	200.81
425.178	192.81
425.401	167.81
425.623	181.81
425.846	160.81
426.068	162.81
426.291	183.81
426.513	187.81
426.735	180.81
426.958	195.81
427.18	172.81
427.402	184.81
427.625	188.81
427.847	161.81
428.069	170.81
428.292	188.81
428.514	159.81
428.736	191.81
428.958	176.81
429.181	178.81
429.403	170.81
429.625	169.81
429.847	161.81
430.069	184.81
430.292	194.81
430.514	179.81
430.736	165.81
430.958	163.81
431.18	176.81
431.402	173.81
431.624	146.81
431.846	157.81
432.068	145.81
432.29	163.81
432.512	189.81
432.734	175.81
432.956	153.81
433.178	183.81
433.4	169.81
433.622	182.81
433.844	180.81
434.066	146.81
434.287	150.81
434.509	165.81
434.731	165.81
434.953	176.81
435.175	181.81
435.397	191.81
435.618	152.81
435.84	163.81
436.062	174.81
436.284	171.81
436.505	159.81
436.727	170.81
436.949	169.81
437.17	162.81
437.392	149.81
437.614	157.81
437.835	161.81
438.057	158.81
438.278	154.81
438.5	175.81
438.721	170.81
438.943	151.81
439.165	183.81
439.386	199.81
439.608	193.81
439.829	162.81
440.05	171.81
440.272	184.81
440.493	191.81
440.715	193.81
440.936	192.81
441.158	190.81
441.379	194.81
441.6	183.81
441.822	197.81
442.043	173.81
442.264	174.81
442.486	177.81
442.707	187.81
442.928	181.81
443.149	189.81
443.371	178.81
443.592	186.81
443.813	191.81
444.034	199.81
444.255	189.81
444.476	206.81
444.698	214.81
444.919	214.81
445.14	386.81
445.361	282.81
445.582	195.81
445.803	187.81
446.024	190.81
446.245	186.81
446.466	192.81
446.687	192.81
446.908	195.81
447.129	188.81
447.35	195.81
447.571	173.81
447.792	180.81
448.013	175.81
448.234	205.81
448.455	177.81
448.675	190.81
448.896	162.81
449.117	167.81
449.338	162.81
449.559	174.81
449.779	173.81
450	185.81
450.221	163.81
450.442	164.81
450.662	171.81
450.883	174.81
451.104	173.81
451.324	185.81
451.545	153.81
451.766	156.81
451.986	158.81
452.207	178.81
452.428	168.81
452.648	175.81
452.869	150.81
453.089	153.81
453.31	163.81
453.53	151.81
453.751	170.81
453.971	154.81
454.192	149.81
454.412	153.81
454.633	147.81
454.853	143.81
455.073	151.81
455.294	152.81
455.514	164.81
455.734	146.81
455.955	162.81
456.175	152.81
456.395	133.81
456.616	147.81
456.836	145.81
457.056	149.81
457.276	151.81
457.497	167.81
457.717	137.81
457.937	141.81
458.157	155.81
458.377	159.81
458.598	154.81
458.818	147.81
459.038	133.81
459.258	141.81
459.478	149.81
459.698	165.81
459.918	159.81
460.138	185.81
460.358	167.81
460.578	176.81
460.798	177.81
461.018	185.81
461.238	174.81
461.458	187.81
461.678	182.81
461.898	183.81
462.118	181.81
462.338	175.81
462.558	195.81
462.777	178.81
462.997	207.81
463.217	201.81
463.437	193.81
463.657	173.81
463.876	170.81
464.096	189.81
464.316	184.81
464.536	202.81
464.755	181.81
464.975	167.81
465.195	179.81
465.414	174.81
465.634	178.81
465.854	166.81
466.073	180.81
466.293	181.81
466.512	164.81
466.732	169.81
466.951	161.81
467.171	174.81
467.391	169.81
467.61	172.81
467.829	162.81
468.049	172.81
468.268	166.81
468.488	183.81
468.707	175.81
468.927	169.81
469.146	151.81
469.365	199.81
469.585	179.81
469.804	174.81
470.023	173.81
470.243	181.81
470.462	176.81
470.681	191.81
470.901	178.81
471.12	168.81
471.339	178.81
471.558	178.81
471.777	162.81
471.997	172.81
472.216	162.81
472.435	153.81
472.654	134.81
472.873	154.81
473.092	154.81
473.311	171.81
473.53	171.81
473.749	161.81
473.968	182.81
474.187	145.81
474.406	163.81
474.625	158.81
474.844	167.81
475.063	162.81
475.282	164.81
475.501	167.81
475.72	187.81
475.939	166.81
476.158	172.81
476.377	163.81
476.596	169.81
476.814	156.81
477.033	149.81
477.252	159.81
477.471	177.81
477.69	169.81
477.908	190.81
478.127	191.81
478.346	182.81
478.564	186.81
478.783	171.81
479.002	187.81
479.22	177.81
479.439	178.81
479.658	183.81
479.876	164.81
480.095	175.81
480.313	173.81
480.532	188.81
480.751	168.81
480.969	161.81
481.188	156.81
481.406	157.81
481.624	159.81
481.843	159.81
482.061	152.81
482.28	150.81
482.498	166.81
482.717	155.81
482.935	171.81
483.153	179.81
483.372	194.81
483.59	189.81
483.808	170.81
484.027	188.81
484.245	182.81
484.463	187.81
484.681	203.81
484.9	185.81
485.118	189.81
485.336	177.81
485.554	175.81
485.772	163.81
485.99	156.81
486.209	166.81
486.427	156.81
486.645	173.81
486.863	181.81
487.081	181.81
487.299	186.81
487.517	183.81
487.735	183.81
487.953	217.81
488.171	218.81
488.389	198.81
488.607	183.81
488.825	174.81
489.043	170.81
489.261	167.81
489.479	176.81
489.696	190.81
489.914	186.81
490.132	199.81
490.35	201.81
490.568	184.81
490.786	205.81
491.003	199.81
491.221	200.81
491.439	209.81
491.657	213.81
491.874	213.81
492.092	234.81
492.31	247.81
492.527	241.81
492.745	227.81
492.963	207.81
493.18	212.81
493.398	205.81
493.615	231.81
493.833	225.81
494.05	209.81
494.268	207.81
494.485	221.81
494.703	206.81
494.92	202.81
495.138	224.81
495.355	222.81
495.573	211.81
495.79	225.81
496.008	222.81
496.225	215.81
496.442	216.81
496.66	220.81
496.877	222.81
497.094	217.81
497.312	201.81
497.529	212.81
497.746	210.81
497.963	211.81
498.181	209.81
498.398	222.81
498.615	216.81
498.832	215.81
499.049	227.81
499.267	261.81
499.484	261.81
499.701	264.81
499.918	305.81
500.135	338.81
500.352	362.81
500.569	363.81
500.786	370.81
501.003	316.81
501.22	313.81
501.437	279.81
501.654	252.81
501.871	261.81
502.088	231.81
502.305	220.81
502.522	221.81
502.739	225.81
502.956	192.81
503.172	225.81
503.389	202.81
503.606	190.81
503.823	185.81
504.04	207.81
504.256	201.81
504.473	197.81
504.69	194.81
504.907	185.81
505.123	181.81
505.34	175.81
505.557	169.81
505.773	177.81
505.99	155.81
506.207	177.81
506.423	179.81
