Data from SampA_HRD10591_00029.txt Node
Date: Mon Jan 19 11:26:56 EST 2026
User: Yrep
Spectrometer: HR+D1059
Trigger mode: 0
Integration Time (sec): 3.443000E-1
Scans to average: 1
Electric dark correction enabled: true
Nonlinearity correction enabled: false
Boxcar width: 0
XAxis mode: Wavelengths
Number of Pixels in Spectrum: 2048
>>>>>Begin Spectral Data<<<<<
223.165	-10.44
223.4	-10.44
223.635	-10.44
223.869	-17.44
224.104	-25.44
224.338	-8.44
224.573	-15.44
224.808	-11.44
225.042	-7.44
225.277	-10.44
225.511	-6.44
225.746	0.56
225.98	2.56
226.215	9.56
226.449	14.56
226.683	22.56
226.918	26.56
227.152	36.56
227.387	31.56
227.621	36.56
227.856	48.56
228.09	53.56
228.324	50.56
228.559	66.56
228.793	57.56
229.027	66.56
229.262	71.56
229.496	54.56
229.73	66.56
229.964	76.56
230.199	72.56
230.433	78.56
230.667	93.56
230.901	84.56
231.136	76.56
231.37	85.56
231.604	81.56
231.838	80.56
232.072	74.56
232.306	95.56
232.541	84.56
232.775	70.56
233.009	82.56
233.243	83.56
233.477	91.56
233.711	79.56
233.945	79.56
234.179	83.56
234.413	89.56
234.647	76.56
234.881	78.56
235.115	77.56
235.349	77.56
235.583	80.56
235.817	75.56
236.051	83.56
236.285	79.56
236.519	84.56
236.753	92.56
236.987	76.56
237.221	67.56
237.455	74.56
237.689	81.56
237.922	72.56
238.156	92.56
238.39	83.56
238.624	75.56
238.858	69.56
239.091	82.56
239.325	68.56
239.559	76.56
239.793	79.56
240.027	78.56
240.26	87.56
240.494	71.56
240.728	83.56
240.961	86.56
241.195	85.56
241.429	91.56
241.662	54.56
241.896	72.56
242.13	84.56
242.363	63.56
242.597	84.56
242.83	84.56
243.064	88.56
243.298	77.56
243.531	66.56
243.765	78.56
243.998	94.56
244.232	81.56
244.465	75.56
244.699	83.56
244.932	89.56
245.166	89.56
245.399	87.56
245.633	76.56
245.866	75.56
246.099	89.56
246.333	95.56
246.566	80.56
246.8	88.56
247.033	74.56
247.266	86.56
247.5	74.56
247.733	75.56
247.966	90.56
248.2	89.56
248.433	88.56
248.666	89.56
248.899	89.56
249.133	69.56
249.366	93.56
249.599	76.56
249.832	76.56
250.066	93.56
250.299	82.56
250.532	77.56
250.765	84.56
250.998	90.56
251.231	88.56
251.465	80.56
251.698	63.56
251.931	85.56
252.164	69.56
252.397	88.56
252.63	86.56
252.863	88.56
253.096	68.56
253.329	86.56
253.562	80.56
253.795	94.56
254.028	87.56
254.261	87.56
254.494	78.56
254.727	93.56
254.96	84.56
255.193	84.56
255.426	81.56
255.659	74.56
255.892	61.56
256.124	87.56
256.357	81.56
256.59	85.56
256.823	84.56
257.056	91.56
257.289	85.56
257.521	86.56
257.754	100.56
257.987	86.56
258.22	91.56
258.452	82.56
258.685	103.56
258.918	92.56
259.151	87.56
259.383	86.56
259.616	74.56
259.849	88.56
260.081	89.56
260.314	93.56
260.547	87.56
260.779	87.56
261.012	85.56
261.244	84.56
261.477	120.56
261.71	85.56
261.942	80.56
262.175	110.56
262.407	95.56
262.64	91.56
262.872	100.56
263.105	98.56
263.337	103.56
263.57	89.56
263.802	91.56
264.035	80.56
264.267	92.56
264.499	86.56
264.732	94.56
264.964	94.56
265.197	93.56
265.429	91.56
265.661	95.56
265.894	96.56
266.126	85.56
266.358	89.56
266.591	83.56
266.823	92.56
267.055	92.56
267.287	91.56
267.52	94.56
267.752	93.56
267.984	97.56
268.216	94.56
268.448	88.56
268.681	82.56
268.913	93.56
269.145	96.56
269.377	100.56
269.609	87.56
269.841	77.56
270.073	95.56
270.306	98.56
270.538	97.56
270.77	88.56
271.002	82.56
271.234	95.56
271.466	96.56
271.698	90.56
271.93	89.56
272.162	92.56
272.394	108.56
272.626	104.56
272.858	89.56
273.09	82.56
273.322	90.56
273.553	95.56
273.785	93.56
274.017	91.56
274.249	103.56
274.481	94.56
274.713	102.56
274.945	95.56
275.176	95.56
275.408	85.56
275.64	91.56
275.872	96.56
276.104	95.56
276.335	104.56
276.567	96.56
276.799	97.56
277.031	100.56
277.262	87.56
277.494	96.56
277.726	98.56
277.957	94.56
278.189	101.56
278.421	102.56
278.652	106.56
278.884	112.56
279.115	107.56
279.347	107.56
279.579	107.56
279.81	94.56
280.042	94.56
280.273	101.56
280.505	82.56
280.736	99.56
280.968	94.56
281.199	96.56
281.431	96.56
281.662	104.56
281.894	92.56
282.125	97.56
282.356	94.56
282.588	92.56
282.819	102.56
283.051	104.56
283.282	109.56
283.513	103.56
283.745	117.56
283.976	99.56
284.207	86.56
284.439	103.56
284.67	96.56
284.901	95.56
285.132	98.56
285.364	87.56
285.595	89.56
285.826	99.56
286.057	102.56
286.288	107.56
286.52	98.56
286.751	94.56
286.982	103.56
287.213	90.56
287.444	85.56
287.675	99.56
287.906	103.56
288.138	96.56
288.369	108.56
288.6	83.56
288.831	97.56
289.062	100.56
289.293	88.56
289.524	89.56
289.755	92.56
289.986	88.56
290.217	99.56
290.448	115.56
290.679	116.56
290.91	93.56
291.141	89.56
291.371	114.56
291.602	113.56
291.833	105.56
292.064	93.56
292.295	93.56
292.526	91.56
292.757	96.56
292.987	93.56
293.218	109.56
293.449	102.56
293.68	104.56
293.91	100.56
294.141	108.56
294.372	98.56
294.603	106.56
294.833	104.56
295.064	106.56
295.295	99.56
295.525	105.56
295.756	108.56
295.987	96.56
296.217	98.56
296.448	102.56
296.679	109.56
296.909	87.56
297.14	107.56
297.37	110.56
297.601	93.56
297.831	111.56
298.062	100.56
298.292	95.56
298.523	100.56
298.753	103.56
298.984	101.56
299.214	104.56
299.445	104.56
299.675	111.56
299.905	100.56
300.136	99.56
300.366	109.56
300.597	111.56
300.827	99.56
301.057	94.56
301.288	102.56
301.518	112.56
301.748	112.56
301.979	138.56
302.209	122.56
302.439	88.56
302.669	113.56
302.9	107.56
303.13	112.56
303.36	118.56
303.59	106.56
303.82	111.56
304.051	99.56
304.281	102.56
304.511	114.56
304.741	88.56
304.971	111.56
305.201	105.56
305.431	106.56
305.661	103.56
305.891	108.56
306.121	101.56
306.352	114.56
306.582	117.56
306.812	101.56
307.042	103.56
307.272	105.56
307.502	96.56
307.731	121.56
307.961	108.56
308.191	100.56
308.421	102.56
308.651	96.56
308.881	96.56
309.111	103.56
309.341	109.56
309.571	94.56
309.8	103.56
310.03	103.56
310.26	104.56
310.49	104.56
310.72	108.56
310.949	108.56
311.179	86.56
311.409	100.56
311.639	104.56
311.868	96.56
312.098	102.56
312.328	103.56
312.557	115.56
312.787	109.56
313.017	104.56
313.246	103.56
313.476	93.56
313.706	91.56
313.935	95.56
314.165	115.56
314.394	122.56
314.624	97.56
314.853	98.56
315.083	110.56
315.312	116.56
315.542	106.56
315.771	109.56
316.001	106.56
316.23	102.56
316.46	100.56
316.689	101.56
316.919	101.56
317.148	99.56
317.377	105.56
317.607	103.56
317.836	104.56
318.065	90.56
318.295	103.56
318.524	103.56
318.753	107.56
318.983	101.56
319.212	112.56
319.441	110.56
319.67	114.56
319.9	107.56
320.129	91.56
320.358	108.56
320.587	110.56
320.816	116.56
321.046	107.56
321.275	109.56
321.504	106.56
321.733	109.56
321.962	108.56
322.191	90.56
322.42	100.56
322.649	99.56
322.878	119.56
323.108	113.56
323.337	109.56
323.566	106.56
323.795	96.56
324.024	104.56
324.253	103.56
324.482	99.56
324.71	111.56
324.939	115.56
325.168	111.56
325.397	103.56
325.626	100.56
325.855	109.56
326.084	101.56
326.313	107.56
326.542	98.56
326.77	117.56
326.999	102.56
327.228	109.56
327.457	107.56
327.686	110.56
327.914	131.56
328.143	110.56
328.372	107.56
328.6	103.56
328.829	111.56
329.058	111.56
329.287	106.56
329.515	111.56
329.744	102.56
329.972	117.56
330.201	102.56
330.43	106.56
330.658	113.56
330.887	103.56
331.115	111.56
331.344	103.56
331.572	109.56
331.801	114.56
332.03	117.56
332.258	101.56
332.486	96.56
332.715	115.56
332.943	122.56
333.172	122.56
333.4	107.56
333.629	130.56
333.857	132.56
334.085	125.56
334.314	113.56
334.542	112.56
334.771	148.56
334.999	122.56
335.227	122.56
335.455	116.56
335.684	125.56
335.912	112.56
336.14	103.56
336.369	102.56
336.597	106.56
336.825	112.56
337.053	105.56
337.281	122.56
337.51	123.56
337.738	112.56
337.966	106.56
338.194	114.56
338.422	109.56
338.65	107.56
338.878	122.56
339.106	110.56
339.334	104.56
339.562	123.56
339.79	122.56
340.018	103.56
340.246	100.56
340.474	111.56
340.702	119.56
340.93	99.56
341.158	101.56
341.386	99.56
341.614	102.56
341.842	117.56
342.07	106.56
342.298	109.56
342.526	114.56
342.754	108.56
342.981	124.56
343.209	118.56
343.437	150.56
343.665	103.56
343.893	117.56
344.12	115.56
344.348	113.56
344.576	111.56
344.804	93.56
345.031	111.56
345.259	110.56
345.487	116.56
345.714	95.56
345.942	116.56
346.17	110.56
346.397	98.56
346.625	106.56
346.853	104.56
347.08	93.56
347.308	114.56
347.535	125.56
347.763	109.56
347.99	114.56
348.218	108.56
348.445	107.56
348.673	101.56
348.9	112.56
349.128	122.56
349.355	113.56
349.583	121.56
349.81	107.56
350.037	108.56
350.265	122.56
350.492	118.56
350.72	119.56
350.947	107.56
351.174	99.56
351.402	124.56
351.629	106.56
351.856	114.56
352.083	104.56
352.311	101.56
352.538	95.56
352.765	104.56
352.992	120.56
353.22	119.56
353.447	111.56
353.674	128.56
353.901	109.56
354.128	111.56
354.355	99.56
354.583	114.56
354.81	107.56
355.037	119.56
355.264	118.56
355.491	112.56
355.718	101.56
355.945	109.56
356.172	108.56
356.399	107.56
356.626	103.56
356.853	109.56
357.08	104.56
357.307	111.56
357.534	118.56
357.761	120.56
357.988	113.56
358.215	114.56
358.441	105.56
358.668	104.56
358.895	116.56
359.122	116.56
359.349	108.56
359.576	107.56
359.802	114.56
360.029	119.56
360.256	108.56
360.483	96.56
360.709	103.56
360.936	110.56
361.163	107.56
361.39	95.56
361.616	106.56
361.843	96.56
362.07	108.56
362.296	120.56
362.523	103.56
362.749	106.56
362.976	92.56
363.203	120.56
363.429	104.56
363.656	95.56
363.882	108.56
364.109	109.56
364.335	104.56
364.562	117.56
364.788	115.56
365.015	107.56
365.241	107.56
365.468	85.56
365.694	97.56
365.92	102.56
366.147	103.56
366.373	102.56
366.599	108.56
366.826	117.56
367.052	111.56
367.278	120.56
367.505	107.56
367.731	132.56
367.957	107.56
368.184	110.56
368.41	103.56
368.636	110.56
368.862	117.56
369.089	116.56
369.315	116.56
369.541	104.56
369.767	112.56
369.993	109.56
370.219	125.56
370.445	96.56
370.672	96.56
370.898	108.56
371.124	121.56
371.35	108.56
371.576	118.56
371.802	98.56
372.028	112.56
372.254	105.56
372.48	115.56
372.706	116.56
372.932	117.56
373.158	114.56
373.384	109.56
373.61	126.56
373.835	125.56
374.061	110.56
374.287	122.56
374.513	117.56
374.739	121.56
374.965	113.56
375.191	130.56
375.416	124.56
375.642	119.56
375.868	107.56
376.094	132.56
376.319	122.56
376.545	112.56
376.771	114.56
376.997	108.56
377.222	113.56
377.448	110.56
377.674	111.56
377.899	119.56
378.125	107.56
378.35	110.56
378.576	108.56
378.802	109.56
379.027	92.56
379.253	117.56
379.478	119.56
379.704	123.56
379.929	112.56
380.155	101.56
380.38	115.56
380.606	119.56
380.831	109.56
381.057	116.56
381.282	111.56
381.507	125.56
381.733	111.56
381.958	105.56
382.184	116.56
382.409	119.56
382.634	121.56
382.86	110.56
383.085	118.56
383.31	117.56
383.535	106.56
383.761	116.56
383.986	122.56
384.211	118.56
384.436	110.56
384.662	115.56
384.887	112.56
385.112	122.56
385.337	121.56
385.562	100.56
385.787	118.56
386.013	123.56
386.238	130.56
386.463	136.56
386.688	162.56
386.913	135.56
387.138	125.56
387.363	123.56
387.588	127.56
387.813	130.56
388.038	127.56
388.263	116.56
388.488	124.56
388.713	128.56
388.938	143.56
389.163	116.56
389.387	137.56
389.612	125.56
389.837	126.56
390.062	132.56
390.287	127.56
390.512	126.56
390.736	124.56
390.961	115.56
391.186	109.56
391.411	124.56
391.636	144.56
391.86	127.56
392.085	142.56
392.31	122.56
392.534	134.56
392.759	128.56
392.984	148.56
393.208	132.56
393.433	126.56
393.658	136.56
393.882	138.56
394.107	140.56
394.331	128.56
394.556	142.56
394.78	146.56
395.005	125.56
395.229	128.56
395.454	135.56
395.678	137.56
395.903	114.56
396.127	143.56
396.352	136.56
396.576	135.56
396.801	138.56
397.025	132.56
397.249	147.56
397.474	136.56
397.698	139.56
397.922	134.56
398.147	141.56
398.371	148.56
398.595	162.56
398.82	158.56
399.044	158.56
399.268	170.56
399.492	191.56
399.717	203.56
399.941	174.56
400.165	158.56
400.389	154.56
400.613	163.56
400.837	138.56
401.062	161.56
401.286	157.56
401.51	166.56
401.734	163.56
401.958	162.56
402.182	158.56
402.406	160.56
402.63	150.56
402.854	159.56
403.078	167.56
403.302	186.56
403.526	162.56
403.75	176.56
403.974	174.56
404.198	174.56
404.422	170.56
404.645	179.56
404.869	174.56
405.093	186.56
405.317	177.56
405.541	171.56
405.765	163.56
405.988	160.56
406.212	170.56
406.436	169.56
406.66	160.56
406.883	183.56
407.107	185.56
407.331	187.56
407.555	195.56
407.778	178.56
408.002	199.56
408.226	180.56
408.449	178.56
408.673	185.56
408.896	168.56
409.12	171.56
409.344	163.56
409.567	190.56
409.791	172.56
410.014	188.56
410.238	191.56
410.461	161.56
410.685	175.56
410.908	165.56
411.132	183.56
411.355	185.56
411.578	166.56
411.802	187.56
412.025	182.56
412.249	184.56
412.472	165.56
412.695	160.56
412.919	162.56
413.142	170.56
413.365	182.56
413.589	178.56
413.812	159.56
414.035	167.56
414.258	156.56
414.482	177.56
414.705	163.56
414.928	182.56
415.151	161.56
415.374	171.56
415.597	184.56
415.821	160.56
416.044	183.56
416.267	171.56
416.49	171.56
416.713	166.56
416.936	174.56
417.159	165.56
417.382	174.56
417.605	182.56
417.828	199.56
418.051	165.56
418.274	182.56
418.497	172.56
418.72	183.56
418.943	178.56
419.166	186.56
419.389	196.56
419.611	170.56
419.834	164.56
420.057	187.56
420.28	167.56
420.503	164.56
420.726	181.56
420.948	166.56
421.171	178.56
421.394	178.56
421.617	168.56
421.839	178.56
422.062	198.56
422.285	185.56
422.507	183.56
422.73	164.56
422.953	178.56
423.175	181.56
423.398	186.56
423.621	182.56
423.843	174.56
424.066	188.56
424.288	182.56
424.511	171.56
424.733	177.56
424.956	191.56
425.178	184.56
425.401	191.56
425.623	183.56
425.846	173.56
426.068	171.56
426.291	179.56
426.513	175.56
426.735	173.56
426.958	172.56
427.18	163.56
427.402	159.56
427.625	171.56
427.847	172.56
428.069	171.56
428.292	171.56
428.514	171.56
428.736	169.56
428.958	161.56
429.181	181.56
429.403	158.56
429.625	163.56
429.847	146.56
430.069	164.56
430.292	157.56
430.514	159.56
430.736	161.56
430.958	167.56
431.18	178.56
431.402	179.56
431.624	159.56
431.846	165.56
432.068	144.56
432.29	148.56
432.512	171.56
432.734	179.56
432.956	162.56
433.178	175.56
433.4	168.56
433.622	182.56
433.844	170.56
434.066	157.56
434.287	166.56
434.509	156.56
434.731	167.56
434.953	156.56
435.175	177.56
435.397	179.56
435.618	156.56
435.84	166.56
436.062	154.56
436.284	167.56
436.505	167.56
436.727	162.56
436.949	170.56
437.17	151.56
437.392	157.56
437.614	149.56
437.835	163.56
438.057	135.56
438.278	158.56
438.5	151.56
438.721	173.56
438.943	167.56
439.165	167.56
439.386	156.56
439.608	168.56
439.829	182.56
440.05	170.56
440.272	151.56
440.493	160.56
440.715	184.56
440.936	174.56
441.158	187.56
441.379	165.56
441.6	171.56
441.822	176.56
442.043	212.56
442.264	188.56
442.486	178.56
442.707	175.56
442.928	178.56
443.149	190.56
443.371	190.56
443.592	170.56
443.813	188.56
444.034	179.56
444.255	185.56
444.476	180.56
444.698	193.56
444.919	211.56
445.14	442.56
445.361	310.56
445.582	195.56
445.803	191.56
446.024	188.56
446.245	201.56
446.466	191.56
446.687	175.56
446.908	178.56
447.129	178.56
447.35	171.56
447.571	174.56
447.792	166.56
448.013	168.56
448.234	164.56
448.455	171.56
448.675	169.56
448.896	180.56
449.117	179.56
449.338	162.56
449.559	172.56
449.779	149.56
450	154.56
450.221	163.56
450.442	176.56
450.662	169.56
450.883	148.56
451.104	154.56
451.324	163.56
451.545	165.56
451.766	166.56
451.986	164.56
452.207	175.56
452.428	174.56
452.648	149.56
452.869	147.56
453.089	163.56
453.31	156.56
453.53	143.56
453.751	154.56
453.971	121.56
454.192	143.56
454.412	135.56
454.633	149.56
454.853	144.56
455.073	146.56
455.294	157.56
455.514	162.56
455.734	139.56
455.955	167.56
456.175	147.56
456.395	138.56
456.616	158.56
456.836	151.56
457.056	132.56
457.276	157.56
457.497	148.56
457.717	151.56
457.937	157.56
458.157	147.56
458.377	137.56
458.598	149.56
458.818	134.56
459.038	117.56
459.258	156.56
459.478	171.56
459.698	162.56
459.918	153.56
460.138	170.56
460.358	168.56
460.578	180.56
460.798	180.56
461.018	187.56
461.238	170.56
461.458	171.56
461.678	177.56
461.898	190.56
462.118	166.56
462.338	181.56
462.558	165.56
462.777	203.56
462.997	200.56
463.217	192.56
463.437	196.56
463.657	186.56
463.876	186.56
464.096	173.56
464.316	178.56
464.536	182.56
464.755	175.56
464.975	172.56
465.195	182.56
465.414	166.56
465.634	166.56
465.854	164.56
466.073	162.56
466.293	131.56
466.512	159.56
466.732	146.56
466.951	165.56
467.171	173.56
467.391	164.56
467.61	175.56
467.829	187.56
468.049	150.56
468.268	170.56
468.488	154.56
468.707	165.56
468.927	170.56
469.146	159.56
469.365	159.56
469.585	170.56
469.804	185.56
470.023	168.56
470.243	180.56
470.462	176.56
470.681	170.56
470.901	176.56
471.12	153.56
471.339	167.56
471.558	170.56
471.777	176.56
471.997	167.56
472.216	178.56
472.435	142.56
472.654	150.56
472.873	154.56
473.092	153.56
473.311	153.56
473.53	158.56
473.749	156.56
473.968	172.56
474.187	163.56
474.406	149.56
474.625	150.56
474.844	163.56
475.063	163.56
475.282	155.56
475.501	157.56
475.72	179.56
475.939	150.56
476.158	160.56
476.377	157.56
476.596	164.56
476.814	154.56
477.033	168.56
477.252	166.56
477.471	165.56
477.69	171.56
477.908	171.56
478.127	169.56
478.346	163.56
478.564	168.56
478.783	177.56
479.002	174.56
479.22	190.56
479.439	185.56
479.658	164.56
479.876	171.56
480.095	170.56
480.313	180.56
480.532	179.56
480.751	173.56
480.969	167.56
481.188	160.56
481.406	150.56
481.624	163.56
481.843	165.56
482.061	153.56
482.28	164.56
482.498	172.56
482.717	146.56
482.935	165.56
483.153	180.56
483.372	167.56
483.59	173.56
483.808	162.56
484.027	170.56
484.245	182.56
484.463	175.56
484.681	175.56
484.9	163.56
485.118	179.56
485.336	146.56
485.554	153.56
485.772	166.56
485.99	178.56
486.209	165.56
486.427	155.56
486.645	164.56
486.863	173.56
487.081	167.56
487.299	178.56
487.517	168.56
487.735	217.56
487.953	200.56
488.171	177.56
488.389	208.56
488.607	178.56
488.825	178.56
489.043	157.56
489.261	182.56
489.479	185.56
489.696	194.56
489.914	164.56
490.132	188.56
490.35	183.56
490.568	192.56
490.786	190.56
491.003	198.56
491.221	194.56
491.439	184.56
491.657	216.56
491.874	222.56
492.092	208.56
492.31	220.56
492.527	205.56
492.745	214.56
492.963	202.56
493.18	214.56
493.398	198.56
493.615	207.56
493.833	204.56
494.05	196.56
494.268	199.56
494.485	216.56
494.703	212.56
494.92	188.56
495.138	195.56
495.355	199.56
495.573	199.56
495.79	202.56
496.008	202.56
496.225	190.56
496.442	188.56
496.66	202.56
496.877	190.56
497.094	202.56
497.312	184.56
497.529	198.56
497.746	183.56
497.963	174.56
498.181	197.56
498.398	200.56
498.615	203.56
498.832	219.56
499.049	228.56
499.267	244.56
499.484	255.56
499.701	288.56
499.918	298.56
500.135	321.56
500.352	336.56
500.569	338.56
500.786	348.56
501.003	327.56
501.22	284.56
501.437	276.56
501.654	253.56
501.871	232.56
502.088	219.56
502.305	238.56
502.522	191.56
502.739	196.56
502.956	196.56
503.172	182.56
503.389	195.56
503.606	190.56
503.823	175.56
504.04	183.56
504.256	183.56
504.473	180.56
504.69	191.56
504.907	194.56
505.123	182.56
505.34	181.56
505.557	167.56
505.773	181.56
505.99	157.56
506.207	159.56
506.423	160.56
506.64	174.56
