Data from SampA_HRD10591_00097.txt Node
Date: Mon Jan 19 11:27:20 EST 2026
User: Yrep
Spectrometer: HR+D1059
Trigger mode: 0
Integration Time (sec): 3.443000E-1
Scans to average: 1
Electric dark correction enabled: true
Nonlinearity correction enabled: false
Boxcar width: 0
XAxis mode: Wavelengths
Number of Pixels in Spectrum: 2048
>>>>>Begin Spectral Data<<<<<
223.165	-12.94
223.4	-12.94
223.635	-12.94
223.869	-31.94
224.104	-12.94
224.338	-4.94
224.573	-9.94
224.808	-13.94
225.042	-7.94
225.277	-14.94
225.511	2.06
225.746	8.06
225.98	17.06
226.215	14.06
226.449	22.06
226.683	9.06
226.918	12.06
227.152	25.06
227.387	39.06
227.621	31.06
227.856	49.06
228.09	26.06
228.324	50.06
228.559	53.06
228.793	37.06
229.027	74.06
229.262	64.06
229.496	63.06
229.73	63.06
229.964	71.06
230.199	81.06
230.433	68.06
230.667	81.06
230.901	87.06
231.136	81.06
231.37	92.06
231.604	73.06
231.838	78.06
232.072	84.06
232.306	81.06
232.541	89.06
232.775	91.06
233.009	88.06
233.243	89.06
233.477	86.06
233.711	74.06
233.945	71.06
234.179	95.06
234.413	67.06
234.647	93.06
234.881	90.06
235.115	84.06
235.349	71.06
235.583	88.06
235.817	74.06
236.051	95.06
236.285	78.06
236.519	82.06
236.753	77.06
236.987	78.06
237.221	85.06
237.455	82.06
237.689	89.06
237.922	75.06
238.156	75.06
238.39	86.06
238.624	71.06
238.858	86.06
239.091	83.06
239.325	88.06
239.559	71.06
239.793	74.06
240.027	93.06
240.26	74.06
240.494	82.06
240.728	89.06
240.961	79.06
241.195	76.06
241.429	84.06
241.662	79.06
241.896	72.06
242.13	79.06
242.363	70.06
242.597	91.06
242.83	87.06
243.064	78.06
243.298	66.06
243.531	75.06
243.765	76.06
243.998	107.06
244.232	75.06
244.465	79.06
244.699	60.06
244.932	87.06
245.166	76.06
245.399	82.06
245.633	75.06
245.866	85.06
246.099	64.06
246.333	76.06
246.566	71.06
246.8	79.06
247.033	60.06
247.266	84.06
247.5	82.06
247.733	86.06
247.966	69.06
248.2	87.06
248.433	80.06
248.666	84.06
248.899	81.06
249.133	63.06
249.366	94.06
249.599	78.06
249.832	71.06
250.066	75.06
250.299	80.06
250.532	88.06
250.765	83.06
250.998	79.06
251.231	95.06
251.465	86.06
251.698	80.06
251.931	78.06
252.164	66.06
252.397	92.06
252.63	82.06
252.863	79.06
253.096	78.06
253.329	91.06
253.562	77.06
253.795	75.06
254.028	84.06
254.261	91.06
254.494	86.06
254.727	99.06
254.96	85.06
255.193	89.06
255.426	92.06
255.659	93.06
255.892	92.06
256.124	84.06
256.357	78.06
256.59	86.06
256.823	104.06
257.056	85.06
257.289	82.06
257.521	94.06
257.754	90.06
257.987	75.06
258.22	94.06
258.452	79.06
258.685	94.06
258.918	95.06
259.151	88.06
259.383	93.06
259.616	70.06
259.849	72.06
260.081	90.06
260.314	78.06
260.547	82.06
260.779	85.06
261.012	101.06
261.244	92.06
261.477	85.06
261.71	92.06
261.942	92.06
262.175	94.06
262.407	96.06
262.64	75.06
262.872	93.06
263.105	79.06
263.337	92.06
263.57	77.06
263.802	97.06
264.035	85.06
264.267	96.06
264.499	81.06
264.732	85.06
264.964	87.06
265.197	86.06
265.429	92.06
265.661	83.06
265.894	95.06
266.126	90.06
266.358	82.06
266.591	84.06
266.823	89.06
267.055	95.06
267.287	89.06
267.52	99.06
267.752	80.06
267.984	98.06
268.216	86.06
268.448	96.06
268.681	103.06
268.913	95.06
269.145	81.06
269.377	91.06
269.609	86.06
269.841	94.06
270.073	90.06
270.306	99.06
270.538	107.06
270.77	86.06
271.002	83.06
271.234	105.06
271.466	99.06
271.698	83.06
271.93	103.06
272.162	101.06
272.394	101.06
272.626	94.06
272.858	94.06
273.09	96.06
273.322	90.06
273.553	86.06
273.785	99.06
274.017	104.06
274.249	94.06
274.481	95.06
274.713	91.06
274.945	91.06
275.176	94.06
275.408	96.06
275.64	86.06
275.872	82.06
276.104	91.06
276.335	90.06
276.567	103.06
276.799	85.06
277.031	97.06
277.262	95.06
277.494	105.06
277.726	88.06
277.957	87.06
278.189	99.06
278.421	85.06
278.652	88.06
278.884	93.06
279.115	85.06
279.347	93.06
279.579	92.06
279.81	96.06
280.042	89.06
280.273	91.06
280.505	91.06
280.736	83.06
280.968	97.06
281.199	111.06
281.431	96.06
281.662	89.06
281.894	90.06
282.125	104.06
282.356	93.06
282.588	100.06
282.819	108.06
283.051	102.06
283.282	107.06
283.513	110.06
283.745	82.06
283.976	94.06
284.207	92.06
284.439	103.06
284.67	108.06
284.901	92.06
285.132	97.06
285.364	98.06
285.595	100.06
285.826	107.06
286.057	113.06
286.288	95.06
286.52	108.06
286.751	112.06
286.982	96.06
287.213	89.06
287.444	107.06
287.675	88.06
287.906	113.06
288.138	107.06
288.369	97.06
288.6	108.06
288.831	100.06
289.062	110.06
289.293	87.06
289.524	86.06
289.755	95.06
289.986	103.06
290.217	104.06
290.448	100.06
290.679	98.06
290.91	104.06
291.141	105.06
291.371	106.06
291.602	106.06
291.833	106.06
292.064	113.06
292.295	108.06
292.526	100.06
292.757	104.06
292.987	94.06
293.218	103.06
293.449	112.06
293.68	99.06
293.91	94.06
294.141	107.06
294.372	105.06
294.603	101.06
294.833	106.06
295.064	102.06
295.295	89.06
295.525	101.06
295.756	89.06
295.987	104.06
296.217	90.06
296.448	94.06
296.679	90.06
296.909	93.06
297.14	93.06
297.37	112.06
297.601	100.06
297.831	105.06
298.062	100.06
298.292	91.06
298.523	106.06
298.753	117.06
298.984	100.06
299.214	108.06
299.445	98.06
299.675	107.06
299.905	96.06
300.136	95.06
300.366	92.06
300.597	109.06
300.827	98.06
301.057	108.06
301.288	102.06
301.518	93.06
301.748	97.06
301.979	138.06
302.209	102.06
302.439	106.06
302.669	97.06
302.9	105.06
303.13	91.06
303.36	95.06
303.59	103.06
303.82	108.06
304.051	118.06
304.281	98.06
304.511	106.06
304.741	99.06
304.971	95.06
305.201	103.06
305.431	108.06
305.661	102.06
305.891	91.06
306.121	112.06
306.352	99.06
306.582	95.06
306.812	105.06
307.042	93.06
307.272	103.06
307.502	104.06
307.731	101.06
307.961	104.06
308.191	96.06
308.421	116.06
308.651	95.06
308.881	113.06
309.111	119.06
309.341	103.06
309.571	104.06
309.8	97.06
310.03	103.06
310.26	95.06
310.49	104.06
310.72	116.06
310.949	99.06
311.179	95.06
311.409	99.06
311.639	105.06
311.868	110.06
312.098	99.06
312.328	103.06
312.557	100.06
312.787	106.06
313.017	123.06
313.246	114.06
313.476	111.06
313.706	106.06
313.935	110.06
314.165	109.06
314.394	99.06
314.624	101.06
314.853	113.06
315.083	98.06
315.312	109.06
315.542	97.06
315.771	98.06
316.001	90.06
316.23	105.06
316.46	102.06
316.689	126.06
316.919	125.06
317.148	114.06
317.377	108.06
317.607	120.06
317.836	100.06
318.065	109.06
318.295	102.06
318.524	87.06
318.753	99.06
318.983	112.06
319.212	113.06
319.441	109.06
319.67	103.06
319.9	96.06
320.129	113.06
320.358	105.06
320.587	99.06
320.816	103.06
321.046	106.06
321.275	110.06
321.504	109.06
321.733	120.06
321.962	119.06
322.191	105.06
322.42	107.06
322.649	111.06
322.878	117.06
323.108	100.06
323.337	112.06
323.566	108.06
323.795	101.06
324.024	105.06
324.253	102.06
324.482	107.06
324.71	117.06
324.939	114.06
325.168	101.06
325.397	110.06
325.626	96.06
325.855	101.06
326.084	101.06
326.313	117.06
326.542	112.06
326.77	114.06
326.999	103.06
327.228	113.06
327.457	108.06
327.686	120.06
327.914	113.06
328.143	110.06
328.372	102.06
328.6	108.06
328.829	113.06
329.058	100.06
329.287	89.06
329.515	111.06
329.744	114.06
329.972	118.06
330.201	122.06
330.43	111.06
330.658	111.06
330.887	115.06
331.115	121.06
331.344	114.06
331.572	127.06
331.801	112.06
332.03	121.06
332.258	116.06
332.486	115.06
332.715	107.06
332.943	120.06
333.172	138.06
333.4	111.06
333.629	106.06
333.857	121.06
334.085	120.06
334.314	123.06
334.542	111.06
334.771	127.06
334.999	111.06
335.227	119.06
335.455	114.06
335.684	134.06
335.912	116.06
336.14	119.06
336.369	118.06
336.597	122.06
336.825	101.06
337.053	110.06
337.281	110.06
337.51	119.06
337.738	107.06
337.966	105.06
338.194	120.06
338.422	94.06
338.65	112.06
338.878	131.06
339.106	107.06
339.334	102.06
339.562	114.06
339.79	115.06
340.018	96.06
340.246	110.06
340.474	105.06
340.702	120.06
340.93	102.06
341.158	109.06
341.386	107.06
341.614	105.06
341.842	108.06
342.07	106.06
342.298	105.06
342.526	116.06
342.754	110.06
342.981	99.06
343.209	104.06
343.437	147.06
343.665	131.06
343.893	111.06
344.12	106.06
344.348	109.06
344.576	112.06
344.804	104.06
345.031	110.06
345.259	117.06
345.487	118.06
345.714	114.06
345.942	110.06
346.17	99.06
346.397	96.06
346.625	96.06
346.853	96.06
347.08	107.06
347.308	104.06
347.535	112.06
347.763	96.06
347.99	118.06
348.218	112.06
348.445	104.06
348.673	94.06
348.9	98.06
349.128	114.06
349.355	126.06
349.583	123.06
349.81	114.06
350.037	119.06
350.265	106.06
350.492	106.06
350.72	112.06
350.947	123.06
351.174	117.06
351.402	108.06
351.629	101.06
351.856	107.06
352.083	112.06
352.311	107.06
352.538	102.06
352.765	110.06
352.992	111.06
353.22	120.06
353.447	103.06
353.674	110.06
353.901	102.06
354.128	108.06
354.355	100.06
354.583	108.06
354.81	105.06
355.037	116.06
355.264	100.06
355.491	119.06
355.718	109.06
355.945	109.06
356.172	112.06
356.399	108.06
356.626	103.06
356.853	105.06
357.08	93.06
357.307	110.06
357.534	104.06
357.761	108.06
357.988	123.06
358.215	105.06
358.441	103.06
358.668	113.06
358.895	106.06
359.122	99.06
359.349	105.06
359.576	111.06
359.802	101.06
360.029	107.06
360.256	120.06
360.483	109.06
360.709	108.06
360.936	119.06
361.163	115.06
361.39	104.06
361.616	111.06
361.843	104.06
362.07	126.06
362.296	110.06
362.523	109.06
362.749	96.06
362.976	114.06
363.203	122.06
363.429	93.06
363.656	112.06
363.882	96.06
364.109	112.06
364.335	123.06
364.562	116.06
364.788	111.06
365.015	106.06
365.241	113.06
365.468	121.06
365.694	104.06
365.92	115.06
366.147	97.06
366.373	107.06
366.599	110.06
366.826	106.06
367.052	104.06
367.278	115.06
367.505	109.06
367.731	123.06
367.957	113.06
368.184	101.06
368.41	103.06
368.636	112.06
368.862	106.06
369.089	120.06
369.315	120.06
369.541	99.06
369.767	124.06
369.993	110.06
370.219	107.06
370.445	103.06
370.672	119.06
370.898	116.06
371.124	106.06
371.35	109.06
371.576	103.06
371.802	107.06
372.028	99.06
372.254	105.06
372.48	116.06
372.706	121.06
372.932	112.06
373.158	101.06
373.384	131.06
373.61	111.06
373.835	108.06
374.061	125.06
374.287	116.06
374.513	124.06
374.739	104.06
374.965	122.06
375.191	124.06
375.416	123.06
375.642	115.06
375.868	111.06
376.094	117.06
376.319	107.06
376.545	117.06
376.771	107.06
376.997	123.06
377.222	121.06
377.448	115.06
377.674	114.06
377.899	114.06
378.125	123.06
378.35	130.06
378.576	110.06
378.802	100.06
379.027	113.06
379.253	124.06
379.478	108.06
379.704	109.06
379.929	103.06
380.155	124.06
380.38	123.06
380.606	115.06
380.831	104.06
381.057	116.06
381.282	111.06
381.507	118.06
381.733	114.06
381.958	112.06
382.184	116.06
382.409	125.06
382.634	124.06
382.86	114.06
383.085	119.06
383.31	116.06
383.535	113.06
383.761	112.06
383.986	124.06
384.211	125.06
384.436	122.06
384.662	128.06
384.887	111.06
385.112	118.06
385.337	123.06
385.562	146.06
385.787	136.06
386.013	135.06
386.238	141.06
386.463	128.06
386.688	152.06
386.913	117.06
387.138	124.06
387.363	115.06
387.588	128.06
387.813	136.06
388.038	118.06
388.263	119.06
388.488	141.06
388.713	105.06
388.938	122.06
389.163	136.06
389.387	126.06
389.612	128.06
389.837	131.06
390.062	125.06
390.287	127.06
390.512	133.06
390.736	136.06
390.961	131.06
391.186	124.06
391.411	125.06
391.636	122.06
391.86	144.06
392.085	141.06
392.31	137.06
392.534	123.06
392.759	139.06
392.984	139.06
393.208	125.06
393.433	127.06
393.658	146.06
393.882	135.06
394.107	134.06
394.331	133.06
394.556	148.06
394.78	146.06
395.005	150.06
395.229	144.06
395.454	146.06
395.678	154.06
395.903	139.06
396.127	145.06
396.352	138.06
396.576	135.06
396.801	137.06
397.025	123.06
397.249	143.06
397.474	152.06
397.698	155.06
397.922	148.06
398.147	135.06
398.371	134.06
398.595	151.06
398.82	166.06
399.044	181.06
399.268	175.06
399.492	189.06
399.717	181.06
399.941	184.06
400.165	178.06
400.389	166.06
400.613	153.06
400.837	166.06
401.062	157.06
401.286	153.06
401.51	159.06
401.734	146.06
401.958	180.06
402.182	146.06
402.406	154.06
402.63	158.06
402.854	166.06
403.078	177.06
403.302	159.06
403.526	169.06
403.75	178.06
403.974	178.06
404.198	195.06
404.422	180.06
404.645	184.06
404.869	187.06
405.093	172.06
405.317	173.06
405.541	186.06
405.765	166.06
405.988	164.06
406.212	172.06
406.436	173.06
406.66	191.06
406.883	197.06
407.107	193.06
407.331	179.06
407.555	200.06
407.778	176.06
408.002	197.06
408.226	200.06
408.449	196.06
408.673	182.06
408.896	190.06
409.12	180.06
409.344	182.06
409.567	185.06
409.791	186.06
410.014	179.06
410.238	193.06
410.461	180.06
410.685	179.06
410.908	197.06
411.132	193.06
411.355	180.06
411.578	187.06
411.802	178.06
412.025	174.06
412.249	178.06
412.472	183.06
412.695	164.06
412.919	169.06
413.142	178.06
413.365	165.06
413.589	180.06
413.812	171.06
414.035	173.06
414.258	172.06
414.482	185.06
414.705	172.06
414.928	178.06
415.151	193.06
415.374	183.06
415.597	182.06
415.821	174.06
416.044	180.06
416.267	181.06
416.49	183.06
416.713	179.06
416.936	179.06
417.159	184.06
417.382	188.06
417.605	176.06
417.828	185.06
418.051	197.06
418.274	188.06
418.497	182.06
418.72	176.06
418.943	199.06
419.166	192.06
419.389	198.06
419.611	190.06
419.834	198.06
420.057	190.06
420.28	182.06
420.503	189.06
420.726	183.06
420.948	179.06
421.171	194.06
421.394	173.06
421.617	198.06
421.839	196.06
422.062	178.06
422.285	180.06
422.507	189.06
422.73	172.06
422.953	180.06
423.175	185.06
423.398	186.06
423.621	191.06
423.843	196.06
424.066	200.06
424.288	195.06
424.511	206.06
424.733	190.06
424.956	206.06
425.178	190.06
425.401	198.06
425.623	182.06
425.846	191.06
426.068	182.06
426.291	177.06
426.513	182.06
426.735	187.06
426.958	185.06
427.18	187.06
427.402	184.06
427.625	180.06
427.847	185.06
428.069	169.06
428.292	173.06
428.514	183.06
428.736	181.06
428.958	179.06
429.181	182.06
429.403	166.06
429.625	168.06
429.847	159.06
430.069	187.06
430.292	182.06
430.514	170.06
430.736	174.06
430.958	168.06
431.18	184.06
431.402	186.06
431.624	150.06
431.846	143.06
432.068	144.06
432.29	159.06
432.512	169.06
432.734	172.06
432.956	172.06
433.178	196.06
433.4	187.06
433.622	182.06
433.844	171.06
434.066	183.06
434.287	171.06
434.509	154.06
434.731	154.06
434.953	183.06
435.175	180.06
435.397	174.06
435.618	175.06
435.84	159.06
436.062	156.06
436.284	169.06
436.505	178.06
436.727	170.06
436.949	174.06
437.17	186.06
437.392	165.06
437.614	164.06
437.835	163.06
438.057	158.06
438.278	157.06
438.5	171.06
438.721	166.06
438.943	182.06
439.165	176.06
439.386	181.06
439.608	189.06
439.829	202.06
440.05	203.06
440.272	199.06
440.493	202.06
440.715	174.06
440.936	180.06
441.158	194.06
441.379	183.06
441.6	200.06
441.822	180.06
442.043	196.06
442.264	183.06
442.486	196.06
442.707	188.06
442.928	183.06
443.149	203.06
443.371	199.06
443.592	189.06
443.813	179.06
444.034	185.06
444.255	198.06
444.476	195.06
444.698	199.06
444.919	207.06
445.14	364.06
445.361	286.06
445.582	211.06
445.803	186.06
446.024	188.06
446.245	197.06
446.466	189.06
446.687	195.06
446.908	183.06
447.129	182.06
447.35	196.06
447.571	183.06
447.792	187.06
448.013	192.06
448.234	194.06
448.455	168.06
448.675	173.06
448.896	172.06
449.117	190.06
449.338	170.06
449.559	164.06
449.779	168.06
450	179.06
450.221	192.06
450.442	161.06
450.662	169.06
450.883	158.06
451.104	171.06
451.324	170.06
451.545	172.06
451.766	173.06
451.986	164.06
452.207	159.06
452.428	171.06
452.648	174.06
452.869	151.06
453.089	150.06
453.31	162.06
453.53	168.06
453.751	164.06
453.971	147.06
454.192	152.06
454.412	169.06
454.633	138.06
454.853	164.06
455.073	172.06
455.294	163.06
455.514	160.06
455.734	160.06
455.955	144.06
456.175	160.06
456.395	139.06
456.616	152.06
456.836	156.06
457.056	135.06
457.276	126.06
457.497	150.06
457.717	139.06
457.937	148.06
458.157	156.06
458.377	132.06
458.598	132.06
458.818	135.06
459.038	138.06
459.258	136.06
459.478	146.06
459.698	146.06
459.918	149.06
460.138	173.06
460.358	169.06
460.578	172.06
460.798	170.06
461.018	174.06
461.238	167.06
461.458	194.06
461.678	170.06
461.898	171.06
462.118	179.06
462.338	187.06
462.558	186.06
462.777	186.06
462.997	196.06
463.217	195.06
463.437	197.06
463.657	187.06
463.876	189.06
464.096	184.06
464.316	182.06
464.536	178.06
464.755	191.06
464.975	205.06
465.195	178.06
465.414	175.06
465.634	166.06
465.854	167.06
466.073	167.06
466.293	160.06
466.512	175.06
466.732	176.06
466.951	175.06
467.171	168.06
467.391	171.06
467.61	151.06
467.829	167.06
468.049	171.06
468.268	171.06
468.488	186.06
468.707	166.06
468.927	176.06
469.146	173.06
469.365	186.06
469.585	174.06
469.804	180.06
470.023	164.06
470.243	178.06
470.462	195.06
470.681	192.06
470.901	186.06
471.12	183.06
471.339	185.06
471.558	180.06
471.777	164.06
471.997	168.06
472.216	173.06
472.435	159.06
472.654	143.06
472.873	148.06
473.092	165.06
473.311	157.06
473.53	154.06
473.749	171.06
473.968	179.06
474.187	172.06
474.406	162.06
474.625	159.06
474.844	162.06
475.063	147.06
475.282	164.06
475.501	166.06
475.72	175.06
475.939	143.06
476.158	175.06
476.377	157.06
476.596	167.06
476.814	151.06
477.033	164.06
477.252	178.06
477.471	179.06
477.69	174.06
477.908	165.06
478.127	185.06
478.346	178.06
478.564	176.06
478.783	194.06
479.002	183.06
479.22	185.06
479.439	187.06
479.658	167.06
479.876	184.06
480.095	173.06
480.313	181.06
480.532	184.06
480.751	175.06
480.969	168.06
481.188	149.06
481.406	155.06
481.624	152.06
481.843	149.06
482.061	159.06
482.28	156.06
482.498	168.06
482.717	149.06
482.935	176.06
483.153	192.06
483.372	184.06
483.59	179.06
483.808	179.06
484.027	182.06
484.245	173.06
484.463	179.06
484.681	206.06
484.9	180.06
485.118	191.06
485.336	170.06
485.554	154.06
485.772	160.06
485.99	171.06
486.209	178.06
486.427	178.06
486.645	184.06
486.863	188.06
487.081	188.06
487.299	160.06
487.517	171.06
487.735	193.06
487.953	213.06
488.171	204.06
488.389	200.06
488.607	164.06
488.825	183.06
489.043	183.06
489.261	174.06
489.479	184.06
489.696	194.06
489.914	178.06
490.132	189.06
490.35	196.06
490.568	194.06
490.786	213.06
491.003	217.06
491.221	202.06
491.439	239.06
491.657	220.06
491.874	234.06
492.092	237.06
492.31	237.06
492.527	227.06
492.745	223.06
492.963	238.06
493.18	206.06
493.398	233.06
493.615	222.06
493.833	212.06
494.05	213.06
494.268	215.06
494.485	216.06
494.703	204.06
494.92	203.06
495.138	206.06
495.355	207.06
495.573	220.06
495.79	214.06
496.008	200.06
496.225	217.06
496.442	203.06
496.66	224.06
496.877	195.06
497.094	221.06
497.312	206.06
497.529	207.06
497.746	206.06
497.963	199.06
498.181	206.06
498.398	200.06
498.615	178.06
498.832	212.06
499.049	230.06
499.267	229.06
499.484	263.06
499.701	268.06
499.918	295.06
500.135	348.06
500.352	366.06
500.569	345.06
500.786	354.06
501.003	326.06
501.22	305.06
501.437	283.06
501.654	272.06
501.871	239.06
502.088	221.06
502.305	222.06
502.522	218.06
502.739	218.06
502.956	208.06
503.172	212.06
503.389	200.06
503.606	189.06
503.823	197.06
504.04	219.06
504.256	205.06
504.473	206.06
504.69	191.06
504.907	194.06
505.123	183.06
505.34	183.06
505.557	191.06
505.773	181.06
505.99	171.06
506.207	161.06
506.423	167.06
506.64	174.06
506.856	171.06
