Data from SampA_HRD10591_00068.txt Node
Date: Mon Jan 19 11:27:10 EST 2026
User: Yrep
Spectrometer: HR+D1059
Trigger mode: 0
Integration Time (sec): 3.443000E-1
Scans to average: 1
Electric dark correction enabled: true
Nonlinearity correction enabled: false
Boxcar width: 0
XAxis mode: Wavelengths
Number of Pixels in Spectrum: 2048
>>>>>Begin Spectral Data<<<<<
223.165	-20.75
223.4	-20.75
223.635	-20.75
223.869	-19.75
224.104	-30.75
224.338	-10.75
224.573	1.25
224.808	-9.75
225.042	-3.75
225.277	10.25
225.511	-10.75
225.746	1.25
225.98	6.25
226.215	4.25
226.449	9.25
226.683	11.25
226.918	22.25
227.152	40.25
227.387	24.25
227.621	33.25
227.856	50.25
228.09	36.25
228.324	65.25
228.559	57.25
228.793	50.25
229.027	63.25
229.262	72.25
229.496	81.25
229.73	72.25
229.964	70.25
230.199	78.25
230.433	88.25
230.667	72.25
230.901	87.25
231.136	84.25
231.37	76.25
231.604	87.25
231.838	85.25
232.072	97.25
232.306	88.25
232.541	81.25
232.775	77.25
233.009	80.25
233.243	91.25
233.477	89.25
233.711	96.25
233.945	89.25
234.179	69.25
234.413	100.25
234.647	83.25
234.881	89.25
235.115	83.25
235.349	85.25
235.583	86.25
235.817	85.25
236.051	80.25
236.285	70.25
236.519	86.25
236.753	81.25
236.987	95.25
237.221	81.25
237.455	83.25
237.689	87.25
237.922	94.25
238.156	86.25
238.39	80.25
238.624	85.25
238.858	85.25
239.091	77.25
239.325	91.25
239.559	93.25
239.793	93.25
240.027	92.25
240.26	81.25
240.494	77.25
240.728	76.25
240.961	77.25
241.195	104.25
241.429	84.25
241.662	82.25
241.896	88.25
242.13	83.25
242.363	86.25
242.597	89.25
242.83	90.25
243.064	98.25
243.298	90.25
243.531	83.25
243.765	82.25
243.998	92.25
244.232	76.25
244.465	98.25
244.699	76.25
244.932	87.25
245.166	82.25
245.399	97.25
245.633	77.25
245.866	80.25
246.099	89.25
246.333	84.25
246.566	85.25
246.8	78.25
247.033	86.25
247.266	74.25
247.5	86.25
247.733	95.25
247.966	93.25
248.2	106.25
248.433	93.25
248.666	88.25
248.899	104.25
249.133	105.25
249.366	104.25
249.599	88.25
249.832	84.25
250.066	114.25
250.299	93.25
250.532	91.25
250.765	100.25
250.998	90.25
251.231	81.25
251.465	106.25
251.698	91.25
251.931	83.25
252.164	96.25
252.397	97.25
252.63	91.25
252.863	85.25
253.096	90.25
253.329	96.25
253.562	84.25
253.795	102.25
254.028	101.25
254.261	106.25
254.494	91.25
254.727	90.25
254.96	97.25
255.193	93.25
255.426	89.25
255.659	96.25
255.892	98.25
256.124	89.25
256.357	92.25
256.59	104.25
256.823	90.25
257.056	92.25
257.289	107.25
257.521	98.25
257.754	92.25
257.987	79.25
258.22	105.25
258.452	98.25
258.685	98.25
258.918	104.25
259.151	88.25
259.383	104.25
259.616	88.25
259.849	113.25
260.081	89.25
260.314	119.25
260.547	98.25
260.779	100.25
261.012	107.25
261.244	96.25
261.477	104.25
261.71	99.25
261.942	103.25
262.175	115.25
262.407	91.25
262.64	109.25
262.872	94.25
263.105	109.25
263.337	105.25
263.57	99.25
263.802	112.25
264.035	116.25
264.267	101.25
264.499	90.25
264.732	103.25
264.964	94.25
265.197	98.25
265.429	113.25
265.661	96.25
265.894	106.25
266.126	98.25
266.358	102.25
266.591	103.25
266.823	100.25
267.055	99.25
267.287	96.25
267.52	117.25
267.752	111.25
267.984	101.25
268.216	113.25
268.448	104.25
268.681	105.25
268.913	117.25
269.145	111.25
269.377	117.25
269.609	117.25
269.841	109.25
270.073	97.25
270.306	118.25
270.538	124.25
270.77	124.25
271.002	106.25
271.234	107.25
271.466	99.25
271.698	115.25
271.93	110.25
272.162	91.25
272.394	97.25
272.626	115.25
272.858	120.25
273.09	112.25
273.322	118.25
273.553	117.25
273.785	117.25
274.017	100.25
274.249	109.25
274.481	112.25
274.713	99.25
274.945	116.25
275.176	112.25
275.408	114.25
275.64	103.25
275.872	103.25
276.104	109.25
276.335	125.25
276.567	104.25
276.799	96.25
277.031	106.25
277.262	85.25
277.494	122.25
277.726	110.25
277.957	97.25
278.189	106.25
278.421	112.25
278.652	112.25
278.884	101.25
279.115	111.25
279.347	118.25
279.579	119.25
279.81	111.25
280.042	115.25
280.273	113.25
280.505	105.25
280.736	111.25
280.968	112.25
281.199	120.25
281.431	107.25
281.662	99.25
281.894	110.25
282.125	98.25
282.356	113.25
282.588	134.25
282.819	116.25
283.051	116.25
283.282	110.25
283.513	126.25
283.745	123.25
283.976	117.25
284.207	102.25
284.439	98.25
284.67	120.25
284.901	126.25
285.132	134.25
285.364	112.25
285.595	120.25
285.826	121.25
286.057	132.25
286.288	108.25
286.52	116.25
286.751	118.25
286.982	124.25
287.213	105.25
287.444	119.25
287.675	114.25
287.906	120.25
288.138	120.25
288.369	123.25
288.6	117.25
288.831	120.25
289.062	144.25
289.293	104.25
289.524	139.25
289.755	123.25
289.986	118.25
290.217	133.25
290.448	127.25
290.679	138.25
290.91	132.25
291.141	115.25
291.371	114.25
291.602	116.25
291.833	116.25
292.064	111.25
292.295	120.25
292.526	110.25
292.757	114.25
292.987	137.25
293.218	113.25
293.449	105.25
293.68	123.25
293.91	132.25
294.141	140.25
294.372	117.25
294.603	116.25
294.833	111.25
295.064	128.25
295.295	128.25
295.525	121.25
295.756	110.25
295.987	111.25
296.217	119.25
296.448	128.25
296.679	122.25
296.909	130.25
297.14	128.25
297.37	135.25
297.601	126.25
297.831	123.25
298.062	135.25
298.292	122.25
298.523	137.25
298.753	116.25
298.984	129.25
299.214	137.25
299.445	109.25
299.675	129.25
299.905	121.25
300.136	132.25
300.366	115.25
300.597	135.25
300.827	132.25
301.057	111.25
301.288	113.25
301.518	120.25
301.748	112.25
301.979	165.25
302.209	138.25
302.439	121.25
302.669	109.25
302.9	127.25
303.13	129.25
303.36	139.25
303.59	123.25
303.82	125.25
304.051	126.25
304.281	127.25
304.511	134.25
304.741	128.25
304.971	126.25
305.201	112.25
305.431	136.25
305.661	118.25
305.891	119.25
306.121	133.25
306.352	144.25
306.582	117.25
306.812	133.25
307.042	122.25
307.272	119.25
307.502	141.25
307.731	128.25
307.961	110.25
308.191	119.25
308.421	119.25
308.651	129.25
308.881	156.25
309.111	113.25
309.341	126.25
309.571	122.25
309.8	121.25
310.03	117.25
310.26	119.25
310.49	119.25
310.72	120.25
310.949	113.25
311.179	111.25
311.409	121.25
311.639	131.25
311.868	117.25
312.098	141.25
312.328	124.25
312.557	129.25
312.787	136.25
313.017	120.25
313.246	136.25
313.476	127.25
313.706	117.25
313.935	122.25
314.165	130.25
314.394	127.25
314.624	126.25
314.853	130.25
315.083	124.25
315.312	113.25
315.542	137.25
315.771	133.25
316.001	136.25
316.23	122.25
316.46	117.25
316.689	118.25
316.919	139.25
317.148	138.25
317.377	135.25
317.607	128.25
317.836	128.25
318.065	117.25
318.295	132.25
318.524	135.25
318.753	127.25
318.983	129.25
319.212	124.25
319.441	122.25
319.67	138.25
319.9	137.25
320.129	118.25
320.358	129.25
320.587	129.25
320.816	134.25
321.046	127.25
321.275	150.25
321.504	112.25
321.733	121.25
321.962	127.25
322.191	132.25
322.42	113.25
322.649	126.25
322.878	129.25
323.108	148.25
323.337	122.25
323.566	113.25
323.795	136.25
324.024	134.25
324.253	137.25
324.482	135.25
324.71	134.25
324.939	144.25
325.168	141.25
325.397	133.25
325.626	121.25
325.855	136.25
326.084	113.25
326.313	112.25
326.542	126.25
326.77	125.25
326.999	139.25
327.228	148.25
327.457	136.25
327.686	134.25
327.914	143.25
328.143	139.25
328.372	138.25
328.6	148.25
328.829	140.25
329.058	133.25
329.287	135.25
329.515	125.25
329.744	140.25
329.972	135.25
330.201	149.25
330.43	137.25
330.658	132.25
330.887	142.25
331.115	146.25
331.344	131.25
331.572	145.25
331.801	137.25
332.03	137.25
332.258	156.25
332.486	173.25
332.715	145.25
332.943	158.25
333.172	157.25
333.4	155.25
333.629	141.25
333.857	154.25
334.085	161.25
334.314	157.25
334.542	142.25
334.771	152.25
334.999	167.25
335.227	145.25
335.455	169.25
335.684	162.25
335.912	154.25
336.14	164.25
336.369	155.25
336.597	145.25
336.825	156.25
337.053	134.25
337.281	160.25
337.51	153.25
337.738	146.25
337.966	134.25
338.194	141.25
338.422	128.25
338.65	151.25
338.878	142.25
339.106	140.25
339.334	150.25
339.562	133.25
339.79	129.25
340.018	136.25
340.246	146.25
340.474	138.25
340.702	131.25
340.93	157.25
341.158	143.25
341.386	143.25
341.614	146.25
341.842	129.25
342.07	132.25
342.298	136.25
342.526	141.25
342.754	141.25
342.981	133.25
343.209	140.25
343.437	177.25
343.665	149.25
343.893	163.25
344.12	163.25
344.348	142.25
344.576	148.25
344.804	132.25
345.031	148.25
345.259	150.25
345.487	138.25
345.714	119.25
345.942	124.25
346.17	138.25
346.397	133.25
346.625	146.25
346.853	140.25
347.08	114.25
347.308	140.25
347.535	136.25
347.763	148.25
347.99	157.25
348.218	148.25
348.445	142.25
348.673	133.25
348.9	151.25
349.128	133.25
349.355	140.25
349.583	125.25
349.81	133.25
350.037	128.25
350.265	142.25
350.492	143.25
350.72	123.25
350.947	133.25
351.174	137.25
351.402	127.25
351.629	130.25
351.856	145.25
352.083	126.25
352.311	146.25
352.538	134.25
352.765	133.25
352.992	152.25
353.22	137.25
353.447	139.25
353.674	152.25
353.901	132.25
354.128	137.25
354.355	141.25
354.583	133.25
354.81	141.25
355.037	151.25
355.264	149.25
355.491	134.25
355.718	127.25
355.945	146.25
356.172	154.25
356.399	136.25
356.626	117.25
356.853	144.25
357.08	143.25
357.307	119.25
357.534	127.25
357.761	158.25
357.988	139.25
358.215	144.25
358.441	137.25
358.668	146.25
358.895	139.25
359.122	129.25
359.349	137.25
359.576	134.25
359.802	148.25
360.029	132.25
360.256	124.25
360.483	123.25
360.709	125.25
360.936	153.25
361.163	128.25
361.39	134.25
361.616	130.25
361.843	145.25
362.07	135.25
362.296	143.25
362.523	126.25
362.749	130.25
362.976	149.25
363.203	125.25
363.429	148.25
363.656	148.25
363.882	134.25
364.109	148.25
364.335	149.25
364.562	141.25
364.788	135.25
365.015	141.25
365.241	130.25
365.468	138.25
365.694	134.25
365.92	133.25
366.147	143.25
366.373	134.25
366.599	136.25
366.826	138.25
367.052	144.25
367.278	145.25
367.505	136.25
367.731	161.25
367.957	147.25
368.184	136.25
368.41	152.25
368.636	137.25
368.862	145.25
369.089	126.25
369.315	153.25
369.541	139.25
369.767	139.25
369.993	153.25
370.219	135.25
370.445	137.25
370.672	132.25
370.898	135.25
371.124	155.25
371.35	148.25
371.576	142.25
371.802	141.25
372.028	132.25
372.254	131.25
372.48	158.25
372.706	146.25
372.932	136.25
373.158	144.25
373.384	152.25
373.61	151.25
373.835	158.25
374.061	144.25
374.287	153.25
374.513	148.25
374.739	151.25
374.965	162.25
375.191	148.25
375.416	160.25
375.642	153.25
375.868	174.25
376.094	165.25
376.319	154.25
376.545	147.25
376.771	151.25
376.997	150.25
377.222	145.25
377.448	150.25
377.674	132.25
377.899	124.25
378.125	133.25
378.35	143.25
378.576	148.25
378.802	136.25
379.027	150.25
379.253	129.25
379.478	138.25
379.704	132.25
379.929	158.25
380.155	136.25
380.38	149.25
380.606	150.25
380.831	140.25
381.057	173.25
381.282	135.25
381.507	144.25
381.733	167.25
381.958	153.25
382.184	135.25
382.409	138.25
382.634	154.25
382.86	138.25
383.085	145.25
383.31	154.25
383.535	174.25
383.761	155.25
383.986	162.25
384.211	160.25
384.436	152.25
384.662	167.25
384.887	166.25
385.112	168.25
385.337	157.25
385.562	147.25
385.787	155.25
386.013	187.25
386.238	168.25
386.463	154.25
386.688	179.25
386.913	151.25
387.138	171.25
387.363	170.25
387.588	157.25
387.813	163.25
388.038	158.25
388.263	172.25
388.488	158.25
388.713	139.25
388.938	180.25
389.163	172.25
389.387	179.25
389.612	158.25
389.837	170.25
390.062	166.25
390.287	153.25
390.512	176.25
390.736	163.25
390.961	170.25
391.186	181.25
391.411	169.25
391.636	176.25
391.86	164.25
392.085	186.25
392.31	189.25
392.534	200.25
392.759	178.25
392.984	178.25
393.208	181.25
393.433	163.25
393.658	175.25
393.882	175.25
394.107	203.25
394.331	175.25
394.556	189.25
394.78	165.25
395.005	191.25
395.229	166.25
395.454	193.25
395.678	196.25
395.903	185.25
396.127	184.25
396.352	187.25
396.576	187.25
396.801	192.25
397.025	179.25
397.249	196.25
397.474	202.25
397.698	204.25
397.922	200.25
398.147	192.25
398.371	214.25
398.595	224.25
398.82	216.25
399.044	221.25
399.268	258.25
399.492	258.25
399.717	290.25
399.941	286.25
400.165	269.25
400.389	247.25
400.613	228.25
400.837	220.25
401.062	231.25
401.286	220.25
401.51	252.25
401.734	226.25
401.958	225.25
402.182	228.25
402.406	239.25
402.63	241.25
402.854	255.25
403.078	276.25
403.302	256.25
403.526	245.25
403.75	244.25
403.974	242.25
404.198	284.25
404.422	249.25
404.645	249.25
404.869	256.25
405.093	240.25
405.317	253.25
405.541	251.25
405.765	221.25
405.988	270.25
406.212	256.25
406.436	246.25
406.66	274.25
406.883	265.25
407.107	276.25
407.331	284.25
407.555	274.25
407.778	293.25
408.002	284.25
408.226	265.25
408.449	284.25
408.673	272.25
408.896	272.25
409.12	276.25
409.344	256.25
409.567	274.25
409.791	265.25
410.014	276.25
410.238	264.25
410.461	267.25
410.685	269.25
410.908	256.25
411.132	251.25
411.355	250.25
411.578	267.25
411.802	269.25
412.025	260.25
412.249	278.25
412.472	273.25
412.695	263.25
412.919	251.25
413.142	250.25
413.365	263.25
413.589	256.25
413.812	253.25
414.035	264.25
414.258	252.25
414.482	248.25
414.705	236.25
414.928	258.25
415.151	244.25
415.374	256.25
415.597	261.25
415.821	242.25
416.044	270.25
416.267	262.25
416.49	250.25
416.713	260.25
416.936	265.25
417.159	267.25
417.382	248.25
417.605	265.25
417.828	273.25
418.051	243.25
418.274	272.25
418.497	255.25
418.72	286.25
418.943	272.25
419.166	277.25
419.389	294.25
419.611	291.25
419.834	277.25
420.057	278.25
420.28	276.25
420.503	254.25
420.726	265.25
420.948	243.25
421.171	254.25
421.394	266.25
421.617	266.25
421.839	268.25
422.062	268.25
422.285	269.25
422.507	268.25
422.73	274.25
422.953	259.25
423.175	278.25
423.398	286.25
423.621	275.25
423.843	283.25
424.066	281.25
424.288	282.25
424.511	266.25
424.733	281.25
424.956	277.25
425.178	269.25
425.401	293.25
425.623	276.25
425.846	263.25
426.068	258.25
426.291	261.25
426.513	242.25
426.735	265.25
426.958	258.25
427.18	268.25
427.402	268.25
427.625	265.25
427.847	237.25
428.069	255.25
428.292	255.25
428.514	263.25
428.736	247.25
428.958	237.25
429.181	263.25
429.403	244.25
429.625	237.25
429.847	245.25
430.069	241.25
430.292	236.25
430.514	222.25
430.736	240.25
430.958	262.25
431.18	264.25
431.402	225.25
431.624	236.25
431.846	224.25
432.068	226.25
432.29	228.25
432.512	232.25
432.734	225.25
432.956	245.25
433.178	234.25
433.4	246.25
433.622	269.25
433.844	240.25
434.066	237.25
434.287	223.25
434.509	220.25
434.731	230.25
434.953	242.25
435.175	250.25
435.397	262.25
435.618	224.25
435.84	236.25
436.062	221.25
436.284	248.25
436.505	234.25
436.727	252.25
436.949	248.25
437.17	237.25
437.392	246.25
437.614	219.25
437.835	217.25
438.057	213.25
438.278	235.25
438.5	245.25
438.721	234.25
438.943	262.25
439.165	239.25
439.386	236.25
439.608	249.25
439.829	264.25
440.05	254.25
440.272	260.25
440.493	252.25
440.715	257.25
440.936	259.25
441.158	268.25
441.379	267.25
441.6	290.25
441.822	278.25
442.043	287.25
442.264	272.25
442.486	284.25
442.707	253.25
442.928	289.25
443.149	280.25
443.371	277.25
443.592	278.25
443.813	258.25
444.034	260.25
444.255	304.25
444.476	306.25
444.698	298.25
444.919	309.25
445.14	486.25
445.361	383.25
445.582	309.25
445.803	261.25
446.024	279.25
446.245	270.25
446.466	286.25
446.687	268.25
446.908	272.25
447.129	273.25
447.35	264.25
447.571	294.25
447.792	254.25
448.013	254.25
448.234	247.25
448.455	236.25
448.675	242.25
448.896	237.25
449.117	257.25
449.338	258.25
449.559	249.25
449.779	234.25
450	225.25
450.221	237.25
450.442	251.25
450.662	242.25
450.883	251.25
451.104	242.25
451.324	231.25
451.545	252.25
451.766	238.25
451.986	227.25
452.207	234.25
452.428	237.25
452.648	232.25
452.869	235.25
453.089	224.25
453.31	213.25
453.53	201.25
453.751	193.25
453.971	214.25
454.192	223.25
454.412	217.25
454.633	217.25
454.853	209.25
455.073	238.25
455.294	233.25
455.514	224.25
455.734	218.25
455.955	197.25
456.175	209.25
456.395	217.25
456.616	205.25
456.836	204.25
457.056	194.25
457.276	205.25
457.497	203.25
457.717	205.25
457.937	216.25
458.157	207.25
458.377	198.25
458.598	218.25
458.818	205.25
459.038	200.25
459.258	207.25
459.478	204.25
459.698	211.25
459.918	232.25
460.138	246.25
460.358	265.25
460.578	258.25
460.798	240.25
461.018	254.25
461.238	264.25
461.458	271.25
461.678	247.25
461.898	263.25
462.118	273.25
462.338	264.25
462.558	274.25
462.777	289.25
462.997	312.25
463.217	305.25
463.437	305.25
463.657	289.25
463.876	281.25
464.096	293.25
464.316	273.25
464.536	297.25
464.755	281.25
464.975	274.25
465.195	260.25
465.414	242.25
465.634	236.25
465.854	245.25
466.073	231.25
466.293	231.25
466.512	234.25
466.732	221.25
466.951	252.25
467.171	255.25
467.391	242.25
467.61	251.25
467.829	241.25
468.049	254.25
468.268	233.25
468.488	221.25
468.707	253.25
468.927	237.25
469.146	254.25
469.365	251.25
469.585	238.25
469.804	256.25
470.023	260.25
470.243	280.25
470.462	243.25
470.681	266.25
470.901	257.25
471.12	254.25
471.339	254.25
471.558	266.25
471.777	249.25
471.997	244.25
472.216	240.25
472.435	232.25
472.654	226.25
472.873	206.25
473.092	216.25
473.311	231.25
473.53	204.25
473.749	230.25
473.968	213.25
474.187	224.25
474.406	220.25
474.625	242.25
474.844	232.25
475.063	227.25
475.282	226.25
475.501	214.25
475.72	224.25
475.939	213.25
476.158	232.25
476.377	232.25
476.596	239.25
476.814	226.25
477.033	230.25
477.252	225.25
477.471	254.25
477.69	260.25
477.908	254.25
478.127	282.25
478.346	256.25
478.564	252.25
478.783	245.25
479.002	272.25
479.22	260.25
479.439	241.25
479.658	262.25
479.876	257.25
480.095	246.25
480.313	262.25
480.532	264.25
480.751	244.25
480.969	227.25
481.188	224.25
481.406	226.25
481.624	204.25
481.843	220.25
482.061	221.25
482.28	235.25
482.498	254.25
482.717	227.25
482.935	242.25
483.153	260.25
483.372	247.25
483.59	268.25
483.808	247.25
484.027	251.25
484.245	271.25
484.463	269.25
484.681	267.25
484.9	277.25
485.118	253.25
485.336	243.25
485.554	233.25
485.772	227.25
485.99	238.25
486.209	260.25
486.427	249.25
486.645	252.25
486.863	261.25
487.081	276.25
487.299	251.25
487.517	268.25
487.735	289.25
487.953	298.25
488.171	290.25
488.389	283.25
488.607	256.25
488.825	251.25
489.043	248.25
489.261	264.25
489.479	265.25
489.696	265.25
489.914	258.25
490.132	276.25
490.35	273.25
490.568	286.25
490.786	292.25
491.003	294.25
491.221	281.25
491.439	319.25
491.657	316.25
491.874	327.25
492.092	325.25
492.31	366.25
492.527	341.25
492.745	334.25
492.963	330.25
493.18	333.25
493.398	308.25
493.615	312.25
493.833	325.25
494.05	313.25
494.268	313.25
494.485	294.25
494.703	302.25
494.92	306.25
495.138	299.25
495.355	305.25
495.573	318.25
495.79	313.25
496.008	327.25
496.225	296.25
496.442	304.25
496.66	303.25
496.877	289.25
497.094	301.25
497.312	296.25
497.529	312.25
497.746	311.25
497.963	307.25
498.181	305.25
498.398	305.25
498.615	306.25
498.832	322.25
499.049	359.25
499.267	366.25
499.484	428.25
499.701	461.25
499.918	481.25
500.135	547.25
500.352	596.25
500.569	614.25
500.786	594.25
501.003	560.25
501.22	492.25
501.437	469.25
501.654	417.25
501.871	408.25
502.088	370.25
502.305	349.25
502.522	328.25
502.739	328.25
502.956	310.25
503.172	301.25
503.389	279.25
503.606	285.25
503.823	292.25
504.04	292.25
504.256	277.25
504.473	294.25
504.69	298.25
