Data from SampA_HRD10591_00032.txt Node
Date: Mon Jan 19 11:26:57 EST 2026
User: Yrep
Spectrometer: HR+D1059
Trigger mode: 0
Integration Time (sec): 3.443000E-1
Scans to average: 1
Electric dark correction enabled: true
Nonlinearity correction enabled: false
Boxcar width: 0
XAxis mode: Wavelengths
Number of Pixels in Spectrum: 2048
>>>>>Begin Spectral Data<<<<<
223.165	-29.75
223.4	-29.75
223.635	-29.75
223.869	-25.75
224.104	-26.75
224.338	-20.75
224.573	-10.75
224.808	-11.75
225.042	-0.75
225.277	-6.75
225.511	1.25
225.746	11.25
225.98	10.25
226.215	11.25
226.449	12.25
226.683	20.25
226.918	30.25
227.152	36.25
227.387	37.25
227.621	40.25
227.856	43.25
228.09	51.25
228.324	61.25
228.559	67.25
228.793	60.25
229.027	71.25
229.262	60.25
229.496	61.25
229.73	60.25
229.964	68.25
230.199	90.25
230.433	78.25
230.667	82.25
230.901	87.25
231.136	76.25
231.37	79.25
231.604	105.25
231.838	85.25
232.072	81.25
232.306	96.25
232.541	100.25
232.775	82.25
233.009	93.25
233.243	102.25
233.477	81.25
233.711	94.25
233.945	87.25
234.179	92.25
234.413	101.25
234.647	93.25
234.881	91.25
235.115	73.25
235.349	95.25
235.583	87.25
235.817	111.25
236.051	88.25
236.285	89.25
236.519	80.25
236.753	91.25
236.987	82.25
237.221	83.25
237.455	89.25
237.689	78.25
237.922	89.25
238.156	93.25
238.39	78.25
238.624	96.25
238.858	92.25
239.091	76.25
239.325	84.25
239.559	92.25
239.793	87.25
240.027	91.25
240.26	100.25
240.494	83.25
240.728	83.25
240.961	74.25
241.195	96.25
241.429	90.25
241.662	71.25
241.896	91.25
242.13	89.25
242.363	96.25
242.597	93.25
242.83	100.25
243.064	84.25
243.298	89.25
243.531	71.25
243.765	84.25
243.998	82.25
244.232	100.25
244.465	96.25
244.699	98.25
244.932	104.25
245.166	92.25
245.399	107.25
245.633	107.25
245.866	94.25
246.099	101.25
246.333	90.25
246.566	87.25
246.8	89.25
247.033	81.25
247.266	92.25
247.5	83.25
247.733	104.25
247.966	101.25
248.2	94.25
248.433	85.25
248.666	85.25
248.899	102.25
249.133	87.25
249.366	110.25
249.599	94.25
249.832	91.25
250.066	100.25
250.299	108.25
250.532	102.25
250.765	85.25
250.998	90.25
251.231	92.25
251.465	95.25
251.698	77.25
251.931	91.25
252.164	94.25
252.397	85.25
252.63	103.25
252.863	97.25
253.096	87.25
253.329	107.25
253.562	93.25
253.795	100.25
254.028	100.25
254.261	105.25
254.494	90.25
254.727	98.25
254.96	105.25
255.193	104.25
255.426	97.25
255.659	103.25
255.892	108.25
256.124	101.25
256.357	103.25
256.59	115.25
256.823	100.25
257.056	103.25
257.289	99.25
257.521	107.25
257.754	97.25
257.987	120.25
258.22	108.25
258.452	90.25
258.685	116.25
258.918	114.25
259.151	79.25
259.383	102.25
259.616	106.25
259.849	94.25
260.081	105.25
260.314	113.25
260.547	89.25
260.779	102.25
261.012	109.25
261.244	100.25
261.477	118.25
261.71	104.25
261.942	83.25
262.175	102.25
262.407	91.25
262.64	112.25
262.872	120.25
263.105	112.25
263.337	112.25
263.57	111.25
263.802	109.25
264.035	102.25
264.267	109.25
264.499	109.25
264.732	107.25
264.964	110.25
265.197	106.25
265.429	116.25
265.661	113.25
265.894	109.25
266.126	118.25
266.358	108.25
266.591	118.25
266.823	117.25
267.055	109.25
267.287	119.25
267.52	115.25
267.752	108.25
267.984	114.25
268.216	120.25
268.448	119.25
268.681	102.25
268.913	144.25
269.145	107.25
269.377	115.25
269.609	107.25
269.841	120.25
270.073	121.25
270.306	104.25
270.538	128.25
270.77	108.25
271.002	118.25
271.234	106.25
271.466	125.25
271.698	113.25
271.93	115.25
272.162	110.25
272.394	111.25
272.626	129.25
272.858	114.25
273.09	128.25
273.322	117.25
273.553	121.25
273.785	125.25
274.017	118.25
274.249	121.25
274.481	118.25
274.713	105.25
274.945	119.25
275.176	115.25
275.408	120.25
275.64	140.25
275.872	111.25
276.104	112.25
276.335	106.25
276.567	107.25
276.799	106.25
277.031	115.25
277.262	120.25
277.494	139.25
277.726	109.25
277.957	108.25
278.189	124.25
278.421	117.25
278.652	138.25
278.884	129.25
279.115	127.25
279.347	121.25
279.579	135.25
279.81	116.25
280.042	119.25
280.273	115.25
280.505	119.25
280.736	134.25
280.968	129.25
281.199	119.25
281.431	120.25
281.662	121.25
281.894	124.25
282.125	125.25
282.356	120.25
282.588	124.25
282.819	112.25
283.051	119.25
283.282	112.25
283.513	133.25
283.745	137.25
283.976	135.25
284.207	129.25
284.439	116.25
284.67	115.25
284.901	110.25
285.132	129.25
285.364	132.25
285.595	142.25
285.826	125.25
286.057	127.25
286.288	121.25
286.52	134.25
286.751	119.25
286.982	135.25
287.213	119.25
287.444	116.25
287.675	132.25
287.906	138.25
288.138	139.25
288.369	142.25
288.6	135.25
288.831	141.25
289.062	138.25
289.293	139.25
289.524	138.25
289.755	129.25
289.986	138.25
290.217	124.25
290.448	120.25
290.679	130.25
290.91	139.25
291.141	121.25
291.371	143.25
291.602	128.25
291.833	131.25
292.064	136.25
292.295	146.25
292.526	135.25
292.757	146.25
292.987	131.25
293.218	132.25
293.449	131.25
293.68	140.25
293.91	131.25
294.141	137.25
294.372	121.25
294.603	129.25
294.833	127.25
295.064	140.25
295.295	153.25
295.525	126.25
295.756	142.25
295.987	128.25
296.217	140.25
296.448	133.25
296.679	135.25
296.909	156.25
297.14	145.25
297.37	149.25
297.601	151.25
297.831	153.25
298.062	153.25
298.292	132.25
298.523	133.25
298.753	151.25
298.984	147.25
299.214	140.25
299.445	140.25
299.675	147.25
299.905	139.25
300.136	144.25
300.366	134.25
300.597	133.25
300.827	161.25
301.057	147.25
301.288	137.25
301.518	155.25
301.748	153.25
301.979	192.25
302.209	153.25
302.439	153.25
302.669	136.25
302.9	141.25
303.13	143.25
303.36	153.25
303.59	136.25
303.82	151.25
304.051	155.25
304.281	154.25
304.511	158.25
304.741	148.25
304.971	148.25
305.201	143.25
305.431	143.25
305.661	160.25
305.891	138.25
306.121	152.25
306.352	149.25
306.582	135.25
306.812	132.25
307.042	151.25
307.272	149.25
307.502	155.25
307.731	145.25
307.961	159.25
308.191	149.25
308.421	135.25
308.651	142.25
308.881	146.25
309.111	141.25
309.341	142.25
309.571	152.25
309.8	149.25
310.03	144.25
310.26	158.25
310.49	152.25
310.72	150.25
310.949	140.25
311.179	139.25
311.409	153.25
311.639	147.25
311.868	161.25
312.098	149.25
312.328	151.25
312.557	135.25
312.787	148.25
313.017	142.25
313.246	152.25
313.476	156.25
313.706	158.25
313.935	147.25
314.165	144.25
314.394	159.25
314.624	149.25
314.853	149.25
315.083	164.25
315.312	152.25
315.542	132.25
315.771	148.25
316.001	159.25
316.23	160.25
316.46	160.25
316.689	150.25
316.919	157.25
317.148	155.25
317.377	151.25
317.607	143.25
317.836	149.25
318.065	129.25
318.295	132.25
318.524	141.25
318.753	140.25
318.983	139.25
319.212	161.25
319.441	158.25
319.67	149.25
319.9	151.25
320.129	150.25
320.358	156.25
320.587	159.25
320.816	143.25
321.046	155.25
321.275	150.25
321.504	149.25
321.733	144.25
321.962	151.25
322.191	147.25
322.42	143.25
322.649	149.25
322.878	150.25
323.108	154.25
323.337	163.25
323.566	148.25
323.795	141.25
324.024	151.25
324.253	148.25
324.482	154.25
324.71	157.25
324.939	164.25
325.168	141.25
325.397	172.25
325.626	160.25
325.855	160.25
326.084	173.25
326.313	162.25
326.542	146.25
326.77	160.25
326.999	167.25
327.228	164.25
327.457	159.25
327.686	156.25
327.914	165.25
328.143	165.25
328.372	155.25
328.6	145.25
328.829	160.25
329.058	147.25
329.287	156.25
329.515	160.25
329.744	156.25
329.972	136.25
330.201	155.25
330.43	152.25
330.658	149.25
330.887	160.25
331.115	160.25
331.344	165.25
331.572	180.25
331.801	175.25
332.03	168.25
332.258	181.25
332.486	161.25
332.715	185.25
332.943	196.25
333.172	170.25
333.4	207.25
333.629	195.25
333.857	198.25
334.085	207.25
334.314	181.25
334.542	188.25
334.771	182.25
334.999	184.25
335.227	166.25
335.455	189.25
335.684	180.25
335.912	185.25
336.14	163.25
336.369	181.25
336.597	170.25
336.825	166.25
337.053	177.25
337.281	174.25
337.51	179.25
337.738	176.25
337.966	153.25
338.194	175.25
338.422	181.25
338.65	159.25
338.878	175.25
339.106	168.25
339.334	196.25
339.562	149.25
339.79	167.25
340.018	165.25
340.246	177.25
340.474	153.25
340.702	172.25
340.93	162.25
341.158	172.25
341.386	165.25
341.614	150.25
341.842	156.25
342.07	173.25
342.298	149.25
342.526	149.25
342.754	160.25
342.981	169.25
343.209	163.25
343.437	187.25
343.665	175.25
343.893	181.25
344.12	197.25
344.348	170.25
344.576	177.25
344.804	164.25
345.031	176.25
345.259	165.25
345.487	157.25
345.714	155.25
345.942	161.25
346.17	152.25
346.397	169.25
346.625	174.25
346.853	164.25
347.08	157.25
347.308	157.25
347.535	145.25
347.763	162.25
347.99	150.25
348.218	160.25
348.445	157.25
348.673	157.25
348.9	169.25
349.128	162.25
349.355	143.25
349.583	166.25
349.81	176.25
350.037	160.25
350.265	162.25
350.492	154.25
350.72	157.25
350.947	165.25
351.174	159.25
351.402	136.25
351.629	148.25
351.856	155.25
352.083	151.25
352.311	158.25
352.538	153.25
352.765	160.25
352.992	176.25
353.22	161.25
353.447	167.25
353.674	173.25
353.901	178.25
354.128	160.25
354.355	155.25
354.583	171.25
354.81	161.25
355.037	157.25
355.264	159.25
355.491	168.25
355.718	143.25
355.945	184.25
356.172	178.25
356.399	161.25
356.626	175.25
356.853	180.25
357.08	157.25
357.307	171.25
357.534	157.25
357.761	165.25
357.988	151.25
358.215	172.25
358.441	166.25
358.668	158.25
358.895	157.25
359.122	161.25
359.349	157.25
359.576	165.25
359.802	157.25
360.029	143.25
360.256	164.25
360.483	143.25
360.709	155.25
360.936	163.25
361.163	163.25
361.39	165.25
361.616	163.25
361.843	166.25
362.07	158.25
362.296	168.25
362.523	136.25
362.749	150.25
362.976	155.25
363.203	170.25
363.429	143.25
363.656	180.25
363.882	165.25
364.109	159.25
364.335	172.25
364.562	163.25
364.788	157.25
365.015	155.25
365.241	165.25
365.468	167.25
365.694	157.25
365.92	167.25
366.147	163.25
366.373	148.25
366.599	162.25
366.826	151.25
367.052	162.25
367.278	169.25
367.505	165.25
367.731	185.25
367.957	174.25
368.184	168.25
368.41	171.25
368.636	167.25
368.862	163.25
369.089	146.25
369.315	159.25
369.541	177.25
369.767	174.25
369.993	156.25
370.219	170.25
370.445	169.25
370.672	156.25
370.898	159.25
371.124	169.25
371.35	164.25
371.576	172.25
371.802	166.25
372.028	159.25
372.254	168.25
372.48	172.25
372.706	163.25
372.932	183.25
373.158	164.25
373.384	188.25
373.61	175.25
373.835	180.25
374.061	168.25
374.287	172.25
374.513	170.25
374.739	176.25
374.965	186.25
375.191	184.25
375.416	177.25
375.642	186.25
375.868	180.25
376.094	168.25
376.319	172.25
376.545	176.25
376.771	160.25
376.997	177.25
377.222	167.25
377.448	188.25
377.674	173.25
377.899	181.25
378.125	168.25
378.35	164.25
378.576	169.25
378.802	175.25
379.027	171.25
379.253	192.25
379.478	168.25
379.704	173.25
379.929	159.25
380.155	173.25
380.38	164.25
380.606	165.25
380.831	161.25
381.057	189.25
381.282	184.25
381.507	187.25
381.733	182.25
381.958	181.25
382.184	180.25
382.409	186.25
382.634	169.25
382.86	186.25
383.085	188.25
383.31	203.25
383.535	195.25
383.761	189.25
383.986	200.25
384.211	191.25
384.436	197.25
384.662	184.25
384.887	200.25
385.112	190.25
385.337	202.25
385.562	199.25
385.787	195.25
386.013	193.25
386.238	191.25
386.463	204.25
386.688	232.25
386.913	210.25
387.138	214.25
387.363	177.25
387.588	195.25
387.813	206.25
388.038	227.25
388.263	221.25
388.488	197.25
388.713	182.25
388.938	201.25
389.163	195.25
389.387	218.25
389.612	192.25
389.837	194.25
390.062	196.25
390.287	208.25
390.512	202.25
390.736	213.25
390.961	203.25
391.186	214.25
391.411	208.25
391.636	221.25
391.86	243.25
392.085	229.25
392.31	208.25
392.534	211.25
392.759	220.25
392.984	215.25
393.208	216.25
393.433	226.25
393.658	218.25
393.882	238.25
394.107	215.25
394.331	229.25
394.556	216.25
394.78	229.25
395.005	227.25
395.229	222.25
395.454	230.25
395.678	245.25
395.903	249.25
396.127	244.25
396.352	227.25
396.576	229.25
396.801	245.25
397.025	227.25
397.249	232.25
397.474	265.25
397.698	227.25
397.922	259.25
398.147	233.25
398.371	256.25
398.595	257.25
398.82	275.25
399.044	276.25
399.268	302.25
399.492	358.25
399.717	380.25
399.941	359.25
400.165	326.25
400.389	299.25
400.613	290.25
400.837	270.25
401.062	286.25
401.286	273.25
401.51	261.25
401.734	274.25
401.958	261.25
402.182	301.25
402.406	266.25
402.63	277.25
402.854	285.25
403.078	277.25
403.302	294.25
403.526	305.25
403.75	313.25
403.974	296.25
404.198	331.25
404.422	346.25
404.645	331.25
404.869	314.25
405.093	302.25
405.317	308.25
405.541	318.25
405.765	301.25
405.988	307.25
406.212	312.25
406.436	312.25
406.66	336.25
406.883	321.25
407.107	327.25
407.331	342.25
407.555	360.25
407.778	355.25
408.002	334.25
408.226	330.25
408.449	341.25
408.673	325.25
408.896	338.25
409.12	337.25
409.344	351.25
409.567	313.25
409.791	321.25
410.014	334.25
410.238	342.25
410.461	327.25
410.685	311.25
410.908	323.25
411.132	324.25
411.355	330.25
411.578	311.25
411.802	302.25
412.025	320.25
412.249	338.25
412.472	319.25
412.695	315.25
412.919	327.25
413.142	319.25
413.365	339.25
413.589	318.25
413.812	309.25
414.035	317.25
414.258	317.25
414.482	307.25
414.705	298.25
414.928	315.25
415.151	324.25
415.374	310.25
415.597	299.25
415.821	297.25
416.044	302.25
416.267	305.25
416.49	314.25
416.713	324.25
416.936	325.25
417.159	299.25
417.382	320.25
417.605	319.25
417.828	319.25
418.051	308.25
418.274	322.25
418.497	307.25
418.72	331.25
418.943	335.25
419.166	348.25
419.389	364.25
419.611	341.25
419.834	333.25
420.057	312.25
420.28	318.25
420.503	318.25
420.726	314.25
420.948	313.25
421.171	307.25
421.394	307.25
421.617	310.25
421.839	325.25
422.062	332.25
422.285	318.25
422.507	315.25
422.73	315.25
422.953	312.25
423.175	331.25
423.398	347.25
423.621	344.25
423.843	346.25
424.066	344.25
424.288	352.25
424.511	323.25
424.733	351.25
424.956	324.25
425.178	336.25
425.401	321.25
425.623	305.25
425.846	313.25
426.068	305.25
426.291	287.25
426.513	293.25
426.735	301.25
426.958	303.25
427.18	301.25
427.402	309.25
427.625	304.25
427.847	285.25
428.069	306.25
428.292	285.25
428.514	301.25
428.736	307.25
428.958	295.25
429.181	312.25
429.403	278.25
429.625	292.25
429.847	292.25
430.069	280.25
430.292	299.25
430.514	298.25
430.736	264.25
430.958	301.25
431.18	285.25
431.402	293.25
431.624	277.25
431.846	277.25
432.068	265.25
432.29	267.25
432.512	292.25
432.734	285.25
432.956	292.25
433.178	280.25
433.4	277.25
433.622	290.25
433.844	313.25
434.066	320.25
434.287	287.25
434.509	287.25
434.731	275.25
434.953	295.25
435.175	312.25
435.397	313.25
435.618	281.25
435.84	268.25
436.062	277.25
436.284	275.25
436.505	285.25
436.727	282.25
436.949	278.25
437.17	292.25
437.392	272.25
437.614	279.25
437.835	253.25
438.057	268.25
438.278	272.25
438.5	271.25
438.721	276.25
438.943	301.25
439.165	284.25
439.386	295.25
439.608	296.25
439.829	300.25
440.05	295.25
440.272	320.25
440.493	297.25
440.715	304.25
440.936	316.25
441.158	328.25
441.379	328.25
441.6	326.25
441.822	328.25
442.043	336.25
442.264	314.25
442.486	325.25
442.707	311.25
442.928	318.25
443.149	318.25
443.371	332.25
443.592	315.25
443.813	333.25
444.034	316.25
444.255	330.25
444.476	347.25
444.698	378.25
444.919	383.25
445.14	582.25
445.361	473.25
445.582	346.25
445.803	311.25
446.024	330.25
446.245	336.25
446.466	315.25
446.687	316.25
446.908	329.25
447.129	335.25
447.35	311.25
447.571	301.25
447.792	295.25
448.013	284.25
448.234	293.25
448.455	278.25
448.675	271.25
448.896	287.25
449.117	300.25
449.338	297.25
449.559	297.25
449.779	271.25
450	282.25
450.221	297.25
450.442	289.25
450.662	292.25
450.883	264.25
451.104	289.25
451.324	275.25
451.545	275.25
451.766	288.25
451.986	281.25
452.207	287.25
452.428	278.25
452.648	260.25
452.869	256.25
453.089	268.25
453.31	267.25
453.53	252.25
453.751	256.25
453.971	247.25
454.192	244.25
454.412	247.25
454.633	264.25
454.853	259.25
455.073	245.25
455.294	262.25
455.514	277.25
455.734	259.25
455.955	253.25
456.175	251.25
456.395	249.25
456.616	263.25
456.836	246.25
457.056	236.25
457.276	235.25
457.497	243.25
457.717	244.25
457.937	261.25
458.157	247.25
458.377	238.25
458.598	232.25
458.818	260.25
459.038	241.25
459.258	248.25
459.478	259.25
459.698	264.25
459.918	273.25
460.138	308.25
460.358	310.25
460.578	327.25
460.798	318.25
461.018	304.25
461.238	329.25
461.458	310.25
461.678	297.25
461.898	297.25
462.118	320.25
462.338	339.25
462.558	326.25
462.777	341.25
462.997	362.25
463.217	395.25
463.437	375.25
463.657	355.25
463.876	339.25
464.096	347.25
464.316	327.25
464.536	333.25
464.755	321.25
464.975	327.25
465.195	304.25
465.414	301.25
465.634	280.25
465.854	279.25
466.073	298.25
466.293	275.25
466.512	277.25
466.732	286.25
466.951	299.25
467.171	285.25
467.391	308.25
467.61	291.25
467.829	296.25
468.049	295.25
468.268	281.25
468.488	289.25
468.707	272.25
468.927	280.25
469.146	297.25
469.365	280.25
469.585	279.25
469.804	303.25
470.023	297.25
470.243	288.25
470.462	289.25
470.681	296.25
470.901	310.25
471.12	309.25
471.339	309.25
471.558	298.25
471.777	279.25
471.997	272.25
472.216	298.25
472.435	271.25
472.654	260.25
472.873	258.25
473.092	268.25
473.311	276.25
473.53	271.25
473.749	260.25
473.968	278.25
474.187	261.25
474.406	267.25
474.625	254.25
474.844	279.25
475.063	273.25
475.282	268.25
475.501	254.25
475.72	292.25
475.939	270.25
476.158	275.25
476.377	276.25
476.596	275.25
476.814	270.25
477.033	275.25
477.252	285.25
477.471	273.25
477.69	291.25
477.908	304.25
478.127	317.25
478.346	326.25
478.564	313.25
478.783	323.25
479.002	329.25
479.22	324.25
479.439	329.25
479.658	309.25
479.876	304.25
480.095	297.25
480.313	303.25
480.532	316.25
480.751	311.25
480.969	294.25
481.188	279.25
481.406	278.25
481.624	271.25
481.843	256.25
482.061	273.25
482.28	271.25
482.498	261.25
482.717	265.25
482.935	282.25
483.153	313.25
483.372	323.25
483.59	319.25
483.808	297.25
484.027	293.25
484.245	309.25
484.463	313.25
484.681	313.25
484.9	314.25
485.118	296.25
485.336	283.25
485.554	287.25
485.772	275.25
485.99	300.25
486.209	282.25
486.427	290.25
486.645	283.25
486.863	303.25
487.081	319.25
487.299	307.25
487.517	314.25
487.735	323.25
487.953	318.25
488.171	357.25
488.389	337.25
488.607	309.25
488.825	304.25
489.043	309.25
489.261	315.25
489.479	310.25
489.696	317.25
489.914	341.25
490.132	332.25
490.35	327.25
490.568	337.25
490.786	360.25
491.003	342.25
491.221	336.25
491.439	385.25
491.657	376.25
491.874	398.25
492.092	421.25
492.31	423.25
492.527	410.25
492.745	379.25
492.963	365.25
493.18	361.25
493.398	372.25
493.615	390.25
493.833	370.25
494.05	356.25
494.268	342.25
494.485	361.25
494.703	352.25
494.92	358.25
495.138	371.25
495.355	377.25
495.573	361.25
495.79	366.25
496.008	368.25
496.225	359.25
496.442	361.25
496.66	389.25
496.877	361.25
497.094	366.25
497.312	353.25
497.529	375.25
497.746	371.25
497.963	383.25
498.181	364.25
498.398	359.25
498.615	401.25
498.832	400.25
499.049	456.25
499.267	465.25
499.484	505.25
499.701	548.25
499.918	615.25
500.135	708.25
500.352	750.25
500.569	776.25
500.786	758.25
501.003	700.25
501.22	647.25
501.437	595.25
501.654	509.25
501.871	483.25
502.088	454.25
502.305	440.25
502.522	416.25
502.739	428.25
502.956	388.25
503.172	375.25
503.389	357.25
503.606	351.25
503.823	350.25
504.04	367.25
