Data from SampA_HRD10591_00056.txt Node
Date: Mon Jan 19 11:27:05 EST 2026
User: Yrep
Spectrometer: HR+D1059
Trigger mode: 0
Integration Time (sec): 3.443000E-1
Scans to average: 1
Electric dark correction enabled: true
Nonlinearity correction enabled: false
Boxcar width: 0
XAxis mode: Wavelengths
Number of Pixels in Spectrum: 2048
>>>>>Begin Spectral Data<<<<<
223.165	-18.25
223.4	-18.25
223.635	-18.25
223.869	-22.25
224.104	-20.25
224.338	-16.25
224.573	-12.25
224.808	-5.25
225.042	-8.25
225.277	-8.25
225.511	-3.25
225.746	-5.25
225.98	-0.25
226.215	10.75
226.449	38.75
226.683	13.75
226.918	25.75
227.152	30.75
227.387	37.75
227.621	33.75
227.856	49.75
228.09	47.75
228.324	43.75
228.559	72.75
228.793	49.75
229.027	61.75
229.262	80.75
229.496	79.75
229.73	70.75
229.964	55.75
230.199	72.75
230.433	79.75
230.667	92.75
230.901	81.75
231.136	79.75
231.37	79.75
231.604	79.75
231.838	88.75
232.072	84.75
232.306	81.75
232.541	83.75
232.775	90.75
233.009	95.75
233.243	95.75
233.477	94.75
233.711	87.75
233.945	96.75
234.179	75.75
234.413	93.75
234.647	90.75
234.881	87.75
235.115	89.75
235.349	76.75
235.583	95.75
235.817	88.75
236.051	83.75
236.285	80.75
236.519	81.75
236.753	84.75
236.987	85.75
237.221	76.75
237.455	68.75
237.689	81.75
237.922	93.75
238.156	81.75
238.39	82.75
238.624	76.75
238.858	86.75
239.091	85.75
239.325	84.75
239.559	85.75
239.793	83.75
240.027	93.75
240.26	84.75
240.494	83.75
240.728	76.75
240.961	89.75
241.195	85.75
241.429	79.75
241.662	81.75
241.896	96.75
242.13	84.75
242.363	73.75
242.597	75.75
242.83	85.75
243.064	91.75
243.298	91.75
243.531	73.75
243.765	82.75
243.998	91.75
244.232	98.75
244.465	81.75
244.699	80.75
244.932	93.75
245.166	79.75
245.399	100.75
245.633	73.75
245.866	86.75
246.099	89.75
246.333	95.75
246.566	89.75
246.8	93.75
247.033	81.75
247.266	99.75
247.5	104.75
247.733	85.75
247.966	84.75
248.2	85.75
248.433	87.75
248.666	77.75
248.899	109.75
249.133	96.75
249.366	121.75
249.599	83.75
249.832	85.75
250.066	100.75
250.299	92.75
250.532	81.75
250.765	88.75
250.998	97.75
251.231	81.75
251.465	101.75
251.698	86.75
251.931	79.75
252.164	81.75
252.397	86.75
252.63	106.75
252.863	94.75
253.096	92.75
253.329	105.75
253.562	88.75
253.795	100.75
254.028	92.75
254.261	102.75
254.494	92.75
254.727	106.75
254.96	79.75
255.193	93.75
255.426	101.75
255.659	87.75
255.892	98.75
256.124	110.75
256.357	94.75
256.59	106.75
256.823	87.75
257.056	96.75
257.289	96.75
257.521	97.75
257.754	96.75
257.987	93.75
258.22	94.75
258.452	89.75
258.685	94.75
258.918	93.75
259.151	120.75
259.383	102.75
259.616	95.75
259.849	91.75
260.081	107.75
260.314	103.75
260.547	103.75
260.779	94.75
261.012	109.75
261.244	103.75
261.477	106.75
261.71	92.75
261.942	110.75
262.175	99.75
262.407	93.75
262.64	95.75
262.872	102.75
263.105	95.75
263.337	103.75
263.57	89.75
263.802	87.75
264.035	87.75
264.267	93.75
264.499	96.75
264.732	105.75
264.964	103.75
265.197	106.75
265.429	100.75
265.661	110.75
265.894	96.75
266.126	115.75
266.358	104.75
266.591	104.75
266.823	96.75
267.055	106.75
267.287	100.75
267.52	108.75
267.752	117.75
267.984	112.75
268.216	112.75
268.448	103.75
268.681	108.75
268.913	117.75
269.145	96.75
269.377	104.75
269.609	105.75
269.841	104.75
270.073	107.75
270.306	104.75
270.538	110.75
270.77	97.75
271.002	110.75
271.234	89.75
271.466	120.75
271.698	104.75
271.93	105.75
272.162	118.75
272.394	113.75
272.626	106.75
272.858	108.75
273.09	125.75
273.322	105.75
273.553	117.75
273.785	96.75
274.017	91.75
274.249	102.75
274.481	109.75
274.713	101.75
274.945	120.75
275.176	108.75
275.408	127.75
275.64	117.75
275.872	119.75
276.104	114.75
276.335	112.75
276.567	107.75
276.799	94.75
277.031	101.75
277.262	108.75
277.494	126.75
277.726	115.75
277.957	120.75
278.189	103.75
278.421	120.75
278.652	109.75
278.884	112.75
279.115	109.75
279.347	119.75
279.579	109.75
279.81	104.75
280.042	125.75
280.273	104.75
280.505	125.75
280.736	127.75
280.968	123.75
281.199	123.75
281.431	121.75
281.662	122.75
281.894	109.75
282.125	122.75
282.356	113.75
282.588	114.75
282.819	116.75
283.051	112.75
283.282	118.75
283.513	136.75
283.745	134.75
283.976	109.75
284.207	112.75
284.439	111.75
284.67	127.75
284.901	109.75
285.132	128.75
285.364	120.75
285.595	130.75
285.826	113.75
286.057	112.75
286.288	135.75
286.52	111.75
286.751	120.75
286.982	110.75
287.213	120.75
287.444	135.75
287.675	109.75
287.906	109.75
288.138	134.75
288.369	127.75
288.6	119.75
288.831	110.75
289.062	113.75
289.293	119.75
289.524	117.75
289.755	120.75
289.986	120.75
290.217	126.75
290.448	117.75
290.679	121.75
290.91	115.75
291.141	118.75
291.371	118.75
291.602	141.75
291.833	127.75
292.064	122.75
292.295	124.75
292.526	104.75
292.757	131.75
292.987	120.75
293.218	127.75
293.449	128.75
293.68	127.75
293.91	119.75
294.141	139.75
294.372	127.75
294.603	113.75
294.833	121.75
295.064	122.75
295.295	108.75
295.525	117.75
295.756	126.75
295.987	126.75
296.217	115.75
296.448	123.75
296.679	115.75
296.909	112.75
297.14	120.75
297.37	137.75
297.601	115.75
297.831	127.75
298.062	116.75
298.292	127.75
298.523	122.75
298.753	119.75
298.984	133.75
299.214	125.75
299.445	127.75
299.675	121.75
299.905	131.75
300.136	126.75
300.366	139.75
300.597	131.75
300.827	137.75
301.057	123.75
301.288	121.75
301.518	120.75
301.748	128.75
301.979	163.75
302.209	125.75
302.439	136.75
302.669	120.75
302.9	119.75
303.13	119.75
303.36	124.75
303.59	136.75
303.82	153.75
304.051	125.75
304.281	126.75
304.511	124.75
304.741	123.75
304.971	125.75
305.201	141.75
305.431	119.75
305.661	128.75
305.891	119.75
306.121	136.75
306.352	137.75
306.582	136.75
306.812	116.75
307.042	119.75
307.272	125.75
307.502	122.75
307.731	127.75
307.961	132.75
308.191	139.75
308.421	132.75
308.651	133.75
308.881	127.75
309.111	108.75
309.341	130.75
309.571	137.75
309.8	135.75
310.03	118.75
310.26	128.75
310.49	119.75
310.72	126.75
310.949	138.75
311.179	136.75
311.409	121.75
311.639	133.75
311.868	128.75
312.098	142.75
312.328	145.75
312.557	132.75
312.787	143.75
313.017	149.75
313.246	139.75
313.476	131.75
313.706	131.75
313.935	143.75
314.165	148.75
314.394	135.75
314.624	125.75
314.853	136.75
315.083	133.75
315.312	117.75
315.542	132.75
315.771	121.75
316.001	141.75
316.23	123.75
316.46	129.75
316.689	158.75
316.919	131.75
317.148	125.75
317.377	134.75
317.607	133.75
317.836	128.75
318.065	134.75
318.295	121.75
318.524	147.75
318.753	139.75
318.983	134.75
319.212	148.75
319.441	134.75
319.67	143.75
319.9	134.75
320.129	120.75
320.358	127.75
320.587	125.75
320.816	128.75
321.046	138.75
321.275	135.75
321.504	127.75
321.733	133.75
321.962	137.75
322.191	126.75
322.42	129.75
322.649	123.75
322.878	137.75
323.108	137.75
323.337	144.75
323.566	133.75
323.795	147.75
324.024	148.75
324.253	139.75
324.482	155.75
324.71	135.75
324.939	137.75
325.168	151.75
325.397	128.75
325.626	144.75
325.855	137.75
326.084	137.75
326.313	154.75
326.542	125.75
326.77	139.75
326.999	134.75
327.228	136.75
327.457	124.75
327.686	123.75
327.914	122.75
328.143	121.75
328.372	128.75
328.6	131.75
328.829	150.75
329.058	141.75
329.287	122.75
329.515	136.75
329.744	135.75
329.972	137.75
330.201	130.75
330.43	157.75
330.658	134.75
330.887	137.75
331.115	158.75
331.344	155.75
331.572	155.75
331.801	136.75
332.03	163.75
332.258	150.75
332.486	161.75
332.715	155.75
332.943	156.75
333.172	161.75
333.4	167.75
333.629	150.75
333.857	168.75
334.085	155.75
334.314	162.75
334.542	170.75
334.771	166.75
334.999	152.75
335.227	140.75
335.455	151.75
335.684	160.75
335.912	163.75
336.14	147.75
336.369	151.75
336.597	152.75
336.825	149.75
337.053	155.75
337.281	146.75
337.51	165.75
337.738	162.75
337.966	154.75
338.194	148.75
338.422	137.75
338.65	161.75
338.878	158.75
339.106	136.75
339.334	160.75
339.562	139.75
339.79	146.75
340.018	137.75
340.246	126.75
340.474	136.75
340.702	143.75
340.93	151.75
341.158	131.75
341.386	145.75
341.614	137.75
341.842	137.75
342.07	144.75
342.298	134.75
342.526	136.75
342.754	132.75
342.981	140.75
343.209	140.75
343.437	167.75
343.665	151.75
343.893	169.75
344.12	172.75
344.348	157.75
344.576	143.75
344.804	143.75
345.031	145.75
345.259	140.75
345.487	147.75
345.714	147.75
345.942	145.75
346.17	150.75
346.397	139.75
346.625	143.75
346.853	134.75
347.08	133.75
347.308	151.75
347.535	143.75
347.763	139.75
347.99	134.75
348.218	141.75
348.445	151.75
348.673	135.75
348.9	135.75
349.128	140.75
349.355	148.75
349.583	150.75
349.81	130.75
350.037	115.75
350.265	149.75
350.492	128.75
350.72	124.75
350.947	140.75
351.174	137.75
351.402	135.75
351.629	140.75
351.856	148.75
352.083	122.75
352.311	133.75
352.538	133.75
352.765	127.75
352.992	160.75
353.22	133.75
353.447	138.75
353.674	136.75
353.901	141.75
354.128	145.75
354.355	129.75
354.583	127.75
354.81	137.75
355.037	131.75
355.264	144.75
355.491	153.75
355.718	135.75
355.945	151.75
356.172	152.75
356.399	131.75
356.626	134.75
356.853	126.75
357.08	126.75
357.307	140.75
357.534	138.75
357.761	149.75
357.988	152.75
358.215	134.75
358.441	135.75
358.668	124.75
358.895	139.75
359.122	124.75
359.349	134.75
359.576	140.75
359.802	120.75
360.029	121.75
360.256	149.75
360.483	135.75
360.709	127.75
360.936	153.75
361.163	129.75
361.39	132.75
361.616	133.75
361.843	150.75
362.07	151.75
362.296	123.75
362.523	124.75
362.749	135.75
362.976	126.75
363.203	154.75
363.429	140.75
363.656	155.75
363.882	136.75
364.109	127.75
364.335	137.75
364.562	148.75
364.788	139.75
365.015	143.75
365.241	137.75
365.468	139.75
365.694	133.75
365.92	136.75
366.147	136.75
366.373	142.75
366.599	145.75
366.826	145.75
367.052	141.75
367.278	134.75
367.505	136.75
367.731	157.75
367.957	148.75
368.184	139.75
368.41	143.75
368.636	133.75
368.862	155.75
369.089	137.75
369.315	128.75
369.541	151.75
369.767	155.75
369.993	143.75
370.219	135.75
370.445	142.75
370.672	152.75
370.898	138.75
371.124	150.75
371.35	142.75
371.576	155.75
371.802	162.75
372.028	143.75
372.254	138.75
372.48	155.75
372.706	161.75
372.932	135.75
373.158	151.75
373.384	150.75
373.61	151.75
373.835	160.75
374.061	140.75
374.287	144.75
374.513	159.75
374.739	139.75
374.965	157.75
375.191	170.75
375.416	151.75
375.642	158.75
375.868	169.75
376.094	160.75
376.319	147.75
376.545	139.75
376.771	150.75
376.997	149.75
377.222	158.75
377.448	161.75
377.674	138.75
377.899	155.75
378.125	152.75
378.35	149.75
378.576	145.75
378.802	138.75
379.027	161.75
379.253	160.75
379.478	150.75
379.704	167.75
379.929	147.75
380.155	160.75
380.38	139.75
380.606	149.75
380.831	152.75
381.057	164.75
381.282	141.75
381.507	160.75
381.733	155.75
381.958	166.75
382.184	152.75
382.409	163.75
382.634	166.75
382.86	153.75
383.085	157.75
383.31	151.75
383.535	170.75
383.761	157.75
383.986	161.75
384.211	163.75
384.436	165.75
384.662	157.75
384.887	165.75
385.112	163.75
385.337	154.75
385.562	174.75
385.787	177.75
386.013	163.75
386.238	178.75
386.463	180.75
386.688	208.75
386.913	175.75
387.138	155.75
387.363	171.75
387.588	181.75
387.813	183.75
388.038	172.75
388.263	161.75
388.488	155.75
388.713	165.75
388.938	178.75
389.163	161.75
389.387	169.75
389.612	162.75
389.837	175.75
390.062	169.75
390.287	174.75
390.512	176.75
390.736	168.75
390.961	160.75
391.186	182.75
391.411	195.75
391.636	180.75
391.86	196.75
392.085	184.75
392.31	179.75
392.534	199.75
392.759	183.75
392.984	191.75
393.208	187.75
393.433	193.75
393.658	189.75
393.882	180.75
394.107	191.75
394.331	188.75
394.556	171.75
394.78	197.75
395.005	193.75
395.229	198.75
395.454	198.75
395.678	185.75
395.903	204.75
396.127	211.75
396.352	192.75
396.576	189.75
396.801	202.75
397.025	186.75
397.249	212.75
397.474	213.75
397.698	202.75
397.922	206.75
398.147	215.75
398.371	217.75
398.595	221.75
398.82	223.75
399.044	224.75
399.268	247.75
399.492	289.75
399.717	289.75
399.941	293.75
400.165	280.75
400.389	243.75
400.613	234.75
400.837	241.75
401.062	223.75
401.286	230.75
401.51	234.75
401.734	227.75
401.958	225.75
402.182	230.75
402.406	240.75
402.63	232.75
402.854	238.75
403.078	257.75
403.302	262.75
403.526	267.75
403.75	264.75
403.974	267.75
404.198	270.75
404.422	271.75
404.645	269.75
404.869	263.75
405.093	259.75
405.317	263.75
405.541	266.75
405.765	260.75
405.988	265.75
406.212	266.75
406.436	276.75
406.66	296.75
406.883	287.75
407.107	285.75
407.331	283.75
407.555	300.75
407.778	303.75
408.002	293.75
408.226	285.75
408.449	275.75
408.673	264.75
408.896	283.75
409.12	278.75
409.344	284.75
409.567	272.75
409.791	288.75
410.014	282.75
410.238	284.75
410.461	278.75
410.685	267.75
410.908	246.75
411.132	279.75
411.355	263.75
411.578	286.75
411.802	264.75
412.025	273.75
412.249	268.75
412.472	263.75
412.695	271.75
412.919	257.75
413.142	269.75
413.365	261.75
413.589	263.75
413.812	264.75
414.035	299.75
414.258	251.75
414.482	262.75
414.705	263.75
414.928	273.75
415.151	275.75
415.374	275.75
415.597	249.75
415.821	277.75
416.044	252.75
416.267	273.75
416.49	267.75
416.713	271.75
416.936	279.75
417.159	259.75
417.382	261.75
417.605	273.75
417.828	295.75
418.051	262.75
418.274	282.75
418.497	273.75
418.72	276.75
418.943	291.75
419.166	279.75
419.389	306.75
419.611	284.75
419.834	284.75
420.057	288.75
420.28	276.75
420.503	272.75
420.726	293.75
420.948	277.75
421.171	280.75
421.394	277.75
421.617	262.75
421.839	281.75
422.062	267.75
422.285	261.75
422.507	277.75
422.73	281.75
422.953	280.75
423.175	286.75
423.398	279.75
423.621	293.75
423.843	293.75
424.066	304.75
424.288	294.75
424.511	287.75
424.733	275.75
424.956	298.75
425.178	272.75
425.401	293.75
425.623	285.75
425.846	270.75
426.068	271.75
426.291	253.75
426.513	257.75
426.735	279.75
426.958	271.75
427.18	263.75
427.402	272.75
427.625	262.75
427.847	252.75
428.069	259.75
428.292	251.75
428.514	269.75
428.736	251.75
428.958	259.75
429.181	259.75
429.403	251.75
429.625	248.75
429.847	271.75
430.069	264.75
430.292	267.75
430.514	248.75
430.736	254.75
430.958	261.75
431.18	239.75
431.402	244.75
431.624	248.75
431.846	227.75
432.068	222.75
432.29	246.75
432.512	253.75
432.734	260.75
432.956	255.75
433.178	269.75
433.4	259.75
433.622	252.75
433.844	263.75
434.066	251.75
434.287	250.75
434.509	234.75
434.731	235.75
434.953	237.75
435.175	270.75
435.397	254.75
435.618	240.75
435.84	253.75
436.062	259.75
436.284	265.75
436.505	268.75
436.727	249.75
436.949	248.75
437.17	233.75
437.392	246.75
437.614	242.75
437.835	213.75
438.057	235.75
438.278	235.75
438.5	247.75
438.721	261.75
438.943	259.75
439.165	266.75
439.386	272.75
439.608	265.75
439.829	261.75
440.05	266.75
440.272	269.75
440.493	246.75
440.715	257.75
440.936	252.75
441.158	281.75
441.379	304.75
441.6	299.75
441.822	285.75
442.043	272.75
442.264	278.75
442.486	275.75
442.707	269.75
442.928	272.75
443.149	268.75
443.371	280.75
443.592	281.75
443.813	280.75
444.034	272.75
444.255	298.75
444.476	305.75
444.698	326.75
444.919	328.75
445.14	490.75
445.361	395.75
445.582	311.75
445.803	271.75
446.024	286.75
446.245	273.75
446.466	285.75
446.687	277.75
446.908	281.75
447.129	295.75
447.35	278.75
447.571	273.75
447.792	272.75
448.013	266.75
448.234	251.75
448.455	256.75
448.675	265.75
448.896	261.75
449.117	266.75
449.338	245.75
449.559	237.75
449.779	238.75
450	227.75
450.221	268.75
450.442	251.75
450.662	249.75
450.883	237.75
451.104	258.75
451.324	247.75
451.545	243.75
451.766	251.75
451.986	237.75
452.207	253.75
452.428	246.75
452.648	239.75
452.869	235.75
453.089	212.75
453.31	203.75
453.53	193.75
453.751	214.75
453.971	216.75
454.192	223.75
454.412	211.75
454.633	212.75
454.853	216.75
455.073	224.75
455.294	211.75
455.514	245.75
455.734	244.75
455.955	229.75
456.175	217.75
456.395	206.75
456.616	209.75
456.836	203.75
457.056	210.75
457.276	206.75
457.497	219.75
457.717	214.75
457.937	207.75
458.157	215.75
458.377	206.75
458.598	208.75
458.818	199.75
459.038	201.75
459.258	208.75
459.478	225.75
459.698	214.75
459.918	234.75
460.138	244.75
460.358	268.75
460.578	286.75
460.798	268.75
461.018	235.75
461.238	269.75
461.458	269.75
461.678	248.75
461.898	267.75
462.118	271.75
462.338	272.75
462.558	272.75
462.777	271.75
462.997	329.75
463.217	325.75
463.437	308.75
463.657	283.75
463.876	277.75
464.096	302.75
464.316	285.75
464.536	284.75
464.755	285.75
464.975	276.75
465.195	256.75
465.414	262.75
465.634	256.75
465.854	259.75
466.073	253.75
466.293	245.75
466.512	242.75
466.732	253.75
466.951	254.75
467.171	231.75
467.391	251.75
467.61	250.75
467.829	252.75
468.049	249.75
468.268	254.75
468.488	245.75
468.707	236.75
468.927	251.75
469.146	253.75
469.365	238.75
469.585	251.75
469.804	273.75
470.023	245.75
470.243	265.75
470.462	249.75
470.681	262.75
470.901	279.75
471.12	270.75
471.339	257.75
471.558	255.75
471.777	263.75
471.997	252.75
472.216	239.75
472.435	226.75
472.654	228.75
472.873	235.75
473.092	220.75
473.311	212.75
473.53	233.75
473.749	230.75
473.968	224.75
474.187	232.75
474.406	219.75
474.625	223.75
474.844	242.75
475.063	229.75
475.282	230.75
475.501	206.75
475.72	222.75
475.939	243.75
476.158	256.75
476.377	240.75
476.596	234.75
476.814	206.75
477.033	225.75
477.252	238.75
477.471	244.75
477.69	259.75
477.908	267.75
478.127	271.75
478.346	268.75
478.564	270.75
478.783	292.75
479.002	272.75
479.22	276.75
479.439	264.75
479.658	266.75
479.876	246.75
480.095	259.75
480.313	270.75
480.532	277.75
480.751	254.75
480.969	231.75
481.188	228.75
481.406	242.75
481.624	248.75
481.843	238.75
482.061	224.75
482.28	259.75
482.498	250.75
482.717	236.75
482.935	256.75
483.153	290.75
483.372	269.75
483.59	277.75
483.808	257.75
484.027	273.75
484.245	273.75
484.463	252.75
484.681	285.75
484.9	268.75
485.118	271.75
485.336	254.75
485.554	252.75
485.772	238.75
485.99	248.75
486.209	232.75
486.427	220.75
486.645	233.75
486.863	261.75
487.081	254.75
487.299	263.75
487.517	264.75
487.735	304.75
487.953	320.75
488.171	328.75
488.389	295.75
488.607	295.75
488.825	264.75
489.043	262.75
489.261	265.75
489.479	270.75
489.696	276.75
489.914	268.75
490.132	279.75
490.35	273.75
490.568	293.75
490.786	312.75
491.003	324.75
491.221	315.75
491.439	313.75
491.657	319.75
491.874	364.75
492.092	355.75
492.31	375.75
492.527	348.75
492.745	347.75
492.963	321.75
493.18	332.75
493.398	323.75
493.615	336.75
493.833	317.75
494.05	328.75
494.268	323.75
494.485	317.75
494.703	328.75
494.92	335.75
495.138	327.75
495.355	329.75
495.573	318.75
495.79	325.75
496.008	329.75
496.225	311.75
496.442	320.75
496.66	330.75
496.877	331.75
497.094	326.75
497.312	312.75
497.529	338.75
497.746	316.75
497.963	309.75
498.181	309.75
498.398	304.75
498.615	317.75
498.832	348.75
499.049	365.75
499.267	374.75
499.484	435.75
499.701	461.75
499.918	500.75
500.135	563.75
500.352	608.75
500.569	620.75
500.786	630.75
501.003	581.75
501.22	511.75
501.437	452.75
501.654	445.75
501.871	407.75
502.088	349.75
502.305	342.75
502.522	345.75
502.739	337.75
502.956	313.75
503.172	316.75
503.389	307.75
503.606	299.75
503.823	300.75
504.04	301.75
504.256	300.75
504.473	298.75
