Data from SampA_HRD10591_00079.txt Node
Date: Mon Jan 19 11:27:13 EST 2026
User: Yrep
Spectrometer: HR+D1059
Trigger mode: 0
Integration Time (sec): 3.443000E-1
Scans to average: 1
Electric dark correction enabled: true
Nonlinearity correction enabled: false
Boxcar width: 0
XAxis mode: Wavelengths
Number of Pixels in Spectrum: 2048
>>>>>Begin Spectral Data<<<<<
223.165	-19.31
223.4	-19.31
223.635	-19.31
223.869	-12.31
224.104	-17.31
224.338	-25.31
224.573	-17.31
224.808	-13.31
225.042	0.69
225.277	-5.31
225.511	-8.31
225.746	7.69
225.98	11.69
226.215	4.69
226.449	8.69
226.683	22.69
226.918	31.69
227.152	30.69
227.387	54.69
227.621	42.69
227.856	41.69
228.09	45.69
228.324	49.69
228.559	54.69
228.793	49.69
229.027	69.69
229.262	67.69
229.496	63.69
229.73	69.69
229.964	72.69
230.199	63.69
230.433	69.69
230.667	60.69
230.901	77.69
231.136	82.69
231.37	69.69
231.604	74.69
231.838	73.69
232.072	65.69
232.306	77.69
232.541	87.69
232.775	78.69
233.009	72.69
233.243	75.69
233.477	86.69
233.711	81.69
233.945	77.69
234.179	79.69
234.413	95.69
234.647	80.69
234.881	72.69
235.115	78.69
235.349	81.69
235.583	90.69
235.817	74.69
236.051	77.69
236.285	71.69
236.519	66.69
236.753	74.69
236.987	58.69
237.221	84.69
237.455	78.69
237.689	81.69
237.922	73.69
238.156	77.69
238.39	90.69
238.624	81.69
238.858	85.69
239.091	81.69
239.325	65.69
239.559	77.69
239.793	77.69
240.027	89.69
240.26	77.69
240.494	73.69
240.728	69.69
240.961	82.69
241.195	76.69
241.429	77.69
241.662	93.69
241.896	69.69
242.13	66.69
242.363	81.69
242.597	89.69
242.83	79.69
243.064	90.69
243.298	76.69
243.531	77.69
243.765	89.69
243.998	100.69
244.232	90.69
244.465	82.69
244.699	81.69
244.932	74.69
245.166	84.69
245.399	76.69
245.633	74.69
245.866	95.69
246.099	87.69
246.333	79.69
246.566	72.69
246.8	67.69
247.033	82.69
247.266	87.69
247.5	77.69
247.733	89.69
247.966	82.69
248.2	92.69
248.433	86.69
248.666	79.69
248.899	93.69
249.133	79.69
249.366	82.69
249.599	77.69
249.832	84.69
250.066	86.69
250.299	98.69
250.532	85.69
250.765	79.69
250.998	86.69
251.231	83.69
251.465	83.69
251.698	82.69
251.931	89.69
252.164	84.69
252.397	88.69
252.63	85.69
252.863	89.69
253.096	78.69
253.329	85.69
253.562	94.69
253.795	95.69
254.028	94.69
254.261	94.69
254.494	87.69
254.727	89.69
254.96	74.69
255.193	82.69
255.426	74.69
255.659	73.69
255.892	76.69
256.124	83.69
256.357	85.69
256.59	86.69
256.823	90.69
257.056	93.69
257.289	87.69
257.521	93.69
257.754	71.69
257.987	95.69
258.22	88.69
258.452	90.69
258.685	84.69
258.918	89.69
259.151	84.69
259.383	96.69
259.616	84.69
259.849	89.69
260.081	90.69
260.314	93.69
260.547	87.69
260.779	79.69
261.012	86.69
261.244	83.69
261.477	89.69
261.71	83.69
261.942	80.69
262.175	101.69
262.407	95.69
262.64	75.69
262.872	80.69
263.105	88.69
263.337	91.69
263.57	101.69
263.802	64.69
264.035	82.69
264.267	75.69
264.499	96.69
264.732	86.69
264.964	100.69
265.197	90.69
265.429	92.69
265.661	92.69
265.894	95.69
266.126	103.69
266.358	92.69
266.591	89.69
266.823	90.69
267.055	95.69
267.287	93.69
267.52	73.69
267.752	100.69
267.984	92.69
268.216	81.69
268.448	98.69
268.681	93.69
268.913	81.69
269.145	94.69
269.377	99.69
269.609	85.69
269.841	79.69
270.073	99.69
270.306	94.69
270.538	95.69
270.77	94.69
271.002	86.69
271.234	92.69
271.466	79.69
271.698	91.69
271.93	73.69
272.162	78.69
272.394	93.69
272.626	90.69
272.858	95.69
273.09	86.69
273.322	85.69
273.553	95.69
273.785	105.69
274.017	89.69
274.249	90.69
274.481	90.69
274.713	91.69
274.945	93.69
275.176	88.69
275.408	84.69
275.64	101.69
275.872	102.69
276.104	88.69
276.335	92.69
276.567	89.69
276.799	84.69
277.031	101.69
277.262	107.69
277.494	108.69
277.726	94.69
277.957	93.69
278.189	84.69
278.421	90.69
278.652	89.69
278.884	87.69
279.115	101.69
279.347	97.69
279.579	87.69
279.81	97.69
280.042	92.69
280.273	101.69
280.505	96.69
280.736	92.69
280.968	87.69
281.199	100.69
281.431	110.69
281.662	95.69
281.894	81.69
282.125	93.69
282.356	78.69
282.588	104.69
282.819	97.69
283.051	97.69
283.282	86.69
283.513	108.69
283.745	92.69
283.976	92.69
284.207	86.69
284.439	100.69
284.67	98.69
284.901	94.69
285.132	93.69
285.364	93.69
285.595	105.69
285.826	82.69
286.057	113.69
286.288	85.69
286.52	100.69
286.751	92.69
286.982	108.69
287.213	102.69
287.444	100.69
287.675	99.69
287.906	94.69
288.138	86.69
288.369	101.69
288.6	100.69
288.831	93.69
289.062	96.69
289.293	92.69
289.524	95.69
289.755	98.69
289.986	99.69
290.217	96.69
290.448	92.69
290.679	90.69
290.91	109.69
291.141	102.69
291.371	108.69
291.602	95.69
291.833	83.69
292.064	91.69
292.295	105.69
292.526	86.69
292.757	91.69
292.987	98.69
293.218	98.69
293.449	90.69
293.68	103.69
293.91	80.69
294.141	113.69
294.372	97.69
294.603	106.69
294.833	95.69
295.064	92.69
295.295	93.69
295.525	95.69
295.756	101.69
295.987	101.69
296.217	101.69
296.448	87.69
296.679	94.69
296.909	99.69
297.14	109.69
297.37	106.69
297.601	105.69
297.831	101.69
298.062	102.69
298.292	114.69
298.523	123.69
298.753	90.69
298.984	97.69
299.214	99.69
299.445	90.69
299.675	89.69
299.905	92.69
300.136	94.69
300.366	104.69
300.597	77.69
300.827	91.69
301.057	89.69
301.288	98.69
301.518	86.69
301.748	99.69
301.979	119.69
302.209	93.69
302.439	107.69
302.669	117.69
302.9	103.69
303.13	106.69
303.36	101.69
303.59	96.69
303.82	92.69
304.051	93.69
304.281	105.69
304.511	123.69
304.741	108.69
304.971	111.69
305.201	107.69
305.431	115.69
305.661	85.69
305.891	109.69
306.121	106.69
306.352	110.69
306.582	100.69
306.812	109.69
307.042	102.69
307.272	94.69
307.502	103.69
307.731	86.69
307.961	102.69
308.191	97.69
308.421	94.69
308.651	101.69
308.881	101.69
309.111	88.69
309.341	92.69
309.571	108.69
309.8	108.69
310.03	92.69
310.26	102.69
310.49	105.69
310.72	93.69
310.949	116.69
311.179	93.69
311.409	93.69
311.639	101.69
311.868	102.69
312.098	111.69
312.328	117.69
312.557	101.69
312.787	110.69
313.017	110.69
313.246	99.69
313.476	100.69
313.706	97.69
313.935	93.69
314.165	99.69
314.394	104.69
314.624	106.69
314.853	110.69
315.083	90.69
315.312	103.69
315.542	115.69
315.771	123.69
316.001	103.69
316.23	107.69
316.46	100.69
316.689	97.69
316.919	103.69
317.148	95.69
317.377	92.69
317.607	100.69
317.836	97.69
318.065	102.69
318.295	95.69
318.524	98.69
318.753	105.69
318.983	95.69
319.212	105.69
319.441	101.69
319.67	124.69
319.9	110.69
320.129	95.69
320.358	106.69
320.587	108.69
320.816	108.69
321.046	94.69
321.275	107.69
321.504	111.69
321.733	99.69
321.962	109.69
322.191	105.69
322.42	101.69
322.649	114.69
322.878	124.69
323.108	108.69
323.337	111.69
323.566	117.69
323.795	105.69
324.024	102.69
324.253	108.69
324.482	100.69
324.71	112.69
324.939	109.69
325.168	104.69
325.397	111.69
325.626	110.69
325.855	89.69
326.084	108.69
326.313	110.69
326.542	106.69
326.77	95.69
326.999	113.69
327.228	92.69
327.457	111.69
327.686	101.69
327.914	101.69
328.143	104.69
328.372	99.69
328.6	107.69
328.829	104.69
329.058	101.69
329.287	104.69
329.515	99.69
329.744	113.69
329.972	103.69
330.201	107.69
330.43	109.69
330.658	114.69
330.887	113.69
331.115	117.69
331.344	107.69
331.572	114.69
331.801	98.69
332.03	109.69
332.258	115.69
332.486	101.69
332.715	116.69
332.943	122.69
333.172	119.69
333.4	97.69
333.629	124.69
333.857	114.69
334.085	129.69
334.314	129.69
334.542	119.69
334.771	122.69
334.999	102.69
335.227	125.69
335.455	122.69
335.684	129.69
335.912	112.69
336.14	105.69
336.369	110.69
336.597	122.69
336.825	106.69
337.053	106.69
337.281	103.69
337.51	107.69
337.738	108.69
337.966	98.69
338.194	102.69
338.422	114.69
338.65	112.69
338.878	105.69
339.106	102.69
339.334	121.69
339.562	120.69
339.79	105.69
340.018	102.69
340.246	108.69
340.474	112.69
340.702	115.69
340.93	91.69
341.158	113.69
341.386	117.69
341.614	90.69
341.842	85.69
342.07	95.69
342.298	117.69
342.526	97.69
342.754	119.69
342.981	106.69
343.209	116.69
343.437	143.69
343.665	103.69
343.893	108.69
344.12	127.69
344.348	102.69
344.576	108.69
344.804	125.69
345.031	118.69
345.259	115.69
345.487	119.69
345.714	105.69
345.942	94.69
346.17	99.69
346.397	103.69
346.625	101.69
346.853	113.69
347.08	104.69
347.308	107.69
347.535	109.69
347.763	102.69
347.99	101.69
348.218	102.69
348.445	112.69
348.673	98.69
348.9	115.69
349.128	118.69
349.355	96.69
349.583	102.69
349.81	103.69
350.037	105.69
350.265	103.69
350.492	101.69
350.72	105.69
350.947	108.69
351.174	106.69
351.402	99.69
351.629	108.69
351.856	103.69
352.083	118.69
352.311	99.69
352.538	97.69
352.765	95.69
352.992	122.69
353.22	107.69
353.447	115.69
353.674	103.69
353.901	111.69
354.128	102.69
354.355	95.69
354.583	91.69
354.81	95.69
355.037	110.69
355.264	97.69
355.491	101.69
355.718	94.69
355.945	104.69
356.172	101.69
356.399	100.69
356.626	111.69
356.853	110.69
357.08	113.69
357.307	99.69
357.534	117.69
357.761	105.69
357.988	113.69
358.215	107.69
358.441	87.69
358.668	115.69
358.895	108.69
359.122	107.69
359.349	112.69
359.576	101.69
359.802	105.69
360.029	112.69
360.256	95.69
360.483	102.69
360.709	103.69
360.936	111.69
361.163	105.69
361.39	101.69
361.616	104.69
361.843	101.69
362.07	112.69
362.296	103.69
362.523	103.69
362.749	90.69
362.976	99.69
363.203	111.69
363.429	92.69
363.656	103.69
363.882	106.69
364.109	115.69
364.335	116.69
364.562	92.69
364.788	91.69
365.015	113.69
365.241	111.69
365.468	119.69
365.694	113.69
365.92	107.69
366.147	102.69
366.373	100.69
366.599	122.69
366.826	113.69
367.052	121.69
367.278	108.69
367.505	109.69
367.731	131.69
367.957	113.69
368.184	107.69
368.41	91.69
368.636	115.69
368.862	110.69
369.089	98.69
369.315	105.69
369.541	113.69
369.767	106.69
369.993	110.69
370.219	108.69
370.445	101.69
370.672	108.69
370.898	101.69
371.124	106.69
371.35	100.69
371.576	116.69
371.802	115.69
372.028	101.69
372.254	110.69
372.48	96.69
372.706	94.69
372.932	116.69
373.158	118.69
373.384	129.69
373.61	121.69
373.835	91.69
374.061	89.69
374.287	115.69
374.513	102.69
374.739	106.69
374.965	110.69
375.191	113.69
375.416	119.69
375.642	117.69
375.868	107.69
376.094	124.69
376.319	112.69
376.545	111.69
376.771	111.69
376.997	101.69
377.222	107.69
377.448	111.69
377.674	83.69
377.899	121.69
378.125	99.69
378.35	112.69
378.576	108.69
378.802	107.69
379.027	108.69
379.253	104.69
379.478	117.69
379.704	108.69
379.929	117.69
380.155	120.69
380.38	107.69
380.606	102.69
380.831	105.69
381.057	119.69
381.282	104.69
381.507	114.69
381.733	114.69
381.958	108.69
382.184	103.69
382.409	108.69
382.634	122.69
382.86	108.69
383.085	105.69
383.31	102.69
383.535	108.69
383.761	114.69
383.986	121.69
384.211	116.69
384.436	112.69
384.662	117.69
384.887	105.69
385.112	102.69
385.337	122.69
385.562	111.69
385.787	119.69
386.013	125.69
386.238	120.69
386.463	122.69
386.688	155.69
386.913	118.69
387.138	111.69
387.363	121.69
387.588	142.69
387.813	129.69
388.038	134.69
388.263	122.69
388.488	108.69
388.713	114.69
388.938	108.69
389.163	108.69
389.387	126.69
389.612	119.69
389.837	116.69
390.062	132.69
390.287	130.69
390.512	123.69
390.736	117.69
390.961	124.69
391.186	129.69
391.411	126.69
391.636	125.69
391.86	122.69
392.085	131.69
392.31	131.69
392.534	122.69
392.759	122.69
392.984	128.69
393.208	121.69
393.433	125.69
393.658	120.69
393.882	135.69
394.107	131.69
394.331	131.69
394.556	114.69
394.78	131.69
395.005	123.69
395.229	134.69
395.454	133.69
395.678	132.69
395.903	148.69
396.127	136.69
396.352	129.69
396.576	132.69
396.801	124.69
397.025	131.69
397.249	143.69
397.474	152.69
397.698	139.69
397.922	149.69
398.147	158.69
398.371	145.69
398.595	150.69
398.82	162.69
399.044	156.69
399.268	162.69
399.492	168.69
399.717	190.69
399.941	167.69
400.165	176.69
400.389	165.69
400.613	165.69
400.837	131.69
401.062	145.69
401.286	138.69
401.51	152.69
401.734	152.69
401.958	153.69
402.182	144.69
402.406	152.69
402.63	155.69
402.854	151.69
403.078	154.69
403.302	165.69
403.526	149.69
403.75	165.69
403.974	166.69
404.198	176.69
404.422	162.69
404.645	175.69
404.869	162.69
405.093	164.69
405.317	161.69
405.541	174.69
405.765	165.69
405.988	170.69
406.212	174.69
406.436	161.69
406.66	167.69
406.883	173.69
407.107	188.69
407.331	182.69
407.555	202.69
407.778	171.69
408.002	161.69
408.226	180.69
408.449	170.69
408.673	180.69
408.896	174.69
409.12	174.69
409.344	180.69
409.567	158.69
409.791	186.69
410.014	163.69
410.238	189.69
410.461	163.69
410.685	180.69
410.908	169.69
411.132	169.69
411.355	172.69
411.578	179.69
411.802	167.69
412.025	168.69
412.249	154.69
412.472	160.69
412.695	158.69
412.919	170.69
413.142	147.69
413.365	178.69
413.589	156.69
413.812	169.69
414.035	177.69
414.258	166.69
414.482	169.69
414.705	162.69
414.928	177.69
415.151	167.69
415.374	161.69
415.597	181.69
415.821	170.69
416.044	167.69
416.267	169.69
416.49	162.69
416.713	173.69
416.936	172.69
417.159	162.69
417.382	181.69
417.605	148.69
417.828	171.69
418.051	193.69
418.274	180.69
418.497	177.69
418.72	178.69
418.943	180.69
419.166	168.69
419.389	173.69
419.611	187.69
419.834	178.69
420.057	163.69
420.28	181.69
420.503	157.69
420.726	170.69
420.948	181.69
421.171	174.69
421.394	183.69
421.617	178.69
421.839	185.69
422.062	153.69
422.285	183.69
422.507	167.69
422.73	164.69
422.953	172.69
423.175	174.69
423.398	179.69
423.621	179.69
423.843	193.69
424.066	182.69
424.288	185.69
424.511	194.69
424.733	186.69
424.956	181.69
425.178	175.69
425.401	175.69
425.623	179.69
425.846	163.69
426.068	174.69
426.291	170.69
426.513	170.69
426.735	165.69
426.958	167.69
427.18	173.69
427.402	171.69
427.625	177.69
427.847	159.69
428.069	164.69
428.292	148.69
428.514	162.69
428.736	156.69
428.958	163.69
429.181	169.69
429.403	169.69
429.625	166.69
429.847	166.69
430.069	179.69
430.292	188.69
430.514	165.69
430.736	148.69
430.958	173.69
431.18	161.69
431.402	172.69
431.624	162.69
431.846	150.69
432.068	142.69
432.29	146.69
432.512	155.69
432.734	165.69
432.956	171.69
433.178	176.69
433.4	151.69
433.622	169.69
433.844	163.69
434.066	166.69
434.287	160.69
434.509	138.69
434.731	165.69
434.953	163.69
435.175	159.69
435.397	162.69
435.618	165.69
435.84	162.69
436.062	155.69
436.284	161.69
436.505	158.69
436.727	155.69
436.949	166.69
437.17	143.69
437.392	145.69
437.614	170.69
437.835	136.69
438.057	147.69
438.278	163.69
438.5	151.69
438.721	176.69
438.943	166.69
439.165	185.69
439.386	184.69
439.608	178.69
439.829	159.69
440.05	151.69
440.272	171.69
440.493	173.69
440.715	159.69
440.936	175.69
441.158	178.69
441.379	172.69
441.6	198.69
441.822	171.69
442.043	173.69
442.264	174.69
442.486	175.69
442.707	183.69
442.928	171.69
443.149	175.69
443.371	186.69
443.592	177.69
443.813	181.69
444.034	186.69
444.255	164.69
444.476	183.69
444.698	205.69
444.919	199.69
445.14	410.69
445.361	289.69
445.582	183.69
445.803	183.69
446.024	178.69
446.245	184.69
446.466	175.69
446.687	182.69
446.908	183.69
447.129	180.69
447.35	169.69
447.571	178.69
447.792	178.69
448.013	169.69
448.234	178.69
448.455	149.69
448.675	154.69
448.896	165.69
449.117	171.69
449.338	149.69
449.559	176.69
449.779	163.69
450	159.69
450.221	156.69
450.442	154.69
450.662	162.69
450.883	163.69
451.104	170.69
451.324	161.69
451.545	167.69
451.766	156.69
451.986	158.69
452.207	161.69
452.428	165.69
452.648	151.69
452.869	153.69
453.089	152.69
453.31	148.69
453.53	154.69
453.751	134.69
453.971	134.69
454.192	147.69
454.412	143.69
454.633	161.69
454.853	153.69
455.073	148.69
455.294	162.69
455.514	159.69
455.734	161.69
455.955	163.69
456.175	148.69
456.395	129.69
456.616	149.69
456.836	138.69
457.056	151.69
457.276	137.69
457.497	126.69
457.717	129.69
457.937	130.69
458.157	139.69
458.377	146.69
458.598	115.69
458.818	141.69
459.038	130.69
459.258	145.69
459.478	138.69
459.698	134.69
459.918	167.69
460.138	159.69
460.358	161.69
460.578	186.69
460.798	160.69
461.018	155.69
461.238	152.69
461.458	170.69
461.678	163.69
461.898	169.69
462.118	176.69
462.338	159.69
462.558	185.69
462.777	185.69
462.997	185.69
463.217	175.69
463.437	180.69
463.657	185.69
463.876	182.69
464.096	169.69
464.316	175.69
464.536	178.69
464.755	174.69
464.975	173.69
465.195	177.69
465.414	159.69
465.634	152.69
465.854	149.69
466.073	169.69
466.293	157.69
466.512	160.69
466.732	151.69
466.951	166.69
467.171	177.69
467.391	163.69
467.61	150.69
467.829	167.69
468.049	167.69
468.268	161.69
468.488	167.69
468.707	161.69
468.927	159.69
469.146	153.69
469.365	152.69
469.585	179.69
469.804	160.69
470.023	159.69
470.243	178.69
470.462	166.69
470.681	170.69
470.901	185.69
471.12	171.69
471.339	186.69
471.558	158.69
471.777	182.69
471.997	171.69
472.216	158.69
472.435	146.69
472.654	140.69
472.873	150.69
473.092	136.69
473.311	144.69
473.53	161.69
473.749	139.69
473.968	167.69
474.187	171.69
474.406	145.69
474.625	151.69
474.844	167.69
475.063	147.69
475.282	151.69
475.501	151.69
475.72	160.69
475.939	157.69
476.158	158.69
476.377	153.69
476.596	153.69
476.814	153.69
477.033	144.69
477.252	157.69
477.471	154.69
477.69	165.69
477.908	170.69
478.127	170.69
478.346	160.69
478.564	166.69
478.783	185.69
479.002	177.69
479.22	171.69
479.439	189.69
479.658	167.69
479.876	169.69
480.095	152.69
480.313	171.69
480.532	169.69
480.751	167.69
480.969	161.69
481.188	149.69
481.406	164.69
481.624	129.69
481.843	157.69
482.061	147.69
482.28	148.69
482.498	157.69
482.717	146.69
482.935	159.69
483.153	161.69
483.372	174.69
483.59	179.69
483.808	164.69
484.027	166.69
484.245	171.69
484.463	173.69
484.681	182.69
484.9	169.69
485.118	169.69
485.336	157.69
485.554	156.69
485.772	143.69
485.99	163.69
486.209	177.69
486.427	163.69
486.645	181.69
486.863	180.69
487.081	171.69
487.299	169.69
487.517	177.69
487.735	193.69
487.953	189.69
488.171	213.69
488.389	158.69
488.607	169.69
488.825	176.69
489.043	162.69
489.261	171.69
489.479	187.69
489.696	177.69
489.914	181.69
490.132	181.69
490.35	191.69
490.568	177.69
490.786	198.69
491.003	179.69
491.221	194.69
491.439	207.69
491.657	191.69
491.874	228.69
492.092	213.69
492.31	234.69
492.527	206.69
492.745	199.69
492.963	211.69
493.18	208.69
493.398	227.69
493.615	213.69
493.833	222.69
494.05	197.69
494.268	181.69
494.485	210.69
494.703	191.69
494.92	202.69
495.138	194.69
495.355	191.69
495.573	208.69
495.79	201.69
496.008	206.69
496.225	187.69
496.442	195.69
496.66	197.69
496.877	207.69
497.094	210.69
497.312	202.69
497.529	195.69
497.746	190.69
497.963	195.69
498.181	184.69
498.398	183.69
498.615	194.69
498.832	212.69
499.049	205.69
499.267	237.69
499.484	226.69
499.701	267.69
499.918	278.69
500.135	299.69
500.352	326.69
500.569	321.69
500.786	345.69
501.003	326.69
501.22	288.69
501.437	262.69
501.654	259.69
501.871	218.69
502.088	209.69
502.305	220.69
502.522	211.69
502.739	211.69
502.956	197.69
503.172	187.69
503.389	184.69
503.606	177.69
503.823	186.69
504.04	185.69
504.256	177.69
504.473	184.69
504.69	185.69
504.907	203.69
505.123	174.69
505.34	169.69
505.557	184.69
505.773	182.69
505.99	177.69
506.207	157.69
506.423	160.69
506.64	145.69
506.856	173.69
507.073	166.69
507.289	163.69
507.506	156.69
