Data from SampA_HRD10591_00071.txt Node
Date: Mon Jan 19 11:27:11 EST 2026
User: Yrep
Spectrometer: HR+D1059
Trigger mode: 0
Integration Time (sec): 3.443000E-1
Scans to average: 1
Electric dark correction enabled: true
Nonlinearity correction enabled: false
Boxcar width: 0
XAxis mode: Wavelengths
Number of Pixels in Spectrum: 2048
>>>>>Begin Spectral Data<<<<<
223.165	-32.5
223.4	-32.5
223.635	-32.5
223.869	-30.5
224.104	-30.5
224.338	-10.5
224.573	-17.5
224.808	-14.5
225.042	-21.5
225.277	5.5
225.511	-5.5
225.746	7.5
225.98	21.5
226.215	27.5
226.449	31.5
226.683	18.5
226.918	21.5
227.152	29.5
227.387	37.5
227.621	43.5
227.856	47.5
228.09	54.5
228.324	66.5
228.559	61.5
228.793	58.5
229.027	60.5
229.262	69.5
229.496	67.5
229.73	83.5
229.964	85.5
230.199	82.5
230.433	85.5
230.667	73.5
230.901	78.5
231.136	82.5
231.37	96.5
231.604	85.5
231.838	84.5
232.072	89.5
232.306	86.5
232.541	97.5
232.775	88.5
233.009	88.5
233.243	80.5
233.477	91.5
233.711	72.5
233.945	81.5
234.179	104.5
234.413	101.5
234.647	98.5
234.881	97.5
235.115	89.5
235.349	86.5
235.583	98.5
235.817	101.5
236.051	79.5
236.285	83.5
236.519	95.5
236.753	87.5
236.987	78.5
237.221	82.5
237.455	83.5
237.689	86.5
237.922	82.5
238.156	94.5
238.39	87.5
238.624	95.5
238.858	86.5
239.091	85.5
239.325	79.5
239.559	82.5
239.793	89.5
240.027	99.5
240.26	91.5
240.494	95.5
240.728	92.5
240.961	66.5
241.195	89.5
241.429	86.5
241.662	86.5
241.896	92.5
242.13	95.5
242.363	85.5
242.597	94.5
242.83	73.5
243.064	91.5
243.298	82.5
243.531	88.5
243.765	85.5
243.998	90.5
244.232	91.5
244.465	97.5
244.699	89.5
244.932	86.5
245.166	87.5
245.399	85.5
245.633	101.5
245.866	105.5
246.099	93.5
246.333	95.5
246.566	85.5
246.8	99.5
247.033	99.5
247.266	94.5
247.5	104.5
247.733	90.5
247.966	97.5
248.2	90.5
248.433	82.5
248.666	84.5
248.899	101.5
249.133	106.5
249.366	102.5
249.599	98.5
249.832	107.5
250.066	97.5
250.299	95.5
250.532	94.5
250.765	87.5
250.998	98.5
251.231	99.5
251.465	98.5
251.698	86.5
251.931	103.5
252.164	92.5
252.397	97.5
252.63	114.5
252.863	95.5
253.096	96.5
253.329	112.5
253.562	109.5
253.795	99.5
254.028	96.5
254.261	113.5
254.494	99.5
254.727	104.5
254.96	86.5
255.193	91.5
255.426	92.5
255.659	96.5
255.892	91.5
256.124	99.5
256.357	82.5
256.59	101.5
256.823	90.5
257.056	86.5
257.289	82.5
257.521	100.5
257.754	94.5
257.987	106.5
258.22	123.5
258.452	99.5
258.685	98.5
258.918	85.5
259.151	99.5
259.383	108.5
259.616	109.5
259.849	104.5
260.081	107.5
260.314	105.5
260.547	111.5
260.779	102.5
261.012	119.5
261.244	104.5
261.477	111.5
261.71	107.5
261.942	112.5
262.175	99.5
262.407	101.5
262.64	100.5
262.872	102.5
263.105	108.5
263.337	117.5
263.57	106.5
263.802	99.5
264.035	111.5
264.267	104.5
264.499	102.5
264.732	118.5
264.964	102.5
265.197	109.5
265.429	120.5
265.661	106.5
265.894	113.5
266.126	117.5
266.358	106.5
266.591	115.5
266.823	108.5
267.055	97.5
267.287	111.5
267.52	112.5
267.752	118.5
267.984	111.5
268.216	108.5
268.448	100.5
268.681	113.5
268.913	103.5
269.145	118.5
269.377	117.5
269.609	101.5
269.841	113.5
270.073	106.5
270.306	113.5
270.538	109.5
270.77	113.5
271.002	116.5
271.234	109.5
271.466	114.5
271.698	104.5
271.93	95.5
272.162	105.5
272.394	124.5
272.626	130.5
272.858	105.5
273.09	110.5
273.322	121.5
273.553	106.5
273.785	110.5
274.017	111.5
274.249	116.5
274.481	113.5
274.713	115.5
274.945	123.5
275.176	108.5
275.408	120.5
275.64	133.5
275.872	107.5
276.104	126.5
276.335	132.5
276.567	109.5
276.799	96.5
277.031	108.5
277.262	107.5
277.494	117.5
277.726	93.5
277.957	107.5
278.189	113.5
278.421	111.5
278.652	97.5
278.884	123.5
279.115	123.5
279.347	112.5
279.579	107.5
279.81	122.5
280.042	107.5
280.273	109.5
280.505	100.5
280.736	109.5
280.968	126.5
281.199	110.5
281.431	108.5
281.662	128.5
281.894	129.5
282.125	117.5
282.356	109.5
282.588	107.5
282.819	124.5
283.051	117.5
283.282	130.5
283.513	119.5
283.745	110.5
283.976	129.5
284.207	124.5
284.439	111.5
284.67	126.5
284.901	114.5
285.132	104.5
285.364	119.5
285.595	133.5
285.826	123.5
286.057	125.5
286.288	106.5
286.52	128.5
286.751	126.5
286.982	127.5
287.213	105.5
287.444	113.5
287.675	141.5
287.906	118.5
288.138	112.5
288.369	126.5
288.6	119.5
288.831	124.5
289.062	137.5
289.293	130.5
289.524	127.5
289.755	128.5
289.986	114.5
290.217	121.5
290.448	110.5
290.679	124.5
290.91	126.5
291.141	129.5
291.371	137.5
291.602	144.5
291.833	122.5
292.064	128.5
292.295	125.5
292.526	109.5
292.757	115.5
292.987	113.5
293.218	139.5
293.449	118.5
293.68	127.5
293.91	122.5
294.141	123.5
294.372	131.5
294.603	127.5
294.833	142.5
295.064	124.5
295.295	130.5
295.525	119.5
295.756	144.5
295.987	136.5
296.217	131.5
296.448	125.5
296.679	129.5
296.909	135.5
297.14	133.5
297.37	126.5
297.601	121.5
297.831	123.5
298.062	139.5
298.292	112.5
298.523	135.5
298.753	124.5
298.984	125.5
299.214	136.5
299.445	156.5
299.675	140.5
299.905	141.5
300.136	146.5
300.366	117.5
300.597	109.5
300.827	131.5
301.057	128.5
301.288	135.5
301.518	126.5
301.748	136.5
301.979	165.5
302.209	137.5
302.439	138.5
302.669	136.5
302.9	124.5
303.13	124.5
303.36	141.5
303.59	139.5
303.82	125.5
304.051	137.5
304.281	120.5
304.511	135.5
304.741	136.5
304.971	149.5
305.201	141.5
305.431	137.5
305.661	128.5
305.891	133.5
306.121	141.5
306.352	124.5
306.582	142.5
306.812	121.5
307.042	121.5
307.272	134.5
307.502	133.5
307.731	137.5
307.961	120.5
308.191	141.5
308.421	133.5
308.651	150.5
308.881	146.5
309.111	140.5
309.341	120.5
309.571	115.5
309.8	136.5
310.03	127.5
310.26	131.5
310.49	138.5
310.72	136.5
310.949	126.5
311.179	137.5
311.409	136.5
311.639	130.5
311.868	138.5
312.098	155.5
312.328	142.5
312.557	126.5
312.787	145.5
313.017	137.5
313.246	155.5
313.476	133.5
313.706	137.5
313.935	138.5
314.165	128.5
314.394	134.5
314.624	139.5
314.853	137.5
315.083	115.5
315.312	137.5
315.542	146.5
315.771	142.5
316.001	149.5
316.23	137.5
316.46	124.5
316.689	130.5
316.919	138.5
317.148	130.5
317.377	154.5
317.607	145.5
317.836	130.5
318.065	135.5
318.295	137.5
318.524	133.5
318.753	117.5
318.983	138.5
319.212	138.5
319.441	143.5
319.67	129.5
319.9	155.5
320.129	140.5
320.358	131.5
320.587	140.5
320.816	143.5
321.046	136.5
321.275	149.5
321.504	132.5
321.733	141.5
321.962	147.5
322.191	134.5
322.42	142.5
322.649	141.5
322.878	157.5
323.108	147.5
323.337	150.5
323.566	129.5
323.795	126.5
324.024	139.5
324.253	135.5
324.482	126.5
324.71	122.5
324.939	142.5
325.168	150.5
325.397	138.5
325.626	135.5
325.855	125.5
326.084	130.5
326.313	151.5
326.542	140.5
326.77	145.5
326.999	155.5
327.228	158.5
327.457	127.5
327.686	139.5
327.914	142.5
328.143	148.5
328.372	117.5
328.6	127.5
328.829	155.5
329.058	138.5
329.287	146.5
329.515	141.5
329.744	149.5
329.972	143.5
330.201	144.5
330.43	149.5
330.658	137.5
330.887	144.5
331.115	137.5
331.344	153.5
331.572	154.5
331.801	143.5
332.03	153.5
332.258	141.5
332.486	163.5
332.715	163.5
332.943	161.5
333.172	155.5
333.4	162.5
333.629	166.5
333.857	167.5
334.085	174.5
334.314	161.5
334.542	167.5
334.771	167.5
334.999	161.5
335.227	151.5
335.455	155.5
335.684	164.5
335.912	161.5
336.14	159.5
336.369	161.5
336.597	150.5
336.825	159.5
337.053	155.5
337.281	146.5
337.51	151.5
337.738	150.5
337.966	141.5
338.194	150.5
338.422	150.5
338.65	156.5
338.878	154.5
339.106	153.5
339.334	163.5
339.562	143.5
339.79	127.5
340.018	138.5
340.246	137.5
340.474	150.5
340.702	143.5
340.93	160.5
341.158	139.5
341.386	142.5
341.614	138.5
341.842	147.5
342.07	134.5
342.298	136.5
342.526	126.5
342.754	139.5
342.981	133.5
343.209	135.5
343.437	191.5
343.665	167.5
343.893	155.5
344.12	182.5
344.348	160.5
344.576	160.5
344.804	149.5
345.031	161.5
345.259	154.5
345.487	136.5
345.714	134.5
345.942	136.5
346.17	150.5
346.397	144.5
346.625	130.5
346.853	143.5
347.08	140.5
347.308	140.5
347.535	156.5
347.763	129.5
347.99	143.5
348.218	146.5
348.445	143.5
348.673	142.5
348.9	176.5
349.128	157.5
349.355	138.5
349.583	124.5
349.81	143.5
350.037	133.5
350.265	135.5
350.492	124.5
350.72	141.5
350.947	147.5
351.174	151.5
351.402	136.5
351.629	123.5
351.856	131.5
352.083	135.5
352.311	143.5
352.538	150.5
352.765	144.5
352.992	159.5
353.22	134.5
353.447	132.5
353.674	153.5
353.901	157.5
354.128	154.5
354.355	141.5
354.583	130.5
354.81	145.5
355.037	136.5
355.264	133.5
355.491	140.5
355.718	131.5
355.945	149.5
356.172	141.5
356.399	160.5
356.626	150.5
356.853	133.5
357.08	139.5
357.307	151.5
357.534	138.5
357.761	142.5
357.988	128.5
358.215	153.5
358.441	145.5
358.668	145.5
358.895	134.5
359.122	124.5
359.349	153.5
359.576	154.5
359.802	157.5
360.029	149.5
360.256	139.5
360.483	149.5
360.709	138.5
360.936	163.5
361.163	137.5
361.39	133.5
361.616	148.5
361.843	129.5
362.07	142.5
362.296	125.5
362.523	122.5
362.749	138.5
362.976	141.5
363.203	154.5
363.429	146.5
363.656	145.5
363.882	162.5
364.109	150.5
364.335	142.5
364.562	154.5
364.788	134.5
365.015	150.5
365.241	144.5
365.468	140.5
365.694	138.5
365.92	163.5
366.147	149.5
366.373	152.5
366.599	138.5
366.826	146.5
367.052	139.5
367.278	151.5
367.505	135.5
367.731	163.5
367.957	139.5
368.184	145.5
368.41	153.5
368.636	160.5
368.862	159.5
369.089	139.5
369.315	134.5
369.541	147.5
369.767	158.5
369.993	147.5
370.219	135.5
370.445	142.5
370.672	149.5
370.898	153.5
371.124	137.5
371.35	149.5
371.576	143.5
371.802	156.5
372.028	127.5
372.254	131.5
372.48	168.5
372.706	150.5
372.932	162.5
373.158	152.5
373.384	173.5
373.61	161.5
373.835	151.5
374.061	149.5
374.287	149.5
374.513	153.5
374.739	153.5
374.965	149.5
375.191	173.5
375.416	158.5
375.642	163.5
375.868	151.5
376.094	165.5
376.319	164.5
376.545	141.5
376.771	128.5
376.997	149.5
377.222	144.5
377.448	144.5
377.674	152.5
377.899	152.5
378.125	147.5
378.35	142.5
378.576	149.5
378.802	151.5
379.027	161.5
379.253	163.5
379.478	150.5
379.704	149.5
379.929	147.5
380.155	135.5
380.38	154.5
380.606	147.5
380.831	149.5
381.057	155.5
381.282	157.5
381.507	152.5
381.733	164.5
381.958	163.5
382.184	149.5
382.409	156.5
382.634	171.5
382.86	158.5
383.085	159.5
383.31	163.5
383.535	168.5
383.761	160.5
383.986	178.5
384.211	163.5
384.436	163.5
384.662	183.5
384.887	173.5
385.112	174.5
385.337	142.5
385.562	164.5
385.787	173.5
386.013	176.5
386.238	171.5
386.463	183.5
386.688	206.5
386.913	179.5
387.138	166.5
387.363	159.5
387.588	187.5
387.813	185.5
388.038	184.5
388.263	187.5
388.488	174.5
388.713	181.5
388.938	197.5
389.163	160.5
389.387	175.5
389.612	168.5
389.837	152.5
390.062	168.5
390.287	175.5
390.512	167.5
390.736	185.5
390.961	183.5
391.186	170.5
391.411	177.5
391.636	195.5
391.86	189.5
392.085	198.5
392.31	188.5
392.534	205.5
392.759	194.5
392.984	190.5
393.208	193.5
393.433	189.5
393.658	194.5
393.882	184.5
394.107	183.5
394.331	213.5
394.556	211.5
394.78	199.5
395.005	209.5
395.229	185.5
395.454	193.5
395.678	220.5
395.903	208.5
396.127	187.5
396.352	211.5
396.576	200.5
396.801	200.5
397.025	195.5
397.249	211.5
397.474	222.5
397.698	203.5
397.922	207.5
398.147	205.5
398.371	200.5
398.595	204.5
398.82	221.5
399.044	238.5
399.268	254.5
399.492	289.5
399.717	295.5
399.941	284.5
400.165	261.5
400.389	251.5
400.613	235.5
400.837	221.5
401.062	230.5
401.286	226.5
401.51	243.5
401.734	240.5
401.958	245.5
402.182	247.5
402.406	247.5
402.63	243.5
402.854	249.5
403.078	251.5
403.302	247.5
403.526	250.5
403.75	274.5
403.974	252.5
404.198	265.5
404.422	257.5
404.645	271.5
404.869	268.5
405.093	262.5
405.317	257.5
405.541	271.5
405.765	265.5
405.988	251.5
406.212	264.5
406.436	250.5
406.66	263.5
406.883	269.5
407.107	283.5
407.331	287.5
407.555	285.5
407.778	291.5
408.002	293.5
408.226	298.5
408.449	264.5
408.673	278.5
408.896	268.5
409.12	281.5
409.344	271.5
409.567	269.5
409.791	280.5
410.014	274.5
410.238	259.5
410.461	287.5
410.685	274.5
410.908	255.5
411.132	252.5
411.355	273.5
411.578	265.5
411.802	259.5
412.025	265.5
412.249	254.5
412.472	249.5
412.695	270.5
412.919	262.5
413.142	270.5
413.365	269.5
413.589	254.5
413.812	267.5
414.035	267.5
414.258	265.5
414.482	276.5
414.705	271.5
414.928	265.5
415.151	253.5
415.374	267.5
415.597	267.5
415.821	262.5
416.044	265.5
416.267	290.5
416.49	273.5
416.713	254.5
416.936	273.5
417.159	263.5
417.382	262.5
417.605	270.5
417.828	266.5
418.051	281.5
418.274	289.5
418.497	246.5
418.72	283.5
418.943	276.5
419.166	278.5
419.389	301.5
419.611	272.5
419.834	269.5
420.057	278.5
420.28	273.5
420.503	279.5
420.726	281.5
420.948	279.5
421.171	286.5
421.394	273.5
421.617	268.5
421.839	272.5
422.062	286.5
422.285	279.5
422.507	266.5
422.73	266.5
422.953	273.5
423.175	264.5
423.398	283.5
423.621	273.5
423.843	283.5
424.066	285.5
424.288	298.5
424.511	288.5
424.733	275.5
424.956	289.5
425.178	273.5
425.401	287.5
425.623	258.5
425.846	265.5
426.068	268.5
426.291	266.5
426.513	264.5
426.735	254.5
426.958	246.5
427.18	255.5
427.402	260.5
427.625	249.5
427.847	241.5
428.069	255.5
428.292	241.5
428.514	253.5
428.736	263.5
428.958	262.5
429.181	246.5
429.403	236.5
429.625	238.5
429.847	255.5
430.069	272.5
430.292	261.5
430.514	233.5
430.736	256.5
430.958	250.5
431.18	235.5
431.402	256.5
431.624	251.5
431.846	225.5
432.068	240.5
432.29	236.5
432.512	250.5
432.734	233.5
432.956	244.5
433.178	271.5
433.4	255.5
433.622	269.5
433.844	250.5
434.066	243.5
434.287	230.5
434.509	219.5
434.731	239.5
434.953	268.5
435.175	247.5
435.397	257.5
435.618	250.5
435.84	222.5
436.062	225.5
436.284	241.5
436.505	242.5
436.727	233.5
436.949	266.5
437.17	259.5
437.392	238.5
437.614	229.5
437.835	232.5
438.057	240.5
438.278	246.5
438.5	237.5
438.721	256.5
438.943	255.5
439.165	257.5
439.386	282.5
439.608	279.5
439.829	262.5
440.05	270.5
440.272	268.5
440.493	281.5
440.715	274.5
440.936	287.5
441.158	270.5
441.379	268.5
441.6	275.5
441.822	283.5
442.043	283.5
442.264	280.5
442.486	276.5
442.707	274.5
442.928	280.5
443.149	267.5
443.371	283.5
443.592	298.5
443.813	281.5
444.034	297.5
444.255	307.5
444.476	296.5
444.698	321.5
444.919	323.5
445.14	499.5
445.361	362.5
445.582	285.5
445.803	280.5
446.024	276.5
446.245	280.5
446.466	273.5
446.687	273.5
446.908	268.5
447.129	273.5
447.35	278.5
447.571	270.5
447.792	255.5
448.013	246.5
448.234	246.5
448.455	249.5
448.675	253.5
448.896	231.5
449.117	264.5
449.338	264.5
449.559	247.5
449.779	247.5
450	254.5
450.221	240.5
450.442	261.5
450.662	257.5
450.883	247.5
451.104	261.5
451.324	241.5
451.545	257.5
451.766	238.5
451.986	251.5
452.207	241.5
452.428	240.5
452.648	227.5
452.869	232.5
453.089	213.5
453.31	221.5
453.53	223.5
453.751	218.5
453.971	233.5
454.192	213.5
454.412	233.5
454.633	225.5
454.853	235.5
455.073	226.5
455.294	227.5
455.514	245.5
455.734	227.5
455.955	221.5
456.175	206.5
456.395	226.5
456.616	205.5
456.836	203.5
457.056	207.5
457.276	205.5
457.497	211.5
457.717	221.5
457.937	203.5
458.157	208.5
458.377	197.5
458.598	220.5
458.818	201.5
459.038	193.5
459.258	194.5
459.478	217.5
459.698	214.5
459.918	230.5
460.138	244.5
460.358	270.5
460.578	266.5
460.798	261.5
461.018	269.5
461.238	273.5
461.458	264.5
461.678	278.5
461.898	264.5
462.118	256.5
462.338	239.5
462.558	273.5
462.777	273.5
462.997	309.5
463.217	317.5
463.437	311.5
463.657	290.5
463.876	303.5
464.096	300.5
464.316	275.5
464.536	295.5
464.755	265.5
464.975	268.5
465.195	257.5
465.414	249.5
465.634	235.5
465.854	249.5
466.073	256.5
466.293	255.5
466.512	255.5
466.732	267.5
466.951	244.5
467.171	269.5
467.391	243.5
467.61	252.5
467.829	256.5
468.049	248.5
468.268	237.5
468.488	244.5
468.707	253.5
468.927	256.5
469.146	247.5
469.365	249.5
469.585	248.5
469.804	260.5
470.023	261.5
470.243	257.5
470.462	255.5
470.681	278.5
470.901	259.5
471.12	263.5
471.339	247.5
471.558	241.5
471.777	233.5
471.997	247.5
472.216	248.5
472.435	225.5
472.654	214.5
472.873	229.5
473.092	225.5
473.311	231.5
473.53	215.5
473.749	243.5
473.968	228.5
474.187	234.5
474.406	225.5
474.625	231.5
474.844	242.5
475.063	241.5
475.282	240.5
475.501	254.5
475.72	254.5
475.939	231.5
476.158	239.5
476.377	235.5
476.596	231.5
476.814	234.5
477.033	223.5
477.252	222.5
477.471	239.5
477.69	258.5
477.908	262.5
478.127	279.5
478.346	262.5
478.564	267.5
478.783	277.5
479.002	273.5
479.22	272.5
479.439	273.5
479.658	260.5
479.876	246.5
480.095	248.5
480.313	274.5
480.532	278.5
480.751	265.5
480.969	239.5
481.188	229.5
481.406	232.5
481.624	220.5
481.843	221.5
482.061	224.5
482.28	241.5
482.498	221.5
482.717	235.5
482.935	240.5
483.153	286.5
483.372	280.5
483.59	262.5
483.808	254.5
484.027	242.5
484.245	271.5
484.463	271.5
484.681	265.5
484.9	273.5
485.118	285.5
485.336	242.5
485.554	236.5
485.772	248.5
485.99	234.5
486.209	245.5
486.427	242.5
486.645	281.5
486.863	261.5
487.081	272.5
487.299	273.5
487.517	265.5
487.735	303.5
487.953	289.5
488.171	304.5
488.389	286.5
488.607	271.5
488.825	264.5
489.043	251.5
489.261	267.5
489.479	264.5
489.696	257.5
489.914	282.5
490.132	281.5
490.35	288.5
490.568	281.5
490.786	301.5
491.003	304.5
491.221	291.5
491.439	309.5
491.657	342.5
491.874	332.5
492.092	360.5
492.31	359.5
492.527	351.5
492.745	318.5
492.963	329.5
493.18	334.5
493.398	331.5
493.615	336.5
493.833	306.5
494.05	320.5
494.268	305.5
494.485	304.5
494.703	325.5
494.92	296.5
495.138	318.5
495.355	305.5
495.573	323.5
495.79	306.5
496.008	312.5
496.225	322.5
496.442	302.5
496.66	320.5
496.877	308.5
497.094	334.5
497.312	322.5
497.529	311.5
497.746	324.5
497.963	293.5
498.181	320.5
498.398	331.5
498.615	314.5
498.832	339.5
499.049	373.5
499.267	403.5
499.484	425.5
499.701	464.5
499.918	502.5
500.135	530.5
500.352	619.5
500.569	640.5
500.786	636.5
501.003	601.5
501.22	513.5
501.437	474.5
501.654	424.5
501.871	403.5
502.088	347.5
502.305	353.5
502.522	338.5
502.739	333.5
502.956	319.5
503.172	311.5
503.389	303.5
503.606	297.5
503.823	296.5
504.04	287.5
504.256	297.5
504.473	299.5
504.69	302.5
504.907	291.5
505.123	267.5
505.34	271.5
505.557	277.5
505.773	276.5
505.99	249.5
506.207	258.5
506.423	261.5
506.64	248.5
506.856	240.5
507.073	239.5
507.289	236.5
507.506	238.5
507.722	253.5
507.939	222.5
508.155	222.5
508.372	239.5
508.588	218.5
508.805	229.5
509.021	210.5
509.238	220.5
509.454	191.5
509.67	208.5
509.887	213.5
510.103	217.5
510.319	208.5
510.536	224.5
510.752	215.5
510.968	186.5
511.184	208.5
511.401	193.5
511.617	216.5
511.833	213.5
512.049	208.5
512.265	211.5
512.481	217.5
512.698	211.5
512.914	215.5
513.13	224.5
513.346	203.5
513.562	198.5
513.778	208.5
513.994	211.5
514.21	217.5
514.426	226.5
514.642	231.5
514.858	210.5
515.074	222.5
515.29	229.5
515.506	205.5
515.721	224.5
515.937	242.5
516.153	224.5
516.369	235.5
516.585	230.5
516.801	242.5
517.016	247.5
517.232	265.5
517.448	272.5
517.664	283.5
517.879	263.5
518.095	270.5
518.311	263.5
518.527	255.5
518.742	241.5
518.958	246.5
519.173	247.5
519.389	252.5
519.605	256.5
519.82	231.5
520.036	241.5
520.251	231.5
520.467	227.5
520.682	235.5
520.898	218.5
521.113	202.5
521.329	218.5
521.544	207.5
521.76	204.5
521.975	233.5
522.19	219.5
522.406	197.5
