Data from SampA_HRD10591_00014.txt Node
Date: Mon Jan 19 11:26:51 EST 2026
User: Yrep
Spectrometer: HR+D1059
Trigger mode: 0
Integration Time (sec): 3.443000E-1
Scans to average: 1
Electric dark correction enabled: true
Nonlinearity correction enabled: false
Boxcar width: 0
XAxis mode: Wavelengths
Number of Pixels in Spectrum: 2048
>>>>>Begin Spectral Data<<<<<
223.165	-28.31
223.4	-28.31
223.635	-28.31
223.869	-26.31
224.104	-36.31
224.338	-15.31
224.573	-25.31
224.808	-17.31
225.042	1.69
225.277	-5.31
225.511	4.69
225.746	16.69
225.98	8.69
226.215	13.69
226.449	18.69
226.683	25.69
226.918	20.69
227.152	43.69
227.387	31.69
227.621	46.69
227.856	40.69
228.09	38.69
228.324	25.69
228.559	59.69
228.793	61.69
229.027	68.69
229.262	74.69
229.496	58.69
229.73	60.69
229.964	90.69
230.199	70.69
230.433	73.69
230.667	89.69
230.901	90.69
231.136	67.69
231.37	71.69
231.604	86.69
231.838	84.69
232.072	70.69
232.306	88.69
232.541	74.69
232.775	76.69
233.009	84.69
233.243	83.69
233.477	100.69
233.711	87.69
233.945	91.69
234.179	77.69
234.413	85.69
234.647	76.69
234.881	89.69
235.115	83.69
235.349	85.69
235.583	94.69
235.817	91.69
236.051	71.69
236.285	78.69
236.519	81.69
236.753	76.69
236.987	83.69
237.221	79.69
237.455	76.69
237.689	88.69
237.922	80.69
238.156	89.69
238.39	70.69
238.624	85.69
238.858	75.69
239.091	69.69
239.325	74.69
239.559	83.69
239.793	81.69
240.027	83.69
240.26	68.69
240.494	93.69
240.728	76.69
240.961	74.69
241.195	85.69
241.429	87.69
241.662	66.69
241.896	76.69
242.13	80.69
242.363	82.69
242.597	74.69
242.83	88.69
243.064	91.69
243.298	92.69
243.531	73.69
243.765	76.69
243.998	80.69
244.232	87.69
244.465	94.69
244.699	72.69
244.932	71.69
245.166	80.69
245.399	70.69
245.633	82.69
245.866	75.69
246.099	85.69
246.333	87.69
246.566	69.69
246.8	82.69
247.033	92.69
247.266	77.69
247.5	77.69
247.733	91.69
247.966	89.69
248.2	89.69
248.433	82.69
248.666	94.69
248.899	96.69
249.133	84.69
249.366	89.69
249.599	89.69
249.832	83.69
250.066	81.69
250.299	82.69
250.532	80.69
250.765	101.69
250.998	76.69
251.231	87.69
251.465	93.69
251.698	88.69
251.931	97.69
252.164	90.69
252.397	83.69
252.63	86.69
252.863	89.69
253.096	87.69
253.329	97.69
253.562	89.69
253.795	87.69
254.028	96.69
254.261	82.69
254.494	81.69
254.727	106.69
254.96	93.69
255.193	92.69
255.426	109.69
255.659	71.69
255.892	94.69
256.124	91.69
256.357	97.69
256.59	88.69
256.823	89.69
257.056	92.69
257.289	82.69
257.521	93.69
257.754	93.69
257.987	83.69
258.22	97.69
258.452	87.69
258.685	103.69
258.918	93.69
259.151	87.69
259.383	96.69
259.616	89.69
259.849	105.69
260.081	85.69
260.314	106.69
260.547	99.69
260.779	100.69
261.012	98.69
261.244	97.69
261.477	120.69
261.71	101.69
261.942	100.69
262.175	95.69
262.407	86.69
262.64	103.69
262.872	103.69
263.105	96.69
263.337	102.69
263.57	92.69
263.802	101.69
264.035	109.69
264.267	98.69
264.499	82.69
264.732	112.69
264.964	97.69
265.197	101.69
265.429	93.69
265.661	100.69
265.894	107.69
266.126	101.69
266.358	106.69
266.591	92.69
266.823	108.69
267.055	103.69
267.287	95.69
267.52	100.69
267.752	107.69
267.984	112.69
268.216	94.69
268.448	102.69
268.681	102.69
268.913	107.69
269.145	95.69
269.377	109.69
269.609	100.69
269.841	112.69
270.073	92.69
270.306	93.69
270.538	93.69
270.77	90.69
271.002	113.69
271.234	106.69
271.466	101.69
271.698	102.69
271.93	95.69
272.162	106.69
272.394	102.69
272.626	103.69
272.858	98.69
273.09	116.69
273.322	100.69
273.553	113.69
273.785	105.69
274.017	89.69
274.249	109.69
274.481	107.69
274.713	103.69
274.945	108.69
275.176	91.69
275.408	117.69
275.64	104.69
275.872	112.69
276.104	104.69
276.335	112.69
276.567	97.69
276.799	90.69
277.031	86.69
277.262	107.69
277.494	105.69
277.726	114.69
277.957	93.69
278.189	111.69
278.421	97.69
278.652	100.69
278.884	107.69
279.115	107.69
279.347	107.69
279.579	110.69
279.81	106.69
280.042	104.69
280.273	112.69
280.505	106.69
280.736	119.69
280.968	106.69
281.199	109.69
281.431	115.69
281.662	116.69
281.894	108.69
282.125	97.69
282.356	125.69
282.588	113.69
282.819	115.69
283.051	105.69
283.282	113.69
283.513	110.69
283.745	119.69
283.976	103.69
284.207	114.69
284.439	111.69
284.67	108.69
284.901	118.69
285.132	112.69
285.364	125.69
285.595	112.69
285.826	109.69
286.057	124.69
286.288	114.69
286.52	118.69
286.751	119.69
286.982	104.69
287.213	123.69
287.444	113.69
287.675	112.69
287.906	122.69
288.138	110.69
288.369	100.69
288.6	115.69
288.831	129.69
289.062	118.69
289.293	121.69
289.524	110.69
289.755	122.69
289.986	117.69
290.217	122.69
290.448	129.69
290.679	118.69
290.91	132.69
291.141	100.69
291.371	115.69
291.602	119.69
291.833	100.69
292.064	120.69
292.295	113.69
292.526	114.69
292.757	111.69
292.987	124.69
293.218	117.69
293.449	115.69
293.68	106.69
293.91	104.69
294.141	111.69
294.372	122.69
294.603	111.69
294.833	117.69
295.064	128.69
295.295	118.69
295.525	117.69
295.756	123.69
295.987	119.69
296.217	123.69
296.448	132.69
296.679	109.69
296.909	116.69
297.14	108.69
297.37	104.69
297.601	129.69
297.831	140.69
298.062	122.69
298.292	120.69
298.523	118.69
298.753	122.69
298.984	130.69
299.214	127.69
299.445	87.69
299.675	114.69
299.905	116.69
300.136	128.69
300.366	122.69
300.597	124.69
300.827	131.69
301.057	121.69
301.288	131.69
301.518	142.69
301.748	107.69
301.979	159.69
302.209	134.69
302.439	120.69
302.669	133.69
302.9	107.69
303.13	119.69
303.36	134.69
303.59	123.69
303.82	129.69
304.051	125.69
304.281	132.69
304.511	142.69
304.741	121.69
304.971	137.69
305.201	128.69
305.431	140.69
305.661	140.69
305.891	134.69
306.121	123.69
306.352	119.69
306.582	131.69
306.812	128.69
307.042	115.69
307.272	105.69
307.502	112.69
307.731	126.69
307.961	137.69
308.191	125.69
308.421	128.69
308.651	130.69
308.881	112.69
309.111	122.69
309.341	115.69
309.571	119.69
309.8	109.69
310.03	113.69
310.26	133.69
310.49	133.69
310.72	145.69
310.949	127.69
311.179	143.69
311.409	113.69
311.639	121.69
311.868	125.69
312.098	143.69
312.328	122.69
312.557	133.69
312.787	130.69
313.017	131.69
313.246	130.69
313.476	128.69
313.706	136.69
313.935	128.69
314.165	136.69
314.394	135.69
314.624	129.69
314.853	129.69
315.083	122.69
315.312	130.69
315.542	131.69
315.771	139.69
316.001	119.69
316.23	120.69
316.46	130.69
316.689	133.69
316.919	135.69
317.148	139.69
317.377	115.69
317.607	124.69
317.836	100.69
318.065	121.69
318.295	123.69
318.524	119.69
318.753	133.69
318.983	129.69
319.212	123.69
319.441	128.69
319.67	135.69
319.9	138.69
320.129	128.69
320.358	141.69
320.587	114.69
320.816	121.69
321.046	125.69
321.275	128.69
321.504	110.69
321.733	115.69
321.962	116.69
322.191	124.69
322.42	119.69
322.649	132.69
322.878	134.69
323.108	146.69
323.337	134.69
323.566	133.69
323.795	124.69
324.024	140.69
324.253	141.69
324.482	133.69
324.71	119.69
324.939	136.69
325.168	118.69
325.397	126.69
325.626	141.69
325.855	132.69
326.084	146.69
326.313	126.69
326.542	131.69
326.77	118.69
326.999	132.69
327.228	121.69
327.457	135.69
327.686	127.69
327.914	123.69
328.143	134.69
328.372	143.69
328.6	146.69
328.829	136.69
329.058	121.69
329.287	132.69
329.515	129.69
329.744	134.69
329.972	144.69
330.201	122.69
330.43	140.69
330.658	132.69
330.887	155.69
331.115	141.69
331.344	140.69
331.572	140.69
331.801	155.69
332.03	139.69
332.258	141.69
332.486	146.69
332.715	150.69
332.943	125.69
333.172	155.69
333.4	156.69
333.629	170.69
333.857	154.69
334.085	153.69
334.314	153.69
334.542	139.69
334.771	157.69
334.999	150.69
335.227	148.69
335.455	152.69
335.684	166.69
335.912	146.69
336.14	152.69
336.369	160.69
336.597	142.69
336.825	151.69
337.053	154.69
337.281	161.69
337.51	136.69
337.738	162.69
337.966	148.69
338.194	149.69
338.422	136.69
338.65	140.69
338.878	152.69
339.106	124.69
339.334	141.69
339.562	144.69
339.79	140.69
340.018	146.69
340.246	130.69
340.474	149.69
340.702	133.69
340.93	141.69
341.158	137.69
341.386	137.69
341.614	131.69
341.842	125.69
342.07	124.69
342.298	118.69
342.526	126.69
342.754	132.69
342.981	128.69
343.209	153.69
343.437	168.69
343.665	148.69
343.893	168.69
344.12	168.69
344.348	158.69
344.576	144.69
344.804	137.69
345.031	137.69
345.259	125.69
345.487	138.69
345.714	120.69
345.942	137.69
346.17	140.69
346.397	123.69
346.625	133.69
346.853	142.69
347.08	138.69
347.308	146.69
347.535	135.69
347.763	132.69
347.99	155.69
348.218	162.69
348.445	127.69
348.673	127.69
348.9	146.69
349.128	120.69
349.355	142.69
349.583	121.69
349.81	113.69
350.037	148.69
350.265	143.69
350.492	132.69
350.72	123.69
350.947	146.69
351.174	121.69
351.402	130.69
351.629	134.69
351.856	129.69
352.083	129.69
352.311	144.69
352.538	133.69
352.765	129.69
352.992	152.69
353.22	113.69
353.447	121.69
353.674	118.69
353.901	130.69
354.128	129.69
354.355	126.69
354.583	132.69
354.81	133.69
355.037	134.69
355.264	121.69
355.491	131.69
355.718	136.69
355.945	130.69
356.172	140.69
356.399	132.69
356.626	140.69
356.853	134.69
357.08	136.69
357.307	129.69
357.534	130.69
357.761	139.69
357.988	123.69
358.215	151.69
358.441	146.69
358.668	119.69
358.895	132.69
359.122	130.69
359.349	147.69
359.576	144.69
359.802	116.69
360.029	123.69
360.256	141.69
360.483	124.69
360.709	130.69
360.936	142.69
361.163	142.69
361.39	134.69
361.616	123.69
361.843	143.69
362.07	160.69
362.296	128.69
362.523	132.69
362.749	149.69
362.976	132.69
363.203	141.69
363.429	133.69
363.656	126.69
363.882	149.69
364.109	120.69
364.335	125.69
364.562	154.69
364.788	134.69
365.015	144.69
365.241	124.69
365.468	151.69
365.694	124.69
365.92	150.69
366.147	122.69
366.373	134.69
366.599	124.69
366.826	134.69
367.052	132.69
367.278	133.69
367.505	121.69
367.731	157.69
367.957	130.69
368.184	127.69
368.41	130.69
368.636	131.69
368.862	143.69
369.089	129.69
369.315	144.69
369.541	148.69
369.767	133.69
369.993	155.69
370.219	138.69
370.445	136.69
370.672	148.69
370.898	125.69
371.124	124.69
371.35	149.69
371.576	143.69
371.802	150.69
372.028	152.69
372.254	129.69
372.48	139.69
372.706	142.69
372.932	137.69
373.158	150.69
373.384	163.69
373.61	156.69
373.835	140.69
374.061	148.69
374.287	133.69
374.513	159.69
374.739	146.69
374.965	153.69
375.191	136.69
375.416	138.69
375.642	149.69
375.868	145.69
376.094	138.69
376.319	137.69
376.545	156.69
376.771	144.69
376.997	156.69
377.222	129.69
377.448	150.69
377.674	144.69
377.899	152.69
378.125	153.69
378.35	132.69
378.576	148.69
378.802	137.69
379.027	138.69
379.253	149.69
379.478	126.69
379.704	146.69
379.929	144.69
380.155	134.69
380.38	138.69
380.606	150.69
380.831	134.69
381.057	135.69
381.282	134.69
381.507	137.69
381.733	153.69
381.958	145.69
382.184	130.69
382.409	148.69
382.634	141.69
382.86	139.69
383.085	163.69
383.31	136.69
383.535	144.69
383.761	170.69
383.986	162.69
384.211	157.69
384.436	149.69
384.662	159.69
384.887	155.69
385.112	154.69
385.337	183.69
385.562	154.69
385.787	154.69
386.013	166.69
386.238	156.69
386.463	155.69
386.688	181.69
386.913	161.69
387.138	163.69
387.363	164.69
387.588	178.69
387.813	183.69
388.038	151.69
388.263	163.69
388.488	155.69
388.713	163.69
388.938	158.69
389.163	169.69
389.387	184.69
389.612	173.69
389.837	166.69
390.062	177.69
390.287	164.69
390.512	175.69
390.736	161.69
390.961	164.69
391.186	187.69
391.411	192.69
391.636	194.69
391.86	171.69
392.085	184.69
392.31	182.69
392.534	182.69
392.759	196.69
392.984	166.69
393.208	180.69
393.433	177.69
393.658	191.69
393.882	182.69
394.107	185.69
394.331	177.69
394.556	188.69
394.78	193.69
395.005	168.69
395.229	184.69
395.454	202.69
395.678	192.69
395.903	184.69
396.127	194.69
396.352	187.69
396.576	184.69
396.801	195.69
397.025	194.69
397.249	194.69
397.474	210.69
397.698	200.69
397.922	192.69
398.147	216.69
398.371	189.69
398.595	194.69
398.82	215.69
399.044	229.69
399.268	258.69
399.492	266.69
399.717	311.69
399.941	272.69
400.165	260.69
400.389	251.69
400.613	221.69
400.837	238.69
401.062	227.69
401.286	231.69
401.51	229.69
401.734	227.69
401.958	233.69
402.182	246.69
402.406	227.69
402.63	232.69
402.854	256.69
403.078	240.69
403.302	248.69
403.526	243.69
403.75	274.69
403.974	252.69
404.198	264.69
404.422	269.69
404.645	252.69
404.869	248.69
405.093	258.69
405.317	260.69
405.541	253.69
405.765	274.69
405.988	259.69
406.212	246.69
406.436	264.69
406.66	274.69
406.883	273.69
407.107	282.69
407.331	300.69
407.555	280.69
407.778	283.69
408.002	272.69
408.226	275.69
408.449	275.69
408.673	253.69
408.896	263.69
409.12	270.69
409.344	277.69
409.567	258.69
409.791	279.69
410.014	272.69
410.238	268.69
410.461	265.69
410.685	264.69
410.908	263.69
411.132	270.69
411.355	266.69
411.578	272.69
411.802	272.69
412.025	260.69
412.249	266.69
412.472	258.69
412.695	244.69
412.919	244.69
413.142	252.69
413.365	272.69
413.589	284.69
413.812	263.69
414.035	257.69
414.258	254.69
414.482	276.69
414.705	273.69
414.928	287.69
415.151	265.69
415.374	261.69
415.597	275.69
415.821	258.69
416.044	272.69
416.267	261.69
416.49	240.69
416.713	281.69
416.936	258.69
417.159	258.69
417.382	265.69
417.605	263.69
417.828	269.69
418.051	262.69
418.274	257.69
418.497	276.69
418.72	270.69
418.943	272.69
419.166	290.69
419.389	291.69
419.611	275.69
419.834	298.69
420.057	288.69
420.28	257.69
420.503	265.69
420.726	278.69
420.948	260.69
421.171	267.69
421.394	282.69
421.617	281.69
421.839	270.69
422.062	280.69
422.285	265.69
422.507	277.69
422.73	272.69
422.953	274.69
423.175	280.69
423.398	270.69
423.621	279.69
423.843	278.69
424.066	277.69
424.288	293.69
424.511	311.69
424.733	286.69
424.956	278.69
425.178	278.69
425.401	277.69
425.623	290.69
425.846	262.69
426.068	267.69
426.291	261.69
426.513	268.69
426.735	259.69
426.958	256.69
427.18	265.69
427.402	251.69
427.625	247.69
427.847	244.69
428.069	260.69
428.292	248.69
428.514	256.69
428.736	245.69
428.958	254.69
429.181	253.69
429.403	236.69
429.625	245.69
429.847	252.69
430.069	255.69
430.292	253.69
430.514	248.69
430.736	249.69
430.958	255.69
431.18	235.69
431.402	240.69
431.624	216.69
431.846	224.69
432.068	234.69
432.29	224.69
432.512	227.69
432.734	253.69
432.956	270.69
433.178	277.69
433.4	256.69
433.622	266.69
433.844	261.69
434.066	245.69
434.287	229.69
434.509	225.69
434.731	262.69
434.953	241.69
435.175	261.69
435.397	251.69
435.618	247.69
435.84	238.69
436.062	215.69
436.284	247.69
436.505	242.69
436.727	253.69
436.949	262.69
437.17	256.69
437.392	244.69
437.614	237.69
437.835	215.69
438.057	208.69
438.278	234.69
438.5	244.69
438.721	256.69
438.943	265.69
439.165	252.69
439.386	264.69
439.608	272.69
439.829	254.69
440.05	284.69
440.272	271.69
440.493	268.69
440.715	266.69
440.936	286.69
441.158	303.69
441.379	275.69
441.6	290.69
441.822	287.69
442.043	279.69
442.264	277.69
442.486	268.69
442.707	272.69
442.928	276.69
443.149	270.69
443.371	275.69
443.592	277.69
443.813	294.69
444.034	269.69
444.255	297.69
444.476	284.69
444.698	300.69
444.919	317.69
445.14	506.69
445.361	374.69
445.582	284.69
445.803	258.69
446.024	263.69
446.245	285.69
446.466	266.69
446.687	275.69
446.908	264.69
447.129	260.69
447.35	248.69
447.571	266.69
447.792	256.69
448.013	272.69
448.234	258.69
448.455	262.69
448.675	247.69
448.896	251.69
449.117	238.69
449.338	244.69
449.559	269.69
449.779	241.69
450	254.69
450.221	252.69
450.442	239.69
450.662	270.69
450.883	254.69
451.104	255.69
451.324	243.69
451.545	239.69
451.766	262.69
451.986	250.69
452.207	228.69
452.428	243.69
452.648	232.69
452.869	209.69
453.089	206.69
453.31	227.69
453.53	219.69
453.751	206.69
453.971	224.69
454.192	196.69
454.412	206.69
454.633	207.69
454.853	226.69
455.073	230.69
455.294	197.69
455.514	246.69
455.734	227.69
455.955	214.69
456.175	219.69
456.395	211.69
456.616	218.69
456.836	214.69
457.056	205.69
457.276	213.69
457.497	211.69
457.717	214.69
457.937	200.69
458.157	199.69
458.377	195.69
458.598	204.69
458.818	197.69
459.038	202.69
459.258	200.69
459.478	205.69
459.698	218.69
459.918	231.69
460.138	238.69
460.358	261.69
460.578	257.69
460.798	277.69
461.018	250.69
461.238	251.69
461.458	256.69
461.678	262.69
461.898	269.69
462.118	267.69
462.338	279.69
462.558	280.69
462.777	283.69
462.997	294.69
463.217	302.69
463.437	326.69
463.657	291.69
463.876	300.69
464.096	294.69
464.316	281.69
464.536	290.69
464.755	292.69
464.975	271.69
465.195	263.69
465.414	269.69
465.634	249.69
465.854	229.69
466.073	241.69
466.293	253.69
466.512	250.69
466.732	237.69
466.951	236.69
467.171	248.69
467.391	246.69
467.61	245.69
467.829	241.69
468.049	246.69
468.268	234.69
468.488	245.69
468.707	234.69
468.927	235.69
469.146	241.69
469.365	250.69
469.585	275.69
469.804	245.69
470.023	258.69
470.243	279.69
470.462	258.69
470.681	269.69
470.901	260.69
471.12	251.69
471.339	258.69
471.558	246.69
471.777	228.69
471.997	240.69
472.216	233.69
472.435	218.69
472.654	228.69
472.873	234.69
473.092	216.69
473.311	224.69
473.53	224.69
473.749	237.69
473.968	240.69
474.187	235.69
474.406	214.69
474.625	235.69
474.844	224.69
475.063	255.69
475.282	218.69
475.501	230.69
475.72	229.69
475.939	229.69
476.158	217.69
476.377	244.69
476.596	251.69
476.814	234.69
477.033	208.69
477.252	216.69
477.471	232.69
477.69	278.69
477.908	263.69
478.127	290.69
478.346	285.69
478.564	274.69
478.783	263.69
479.002	278.69
479.22	282.69
479.439	279.69
479.658	278.69
479.876	266.69
480.095	238.69
480.313	272.69
480.532	268.69
480.751	265.69
480.969	238.69
481.188	229.69
481.406	236.69
481.624	225.69
481.843	209.69
482.061	222.69
482.28	241.69
482.498	220.69
482.717	227.69
482.935	260.69
483.153	268.69
483.372	268.69
483.59	278.69
483.808	270.69
484.027	233.69
484.245	252.69
484.463	264.69
484.681	280.69
484.9	253.69
485.118	251.69
485.336	268.69
485.554	240.69
485.772	249.69
485.99	212.69
486.209	234.69
486.427	226.69
486.645	249.69
486.863	264.69
487.081	262.69
487.299	249.69
487.517	282.69
487.735	288.69
487.953	300.69
488.171	324.69
488.389	294.69
488.607	258.69
488.825	262.69
489.043	265.69
489.261	271.69
489.479	272.69
489.696	278.69
489.914	281.69
490.132	264.69
490.35	284.69
490.568	299.69
490.786	304.69
491.003	311.69
491.221	316.69
491.439	308.69
491.657	329.69
491.874	342.69
492.092	348.69
492.31	377.69
492.527	353.69
492.745	329.69
492.963	327.69
493.18	329.69
493.398	317.69
493.615	335.69
493.833	328.69
494.05	303.69
494.268	299.69
494.485	309.69
494.703	325.69
494.92	320.69
495.138	303.69
495.355	309.69
495.573	310.69
495.79	300.69
496.008	299.69
496.225	311.69
496.442	309.69
496.66	342.69
496.877	320.69
497.094	330.69
497.312	325.69
497.529	314.69
497.746	290.69
497.963	302.69
498.181	307.69
498.398	298.69
498.615	337.69
498.832	338.69
499.049	338.69
499.267	377.69
499.484	423.69
499.701	450.69
499.918	510.69
500.135	569.69
500.352	604.69
500.569	641.69
500.786	613.69
501.003	584.69
501.22	512.69
501.437	487.69
501.654	420.69
501.871	401.69
502.088	366.69
502.305	360.69
502.522	353.69
502.739	329.69
502.956	304.69
503.172	318.69
503.389	314.69
503.606	292.69
503.823	295.69
504.04	296.69
504.256	276.69
504.473	290.69
504.69	286.69
504.907	291.69
