Data from SampA_HRD10591_00006.txt Node
Date: Mon Jan 19 11:26:48 EST 2026
User: Yrep
Spectrometer: HR+D1059
Trigger mode: 0
Integration Time (sec): 3.443000E-1
Scans to average: 1
Electric dark correction enabled: true
Nonlinearity correction enabled: false
Boxcar width: 0
XAxis mode: Wavelengths
Number of Pixels in Spectrum: 2048
>>>>>Begin Spectral Data<<<<<
223.165	-21.38
223.4	-21.38
223.635	-21.38
223.869	-23.38
224.104	-19.38
224.338	-19.38
224.573	-4.38
224.808	-19.38
225.042	-2.38
225.277	-6.38
225.511	-3.38
225.746	11.62
225.98	10.62
226.215	9.62
226.449	9.62
226.683	32.62
226.918	17.62
227.152	27.62
227.387	35.62
227.621	35.62
227.856	43.62
228.09	45.62
228.324	56.62
228.559	62.62
228.793	69.62
229.027	77.62
229.262	63.62
229.496	74.62
229.73	85.62
229.964	88.62
230.199	88.62
230.433	81.62
230.667	85.62
230.901	82.62
231.136	80.62
231.37	96.62
231.604	89.62
231.838	104.62
232.072	85.62
232.306	90.62
232.541	86.62
232.775	96.62
233.009	93.62
233.243	102.62
233.477	91.62
233.711	85.62
233.945	80.62
234.179	88.62
234.413	90.62
234.647	96.62
234.881	99.62
235.115	109.62
235.349	99.62
235.583	105.62
235.817	85.62
236.051	100.62
236.285	84.62
236.519	78.62
236.753	91.62
236.987	87.62
237.221	88.62
237.455	100.62
237.689	96.62
237.922	89.62
238.156	96.62
238.39	80.62
238.624	93.62
238.858	89.62
239.091	92.62
239.325	83.62
239.559	90.62
239.793	85.62
240.027	97.62
240.26	85.62
240.494	98.62
240.728	96.62
240.961	86.62
241.195	93.62
241.429	96.62
241.662	91.62
241.896	98.62
242.13	110.62
242.363	96.62
242.597	81.62
242.83	98.62
243.064	92.62
243.298	83.62
243.531	100.62
243.765	94.62
243.998	75.62
244.232	96.62
244.465	93.62
244.699	91.62
244.932	92.62
245.166	97.62
245.399	96.62
245.633	99.62
245.866	88.62
246.099	98.62
246.333	106.62
246.566	97.62
246.8	94.62
247.033	118.62
247.266	112.62
247.5	81.62
247.733	102.62
247.966	98.62
248.2	90.62
248.433	100.62
248.666	77.62
248.899	90.62
249.133	103.62
249.366	117.62
249.599	94.62
249.832	107.62
250.066	112.62
250.299	101.62
250.532	97.62
250.765	109.62
250.998	94.62
251.231	79.62
251.465	101.62
251.698	98.62
251.931	89.62
252.164	104.62
252.397	103.62
252.63	109.62
252.863	101.62
253.096	111.62
253.329	105.62
253.562	120.62
253.795	116.62
254.028	118.62
254.261	113.62
254.494	97.62
254.727	106.62
254.96	121.62
255.193	127.62
255.426	112.62
255.659	107.62
255.892	128.62
256.124	105.62
256.357	108.62
256.59	113.62
256.823	108.62
257.056	104.62
257.289	107.62
257.521	99.62
257.754	108.62
257.987	107.62
258.22	117.62
258.452	120.62
258.685	107.62
258.918	103.62
259.151	90.62
259.383	125.62
259.616	127.62
259.849	117.62
260.081	109.62
260.314	108.62
260.547	100.62
260.779	113.62
261.012	127.62
261.244	130.62
261.477	136.62
261.71	121.62
261.942	101.62
262.175	112.62
262.407	100.62
262.64	115.62
262.872	99.62
263.105	108.62
263.337	127.62
263.57	106.62
263.802	112.62
264.035	120.62
264.267	114.62
264.499	116.62
264.732	111.62
264.964	96.62
265.197	114.62
265.429	114.62
265.661	117.62
265.894	106.62
266.126	116.62
266.358	117.62
266.591	121.62
266.823	110.62
267.055	112.62
267.287	125.62
267.52	129.62
267.752	123.62
267.984	126.62
268.216	121.62
268.448	117.62
268.681	135.62
268.913	126.62
269.145	112.62
269.377	116.62
269.609	106.62
269.841	122.62
270.073	124.62
270.306	115.62
270.538	126.62
270.77	125.62
271.002	130.62
271.234	130.62
271.466	126.62
271.698	143.62
271.93	121.62
272.162	121.62
272.394	127.62
272.626	121.62
272.858	131.62
273.09	123.62
273.322	124.62
273.553	110.62
273.785	123.62
274.017	120.62
274.249	113.62
274.481	133.62
274.713	142.62
274.945	125.62
275.176	121.62
275.408	138.62
275.64	139.62
275.872	114.62
276.104	135.62
276.335	127.62
276.567	103.62
276.799	122.62
277.031	119.62
277.262	129.62
277.494	135.62
277.726	137.62
277.957	123.62
278.189	126.62
278.421	129.62
278.652	126.62
278.884	129.62
279.115	139.62
279.347	137.62
279.579	116.62
279.81	129.62
280.042	111.62
280.273	125.62
280.505	151.62
280.736	127.62
280.968	144.62
281.199	139.62
281.431	142.62
281.662	124.62
281.894	139.62
282.125	145.62
282.356	139.62
282.588	135.62
282.819	134.62
283.051	133.62
283.282	140.62
283.513	142.62
283.745	143.62
283.976	146.62
284.207	143.62
284.439	147.62
284.67	137.62
284.901	143.62
285.132	145.62
285.364	160.62
285.595	151.62
285.826	141.62
286.057	143.62
286.288	144.62
286.52	155.62
286.751	148.62
286.982	145.62
287.213	134.62
287.444	147.62
287.675	138.62
287.906	153.62
288.138	151.62
288.369	146.62
288.6	162.62
288.831	137.62
289.062	140.62
289.293	144.62
289.524	155.62
289.755	141.62
289.986	158.62
290.217	143.62
290.448	138.62
290.679	152.62
290.91	155.62
291.141	144.62
291.371	147.62
291.602	143.62
291.833	142.62
292.064	144.62
292.295	157.62
292.526	153.62
292.757	161.62
292.987	145.62
293.218	154.62
293.449	164.62
293.68	161.62
293.91	163.62
294.141	179.62
294.372	140.62
294.603	150.62
294.833	127.62
295.064	136.62
295.295	150.62
295.525	142.62
295.756	153.62
295.987	156.62
296.217	157.62
296.448	161.62
296.679	152.62
296.909	168.62
297.14	169.62
297.37	153.62
297.601	153.62
297.831	143.62
298.062	156.62
298.292	167.62
298.523	161.62
298.753	146.62
298.984	139.62
299.214	161.62
299.445	155.62
299.675	159.62
299.905	141.62
300.136	153.62
300.366	151.62
300.597	165.62
300.827	159.62
301.057	157.62
301.288	159.62
301.518	159.62
301.748	131.62
301.979	194.62
302.209	150.62
302.439	152.62
302.669	163.62
302.9	165.62
303.13	172.62
303.36	158.62
303.59	164.62
303.82	158.62
304.051	185.62
304.281	163.62
304.511	172.62
304.741	163.62
304.971	158.62
305.201	161.62
305.431	170.62
305.661	176.62
305.891	157.62
306.121	172.62
306.352	177.62
306.582	168.62
306.812	165.62
307.042	149.62
307.272	157.62
307.502	143.62
307.731	160.62
307.961	147.62
308.191	144.62
308.421	156.62
308.651	156.62
308.881	151.62
309.111	164.62
309.341	162.62
309.571	162.62
309.8	156.62
310.03	159.62
310.26	161.62
310.49	165.62
310.72	165.62
310.949	172.62
311.179	175.62
311.409	152.62
311.639	151.62
311.868	160.62
312.098	166.62
312.328	164.62
312.557	168.62
312.787	172.62
313.017	157.62
313.246	156.62
313.476	151.62
313.706	156.62
313.935	167.62
314.165	173.62
314.394	160.62
314.624	159.62
314.853	162.62
315.083	175.62
315.312	187.62
315.542	158.62
315.771	160.62
316.001	172.62
316.23	162.62
316.46	160.62
316.689	173.62
316.919	163.62
317.148	178.62
317.377	174.62
317.607	166.62
317.836	165.62
318.065	167.62
318.295	157.62
318.524	161.62
318.753	162.62
318.983	169.62
319.212	163.62
319.441	156.62
319.67	171.62
319.9	154.62
320.129	183.62
320.358	185.62
320.587	168.62
320.816	168.62
321.046	175.62
321.275	189.62
321.504	161.62
321.733	157.62
321.962	165.62
322.191	158.62
322.42	168.62
322.649	165.62
322.878	151.62
323.108	171.62
323.337	169.62
323.566	174.62
323.795	187.62
324.024	181.62
324.253	163.62
324.482	167.62
324.71	181.62
324.939	181.62
325.168	174.62
325.397	187.62
325.626	179.62
325.855	168.62
326.084	166.62
326.313	175.62
326.542	167.62
326.77	191.62
326.999	175.62
327.228	163.62
327.457	171.62
327.686	166.62
327.914	176.62
328.143	199.62
328.372	166.62
328.6	181.62
328.829	182.62
329.058	174.62
329.287	163.62
329.515	183.62
329.744	185.62
329.972	174.62
330.201	183.62
330.43	178.62
330.658	188.62
330.887	188.62
331.115	167.62
331.344	181.62
331.572	187.62
331.801	187.62
332.03	185.62
332.258	197.62
332.486	200.62
332.715	200.62
332.943	186.62
333.172	203.62
333.4	215.62
333.629	226.62
333.857	218.62
334.085	210.62
334.314	225.62
334.542	196.62
334.771	222.62
334.999	226.62
335.227	193.62
335.455	206.62
335.684	191.62
335.912	205.62
336.14	209.62
336.369	208.62
336.597	197.62
336.825	197.62
337.053	184.62
337.281	203.62
337.51	184.62
337.738	210.62
337.966	191.62
338.194	189.62
338.422	187.62
338.65	190.62
338.878	186.62
339.106	189.62
339.334	189.62
339.562	188.62
339.79	193.62
340.018	180.62
340.246	190.62
340.474	165.62
340.702	175.62
340.93	186.62
341.158	168.62
341.386	170.62
341.614	180.62
341.842	196.62
342.07	180.62
342.298	177.62
342.526	183.62
342.754	186.62
342.981	191.62
343.209	188.62
343.437	232.62
343.665	185.62
343.893	198.62
344.12	208.62
344.348	202.62
344.576	185.62
344.804	183.62
345.031	163.62
345.259	194.62
345.487	184.62
345.714	177.62
345.942	170.62
346.17	191.62
346.397	175.62
346.625	176.62
346.853	181.62
347.08	172.62
347.308	188.62
347.535	172.62
347.763	182.62
347.99	192.62
348.218	185.62
348.445	173.62
348.673	174.62
348.9	190.62
349.128	175.62
349.355	175.62
349.583	180.62
349.81	177.62
350.037	181.62
350.265	177.62
350.492	171.62
350.72	179.62
350.947	174.62
351.174	171.62
351.402	191.62
351.629	188.62
351.856	183.62
352.083	181.62
352.311	177.62
352.538	168.62
352.765	178.62
352.992	185.62
353.22	175.62
353.447	178.62
353.674	171.62
353.901	171.62
354.128	186.62
354.355	169.62
354.583	171.62
354.81	176.62
355.037	161.62
355.264	181.62
355.491	165.62
355.718	166.62
355.945	160.62
356.172	179.62
356.399	176.62
356.626	166.62
356.853	167.62
357.08	161.62
357.307	179.62
357.534	187.62
357.761	189.62
357.988	189.62
358.215	177.62
358.441	186.62
358.668	169.62
358.895	163.62
359.122	197.62
359.349	184.62
359.576	171.62
359.802	177.62
360.029	173.62
360.256	155.62
360.483	192.62
360.709	182.62
360.936	172.62
361.163	168.62
361.39	176.62
361.616	180.62
361.843	175.62
362.07	177.62
362.296	180.62
362.523	175.62
362.749	178.62
362.976	173.62
363.203	197.62
363.429	162.62
363.656	177.62
363.882	197.62
364.109	188.62
364.335	158.62
364.562	185.62
364.788	164.62
365.015	193.62
365.241	187.62
365.468	179.62
365.694	183.62
365.92	180.62
366.147	173.62
366.373	176.62
366.599	168.62
366.826	174.62
367.052	169.62
367.278	191.62
367.505	188.62
367.731	190.62
367.957	174.62
368.184	165.62
368.41	173.62
368.636	193.62
368.862	191.62
369.089	186.62
369.315	190.62
369.541	176.62
369.767	185.62
369.993	189.62
370.219	190.62
370.445	187.62
370.672	177.62
370.898	182.62
371.124	191.62
371.35	186.62
371.576	180.62
371.802	184.62
372.028	192.62
372.254	192.62
372.48	175.62
372.706	178.62
372.932	180.62
373.158	176.62
373.384	204.62
373.61	200.62
373.835	195.62
374.061	179.62
374.287	189.62
374.513	175.62
374.739	193.62
374.965	204.62
375.191	197.62
375.416	187.62
375.642	195.62
375.868	198.62
376.094	201.62
376.319	196.62
376.545	194.62
376.771	185.62
376.997	195.62
377.222	176.62
377.448	192.62
377.674	184.62
377.899	191.62
378.125	190.62
378.35	212.62
378.576	183.62
378.802	205.62
379.027	203.62
379.253	192.62
379.478	195.62
379.704	188.62
379.929	192.62
380.155	173.62
380.38	176.62
380.606	194.62
380.831	187.62
381.057	219.62
381.282	186.62
381.507	205.62
381.733	201.62
381.958	190.62
382.184	197.62
382.409	189.62
382.634	204.62
382.86	200.62
383.085	183.62
383.31	201.62
383.535	236.62
383.761	216.62
383.986	191.62
384.211	216.62
384.436	219.62
384.662	224.62
384.887	210.62
385.112	218.62
385.337	219.62
385.562	213.62
385.787	225.62
386.013	227.62
386.238	220.62
386.463	218.62
386.688	241.62
386.913	221.62
387.138	215.62
387.363	226.62
387.588	236.62
387.813	209.62
388.038	227.62
388.263	229.62
388.488	226.62
388.713	208.62
388.938	225.62
389.163	224.62
389.387	218.62
389.612	236.62
389.837	218.62
390.062	222.62
390.287	221.62
390.512	229.62
390.736	219.62
390.961	218.62
391.186	226.62
391.411	233.62
391.636	241.62
391.86	252.62
392.085	268.62
392.31	231.62
392.534	239.62
392.759	242.62
392.984	239.62
393.208	248.62
393.433	234.62
393.658	237.62
393.882	226.62
394.107	224.62
394.331	240.62
394.556	224.62
394.78	253.62
395.005	232.62
395.229	239.62
395.454	265.62
395.678	269.62
395.903	256.62
396.127	265.62
396.352	237.62
396.576	238.62
396.801	242.62
397.025	256.62
397.249	242.62
397.474	270.62
397.698	251.62
397.922	279.62
398.147	255.62
398.371	291.62
398.595	276.62
398.82	292.62
399.044	297.62
399.268	345.62
399.492	387.62
399.717	410.62
399.941	387.62
400.165	358.62
400.389	335.62
400.613	301.62
400.837	311.62
401.062	299.62
401.286	288.62
401.51	299.62
401.734	318.62
401.958	302.62
402.182	311.62
402.406	305.62
402.63	333.62
402.854	337.62
403.078	340.62
403.302	319.62
403.526	337.62
403.75	364.62
403.974	323.62
404.198	340.62
404.422	336.62
404.645	354.62
404.869	340.62
405.093	337.62
405.317	332.62
405.541	357.62
405.765	336.62
405.988	335.62
406.212	324.62
406.436	357.62
406.66	365.62
406.883	361.62
407.107	379.62
407.331	382.62
407.555	401.62
407.778	391.62
408.002	359.62
408.226	368.62
408.449	346.62
408.673	337.62
408.896	346.62
409.12	339.62
409.344	343.62
409.567	347.62
409.791	362.62
410.014	370.62
410.238	368.62
410.461	382.62
410.685	365.62
410.908	341.62
411.132	362.62
411.355	340.62
411.578	342.62
411.802	351.62
412.025	344.62
412.249	321.62
412.472	325.62
412.695	323.62
412.919	331.62
413.142	336.62
413.365	324.62
413.589	337.62
413.812	322.62
414.035	336.62
414.258	335.62
414.482	337.62
414.705	321.62
414.928	344.62
415.151	333.62
415.374	340.62
415.597	346.62
415.821	319.62
416.044	320.62
416.267	316.62
416.49	340.62
416.713	332.62
416.936	338.62
417.159	350.62
417.382	312.62
417.605	323.62
417.828	348.62
418.051	322.62
418.274	345.62
418.497	357.62
418.72	337.62
418.943	347.62
419.166	363.62
419.389	366.62
419.611	379.62
419.834	334.62
420.057	348.62
420.28	345.62
420.503	332.62
420.726	339.62
420.948	341.62
421.171	343.62
421.394	352.62
421.617	370.62
421.839	354.62
422.062	354.62
422.285	348.62
422.507	359.62
422.73	340.62
422.953	364.62
423.175	357.62
423.398	353.62
423.621	372.62
423.843	381.62
424.066	351.62
424.288	364.62
424.511	379.62
424.733	372.62
424.956	350.62
425.178	349.62
425.401	371.62
425.623	344.62
425.846	324.62
426.068	350.62
426.291	341.62
426.513	332.62
426.735	344.62
426.958	316.62
427.18	307.62
427.402	319.62
427.625	338.62
427.847	308.62
428.069	316.62
428.292	327.62
428.514	332.62
428.736	299.62
428.958	324.62
429.181	308.62
429.403	311.62
429.625	301.62
429.847	311.62
430.069	315.62
430.292	319.62
430.514	299.62
430.736	305.62
430.958	307.62
431.18	297.62
431.402	313.62
431.624	296.62
431.846	287.62
432.068	291.62
432.29	293.62
432.512	302.62
432.734	300.62
432.956	313.62
433.178	315.62
433.4	316.62
433.622	303.62
433.844	304.62
434.066	311.62
434.287	307.62
434.509	299.62
434.731	324.62
434.953	352.62
435.175	359.62
435.397	331.62
435.618	302.62
435.84	291.62
436.062	305.62
436.284	311.62
436.505	318.62
436.727	315.62
436.949	321.62
437.17	307.62
437.392	301.62
437.614	286.62
437.835	271.62
438.057	277.62
438.278	293.62
438.5	292.62
438.721	302.62
438.943	310.62
439.165	304.62
439.386	315.62
439.608	312.62
439.829	323.62
440.05	330.62
440.272	335.62
440.493	322.62
440.715	329.62
440.936	343.62
441.158	354.62
441.379	336.62
441.6	353.62
441.822	364.62
442.043	337.62
442.264	352.62
442.486	339.62
442.707	345.62
442.928	351.62
443.149	334.62
443.371	339.62
443.592	343.62
443.813	339.62
444.034	348.62
444.255	384.62
444.476	379.62
444.698	387.62
444.919	419.62
445.14	564.62
445.361	458.62
445.582	363.62
445.803	343.62
446.024	337.62
446.245	336.62
446.466	337.62
446.687	328.62
446.908	329.62
447.129	317.62
447.35	333.62
447.571	325.62
447.792	312.62
448.013	322.62
448.234	310.62
448.455	282.62
448.675	313.62
448.896	311.62
449.117	307.62
449.338	300.62
449.559	307.62
449.779	305.62
450	299.62
450.221	309.62
450.442	306.62
450.662	292.62
450.883	297.62
451.104	315.62
451.324	292.62
451.545	295.62
451.766	318.62
451.986	312.62
452.207	301.62
452.428	291.62
452.648	307.62
452.869	271.62
453.089	278.62
453.31	272.62
453.53	271.62
453.751	263.62
453.971	272.62
454.192	283.62
454.412	271.62
454.633	271.62
454.853	275.62
455.073	271.62
455.294	281.62
455.514	300.62
455.734	278.62
455.955	280.62
456.175	268.62
456.395	264.62
456.616	264.62
456.836	259.62
457.056	256.62
457.276	255.62
457.497	258.62
457.717	256.62
457.937	266.62
458.157	265.62
458.377	267.62
458.598	263.62
458.818	258.62
459.038	269.62
459.258	289.62
459.478	276.62
459.698	294.62
459.918	287.62
460.138	320.62
460.358	333.62
460.578	327.62
460.798	334.62
461.018	346.62
461.238	345.62
461.458	335.62
461.678	320.62
461.898	343.62
462.118	341.62
462.338	357.62
462.558	350.62
462.777	361.62
462.997	401.62
463.217	420.62
463.437	397.62
463.657	368.62
463.876	372.62
464.096	385.62
464.316	374.62
464.536	367.62
464.755	367.62
464.975	356.62
465.195	317.62
465.414	343.62
465.634	320.62
465.854	293.62
466.073	308.62
466.293	320.62
466.512	300.62
466.732	301.62
466.951	311.62
467.171	274.62
467.391	307.62
467.61	315.62
467.829	316.62
468.049	305.62
468.268	285.62
468.488	317.62
468.707	309.62
468.927	293.62
469.146	301.62
469.365	308.62
469.585	289.62
469.804	315.62
470.023	316.62
470.243	321.62
470.462	324.62
470.681	322.62
470.901	327.62
471.12	322.62
471.339	316.62
471.558	310.62
471.777	303.62
471.997	305.62
472.216	291.62
472.435	272.62
472.654	267.62
472.873	272.62
473.092	293.62
473.311	276.62
473.53	287.62
473.749	300.62
473.968	308.62
474.187	276.62
474.406	288.62
474.625	276.62
474.844	296.62
475.063	295.62
475.282	286.62
475.501	274.62
475.72	293.62
475.939	301.62
476.158	288.62
476.377	304.62
476.596	315.62
476.814	293.62
477.033	267.62
477.252	291.62
477.471	308.62
477.69	284.62
477.908	339.62
478.127	346.62
478.346	351.62
478.564	347.62
478.783	352.62
479.002	347.62
479.22	347.62
479.439	349.62
479.658	336.62
479.876	341.62
480.095	322.62
480.313	376.62
480.532	360.62
480.751	338.62
480.969	315.62
481.188	320.62
481.406	293.62
481.624	269.62
481.843	268.62
482.061	286.62
482.28	292.62
482.498	299.62
482.717	297.62
482.935	325.62
483.153	329.62
483.372	331.62
483.59	331.62
483.808	311.62
484.027	304.62
484.245	323.62
484.463	307.62
484.681	353.62
484.9	335.62
485.118	349.62
485.336	313.62
485.554	295.62
485.772	311.62
485.99	312.62
486.209	305.62
486.427	299.62
486.645	336.62
486.863	333.62
487.081	338.62
487.299	327.62
487.517	337.62
487.735	346.62
487.953	370.62
488.171	359.62
488.389	358.62
488.607	339.62
488.825	312.62
489.043	295.62
489.261	319.62
489.479	314.62
489.696	342.62
489.914	350.62
490.132	353.62
490.35	358.62
490.568	370.62
490.786	377.62
491.003	372.62
491.221	376.62
491.439	369.62
491.657	373.62
491.874	397.62
492.092	415.62
492.31	434.62
492.527	440.62
492.745	392.62
492.963	388.62
493.18	407.62
493.398	399.62
493.615	413.62
493.833	373.62
494.05	394.62
494.268	357.62
494.485	405.62
494.703	389.62
494.92	371.62
495.138	396.62
495.355	361.62
495.573	377.62
495.79	366.62
496.008	368.62
496.225	381.62
496.442	395.62
496.66	399.62
496.877	380.62
497.094	406.62
497.312	383.62
497.529	380.62
497.746	391.62
497.963	395.62
498.181	401.62
498.398	407.62
498.615	415.62
498.832	432.62
499.049	471.62
499.267	504.62
499.484	541.62
499.701	606.62
499.918	686.62
500.135	770.62
500.352	827.62
500.569	836.62
500.786	831.62
501.003	781.62
501.22	671.62
501.437	625.62
501.654	553.62
501.871	521.62
502.088	479.62
502.305	463.62
502.522	443.62
502.739	450.62
502.956	420.62
503.172	407.62
503.389	367.62
503.606	353.62
503.823	379.62
