Data from SampA_HRD10591_00058.txt Node
Date: Mon Jan 19 11:27:06 EST 2026
User: Yrep
Spectrometer: HR+D1059
Trigger mode: 0
Integration Time (sec): 3.443000E-1
Scans to average: 1
Electric dark correction enabled: true
Nonlinearity correction enabled: false
Boxcar width: 0
XAxis mode: Wavelengths
Number of Pixels in Spectrum: 2048
>>>>>Begin Spectral Data<<<<<
223.165	-27.62
223.4	-27.62
223.635	-27.62
223.869	-22.62
224.104	-21.62
224.338	-12.62
224.573	-9.62
224.808	-16.62
225.042	5.38
225.277	-10.62
225.511	-10.62
225.746	0.38
225.98	10.38
226.215	9.38
226.449	26.38
226.683	23.38
226.918	28.38
227.152	28.38
227.387	33.38
227.621	50.38
227.856	47.38
228.09	33.38
228.324	55.38
228.559	56.38
228.793	59.38
229.027	67.38
229.262	59.38
229.496	77.38
229.73	80.38
229.964	74.38
230.199	71.38
230.433	69.38
230.667	74.38
230.901	75.38
231.136	72.38
231.37	87.38
231.604	84.38
231.838	85.38
232.072	87.38
232.306	71.38
232.541	79.38
232.775	86.38
233.009	101.38
233.243	83.38
233.477	88.38
233.711	73.38
233.945	78.38
234.179	73.38
234.413	81.38
234.647	84.38
234.881	87.38
235.115	94.38
235.349	75.38
235.583	87.38
235.817	81.38
236.051	74.38
236.285	70.38
236.519	79.38
236.753	78.38
236.987	89.38
237.221	78.38
237.455	79.38
237.689	79.38
237.922	72.38
238.156	74.38
238.39	71.38
238.624	94.38
238.858	85.38
239.091	77.38
239.325	76.38
239.559	80.38
239.793	89.38
240.027	95.38
240.26	77.38
240.494	77.38
240.728	72.38
240.961	81.38
241.195	80.38
241.429	86.38
241.662	90.38
241.896	85.38
242.13	80.38
242.363	86.38
242.597	56.38
242.83	93.38
243.064	69.38
243.298	78.38
243.531	92.38
243.765	92.38
243.998	73.38
244.232	90.38
244.465	81.38
244.699	79.38
244.932	83.38
245.166	96.38
245.399	79.38
245.633	83.38
245.866	99.38
246.099	84.38
246.333	85.38
246.566	77.38
246.8	72.38
247.033	75.38
247.266	68.38
247.5	72.38
247.733	87.38
247.966	83.38
248.2	69.38
248.433	88.38
248.666	88.38
248.899	88.38
249.133	87.38
249.366	93.38
249.599	90.38
249.832	76.38
250.066	78.38
250.299	75.38
250.532	87.38
250.765	75.38
250.998	83.38
251.231	80.38
251.465	88.38
251.698	100.38
251.931	86.38
252.164	95.38
252.397	88.38
252.63	71.38
252.863	90.38
253.096	79.38
253.329	85.38
253.562	78.38
253.795	97.38
254.028	91.38
254.261	89.38
254.494	77.38
254.727	94.38
254.96	86.38
255.193	88.38
255.426	89.38
255.659	80.38
255.892	99.38
256.124	85.38
256.357	86.38
256.59	96.38
256.823	84.38
257.056	80.38
257.289	102.38
257.521	84.38
257.754	77.38
257.987	80.38
258.22	85.38
258.452	95.38
258.685	91.38
258.918	71.38
259.151	78.38
259.383	89.38
259.616	100.38
259.849	85.38
260.081	99.38
260.314	91.38
260.547	99.38
260.779	92.38
261.012	87.38
261.244	75.38
261.477	100.38
261.71	87.38
261.942	91.38
262.175	96.38
262.407	84.38
262.64	79.38
262.872	93.38
263.105	84.38
263.337	92.38
263.57	92.38
263.802	90.38
264.035	94.38
264.267	87.38
264.499	97.38
264.732	86.38
264.964	99.38
265.197	87.38
265.429	81.38
265.661	91.38
265.894	101.38
266.126	101.38
266.358	97.38
266.591	84.38
266.823	88.38
267.055	93.38
267.287	103.38
267.52	88.38
267.752	87.38
267.984	88.38
268.216	88.38
268.448	93.38
268.681	86.38
268.913	95.38
269.145	88.38
269.377	94.38
269.609	90.38
269.841	96.38
270.073	87.38
270.306	97.38
270.538	102.38
270.77	83.38
271.002	88.38
271.234	95.38
271.466	108.38
271.698	92.38
271.93	95.38
272.162	89.38
272.394	106.38
272.626	104.38
272.858	98.38
273.09	86.38
273.322	94.38
273.553	97.38
273.785	93.38
274.017	87.38
274.249	82.38
274.481	96.38
274.713	93.38
274.945	112.38
275.176	82.38
275.408	97.38
275.64	85.38
275.872	104.38
276.104	97.38
276.335	90.38
276.567	97.38
276.799	102.38
277.031	107.38
277.262	96.38
277.494	99.38
277.726	101.38
277.957	91.38
278.189	93.38
278.421	112.38
278.652	96.38
278.884	97.38
279.115	97.38
279.347	99.38
279.579	103.38
279.81	101.38
280.042	104.38
280.273	96.38
280.505	79.38
280.736	89.38
280.968	91.38
281.199	95.38
281.431	92.38
281.662	99.38
281.894	103.38
282.125	100.38
282.356	101.38
282.588	105.38
282.819	109.38
283.051	92.38
283.282	100.38
283.513	102.38
283.745	104.38
283.976	110.38
284.207	104.38
284.439	98.38
284.67	97.38
284.901	101.38
285.132	92.38
285.364	93.38
285.595	89.38
285.826	102.38
286.057	111.38
286.288	94.38
286.52	109.38
286.751	89.38
286.982	101.38
287.213	88.38
287.444	100.38
287.675	84.38
287.906	113.38
288.138	98.38
288.369	116.38
288.6	92.38
288.831	100.38
289.062	101.38
289.293	99.38
289.524	102.38
289.755	105.38
289.986	93.38
290.217	108.38
290.448	98.38
290.679	108.38
290.91	107.38
291.141	96.38
291.371	96.38
291.602	102.38
291.833	108.38
292.064	108.38
292.295	97.38
292.526	120.38
292.757	93.38
292.987	94.38
293.218	102.38
293.449	91.38
293.68	110.38
293.91	95.38
294.141	127.38
294.372	104.38
294.603	103.38
294.833	91.38
295.064	101.38
295.295	102.38
295.525	104.38
295.756	96.38
295.987	103.38
296.217	98.38
296.448	105.38
296.679	109.38
296.909	123.38
297.14	107.38
297.37	115.38
297.601	112.38
297.831	109.38
298.062	105.38
298.292	121.38
298.523	107.38
298.753	96.38
298.984	100.38
299.214	106.38
299.445	89.38
299.675	98.38
299.905	90.38
300.136	100.38
300.366	92.38
300.597	93.38
300.827	110.38
301.057	94.38
301.288	118.38
301.518	104.38
301.748	103.38
301.979	141.38
302.209	114.38
302.439	97.38
302.669	99.38
302.9	99.38
303.13	101.38
303.36	107.38
303.59	104.38
303.82	101.38
304.051	116.38
304.281	108.38
304.511	111.38
304.741	101.38
304.971	91.38
305.201	124.38
305.431	108.38
305.661	99.38
305.891	100.38
306.121	117.38
306.352	104.38
306.582	118.38
306.812	101.38
307.042	108.38
307.272	86.38
307.502	110.38
307.731	124.38
307.961	103.38
308.191	86.38
308.421	105.38
308.651	105.38
308.881	113.38
309.111	107.38
309.341	93.38
309.571	98.38
309.8	105.38
310.03	100.38
310.26	115.38
310.49	97.38
310.72	106.38
310.949	105.38
311.179	109.38
311.409	105.38
311.639	96.38
311.868	106.38
312.098	99.38
312.328	112.38
312.557	110.38
312.787	109.38
313.017	123.38
313.246	103.38
313.476	99.38
313.706	121.38
313.935	97.38
314.165	96.38
314.394	108.38
314.624	102.38
314.853	107.38
315.083	102.38
315.312	91.38
315.542	101.38
315.771	110.38
316.001	117.38
316.23	100.38
316.46	107.38
316.689	111.38
316.919	120.38
317.148	100.38
317.377	104.38
317.607	113.38
317.836	105.38
318.065	102.38
318.295	113.38
318.524	102.38
318.753	105.38
318.983	101.38
319.212	103.38
319.441	107.38
319.67	101.38
319.9	115.38
320.129	113.38
320.358	109.38
320.587	113.38
320.816	103.38
321.046	107.38
321.275	100.38
321.504	96.38
321.733	95.38
321.962	104.38
322.191	124.38
322.42	112.38
322.649	112.38
322.878	114.38
323.108	112.38
323.337	103.38
323.566	110.38
323.795	113.38
324.024	110.38
324.253	112.38
324.482	106.38
324.71	97.38
324.939	118.38
325.168	122.38
325.397	110.38
325.626	101.38
325.855	113.38
326.084	117.38
326.313	105.38
326.542	110.38
326.77	104.38
326.999	90.38
327.228	113.38
327.457	104.38
327.686	96.38
327.914	109.38
328.143	100.38
328.372	104.38
328.6	105.38
328.829	104.38
329.058	119.38
329.287	103.38
329.515	109.38
329.744	112.38
329.972	104.38
330.201	116.38
330.43	119.38
330.658	111.38
330.887	98.38
331.115	105.38
331.344	107.38
331.572	102.38
331.801	108.38
332.03	109.38
332.258	119.38
332.486	109.38
332.715	109.38
332.943	112.38
333.172	107.38
333.4	124.38
333.629	124.38
333.857	127.38
334.085	115.38
334.314	118.38
334.542	128.38
334.771	123.38
334.999	135.38
335.227	113.38
335.455	123.38
335.684	112.38
335.912	141.38
336.14	104.38
336.369	118.38
336.597	111.38
336.825	107.38
337.053	108.38
337.281	116.38
337.51	99.38
337.738	119.38
337.966	100.38
338.194	108.38
338.422	107.38
338.65	118.38
338.878	99.38
339.106	103.38
339.334	125.38
339.562	101.38
339.79	105.38
340.018	111.38
340.246	97.38
340.474	103.38
340.702	113.38
340.93	101.38
341.158	113.38
341.386	111.38
341.614	104.38
341.842	94.38
342.07	92.38
342.298	132.38
342.526	119.38
342.754	114.38
342.981	108.38
343.209	122.38
343.437	140.38
343.665	119.38
343.893	115.38
344.12	128.38
344.348	127.38
344.576	126.38
344.804	119.38
345.031	108.38
345.259	105.38
345.487	103.38
345.714	102.38
345.942	96.38
346.17	101.38
346.397	120.38
346.625	125.38
346.853	99.38
347.08	109.38
347.308	115.38
347.535	110.38
347.763	108.38
347.99	110.38
348.218	114.38
348.445	113.38
348.673	110.38
348.9	110.38
349.128	120.38
349.355	104.38
349.583	103.38
349.81	88.38
350.037	106.38
350.265	117.38
350.492	107.38
350.72	112.38
350.947	113.38
351.174	117.38
351.402	104.38
351.629	100.38
351.856	97.38
352.083	110.38
352.311	121.38
352.538	108.38
352.765	122.38
352.992	120.38
353.22	107.38
353.447	109.38
353.674	110.38
353.901	122.38
354.128	117.38
354.355	106.38
354.583	108.38
354.81	99.38
355.037	108.38
355.264	107.38
355.491	124.38
355.718	118.38
355.945	124.38
356.172	110.38
356.399	93.38
356.626	112.38
356.853	107.38
357.08	114.38
357.307	110.38
357.534	96.38
357.761	120.38
357.988	108.38
358.215	109.38
358.441	108.38
358.668	107.38
358.895	95.38
359.122	117.38
359.349	97.38
359.576	98.38
359.802	100.38
360.029	115.38
360.256	112.38
360.483	117.38
360.709	91.38
360.936	135.38
361.163	124.38
361.39	108.38
361.616	95.38
361.843	105.38
362.07	123.38
362.296	107.38
362.523	89.38
362.749	108.38
362.976	107.38
363.203	114.38
363.429	103.38
363.656	105.38
363.882	109.38
364.109	118.38
364.335	124.38
364.562	121.38
364.788	106.38
365.015	112.38
365.241	109.38
365.468	109.38
365.694	104.38
365.92	111.38
366.147	100.38
366.373	104.38
366.599	117.38
366.826	114.38
367.052	109.38
367.278	112.38
367.505	108.38
367.731	113.38
367.957	104.38
368.184	97.38
368.41	123.38
368.636	116.38
368.862	117.38
369.089	106.38
369.315	90.38
369.541	111.38
369.767	121.38
369.993	125.38
370.219	116.38
370.445	116.38
370.672	110.38
370.898	111.38
371.124	103.38
371.35	111.38
371.576	96.38
371.802	106.38
372.028	105.38
372.254	121.38
372.48	100.38
372.706	102.38
372.932	124.38
373.158	122.38
373.384	109.38
373.61	122.38
373.835	102.38
374.061	107.38
374.287	123.38
374.513	129.38
374.739	129.38
374.965	116.38
375.191	121.38
375.416	121.38
375.642	127.38
375.868	121.38
376.094	121.38
376.319	126.38
376.545	113.38
376.771	112.38
376.997	114.38
377.222	103.38
377.448	119.38
377.674	94.38
377.899	119.38
378.125	123.38
378.35	124.38
378.576	118.38
378.802	123.38
379.027	124.38
379.253	120.38
379.478	116.38
379.704	116.38
379.929	101.38
380.155	103.38
380.38	108.38
380.606	97.38
380.831	97.38
381.057	109.38
381.282	113.38
381.507	111.38
381.733	130.38
381.958	110.38
382.184	103.38
382.409	116.38
382.634	118.38
382.86	128.38
383.085	140.38
383.31	114.38
383.535	110.38
383.761	114.38
383.986	127.38
384.211	114.38
384.436	118.38
384.662	121.38
384.887	123.38
385.112	110.38
385.337	115.38
385.562	112.38
385.787	106.38
386.013	135.38
386.238	113.38
386.463	127.38
386.688	148.38
386.913	119.38
387.138	115.38
387.363	135.38
387.588	131.38
387.813	129.38
388.038	108.38
388.263	112.38
388.488	109.38
388.713	128.38
388.938	116.38
389.163	112.38
389.387	125.38
389.612	125.38
389.837	123.38
390.062	128.38
390.287	122.38
390.512	129.38
390.736	125.38
390.961	127.38
391.186	128.38
391.411	136.38
391.636	133.38
391.86	133.38
392.085	128.38
392.31	118.38
392.534	130.38
392.759	127.38
392.984	136.38
393.208	134.38
393.433	124.38
393.658	126.38
393.882	129.38
394.107	120.38
394.331	151.38
394.556	127.38
394.78	122.38
395.005	138.38
395.229	120.38
395.454	141.38
395.678	131.38
395.903	128.38
396.127	141.38
396.352	142.38
396.576	132.38
396.801	137.38
397.025	139.38
397.249	145.38
397.474	144.38
397.698	137.38
397.922	153.38
398.147	156.38
398.371	137.38
398.595	150.38
398.82	168.38
399.044	164.38
399.268	174.38
399.492	199.38
399.717	183.38
399.941	179.38
400.165	178.38
400.389	181.38
400.613	162.38
400.837	164.38
401.062	152.38
401.286	159.38
401.51	165.38
401.734	173.38
401.958	168.38
402.182	155.38
402.406	165.38
402.63	158.38
402.854	158.38
403.078	164.38
403.302	162.38
403.526	165.38
403.75	177.38
403.974	159.38
404.198	169.38
404.422	184.38
404.645	171.38
404.869	179.38
405.093	162.38
405.317	161.38
405.541	170.38
405.765	158.38
405.988	176.38
406.212	176.38
406.436	176.38
406.66	165.38
406.883	170.38
407.107	198.38
407.331	170.38
407.555	170.38
407.778	195.38
408.002	185.38
408.226	173.38
408.449	173.38
408.673	182.38
408.896	173.38
409.12	186.38
409.344	182.38
409.567	187.38
409.791	182.38
410.014	187.38
410.238	180.38
410.461	170.38
410.685	190.38
410.908	182.38
411.132	174.38
411.355	174.38
411.578	179.38
411.802	173.38
412.025	173.38
412.249	175.38
412.472	161.38
412.695	183.38
412.919	165.38
413.142	182.38
413.365	172.38
413.589	161.38
413.812	167.38
414.035	211.38
414.258	188.38
414.482	173.38
414.705	162.38
414.928	184.38
415.151	176.38
415.374	173.38
415.597	177.38
415.821	179.38
416.044	186.38
416.267	175.38
416.49	186.38
416.713	170.38
416.936	158.38
417.159	171.38
417.382	183.38
417.605	167.38
417.828	181.38
418.051	165.38
418.274	197.38
418.497	173.38
418.72	171.38
418.943	179.38
419.166	184.38
419.389	182.38
419.611	196.38
419.834	178.38
420.057	180.38
420.28	176.38
420.503	179.38
420.726	164.38
420.948	171.38
421.171	159.38
421.394	157.38
421.617	173.38
421.839	174.38
422.062	174.38
422.285	172.38
422.507	172.38
422.73	181.38
422.953	189.38
423.175	176.38
423.398	171.38
423.621	211.38
423.843	188.38
424.066	205.38
424.288	199.38
424.511	182.38
424.733	183.38
424.956	184.38
425.178	197.38
425.401	188.38
425.623	174.38
425.846	178.38
426.068	184.38
426.291	159.38
426.513	171.38
426.735	172.38
426.958	167.38
427.18	167.38
427.402	180.38
427.625	177.38
427.847	155.38
428.069	164.38
428.292	163.38
428.514	167.38
428.736	157.38
428.958	149.38
429.181	165.38
429.403	160.38
429.625	161.38
429.847	156.38
430.069	160.38
430.292	167.38
430.514	163.38
430.736	164.38
430.958	181.38
431.18	160.38
431.402	160.38
431.624	147.38
431.846	147.38
432.068	149.38
432.29	145.38
432.512	153.38
432.734	170.38
432.956	173.38
433.178	179.38
433.4	172.38
433.622	192.38
433.844	162.38
434.066	160.38
434.287	153.38
434.509	165.38
434.731	163.38
434.953	163.38
435.175	202.38
435.397	174.38
435.618	168.38
435.84	172.38
436.062	160.38
436.284	174.38
436.505	190.38
436.727	187.38
436.949	169.38
437.17	168.38
437.392	168.38
437.614	159.38
437.835	163.38
438.057	142.38
438.278	153.38
438.5	152.38
438.721	162.38
438.943	177.38
439.165	166.38
439.386	156.38
439.608	179.38
439.829	172.38
440.05	172.38
440.272	164.38
440.493	176.38
440.715	178.38
440.936	171.38
441.158	172.38
441.379	187.38
441.6	189.38
441.822	191.38
442.043	182.38
442.264	182.38
442.486	182.38
442.707	170.38
442.928	184.38
443.149	181.38
443.371	179.38
443.592	186.38
443.813	179.38
444.034	187.38
444.255	186.38
444.476	211.38
444.698	208.38
444.919	205.38
445.14	369.38
445.361	272.38
445.582	186.38
445.803	190.38
446.024	184.38
446.245	200.38
446.466	186.38
446.687	187.38
446.908	172.38
447.129	175.38
447.35	180.38
447.571	167.38
447.792	148.38
448.013	168.38
448.234	168.38
448.455	154.38
448.675	173.38
448.896	157.38
449.117	176.38
449.338	178.38
449.559	174.38
449.779	156.38
450	162.38
450.221	155.38
450.442	180.38
450.662	156.38
450.883	156.38
451.104	179.38
451.324	165.38
451.545	163.38
451.766	159.38
451.986	154.38
452.207	157.38
452.428	165.38
452.648	166.38
452.869	152.38
453.089	163.38
453.31	148.38
453.53	141.38
453.751	156.38
453.971	161.38
454.192	153.38
454.412	141.38
454.633	147.38
454.853	157.38
455.073	155.38
455.294	161.38
455.514	142.38
455.734	142.38
455.955	138.38
456.175	149.38
456.395	149.38
456.616	144.38
456.836	141.38
457.056	153.38
457.276	156.38
457.497	136.38
457.717	145.38
457.937	163.38
458.157	157.38
458.377	149.38
458.598	136.38
458.818	139.38
459.038	144.38
459.258	153.38
459.478	143.38
459.698	156.38
459.918	156.38
460.138	163.38
460.358	158.38
460.578	199.38
460.798	180.38
461.018	175.38
461.238	170.38
461.458	162.38
461.678	163.38
461.898	173.38
462.118	171.38
462.338	173.38
462.558	199.38
462.777	190.38
462.997	195.38
463.217	210.38
463.437	200.38
463.657	180.38
463.876	189.38
464.096	199.38
464.316	184.38
464.536	179.38
464.755	184.38
464.975	165.38
465.195	180.38
465.414	164.38
465.634	177.38
465.854	168.38
466.073	153.38
466.293	161.38
466.512	176.38
466.732	156.38
466.951	160.38
467.171	152.38
467.391	174.38
467.61	148.38
467.829	164.38
468.049	172.38
468.268	170.38
468.488	150.38
468.707	172.38
468.927	153.38
469.146	165.38
469.365	168.38
469.585	168.38
469.804	184.38
470.023	157.38
470.243	178.38
470.462	185.38
470.681	175.38
470.901	135.38
471.12	156.38
471.339	167.38
471.558	157.38
471.777	161.38
471.997	166.38
472.216	151.38
472.435	160.38
472.654	153.38
472.873	168.38
473.092	151.38
473.311	152.38
473.53	149.38
473.749	161.38
473.968	182.38
474.187	167.38
474.406	143.38
474.625	165.38
474.844	160.38
475.063	175.38
475.282	161.38
475.501	155.38
475.72	161.38
475.939	152.38
476.158	168.38
476.377	149.38
476.596	158.38
476.814	159.38
477.033	164.38
477.252	167.38
477.471	156.38
477.69	169.38
477.908	171.38
478.127	175.38
478.346	183.38
478.564	173.38
478.783	175.38
479.002	175.38
479.22	185.38
479.439	187.38
479.658	170.38
479.876	169.38
480.095	160.38
480.313	174.38
480.532	192.38
480.751	164.38
480.969	161.38
481.188	169.38
481.406	137.38
481.624	141.38
481.843	159.38
482.061	152.38
482.28	145.38
482.498	160.38
482.717	152.38
482.935	180.38
483.153	167.38
483.372	175.38
483.59	184.38
483.808	174.38
484.027	170.38
484.245	184.38
484.463	167.38
484.681	193.38
484.9	176.38
485.118	162.38
485.336	163.38
485.554	164.38
485.772	148.38
485.99	164.38
486.209	147.38
486.427	173.38
486.645	173.38
486.863	174.38
487.081	172.38
487.299	179.38
487.517	184.38
487.735	204.38
487.953	204.38
488.171	181.38
488.389	185.38
488.607	174.38
488.825	163.38
489.043	168.38
489.261	180.38
489.479	176.38
489.696	188.38
489.914	155.38
490.132	185.38
490.35	176.38
490.568	173.38
490.786	191.38
491.003	187.38
491.221	188.38
491.439	188.38
491.657	204.38
491.874	221.38
492.092	225.38
492.31	227.38
492.527	225.38
492.745	227.38
492.963	198.38
493.18	213.38
493.398	240.38
493.615	213.38
493.833	203.38
494.05	203.38
494.268	219.38
494.485	209.38
494.703	210.38
494.92	202.38
495.138	209.38
495.355	209.38
495.573	207.38
495.79	200.38
496.008	198.38
496.225	198.38
496.442	209.38
496.66	213.38
496.877	196.38
497.094	226.38
497.312	210.38
497.529	207.38
497.746	211.38
497.963	190.38
498.181	206.38
498.398	192.38
498.615	195.38
498.832	203.38
499.049	216.38
499.267	230.38
499.484	241.38
499.701	269.38
499.918	309.38
500.135	336.38
500.352	343.38
500.569	343.38
500.786	344.38
501.003	318.38
501.22	295.38
501.437	268.38
501.654	251.38
501.871	236.38
502.088	207.38
502.305	236.38
502.522	219.38
502.739	206.38
502.956	210.38
503.172	192.38
503.389	170.38
503.606	169.38
503.823	176.38
504.04	201.38
504.256	190.38
504.473	190.38
504.69	182.38
504.907	197.38
505.123	186.38
505.34	180.38
505.557	169.38
505.773	174.38
505.99	173.38
506.207	169.38
506.423	157.38
506.64	170.38
