Data from SampA_HRD10591_00002.txt Node
Date: Mon Jan 19 11:26:47 EST 2026
User: Yrep
Spectrometer: HR+D1059
Trigger mode: 0
Integration Time (sec): 3.443000E-1
Scans to average: 1
Electric dark correction enabled: true
Nonlinearity correction enabled: false
Boxcar width: 0
XAxis mode: Wavelengths
Number of Pixels in Spectrum: 2048
>>>>>Begin Spectral Data<<<<<
223.165	-26.75
223.4	-26.75
223.635	-26.75
223.869	-35.75
224.104	-16.75
224.338	-1.75
224.573	-18.75
224.808	-10.75
225.042	-5.75
225.277	-14.75
225.511	-6.75
225.746	17.25
225.98	6.25
226.215	13.25
226.449	22.25
226.683	15.25
226.918	33.25
227.152	30.25
227.387	33.25
227.621	48.25
227.856	54.25
228.09	50.25
228.324	35.25
228.559	70.25
228.793	76.25
229.027	62.25
229.262	72.25
229.496	84.25
229.73	78.25
229.964	86.25
230.199	73.25
230.433	62.25
230.667	89.25
230.901	90.25
231.136	97.25
231.37	84.25
231.604	93.25
231.838	86.25
232.072	86.25
232.306	88.25
232.541	85.25
232.775	88.25
233.009	92.25
233.243	76.25
233.477	94.25
233.711	88.25
233.945	105.25
234.179	79.25
234.413	88.25
234.647	93.25
234.881	73.25
235.115	89.25
235.349	104.25
235.583	100.25
235.817	92.25
236.051	77.25
236.285	69.25
236.519	85.25
236.753	104.25
236.987	94.25
237.221	84.25
237.455	105.25
237.689	80.25
237.922	89.25
238.156	95.25
238.39	81.25
238.624	87.25
238.858	98.25
239.091	86.25
239.325	86.25
239.559	92.25
239.793	91.25
240.027	93.25
240.26	102.25
240.494	86.25
240.728	74.25
240.961	78.25
241.195	73.25
241.429	106.25
241.662	85.25
241.896	95.25
242.13	70.25
242.363	93.25
242.597	80.25
242.83	88.25
243.064	86.25
243.298	82.25
243.531	91.25
243.765	76.25
243.998	90.25
244.232	97.25
244.465	89.25
244.699	97.25
244.932	78.25
245.166	102.25
245.399	84.25
245.633	90.25
245.866	98.25
246.099	98.25
246.333	87.25
246.566	92.25
246.8	109.25
247.033	88.25
247.266	88.25
247.5	94.25
247.733	105.25
247.966	89.25
248.2	107.25
248.433	90.25
248.666	100.25
248.899	96.25
249.133	107.25
249.366	113.25
249.599	107.25
249.832	94.25
250.066	97.25
250.299	102.25
250.532	86.25
250.765	95.25
250.998	93.25
251.231	97.25
251.465	95.25
251.698	92.25
251.931	94.25
252.164	93.25
252.397	96.25
252.63	89.25
252.863	98.25
253.096	94.25
253.329	93.25
253.562	97.25
253.795	90.25
254.028	97.25
254.261	96.25
254.494	102.25
254.727	104.25
254.96	89.25
255.193	103.25
255.426	103.25
255.659	96.25
255.892	104.25
256.124	89.25
256.357	105.25
256.59	92.25
256.823	107.25
257.056	104.25
257.289	103.25
257.521	101.25
257.754	92.25
257.987	99.25
258.22	113.25
258.452	111.25
258.685	104.25
258.918	102.25
259.151	101.25
259.383	98.25
259.616	91.25
259.849	98.25
260.081	103.25
260.314	115.25
260.547	108.25
260.779	97.25
261.012	91.25
261.244	101.25
261.477	127.25
261.71	114.25
261.942	111.25
262.175	89.25
262.407	95.25
262.64	92.25
262.872	109.25
263.105	99.25
263.337	110.25
263.57	113.25
263.802	99.25
264.035	105.25
264.267	128.25
264.499	117.25
264.732	118.25
264.964	108.25
265.197	117.25
265.429	114.25
265.661	106.25
265.894	113.25
266.126	123.25
266.358	107.25
266.591	120.25
266.823	104.25
267.055	103.25
267.287	127.25
267.52	108.25
267.752	104.25
267.984	115.25
268.216	118.25
268.448	124.25
268.681	124.25
268.913	117.25
269.145	103.25
269.377	106.25
269.609	113.25
269.841	121.25
270.073	114.25
270.306	116.25
270.538	104.25
270.77	101.25
271.002	110.25
271.234	117.25
271.466	118.25
271.698	123.25
271.93	128.25
272.162	124.25
272.394	128.25
272.626	121.25
272.858	119.25
273.09	117.25
273.322	102.25
273.553	108.25
273.785	116.25
274.017	140.25
274.249	114.25
274.481	123.25
274.713	105.25
274.945	119.25
275.176	112.25
275.408	109.25
275.64	114.25
275.872	127.25
276.104	118.25
276.335	129.25
276.567	129.25
276.799	117.25
277.031	126.25
277.262	126.25
277.494	135.25
277.726	118.25
277.957	126.25
278.189	127.25
278.421	119.25
278.652	116.25
278.884	128.25
279.115	125.25
279.347	124.25
279.579	114.25
279.81	121.25
280.042	120.25
280.273	133.25
280.505	129.25
280.736	135.25
280.968	116.25
281.199	126.25
281.431	124.25
281.662	124.25
281.894	119.25
282.125	139.25
282.356	114.25
282.588	118.25
282.819	118.25
283.051	123.25
283.282	144.25
283.513	133.25
283.745	150.25
283.976	136.25
284.207	120.25
284.439	126.25
284.67	123.25
284.901	138.25
285.132	107.25
285.364	122.25
285.595	127.25
285.826	128.25
286.057	133.25
286.288	136.25
286.52	121.25
286.751	131.25
286.982	144.25
287.213	127.25
287.444	126.25
287.675	144.25
287.906	145.25
288.138	134.25
288.369	137.25
288.6	141.25
288.831	117.25
289.062	144.25
289.293	129.25
289.524	129.25
289.755	123.25
289.986	128.25
290.217	127.25
290.448	133.25
290.679	140.25
290.91	132.25
291.141	124.25
291.371	119.25
291.602	118.25
291.833	131.25
292.064	126.25
292.295	131.25
292.526	136.25
292.757	141.25
292.987	144.25
293.218	117.25
293.449	136.25
293.68	147.25
293.91	126.25
294.141	158.25
294.372	137.25
294.603	147.25
294.833	132.25
295.064	125.25
295.295	134.25
295.525	134.25
295.756	134.25
295.987	139.25
296.217	137.25
296.448	139.25
296.679	140.25
296.909	133.25
297.14	141.25
297.37	145.25
297.601	139.25
297.831	138.25
298.062	149.25
298.292	144.25
298.523	142.25
298.753	134.25
298.984	148.25
299.214	132.25
299.445	151.25
299.675	151.25
299.905	149.25
300.136	147.25
300.366	141.25
300.597	168.25
300.827	151.25
301.057	148.25
301.288	146.25
301.518	146.25
301.748	151.25
301.979	196.25
302.209	150.25
302.439	136.25
302.669	141.25
302.9	151.25
303.13	150.25
303.36	135.25
303.59	148.25
303.82	154.25
304.051	155.25
304.281	164.25
304.511	148.25
304.741	152.25
304.971	141.25
305.201	154.25
305.431	146.25
305.661	135.25
305.891	152.25
306.121	162.25
306.352	138.25
306.582	154.25
306.812	164.25
307.042	132.25
307.272	153.25
307.502	143.25
307.731	152.25
307.961	141.25
308.191	159.25
308.421	138.25
308.651	155.25
308.881	154.25
309.111	144.25
309.341	143.25
309.571	147.25
309.8	137.25
310.03	139.25
310.26	142.25
310.49	148.25
310.72	141.25
310.949	149.25
311.179	144.25
311.409	148.25
311.639	153.25
311.868	144.25
312.098	152.25
312.328	155.25
312.557	161.25
312.787	148.25
313.017	143.25
313.246	160.25
313.476	148.25
313.706	149.25
313.935	133.25
314.165	170.25
314.394	148.25
314.624	151.25
314.853	157.25
315.083	150.25
315.312	149.25
315.542	149.25
315.771	142.25
316.001	150.25
316.23	160.25
316.46	154.25
316.689	149.25
316.919	136.25
317.148	148.25
317.377	168.25
317.607	171.25
317.836	144.25
318.065	146.25
318.295	161.25
318.524	142.25
318.753	161.25
318.983	166.25
319.212	145.25
319.441	143.25
319.67	144.25
319.9	159.25
320.129	154.25
320.358	157.25
320.587	148.25
320.816	141.25
321.046	138.25
321.275	142.25
321.504	152.25
321.733	162.25
321.962	152.25
322.191	154.25
322.42	162.25
322.649	161.25
322.878	148.25
323.108	166.25
323.337	163.25
323.566	164.25
323.795	163.25
324.024	168.25
324.253	170.25
324.482	152.25
324.71	176.25
324.939	183.25
325.168	144.25
325.397	148.25
325.626	161.25
325.855	155.25
326.084	162.25
326.313	154.25
326.542	155.25
326.77	170.25
326.999	146.25
327.228	157.25
327.457	164.25
327.686	162.25
327.914	163.25
328.143	168.25
328.372	163.25
328.6	155.25
328.829	165.25
329.058	168.25
329.287	162.25
329.515	157.25
329.744	156.25
329.972	161.25
330.201	168.25
330.43	154.25
330.658	152.25
330.887	154.25
331.115	149.25
331.344	154.25
331.572	164.25
331.801	168.25
332.03	181.25
332.258	183.25
332.486	189.25
332.715	196.25
332.943	186.25
333.172	179.25
333.4	182.25
333.629	193.25
333.857	192.25
334.085	187.25
334.314	204.25
334.542	191.25
334.771	179.25
334.999	185.25
335.227	201.25
335.455	185.25
335.684	185.25
335.912	194.25
336.14	181.25
336.369	185.25
336.597	185.25
336.825	189.25
337.053	177.25
337.281	199.25
337.51	173.25
337.738	180.25
337.966	177.25
338.194	176.25
338.422	175.25
338.65	183.25
338.878	185.25
339.106	162.25
339.334	170.25
339.562	162.25
339.79	156.25
340.018	167.25
340.246	164.25
340.474	171.25
340.702	166.25
340.93	158.25
341.158	150.25
341.386	155.25
341.614	151.25
341.842	152.25
342.07	161.25
342.298	168.25
342.526	169.25
342.754	170.25
342.981	157.25
343.209	158.25
343.437	199.25
343.665	175.25
343.893	180.25
344.12	206.25
344.348	181.25
344.576	177.25
344.804	161.25
345.031	172.25
345.259	167.25
345.487	158.25
345.714	148.25
345.942	161.25
346.17	158.25
346.397	166.25
346.625	161.25
346.853	159.25
347.08	161.25
347.308	153.25
347.535	152.25
347.763	170.25
347.99	164.25
348.218	179.25
348.445	172.25
348.673	156.25
348.9	150.25
349.128	172.25
349.355	139.25
349.583	149.25
349.81	146.25
350.037	161.25
350.265	168.25
350.492	160.25
350.72	162.25
350.947	156.25
351.174	174.25
351.402	156.25
351.629	156.25
351.856	137.25
352.083	153.25
352.311	173.25
352.538	154.25
352.765	162.25
352.992	178.25
353.22	158.25
353.447	160.25
353.674	159.25
353.901	166.25
354.128	164.25
354.355	149.25
354.583	142.25
354.81	160.25
355.037	165.25
355.264	156.25
355.491	165.25
355.718	148.25
355.945	154.25
356.172	155.25
356.399	152.25
356.626	150.25
356.853	159.25
357.08	140.25
357.307	174.25
357.534	167.25
357.761	161.25
357.988	156.25
358.215	167.25
358.441	131.25
358.668	149.25
358.895	160.25
359.122	157.25
359.349	160.25
359.576	167.25
359.802	162.25
360.029	148.25
360.256	161.25
360.483	160.25
360.709	161.25
360.936	185.25
361.163	164.25
361.39	168.25
361.616	164.25
361.843	153.25
362.07	160.25
362.296	159.25
362.523	153.25
362.749	141.25
362.976	150.25
363.203	173.25
363.429	148.25
363.656	162.25
363.882	142.25
364.109	167.25
364.335	158.25
364.562	148.25
364.788	164.25
365.015	171.25
365.241	154.25
365.468	178.25
365.694	166.25
365.92	162.25
366.147	148.25
366.373	156.25
366.599	153.25
366.826	161.25
367.052	163.25
367.278	156.25
367.505	165.25
367.731	174.25
367.957	138.25
368.184	160.25
368.41	173.25
368.636	170.25
368.862	155.25
369.089	167.25
369.315	152.25
369.541	157.25
369.767	160.25
369.993	172.25
370.219	159.25
370.445	151.25
370.672	164.25
370.898	172.25
371.124	156.25
371.35	171.25
371.576	154.25
371.802	165.25
372.028	167.25
372.254	172.25
372.48	186.25
372.706	176.25
372.932	149.25
373.158	171.25
373.384	162.25
373.61	173.25
373.835	180.25
374.061	162.25
374.287	181.25
374.513	172.25
374.739	191.25
374.965	179.25
375.191	190.25
375.416	191.25
375.642	184.25
375.868	189.25
376.094	183.25
376.319	185.25
376.545	175.25
376.771	163.25
376.997	153.25
377.222	174.25
377.448	178.25
377.674	167.25
377.899	166.25
378.125	164.25
378.35	175.25
378.576	169.25
378.802	176.25
379.027	173.25
379.253	168.25
379.478	168.25
379.704	161.25
379.929	166.25
380.155	164.25
380.38	165.25
380.606	161.25
380.831	184.25
381.057	193.25
381.282	175.25
381.507	188.25
381.733	184.25
381.958	185.25
382.184	168.25
382.409	176.25
382.634	196.25
382.86	184.25
383.085	171.25
383.31	185.25
383.535	193.25
383.761	187.25
383.986	198.25
384.211	198.25
384.436	197.25
384.662	201.25
384.887	187.25
385.112	199.25
385.337	193.25
385.562	200.25
385.787	197.25
386.013	207.25
386.238	202.25
386.463	204.25
386.688	221.25
386.913	202.25
387.138	184.25
387.363	197.25
387.588	212.25
387.813	212.25
388.038	186.25
388.263	225.25
388.488	203.25
388.713	191.25
388.938	198.25
389.163	195.25
389.387	198.25
389.612	209.25
389.837	196.25
390.062	216.25
390.287	199.25
390.512	209.25
390.736	209.25
390.961	208.25
391.186	216.25
391.411	214.25
391.636	214.25
391.86	205.25
392.085	209.25
392.31	227.25
392.534	211.25
392.759	221.25
392.984	218.25
393.208	206.25
393.433	212.25
393.658	207.25
393.882	221.25
394.107	222.25
394.331	217.25
394.556	220.25
394.78	228.25
395.005	206.25
395.229	201.25
395.454	205.25
395.678	233.25
395.903	243.25
396.127	233.25
396.352	216.25
396.576	212.25
396.801	221.25
397.025	220.25
397.249	241.25
397.474	234.25
397.698	241.25
397.922	243.25
398.147	237.25
398.371	258.25
398.595	266.25
398.82	268.25
399.044	285.25
399.268	314.25
399.492	335.25
399.717	358.25
399.941	347.25
400.165	340.25
400.389	303.25
400.613	273.25
400.837	265.25
401.062	270.25
401.286	257.25
401.51	264.25
401.734	256.25
401.958	274.25
402.182	282.25
402.406	278.25
402.63	300.25
402.854	293.25
403.078	307.25
403.302	278.25
403.526	316.25
403.75	318.25
403.974	317.25
404.198	334.25
404.422	312.25
404.645	314.25
404.869	304.25
405.093	318.25
405.317	305.25
405.541	309.25
405.765	294.25
405.988	298.25
406.212	313.25
406.436	301.25
406.66	313.25
406.883	319.25
407.107	334.25
407.331	331.25
407.555	353.25
407.778	352.25
408.002	314.25
408.226	328.25
408.449	333.25
408.673	316.25
408.896	319.25
409.12	307.25
409.344	314.25
409.567	303.25
409.791	333.25
410.014	333.25
410.238	321.25
410.461	312.25
410.685	314.25
410.908	312.25
411.132	333.25
411.355	303.25
411.578	317.25
411.802	305.25
412.025	313.25
412.249	320.25
412.472	308.25
412.695	301.25
412.919	286.25
413.142	321.25
413.365	311.25
413.589	297.25
413.812	304.25
414.035	311.25
414.258	312.25
414.482	308.25
414.705	321.25
414.928	315.25
415.151	307.25
415.374	313.25
415.597	306.25
415.821	304.25
416.044	284.25
416.267	306.25
416.49	314.25
416.713	314.25
416.936	293.25
417.159	297.25
417.382	308.25
417.605	320.25
417.828	329.25
418.051	327.25
418.274	312.25
418.497	291.25
418.72	321.25
418.943	335.25
419.166	343.25
419.389	343.25
419.611	331.25
419.834	332.25
420.057	326.25
420.28	318.25
420.503	314.25
420.726	314.25
420.948	316.25
421.171	318.25
421.394	312.25
421.617	332.25
421.839	306.25
422.062	333.25
422.285	311.25
422.507	303.25
422.73	280.25
422.953	324.25
423.175	337.25
423.398	312.25
423.621	322.25
423.843	333.25
424.066	331.25
424.288	328.25
424.511	323.25
424.733	327.25
424.956	320.25
425.178	311.25
425.401	324.25
425.623	309.25
425.846	316.25
426.068	300.25
426.291	292.25
426.513	304.25
426.735	303.25
426.958	306.25
427.18	301.25
427.402	287.25
427.625	290.25
427.847	279.25
428.069	308.25
428.292	302.25
428.514	272.25
428.736	287.25
428.958	290.25
429.181	290.25
429.403	295.25
429.625	294.25
429.847	287.25
430.069	280.25
430.292	310.25
430.514	277.25
430.736	292.25
430.958	298.25
431.18	296.25
431.402	297.25
431.624	272.25
431.846	255.25
432.068	279.25
432.29	266.25
432.512	286.25
432.734	287.25
432.956	283.25
433.178	321.25
433.4	306.25
433.622	305.25
433.844	302.25
434.066	290.25
434.287	276.25
434.509	280.25
434.731	265.25
434.953	292.25
435.175	297.25
435.397	303.25
435.618	288.25
435.84	291.25
436.062	273.25
436.284	266.25
436.505	296.25
436.727	305.25
436.949	281.25
437.17	289.25
437.392	283.25
437.614	285.25
437.835	264.25
438.057	252.25
438.278	254.25
438.5	271.25
438.721	302.25
438.943	288.25
439.165	302.25
439.386	309.25
439.608	304.25
439.829	306.25
440.05	296.25
440.272	280.25
440.493	294.25
440.715	314.25
440.936	322.25
441.158	321.25
441.379	319.25
441.6	328.25
441.822	330.25
442.043	324.25
442.264	330.25
442.486	318.25
442.707	328.25
442.928	316.25
443.149	315.25
443.371	337.25
443.592	332.25
443.813	330.25
444.034	340.25
444.255	341.25
444.476	359.25
444.698	359.25
444.919	360.25
445.14	545.25
445.361	431.25
445.582	334.25
445.803	315.25
446.024	310.25
446.245	306.25
446.466	307.25
446.687	302.25
446.908	326.25
447.129	296.25
447.35	297.25
447.571	301.25
447.792	289.25
448.013	296.25
448.234	288.25
448.455	285.25
448.675	300.25
448.896	272.25
449.117	294.25
449.338	283.25
449.559	291.25
449.779	265.25
450	266.25
450.221	278.25
450.442	284.25
450.662	276.25
450.883	278.25
451.104	273.25
451.324	271.25
451.545	275.25
451.766	261.25
451.986	273.25
452.207	269.25
452.428	265.25
452.648	280.25
452.869	261.25
453.089	247.25
453.31	242.25
453.53	260.25
453.751	247.25
453.971	237.25
454.192	246.25
454.412	243.25
454.633	245.25
454.853	264.25
455.073	268.25
455.294	270.25
455.514	294.25
455.734	277.25
455.955	249.25
456.175	266.25
456.395	243.25
456.616	241.25
456.836	244.25
457.056	234.25
457.276	236.25
457.497	243.25
457.717	231.25
457.937	238.25
458.157	250.25
458.377	246.25
458.598	241.25
458.818	252.25
459.038	227.25
459.258	236.25
459.478	249.25
459.698	258.25
459.918	262.25
460.138	311.25
460.358	299.25
460.578	310.25
460.798	310.25
461.018	301.25
461.238	307.25
461.458	301.25
461.678	302.25
461.898	313.25
462.118	311.25
462.338	338.25
462.558	344.25
462.777	345.25
462.997	366.25
463.217	381.25
463.437	357.25
463.657	336.25
463.876	336.25
464.096	309.25
464.316	329.25
464.536	328.25
464.755	318.25
464.975	324.25
465.195	314.25
465.414	297.25
465.634	301.25
465.854	285.25
466.073	296.25
466.293	271.25
466.512	278.25
466.732	286.25
466.951	273.25
467.171	298.25
467.391	303.25
467.61	281.25
467.829	277.25
468.049	284.25
468.268	268.25
468.488	279.25
468.707	279.25
468.927	285.25
469.146	276.25
469.365	280.25
469.585	283.25
469.804	289.25
470.023	297.25
470.243	301.25
470.462	299.25
470.681	302.25
470.901	300.25
471.12	293.25
471.339	299.25
471.558	263.25
471.777	280.25
471.997	288.25
472.216	269.25
472.435	255.25
472.654	250.25
472.873	271.25
473.092	254.25
473.311	270.25
473.53	264.25
473.749	277.25
473.968	260.25
474.187	257.25
474.406	256.25
474.625	262.25
474.844	272.25
475.063	262.25
475.282	270.25
475.501	254.25
475.72	280.25
475.939	260.25
476.158	276.25
476.377	265.25
476.596	264.25
476.814	267.25
477.033	260.25
477.252	270.25
477.471	278.25
477.69	274.25
477.908	304.25
478.127	306.25
478.346	302.25
478.564	318.25
478.783	318.25
479.002	303.25
479.22	310.25
479.439	307.25
479.658	311.25
479.876	279.25
480.095	302.25
480.313	316.25
480.532	314.25
480.751	307.25
480.969	277.25
481.188	269.25
481.406	263.25
481.624	253.25
481.843	265.25
482.061	261.25
482.28	280.25
482.498	264.25
482.717	275.25
482.935	292.25
483.153	317.25
483.372	309.25
483.59	323.25
483.808	292.25
484.027	292.25
484.245	282.25
484.463	324.25
484.681	326.25
484.9	308.25
485.118	301.25
485.336	301.25
485.554	277.25
485.772	273.25
485.99	293.25
486.209	300.25
486.427	290.25
486.645	314.25
486.863	326.25
487.081	317.25
487.299	324.25
487.517	312.25
487.735	343.25
487.953	340.25
488.171	320.25
488.389	345.25
488.607	314.25
488.825	309.25
489.043	288.25
489.261	298.25
489.479	302.25
489.696	290.25
489.914	304.25
490.132	319.25
490.35	318.25
490.568	321.25
490.786	328.25
491.003	336.25
491.221	362.25
491.439	362.25
491.657	362.25
491.874	367.25
492.092	399.25
492.31	422.25
492.527	397.25
492.745	366.25
492.963	382.25
493.18	366.25
493.398	391.25
493.615	414.25
493.833	353.25
494.05	381.25
494.268	370.25
494.485	359.25
494.703	371.25
494.92	336.25
495.138	348.25
495.355	363.25
495.573	340.25
495.79	337.25
496.008	360.25
496.225	373.25
496.442	340.25
496.66	366.25
496.877	356.25
497.094	388.25
497.312	352.25
497.529	362.25
497.746	366.25
497.963	351.25
498.181	373.25
498.398	386.25
498.615	379.25
498.832	404.25
499.049	434.25
499.267	477.25
499.484	519.25
499.701	551.25
499.918	630.25
500.135	693.25
500.352	743.25
500.569	792.25
500.786	762.25
501.003	698.25
501.22	608.25
501.437	566.25
501.654	500.25
501.871	486.25
502.088	424.25
502.305	438.25
502.522	426.25
502.739	423.25
502.956	386.25
503.172	390.25
503.389	366.25
503.606	337.25
503.823	336.25
504.04	347.25
504.256	351.25
