Data from SampA_HRD10591_00063.txt Node
Date: Mon Jan 19 11:27:08 EST 2026
User: Yrep
Spectrometer: HR+D1059
Trigger mode: 0
Integration Time (sec): 3.443000E-1
Scans to average: 1
Electric dark correction enabled: true
Nonlinearity correction enabled: false
Boxcar width: 0
XAxis mode: Wavelengths
Number of Pixels in Spectrum: 2048
>>>>>Begin Spectral Data<<<<<
223.165	-30.94
223.4	-30.94
223.635	-30.94
223.869	-26.94
224.104	-32.94
224.338	-18.94
224.573	-3.94
224.808	-5.94
225.042	-12.94
225.277	-6.94
225.511	2.06
225.746	12.06
225.98	-9.94
226.215	14.06
226.449	18.06
226.683	36.06
226.918	22.06
227.152	45.06
227.387	30.06
227.621	48.06
227.856	59.06
228.09	40.06
228.324	46.06
228.559	71.06
228.793	70.06
229.027	58.06
229.262	76.06
229.496	80.06
229.73	65.06
229.964	84.06
230.199	78.06
230.433	74.06
230.667	89.06
230.901	80.06
231.136	73.06
231.37	66.06
231.604	81.06
231.838	88.06
232.072	82.06
232.306	88.06
232.541	98.06
232.775	78.06
233.009	86.06
233.243	90.06
233.477	92.06
233.711	83.06
233.945	80.06
234.179	87.06
234.413	90.06
234.647	99.06
234.881	95.06
235.115	83.06
235.349	88.06
235.583	76.06
235.817	87.06
236.051	83.06
236.285	95.06
236.519	78.06
236.753	66.06
236.987	86.06
237.221	81.06
237.455	84.06
237.689	83.06
237.922	84.06
238.156	79.06
238.39	78.06
238.624	85.06
238.858	77.06
239.091	88.06
239.325	88.06
239.559	94.06
239.793	89.06
240.027	102.06
240.26	90.06
240.494	83.06
240.728	95.06
240.961	79.06
241.195	95.06
241.429	96.06
241.662	94.06
241.896	86.06
242.13	75.06
242.363	81.06
242.597	105.06
242.83	96.06
243.064	97.06
243.298	91.06
243.531	92.06
243.765	101.06
243.998	90.06
244.232	97.06
244.465	95.06
244.699	88.06
244.932	87.06
245.166	85.06
245.399	98.06
245.633	87.06
245.866	80.06
246.099	88.06
246.333	81.06
246.566	84.06
246.8	80.06
247.033	99.06
247.266	79.06
247.5	92.06
247.733	98.06
247.966	96.06
248.2	84.06
248.433	87.06
248.666	94.06
248.899	83.06
249.133	90.06
249.366	122.06
249.599	96.06
249.832	93.06
250.066	101.06
250.299	107.06
250.532	106.06
250.765	87.06
250.998	104.06
251.231	89.06
251.465	85.06
251.698	82.06
251.931	93.06
252.164	104.06
252.397	99.06
252.63	111.06
252.863	101.06
253.096	98.06
253.329	106.06
253.562	95.06
253.795	82.06
254.028	112.06
254.261	101.06
254.494	95.06
254.727	103.06
254.96	92.06
255.193	94.06
255.426	92.06
255.659	99.06
255.892	107.06
256.124	102.06
256.357	86.06
256.59	106.06
256.823	95.06
257.056	105.06
257.289	99.06
257.521	103.06
257.754	96.06
257.987	105.06
258.22	96.06
258.452	90.06
258.685	96.06
258.918	95.06
259.151	102.06
259.383	105.06
259.616	97.06
259.849	104.06
260.081	106.06
260.314	110.06
260.547	98.06
260.779	98.06
261.012	95.06
261.244	105.06
261.477	114.06
261.71	98.06
261.942	110.06
262.175	104.06
262.407	95.06
262.64	90.06
262.872	102.06
263.105	98.06
263.337	114.06
263.57	99.06
263.802	102.06
264.035	104.06
264.267	106.06
264.499	105.06
264.732	114.06
264.964	110.06
265.197	111.06
265.429	112.06
265.661	105.06
265.894	112.06
266.126	106.06
266.358	103.06
266.591	105.06
266.823	105.06
267.055	97.06
267.287	100.06
267.52	108.06
267.752	111.06
267.984	111.06
268.216	112.06
268.448	117.06
268.681	116.06
268.913	124.06
269.145	120.06
269.377	82.06
269.609	104.06
269.841	119.06
270.073	108.06
270.306	118.06
270.538	113.06
270.77	108.06
271.002	104.06
271.234	107.06
271.466	108.06
271.698	116.06
271.93	106.06
272.162	115.06
272.394	112.06
272.626	108.06
272.858	109.06
273.09	122.06
273.322	114.06
273.553	103.06
273.785	117.06
274.017	111.06
274.249	110.06
274.481	114.06
274.713	114.06
274.945	114.06
275.176	98.06
275.408	107.06
275.64	110.06
275.872	113.06
276.104	135.06
276.335	121.06
276.567	95.06
276.799	104.06
277.031	114.06
277.262	115.06
277.494	109.06
277.726	117.06
277.957	122.06
278.189	113.06
278.421	104.06
278.652	102.06
278.884	111.06
279.115	98.06
279.347	119.06
279.579	105.06
279.81	106.06
280.042	105.06
280.273	102.06
280.505	106.06
280.736	115.06
280.968	121.06
281.199	105.06
281.431	111.06
281.662	119.06
281.894	127.06
282.125	101.06
282.356	114.06
282.588	108.06
282.819	116.06
283.051	126.06
283.282	98.06
283.513	128.06
283.745	120.06
283.976	112.06
284.207	122.06
284.439	104.06
284.67	121.06
284.901	117.06
285.132	118.06
285.364	116.06
285.595	113.06
285.826	121.06
286.057	126.06
286.288	119.06
286.52	111.06
286.751	123.06
286.982	141.06
287.213	108.06
287.444	99.06
287.675	106.06
287.906	114.06
288.138	114.06
288.369	103.06
288.6	118.06
288.831	123.06
289.062	120.06
289.293	132.06
289.524	120.06
289.755	116.06
289.986	127.06
290.217	117.06
290.448	113.06
290.679	122.06
290.91	130.06
291.141	109.06
291.371	120.06
291.602	114.06
291.833	97.06
292.064	123.06
292.295	110.06
292.526	134.06
292.757	123.06
292.987	122.06
293.218	116.06
293.449	118.06
293.68	120.06
293.91	134.06
294.141	125.06
294.372	124.06
294.603	130.06
294.833	123.06
295.064	130.06
295.295	119.06
295.525	114.06
295.756	118.06
295.987	115.06
296.217	116.06
296.448	118.06
296.679	132.06
296.909	127.06
297.14	132.06
297.37	131.06
297.601	126.06
297.831	125.06
298.062	146.06
298.292	150.06
298.523	131.06
298.753	123.06
298.984	142.06
299.214	123.06
299.445	123.06
299.675	127.06
299.905	131.06
300.136	125.06
300.366	126.06
300.597	143.06
300.827	130.06
301.057	119.06
301.288	119.06
301.518	129.06
301.748	118.06
301.979	168.06
302.209	120.06
302.439	124.06
302.669	138.06
302.9	132.06
303.13	120.06
303.36	125.06
303.59	111.06
303.82	114.06
304.051	124.06
304.281	134.06
304.511	136.06
304.741	116.06
304.971	118.06
305.201	128.06
305.431	123.06
305.661	113.06
305.891	121.06
306.121	132.06
306.352	136.06
306.582	136.06
306.812	120.06
307.042	112.06
307.272	124.06
307.502	124.06
307.731	132.06
307.961	115.06
308.191	121.06
308.421	119.06
308.651	124.06
308.881	127.06
309.111	126.06
309.341	129.06
309.571	122.06
309.8	136.06
310.03	119.06
310.26	119.06
310.49	135.06
310.72	142.06
310.949	123.06
311.179	128.06
311.409	126.06
311.639	140.06
311.868	132.06
312.098	138.06
312.328	119.06
312.557	126.06
312.787	130.06
313.017	114.06
313.246	120.06
313.476	131.06
313.706	120.06
313.935	138.06
314.165	140.06
314.394	136.06
314.624	119.06
314.853	127.06
315.083	135.06
315.312	144.06
315.542	113.06
315.771	108.06
316.001	144.06
316.23	136.06
316.46	136.06
316.689	148.06
316.919	126.06
317.148	136.06
317.377	139.06
317.607	135.06
317.836	121.06
318.065	132.06
318.295	135.06
318.524	124.06
318.753	131.06
318.983	143.06
319.212	151.06
319.441	127.06
319.67	140.06
319.9	119.06
320.129	143.06
320.358	129.06
320.587	126.06
320.816	136.06
321.046	121.06
321.275	150.06
321.504	128.06
321.733	119.06
321.962	124.06
322.191	130.06
322.42	137.06
322.649	143.06
322.878	135.06
323.108	149.06
323.337	128.06
323.566	127.06
323.795	121.06
324.024	140.06
324.253	133.06
324.482	135.06
324.71	127.06
324.939	142.06
325.168	129.06
325.397	139.06
325.626	148.06
325.855	156.06
326.084	134.06
326.313	152.06
326.542	137.06
326.77	132.06
326.999	146.06
327.228	146.06
327.457	134.06
327.686	139.06
327.914	141.06
328.143	142.06
328.372	153.06
328.6	141.06
328.829	137.06
329.058	152.06
329.287	137.06
329.515	127.06
329.744	146.06
329.972	134.06
330.201	127.06
330.43	144.06
330.658	147.06
330.887	128.06
331.115	156.06
331.344	139.06
331.572	160.06
331.801	155.06
332.03	141.06
332.258	150.06
332.486	149.06
332.715	143.06
332.943	156.06
333.172	152.06
333.4	139.06
333.629	176.06
333.857	152.06
334.085	155.06
334.314	154.06
334.542	154.06
334.771	153.06
334.999	162.06
335.227	141.06
335.455	146.06
335.684	152.06
335.912	142.06
336.14	164.06
336.369	164.06
336.597	142.06
336.825	159.06
337.053	143.06
337.281	142.06
337.51	151.06
337.738	151.06
337.966	131.06
338.194	142.06
338.422	154.06
338.65	146.06
338.878	141.06
339.106	152.06
339.334	164.06
339.562	118.06
339.79	135.06
340.018	152.06
340.246	130.06
340.474	138.06
340.702	134.06
340.93	143.06
341.158	149.06
341.386	141.06
341.614	136.06
341.842	140.06
342.07	137.06
342.298	135.06
342.526	140.06
342.754	122.06
342.981	126.06
343.209	147.06
343.437	179.06
343.665	144.06
343.893	139.06
344.12	178.06
344.348	159.06
344.576	143.06
344.804	147.06
345.031	131.06
345.259	134.06
345.487	166.06
345.714	135.06
345.942	136.06
346.17	135.06
346.397	137.06
346.625	127.06
346.853	127.06
347.08	131.06
347.308	146.06
347.535	143.06
347.763	138.06
347.99	135.06
348.218	145.06
348.445	129.06
348.673	134.06
348.9	146.06
349.128	136.06
349.355	121.06
349.583	134.06
349.81	118.06
350.037	119.06
350.265	142.06
350.492	130.06
350.72	145.06
350.947	140.06
351.174	152.06
351.402	126.06
351.629	120.06
351.856	120.06
352.083	137.06
352.311	118.06
352.538	127.06
352.765	138.06
352.992	160.06
353.22	136.06
353.447	136.06
353.674	141.06
353.901	138.06
354.128	139.06
354.355	137.06
354.583	125.06
354.81	141.06
355.037	135.06
355.264	137.06
355.491	128.06
355.718	140.06
355.945	139.06
356.172	135.06
356.399	136.06
356.626	142.06
356.853	120.06
357.08	130.06
357.307	140.06
357.534	156.06
357.761	130.06
357.988	153.06
358.215	146.06
358.441	159.06
358.668	134.06
358.895	148.06
359.122	146.06
359.349	126.06
359.576	131.06
359.802	140.06
360.029	140.06
360.256	145.06
360.483	146.06
360.709	116.06
360.936	156.06
361.163	160.06
361.39	145.06
361.616	127.06
361.843	146.06
362.07	132.06
362.296	135.06
362.523	134.06
362.749	134.06
362.976	138.06
363.203	163.06
363.429	137.06
363.656	150.06
363.882	142.06
364.109	147.06
364.335	135.06
364.562	152.06
364.788	151.06
365.015	130.06
365.241	138.06
365.468	139.06
365.694	132.06
365.92	135.06
366.147	129.06
366.373	123.06
366.599	122.06
366.826	148.06
367.052	137.06
367.278	124.06
367.505	134.06
367.731	148.06
367.957	156.06
368.184	136.06
368.41	161.06
368.636	138.06
368.862	143.06
369.089	145.06
369.315	129.06
369.541	127.06
369.767	135.06
369.993	147.06
370.219	134.06
370.445	146.06
370.672	145.06
370.898	135.06
371.124	134.06
371.35	129.06
371.576	134.06
371.802	143.06
372.028	141.06
372.254	143.06
372.48	159.06
372.706	137.06
372.932	163.06
373.158	141.06
373.384	152.06
373.61	144.06
373.835	138.06
374.061	132.06
374.287	149.06
374.513	149.06
374.739	152.06
374.965	166.06
375.191	142.06
375.416	152.06
375.642	155.06
375.868	169.06
376.094	152.06
376.319	149.06
376.545	152.06
376.771	143.06
376.997	154.06
377.222	154.06
377.448	122.06
377.674	141.06
377.899	134.06
378.125	138.06
378.35	137.06
378.576	130.06
378.802	150.06
379.027	139.06
379.253	135.06
379.478	135.06
379.704	148.06
379.929	154.06
380.155	139.06
380.38	163.06
380.606	131.06
380.831	139.06
381.057	150.06
381.282	143.06
381.507	151.06
381.733	156.06
381.958	148.06
382.184	154.06
382.409	151.06
382.634	152.06
382.86	144.06
383.085	171.06
383.31	143.06
383.535	165.06
383.761	146.06
383.986	170.06
384.211	163.06
384.436	162.06
384.662	163.06
384.887	166.06
385.112	158.06
385.337	171.06
385.562	164.06
385.787	155.06
386.013	176.06
386.238	168.06
386.463	164.06
386.688	192.06
386.913	170.06
387.138	150.06
387.363	176.06
387.588	176.06
387.813	168.06
388.038	157.06
388.263	174.06
388.488	149.06
388.713	169.06
388.938	169.06
389.163	175.06
389.387	168.06
389.612	160.06
389.837	168.06
390.062	159.06
390.287	178.06
390.512	162.06
390.736	177.06
390.961	174.06
391.186	169.06
391.411	192.06
391.636	181.06
391.86	187.06
392.085	190.06
392.31	190.06
392.534	183.06
392.759	192.06
392.984	192.06
393.208	175.06
393.433	178.06
393.658	183.06
393.882	187.06
394.107	201.06
394.331	193.06
394.556	180.06
394.78	203.06
395.005	185.06
395.229	187.06
395.454	205.06
395.678	189.06
395.903	201.06
396.127	187.06
396.352	185.06
396.576	189.06
396.801	208.06
397.025	200.06
397.249	196.06
397.474	206.06
397.698	203.06
397.922	205.06
398.147	212.06
398.371	195.06
398.595	223.06
398.82	232.06
399.044	237.06
399.268	248.06
399.492	282.06
399.717	277.06
399.941	273.06
400.165	253.06
400.389	252.06
400.613	221.06
400.837	230.06
401.062	238.06
401.286	225.06
401.51	218.06
401.734	216.06
401.958	227.06
402.182	244.06
402.406	231.06
402.63	230.06
402.854	239.06
403.078	242.06
403.302	249.06
403.526	268.06
403.75	257.06
403.974	262.06
404.198	265.06
404.422	259.06
404.645	256.06
404.869	241.06
405.093	251.06
405.317	257.06
405.541	273.06
405.765	245.06
405.988	243.06
406.212	264.06
406.436	244.06
406.66	273.06
406.883	276.06
407.107	288.06
407.331	280.06
407.555	286.06
407.778	284.06
408.002	275.06
408.226	276.06
408.449	282.06
408.673	263.06
408.896	279.06
409.12	268.06
409.344	273.06
409.567	257.06
409.791	270.06
410.014	274.06
410.238	269.06
410.461	268.06
410.685	279.06
410.908	256.06
411.132	278.06
411.355	242.06
411.578	259.06
411.802	265.06
412.025	268.06
412.249	265.06
412.472	257.06
412.695	254.06
412.919	259.06
413.142	249.06
413.365	250.06
413.589	251.06
413.812	242.06
414.035	250.06
414.258	266.06
414.482	255.06
414.705	270.06
414.928	265.06
415.151	257.06
415.374	268.06
415.597	259.06
415.821	260.06
416.044	260.06
416.267	262.06
416.49	267.06
416.713	265.06
416.936	268.06
417.159	265.06
417.382	259.06
417.605	247.06
417.828	253.06
418.051	263.06
418.274	283.06
418.497	256.06
418.72	263.06
418.943	282.06
419.166	279.06
419.389	294.06
419.611	277.06
419.834	267.06
420.057	275.06
420.28	266.06
420.503	278.06
420.726	278.06
420.948	274.06
421.171	267.06
421.394	276.06
421.617	276.06
421.839	270.06
422.062	278.06
422.285	274.06
422.507	279.06
422.73	264.06
422.953	266.06
423.175	256.06
423.398	282.06
423.621	279.06
423.843	271.06
424.066	299.06
424.288	300.06
424.511	289.06
424.733	284.06
424.956	293.06
425.178	272.06
425.401	279.06
425.623	275.06
425.846	270.06
426.068	262.06
426.291	258.06
426.513	242.06
426.735	252.06
426.958	258.06
427.18	255.06
427.402	260.06
427.625	267.06
427.847	250.06
428.069	253.06
428.292	247.06
428.514	242.06
428.736	253.06
428.958	242.06
429.181	243.06
429.403	252.06
429.625	234.06
429.847	241.06
430.069	264.06
430.292	250.06
430.514	241.06
430.736	250.06
430.958	265.06
431.18	240.06
431.402	235.06
431.624	223.06
431.846	225.06
432.068	218.06
432.29	221.06
432.512	241.06
432.734	244.06
432.956	262.06
433.178	272.06
433.4	276.06
433.622	263.06
433.844	265.06
434.066	240.06
434.287	232.06
434.509	212.06
434.731	247.06
434.953	265.06
435.175	274.06
435.397	255.06
435.618	232.06
435.84	227.06
436.062	233.06
436.284	252.06
436.505	247.06
436.727	252.06
436.949	255.06
437.17	252.06
437.392	238.06
437.614	237.06
437.835	222.06
438.057	222.06
438.278	215.06
438.5	245.06
438.721	255.06
438.943	244.06
439.165	246.06
439.386	270.06
439.608	270.06
439.829	275.06
440.05	271.06
440.272	264.06
440.493	267.06
440.715	240.06
440.936	269.06
441.158	275.06
441.379	282.06
441.6	274.06
441.822	274.06
442.043	281.06
442.264	270.06
442.486	250.06
442.707	266.06
442.928	266.06
443.149	277.06
443.371	295.06
443.592	286.06
443.813	293.06
444.034	286.06
444.255	297.06
444.476	303.06
444.698	300.06
444.919	318.06
445.14	472.06
445.361	362.06
445.582	295.06
445.803	274.06
446.024	284.06
446.245	276.06
446.466	290.06
446.687	267.06
446.908	280.06
447.129	282.06
447.35	255.06
447.571	264.06
447.792	255.06
448.013	235.06
448.234	249.06
448.455	240.06
448.675	241.06
448.896	253.06
449.117	246.06
449.338	243.06
449.559	252.06
449.779	235.06
450	237.06
450.221	236.06
450.442	234.06
450.662	231.06
450.883	230.06
451.104	246.06
451.324	234.06
451.545	255.06
451.766	242.06
451.986	236.06
452.207	272.06
452.428	248.06
452.648	237.06
452.869	218.06
453.089	217.06
453.31	212.06
453.53	223.06
453.751	214.06
453.971	194.06
454.192	209.06
454.412	224.06
454.633	206.06
454.853	237.06
455.073	211.06
455.294	236.06
455.514	246.06
455.734	226.06
455.955	206.06
456.175	218.06
456.395	221.06
456.616	200.06
456.836	214.06
457.056	216.06
457.276	204.06
457.497	213.06
457.717	214.06
457.937	207.06
458.157	211.06
458.377	199.06
458.598	205.06
458.818	196.06
459.038	202.06
459.258	199.06
459.478	200.06
459.698	221.06
459.918	227.06
460.138	252.06
460.358	274.06
460.578	271.06
460.798	252.06
461.018	268.06
461.238	244.06
461.458	256.06
461.678	274.06
461.898	261.06
462.118	257.06
462.338	273.06
462.558	270.06
462.777	299.06
462.997	313.06
463.217	320.06
463.437	319.06
463.657	272.06
463.876	283.06
464.096	286.06
464.316	275.06
464.536	292.06
464.755	273.06
464.975	253.06
465.195	262.06
465.414	244.06
465.634	222.06
465.854	238.06
466.073	251.06
466.293	264.06
466.512	246.06
466.732	242.06
466.951	243.06
467.171	249.06
467.391	247.06
467.61	239.06
467.829	259.06
468.049	244.06
468.268	225.06
468.488	241.06
468.707	234.06
468.927	246.06
469.146	247.06
469.365	250.06
469.585	229.06
469.804	258.06
470.023	268.06
470.243	270.06
470.462	236.06
470.681	263.06
470.901	259.06
471.12	284.06
471.339	262.06
471.558	254.06
471.777	257.06
471.997	235.06
472.216	224.06
472.435	227.06
472.654	210.06
472.873	230.06
473.092	223.06
473.311	234.06
473.53	232.06
473.749	255.06
473.968	232.06
474.187	219.06
474.406	228.06
474.625	227.06
474.844	243.06
475.063	240.06
475.282	215.06
475.501	218.06
475.72	241.06
475.939	226.06
476.158	228.06
476.377	239.06
476.596	216.06
476.814	231.06
477.033	229.06
477.252	201.06
477.471	224.06
477.69	267.06
477.908	265.06
478.127	274.06
478.346	259.06
478.564	273.06
478.783	265.06
479.002	263.06
479.22	255.06
479.439	271.06
479.658	248.06
479.876	238.06
480.095	248.06
480.313	274.06
480.532	266.06
480.751	265.06
480.969	216.06
481.188	227.06
481.406	207.06
481.624	214.06
481.843	219.06
482.061	216.06
482.28	235.06
482.498	238.06
482.717	221.06
482.935	230.06
483.153	257.06
483.372	269.06
483.59	270.06
483.808	276.06
484.027	270.06
484.245	263.06
484.463	252.06
484.681	294.06
484.9	258.06
485.118	267.06
485.336	244.06
485.554	243.06
485.772	220.06
485.99	227.06
486.209	237.06
486.427	240.06
486.645	242.06
486.863	278.06
487.081	252.06
487.299	266.06
487.517	251.06
487.735	313.06
487.953	307.06
488.171	282.06
488.389	290.06
488.607	268.06
488.825	263.06
489.043	247.06
489.261	251.06
489.479	271.06
489.696	271.06
489.914	262.06
490.132	257.06
490.35	276.06
490.568	293.06
490.786	288.06
491.003	316.06
491.221	313.06
491.439	319.06
491.657	312.06
491.874	358.06
492.092	330.06
492.31	351.06
492.527	339.06
492.745	341.06
492.963	317.06
493.18	319.06
493.398	314.06
493.615	319.06
493.833	326.06
494.05	341.06
494.268	299.06
494.485	314.06
494.703	322.06
494.92	313.06
495.138	302.06
495.355	319.06
495.573	312.06
495.79	282.06
496.008	306.06
496.225	322.06
496.442	298.06
496.66	300.06
496.877	320.06
497.094	326.06
497.312	314.06
497.529	315.06
497.746	291.06
497.963	281.06
498.181	306.06
498.398	318.06
498.615	317.06
498.832	319.06
499.049	352.06
499.267	383.06
499.484	418.06
499.701	442.06
499.918	490.06
500.135	575.06
500.352	601.06
500.569	590.06
500.786	600.06
501.003	560.06
501.22	496.06
501.437	456.06
501.654	391.06
501.871	393.06
502.088	357.06
502.305	358.06
502.522	337.06
502.739	328.06
502.956	291.06
503.172	303.06
503.389	275.06
503.606	282.06
503.823	283.06
504.04	297.06
504.256	292.06
504.473	295.06
