Data from SampA_HRD10591_00094.txt Node
Date: Mon Jan 19 11:27:18 EST 2026
User: Yrep
Spectrometer: HR+D1059
Trigger mode: 0
Integration Time (sec): 3.443000E-1
Scans to average: 1
Electric dark correction enabled: true
Nonlinearity correction enabled: false
Boxcar width: 0
XAxis mode: Wavelengths
Number of Pixels in Spectrum: 2048
>>>>>Begin Spectral Data<<<<<
223.165	-22.5
223.4	-22.5
223.635	-22.5
223.869	-32.5
224.104	-32.5
224.338	-13.5
224.573	-9.5
224.808	-14.5
225.042	5.5
225.277	-5.5
225.511	-8.5
225.746	-1.5
225.98	9.5
226.215	31.5
226.449	14.5
226.683	11.5
226.918	31.5
227.152	36.5
227.387	35.5
227.621	32.5
227.856	41.5
228.09	36.5
228.324	54.5
228.559	53.5
228.793	69.5
229.027	75.5
229.262	59.5
229.496	57.5
229.73	79.5
229.964	64.5
230.199	61.5
230.433	78.5
230.667	78.5
230.901	77.5
231.136	79.5
231.37	69.5
231.604	76.5
231.838	84.5
232.072	82.5
232.306	61.5
232.541	83.5
232.775	67.5
233.009	69.5
233.243	87.5
233.477	73.5
233.711	76.5
233.945	78.5
234.179	84.5
234.413	80.5
234.647	89.5
234.881	72.5
235.115	77.5
235.349	81.5
235.583	71.5
235.817	68.5
236.051	82.5
236.285	69.5
236.519	70.5
236.753	70.5
236.987	75.5
237.221	77.5
237.455	75.5
237.689	81.5
237.922	73.5
238.156	69.5
238.39	69.5
238.624	72.5
238.858	83.5
239.091	90.5
239.325	68.5
239.559	72.5
239.793	87.5
240.027	82.5
240.26	78.5
240.494	78.5
240.728	84.5
240.961	75.5
241.195	96.5
241.429	76.5
241.662	78.5
241.896	70.5
242.13	73.5
242.363	88.5
242.597	85.5
242.83	84.5
243.064	81.5
243.298	79.5
243.531	73.5
243.765	79.5
243.998	75.5
244.232	83.5
244.465	89.5
244.699	92.5
244.932	90.5
245.166	75.5
245.399	71.5
245.633	84.5
245.866	91.5
246.099	80.5
246.333	79.5
246.566	81.5
246.8	74.5
247.033	85.5
247.266	84.5
247.5	98.5
247.733	82.5
247.966	82.5
248.2	92.5
248.433	88.5
248.666	80.5
248.899	76.5
249.133	91.5
249.366	97.5
249.599	81.5
249.832	76.5
250.066	90.5
250.299	97.5
250.532	78.5
250.765	90.5
250.998	89.5
251.231	91.5
251.465	98.5
251.698	82.5
251.931	76.5
252.164	84.5
252.397	85.5
252.63	85.5
252.863	82.5
253.096	87.5
253.329	91.5
253.562	86.5
253.795	103.5
254.028	92.5
254.261	74.5
254.494	83.5
254.727	100.5
254.96	88.5
255.193	85.5
255.426	79.5
255.659	85.5
255.892	97.5
256.124	83.5
256.357	82.5
256.59	93.5
256.823	81.5
257.056	89.5
257.289	88.5
257.521	97.5
257.754	85.5
257.987	86.5
258.22	90.5
258.452	85.5
258.685	86.5
258.918	91.5
259.151	83.5
259.383	90.5
259.616	84.5
259.849	91.5
260.081	80.5
260.314	78.5
260.547	95.5
260.779	78.5
261.012	90.5
261.244	77.5
261.477	87.5
261.71	94.5
261.942	77.5
262.175	93.5
262.407	74.5
262.64	78.5
262.872	80.5
263.105	90.5
263.337	86.5
263.57	86.5
263.802	89.5
264.035	82.5
264.267	89.5
264.499	81.5
264.732	85.5
264.964	85.5
265.197	87.5
265.429	100.5
265.661	105.5
265.894	92.5
266.126	80.5
266.358	91.5
266.591	93.5
266.823	91.5
267.055	91.5
267.287	94.5
267.52	105.5
267.752	90.5
267.984	99.5
268.216	84.5
268.448	97.5
268.681	96.5
268.913	93.5
269.145	92.5
269.377	95.5
269.609	79.5
269.841	94.5
270.073	97.5
270.306	94.5
270.538	85.5
270.77	81.5
271.002	83.5
271.234	90.5
271.466	104.5
271.698	82.5
271.93	87.5
272.162	92.5
272.394	77.5
272.626	78.5
272.858	84.5
273.09	95.5
273.322	113.5
273.553	87.5
273.785	102.5
274.017	91.5
274.249	92.5
274.481	87.5
274.713	96.5
274.945	103.5
275.176	97.5
275.408	91.5
275.64	102.5
275.872	93.5
276.104	93.5
276.335	83.5
276.567	93.5
276.799	105.5
277.031	97.5
277.262	102.5
277.494	84.5
277.726	96.5
277.957	92.5
278.189	83.5
278.421	94.5
278.652	105.5
278.884	95.5
279.115	85.5
279.347	103.5
279.579	95.5
279.81	86.5
280.042	99.5
280.273	103.5
280.505	80.5
280.736	105.5
280.968	101.5
281.199	98.5
281.431	102.5
281.662	96.5
281.894	93.5
282.125	101.5
282.356	81.5
282.588	101.5
282.819	94.5
283.051	85.5
283.282	74.5
283.513	90.5
283.745	91.5
283.976	93.5
284.207	96.5
284.439	98.5
284.67	94.5
284.901	97.5
285.132	102.5
285.364	99.5
285.595	93.5
285.826	94.5
286.057	108.5
286.288	91.5
286.52	104.5
286.751	95.5
286.982	91.5
287.213	90.5
287.444	112.5
287.675	77.5
287.906	86.5
288.138	104.5
288.369	91.5
288.6	102.5
288.831	100.5
289.062	103.5
289.293	112.5
289.524	89.5
289.755	116.5
289.986	96.5
290.217	108.5
290.448	97.5
290.679	104.5
290.91	93.5
291.141	89.5
291.371	100.5
291.602	97.5
291.833	93.5
292.064	107.5
292.295	102.5
292.526	104.5
292.757	97.5
292.987	96.5
293.218	91.5
293.449	98.5
293.68	102.5
293.91	100.5
294.141	95.5
294.372	90.5
294.603	108.5
294.833	106.5
295.064	91.5
295.295	92.5
295.525	90.5
295.756	101.5
295.987	111.5
296.217	116.5
296.448	96.5
296.679	81.5
296.909	99.5
297.14	110.5
297.37	111.5
297.601	106.5
297.831	123.5
298.062	110.5
298.292	104.5
298.523	108.5
298.753	83.5
298.984	95.5
299.214	108.5
299.445	103.5
299.675	103.5
299.905	107.5
300.136	91.5
300.366	102.5
300.597	91.5
300.827	98.5
301.057	109.5
301.288	108.5
301.518	114.5
301.748	91.5
301.979	136.5
302.209	110.5
302.439	99.5
302.669	104.5
302.9	95.5
303.13	120.5
303.36	105.5
303.59	98.5
303.82	95.5
304.051	114.5
304.281	110.5
304.511	115.5
304.741	108.5
304.971	100.5
305.201	111.5
305.431	118.5
305.661	93.5
305.891	107.5
306.121	114.5
306.352	113.5
306.582	112.5
306.812	104.5
307.042	110.5
307.272	99.5
307.502	95.5
307.731	102.5
307.961	107.5
308.191	97.5
308.421	99.5
308.651	102.5
308.881	105.5
309.111	106.5
309.341	101.5
309.571	109.5
309.8	101.5
310.03	91.5
310.26	100.5
310.49	96.5
310.72	89.5
310.949	93.5
311.179	108.5
311.409	104.5
311.639	110.5
311.868	98.5
312.098	109.5
312.328	110.5
312.557	114.5
312.787	97.5
313.017	102.5
313.246	95.5
313.476	99.5
313.706	103.5
313.935	92.5
314.165	97.5
314.394	108.5
314.624	106.5
314.853	104.5
315.083	94.5
315.312	104.5
315.542	99.5
315.771	109.5
316.001	111.5
316.23	111.5
316.46	93.5
316.689	99.5
316.919	94.5
317.148	95.5
317.377	108.5
317.607	107.5
317.836	98.5
318.065	100.5
318.295	91.5
318.524	97.5
318.753	99.5
318.983	105.5
319.212	105.5
319.441	101.5
319.67	109.5
319.9	102.5
320.129	129.5
320.358	98.5
320.587	107.5
320.816	107.5
321.046	95.5
321.275	109.5
321.504	103.5
321.733	118.5
321.962	118.5
322.191	115.5
322.42	89.5
322.649	105.5
322.878	118.5
323.108	103.5
323.337	118.5
323.566	103.5
323.795	117.5
324.024	106.5
324.253	95.5
324.482	97.5
324.71	114.5
324.939	116.5
325.168	106.5
325.397	102.5
325.626	116.5
325.855	105.5
326.084	105.5
326.313	113.5
326.542	121.5
326.77	109.5
326.999	118.5
327.228	100.5
327.457	120.5
327.686	118.5
327.914	118.5
328.143	115.5
328.372	95.5
328.6	114.5
328.829	117.5
329.058	123.5
329.287	102.5
329.515	104.5
329.744	123.5
329.972	103.5
330.201	107.5
330.43	107.5
330.658	115.5
330.887	118.5
331.115	102.5
331.344	114.5
331.572	118.5
331.801	110.5
332.03	130.5
332.258	120.5
332.486	121.5
332.715	109.5
332.943	134.5
333.172	107.5
333.4	129.5
333.629	127.5
333.857	134.5
334.085	129.5
334.314	124.5
334.542	120.5
334.771	121.5
334.999	113.5
335.227	115.5
335.455	113.5
335.684	117.5
335.912	117.5
336.14	111.5
336.369	116.5
336.597	107.5
336.825	123.5
337.053	101.5
337.281	118.5
337.51	115.5
337.738	117.5
337.966	100.5
338.194	120.5
338.422	103.5
338.65	99.5
338.878	114.5
339.106	112.5
339.334	109.5
339.562	115.5
339.79	111.5
340.018	110.5
340.246	109.5
340.474	109.5
340.702	116.5
340.93	118.5
341.158	113.5
341.386	113.5
341.614	105.5
341.842	96.5
342.07	108.5
342.298	104.5
342.526	111.5
342.754	93.5
342.981	105.5
343.209	112.5
343.437	142.5
343.665	118.5
343.893	123.5
344.12	124.5
344.348	109.5
344.576	102.5
344.804	93.5
345.031	110.5
345.259	107.5
345.487	123.5
345.714	100.5
345.942	110.5
346.17	108.5
346.397	101.5
346.625	100.5
346.853	101.5
347.08	94.5
347.308	110.5
347.535	103.5
347.763	107.5
347.99	126.5
348.218	116.5
348.445	102.5
348.673	107.5
348.9	104.5
349.128	111.5
349.355	93.5
349.583	114.5
349.81	106.5
350.037	124.5
350.265	112.5
350.492	107.5
350.72	105.5
350.947	97.5
351.174	115.5
351.402	115.5
351.629	107.5
351.856	104.5
352.083	127.5
352.311	127.5
352.538	95.5
352.765	90.5
352.992	121.5
353.22	103.5
353.447	101.5
353.674	115.5
353.901	126.5
354.128	107.5
354.355	110.5
354.583	113.5
354.81	99.5
355.037	112.5
355.264	109.5
355.491	117.5
355.718	101.5
355.945	113.5
356.172	130.5
356.399	106.5
356.626	114.5
356.853	113.5
357.08	95.5
357.307	105.5
357.534	127.5
357.761	115.5
357.988	111.5
358.215	110.5
358.441	112.5
358.668	86.5
358.895	105.5
359.122	108.5
359.349	109.5
359.576	109.5
359.802	99.5
360.029	101.5
360.256	96.5
360.483	94.5
360.709	109.5
360.936	111.5
361.163	102.5
361.39	98.5
361.616	104.5
361.843	102.5
362.07	116.5
362.296	115.5
362.523	81.5
362.749	95.5
362.976	107.5
363.203	101.5
363.429	88.5
363.656	107.5
363.882	105.5
364.109	114.5
364.335	114.5
364.562	100.5
364.788	106.5
365.015	113.5
365.241	117.5
365.468	115.5
365.694	103.5
365.92	110.5
366.147	109.5
366.373	105.5
366.599	94.5
366.826	95.5
367.052	123.5
367.278	99.5
367.505	113.5
367.731	123.5
367.957	99.5
368.184	85.5
368.41	98.5
368.636	108.5
368.862	116.5
369.089	116.5
369.315	101.5
369.541	109.5
369.767	122.5
369.993	119.5
370.219	122.5
370.445	106.5
370.672	115.5
370.898	112.5
371.124	112.5
371.35	105.5
371.576	117.5
371.802	117.5
372.028	108.5
372.254	107.5
372.48	105.5
372.706	118.5
372.932	113.5
373.158	118.5
373.384	113.5
373.61	117.5
373.835	111.5
374.061	110.5
374.287	121.5
374.513	115.5
374.739	121.5
374.965	120.5
375.191	133.5
375.416	127.5
375.642	119.5
375.868	123.5
376.094	126.5
376.319	105.5
376.545	99.5
376.771	116.5
376.997	123.5
377.222	108.5
377.448	116.5
377.674	110.5
377.899	116.5
378.125	101.5
378.35	105.5
378.576	116.5
378.802	114.5
379.027	109.5
379.253	101.5
379.478	96.5
379.704	111.5
379.929	112.5
380.155	116.5
380.38	109.5
380.606	111.5
380.831	126.5
381.057	105.5
381.282	114.5
381.507	133.5
381.733	119.5
381.958	110.5
382.184	109.5
382.409	114.5
382.634	129.5
382.86	104.5
383.085	116.5
383.31	111.5
383.535	132.5
383.761	109.5
383.986	129.5
384.211	114.5
384.436	113.5
384.662	139.5
384.887	111.5
385.112	112.5
385.337	115.5
385.562	139.5
385.787	140.5
386.013	118.5
386.238	118.5
386.463	119.5
386.688	149.5
386.913	127.5
387.138	124.5
387.363	127.5
387.588	120.5
387.813	111.5
388.038	131.5
388.263	139.5
388.488	122.5
388.713	116.5
388.938	109.5
389.163	123.5
389.387	124.5
389.612	129.5
389.837	120.5
390.062	129.5
390.287	126.5
390.512	137.5
390.736	111.5
390.961	129.5
391.186	115.5
391.411	118.5
391.636	129.5
391.86	136.5
392.085	131.5
392.31	117.5
392.534	129.5
392.759	131.5
392.984	138.5
393.208	127.5
393.433	124.5
393.658	131.5
393.882	140.5
394.107	123.5
394.331	126.5
394.556	131.5
394.78	137.5
395.005	129.5
395.229	124.5
395.454	160.5
395.678	132.5
395.903	131.5
396.127	142.5
396.352	136.5
396.576	138.5
396.801	136.5
397.025	137.5
397.249	153.5
397.474	152.5
397.698	148.5
397.922	156.5
398.147	146.5
398.371	145.5
398.595	134.5
398.82	152.5
399.044	160.5
399.268	175.5
399.492	186.5
399.717	190.5
399.941	184.5
400.165	195.5
400.389	162.5
400.613	178.5
400.837	158.5
401.062	156.5
401.286	154.5
401.51	162.5
401.734	154.5
401.958	166.5
402.182	154.5
402.406	173.5
402.63	161.5
402.854	157.5
403.078	169.5
403.302	163.5
403.526	170.5
403.75	182.5
403.974	157.5
404.198	184.5
404.422	165.5
404.645	194.5
404.869	175.5
405.093	171.5
405.317	162.5
405.541	165.5
405.765	181.5
405.988	174.5
406.212	179.5
406.436	174.5
406.66	183.5
406.883	202.5
407.107	185.5
407.331	183.5
407.555	188.5
407.778	189.5
408.002	199.5
408.226	188.5
408.449	169.5
408.673	193.5
408.896	190.5
409.12	179.5
409.344	189.5
409.567	180.5
409.791	176.5
410.014	180.5
410.238	183.5
410.461	181.5
410.685	178.5
410.908	167.5
411.132	177.5
411.355	186.5
411.578	179.5
411.802	174.5
412.025	170.5
412.249	170.5
412.472	168.5
412.695	180.5
412.919	178.5
413.142	170.5
413.365	173.5
413.589	182.5
413.812	182.5
414.035	170.5
414.258	172.5
414.482	183.5
414.705	177.5
414.928	183.5
415.151	199.5
415.374	174.5
415.597	195.5
415.821	176.5
416.044	166.5
416.267	178.5
416.49	180.5
416.713	195.5
416.936	182.5
417.159	195.5
417.382	164.5
417.605	168.5
417.828	186.5
418.051	181.5
418.274	182.5
418.497	191.5
418.72	178.5
418.943	196.5
419.166	189.5
419.389	186.5
419.611	193.5
419.834	196.5
420.057	202.5
420.28	197.5
420.503	191.5
420.726	171.5
420.948	178.5
421.171	172.5
421.394	186.5
421.617	174.5
421.839	203.5
422.062	189.5
422.285	188.5
422.507	177.5
422.73	179.5
422.953	176.5
423.175	186.5
423.398	206.5
423.621	182.5
423.843	194.5
424.066	192.5
424.288	197.5
424.511	190.5
424.733	190.5
424.956	182.5
425.178	206.5
425.401	183.5
425.623	201.5
425.846	183.5
426.068	184.5
426.291	188.5
426.513	187.5
426.735	197.5
426.958	181.5
427.18	176.5
427.402	186.5
427.625	174.5
427.847	173.5
428.069	181.5
428.292	177.5
428.514	181.5
428.736	167.5
428.958	169.5
429.181	188.5
429.403	189.5
429.625	173.5
429.847	180.5
430.069	169.5
430.292	186.5
430.514	176.5
430.736	179.5
430.958	171.5
431.18	153.5
431.402	160.5
431.624	149.5
431.846	158.5
432.068	163.5
432.29	158.5
432.512	177.5
432.734	159.5
432.956	175.5
433.178	187.5
433.4	181.5
433.622	203.5
433.844	185.5
434.066	177.5
434.287	175.5
434.509	149.5
434.731	165.5
434.953	195.5
435.175	173.5
435.397	182.5
435.618	177.5
435.84	172.5
436.062	165.5
436.284	171.5
436.505	175.5
436.727	173.5
436.949	193.5
437.17	180.5
437.392	169.5
437.614	163.5
437.835	153.5
438.057	154.5
438.278	169.5
438.5	150.5
438.721	172.5
438.943	169.5
439.165	144.5
439.386	162.5
439.608	189.5
439.829	187.5
440.05	192.5
440.272	191.5
440.493	174.5
440.715	181.5
440.936	191.5
441.158	193.5
441.379	182.5
441.6	202.5
441.822	215.5
442.043	195.5
442.264	202.5
442.486	186.5
442.707	199.5
442.928	183.5
443.149	181.5
443.371	190.5
443.592	191.5
443.813	198.5
444.034	191.5
444.255	203.5
444.476	191.5
444.698	222.5
444.919	217.5
445.14	402.5
445.361	291.5
445.582	202.5
445.803	183.5
446.024	197.5
446.245	196.5
446.466	190.5
446.687	180.5
446.908	183.5
447.129	203.5
447.35	177.5
447.571	191.5
447.792	166.5
448.013	177.5
448.234	169.5
448.455	171.5
448.675	158.5
448.896	171.5
449.117	169.5
449.338	158.5
449.559	157.5
449.779	159.5
450	166.5
450.221	169.5
450.442	180.5
450.662	171.5
450.883	175.5
451.104	173.5
451.324	167.5
451.545	174.5
451.766	177.5
451.986	168.5
452.207	173.5
452.428	166.5
452.648	179.5
452.869	153.5
453.089	148.5
453.31	149.5
453.53	158.5
453.751	148.5
453.971	143.5
454.192	149.5
454.412	151.5
454.633	167.5
454.853	163.5
455.073	156.5
455.294	153.5
455.514	168.5
455.734	174.5
455.955	161.5
456.175	147.5
456.395	155.5
456.616	134.5
456.836	150.5
457.056	144.5
457.276	150.5
457.497	144.5
457.717	153.5
457.937	139.5
458.157	133.5
458.377	157.5
458.598	123.5
458.818	147.5
459.038	129.5
459.258	157.5
459.478	150.5
459.698	148.5
459.918	166.5
460.138	170.5
460.358	176.5
460.578	169.5
460.798	183.5
461.018	186.5
461.238	182.5
461.458	171.5
461.678	181.5
461.898	172.5
462.118	177.5
462.338	175.5
462.558	186.5
462.777	200.5
462.997	203.5
463.217	205.5
463.437	202.5
463.657	183.5
463.876	193.5
464.096	181.5
464.316	179.5
464.536	180.5
464.755	180.5
464.975	178.5
465.195	178.5
465.414	173.5
465.634	167.5
465.854	161.5
466.073	169.5
466.293	170.5
466.512	163.5
466.732	158.5
466.951	166.5
467.171	170.5
467.391	188.5
467.61	175.5
467.829	173.5
468.049	169.5
468.268	167.5
468.488	175.5
468.707	159.5
468.927	174.5
469.146	182.5
469.365	167.5
469.585	159.5
469.804	185.5
470.023	185.5
470.243	163.5
470.462	184.5
470.681	174.5
470.901	180.5
471.12	175.5
471.339	187.5
471.558	185.5
471.777	160.5
471.997	177.5
472.216	172.5
472.435	163.5
472.654	151.5
472.873	153.5
473.092	172.5
473.311	148.5
473.53	166.5
473.749	158.5
473.968	166.5
474.187	168.5
474.406	155.5
474.625	168.5
474.844	159.5
475.063	164.5
475.282	170.5
475.501	158.5
475.72	178.5
475.939	158.5
476.158	157.5
476.377	177.5
476.596	162.5
476.814	137.5
477.033	159.5
477.252	178.5
477.471	172.5
477.69	195.5
477.908	186.5
478.127	191.5
478.346	174.5
478.564	180.5
478.783	178.5
479.002	178.5
479.22	187.5
479.439	198.5
479.658	173.5
479.876	167.5
480.095	172.5
480.313	186.5
480.532	175.5
480.751	175.5
480.969	162.5
481.188	158.5
481.406	170.5
481.624	136.5
481.843	142.5
482.061	167.5
482.28	161.5
482.498	150.5
482.717	172.5
482.935	159.5
483.153	175.5
483.372	189.5
483.59	195.5
483.808	182.5
484.027	182.5
484.245	184.5
484.463	179.5
484.681	200.5
484.9	195.5
485.118	182.5
485.336	167.5
485.554	148.5
485.772	173.5
485.99	169.5
486.209	167.5
486.427	179.5
486.645	190.5
486.863	177.5
487.081	178.5
487.299	175.5
487.517	189.5
487.735	187.5
487.953	212.5
488.171	214.5
488.389	180.5
488.607	190.5
488.825	182.5
489.043	171.5
489.261	183.5
489.479	180.5
489.696	178.5
489.914	176.5
490.132	194.5
490.35	208.5
490.568	193.5
490.786	201.5
491.003	209.5
491.221	217.5
491.439	194.5
491.657	217.5
491.874	235.5
492.092	233.5
492.31	257.5
492.527	226.5
492.745	221.5
492.963	230.5
493.18	229.5
493.398	230.5
493.615	233.5
493.833	200.5
494.05	229.5
494.268	209.5
494.485	206.5
494.703	216.5
494.92	215.5
495.138	210.5
495.355	208.5
495.573	215.5
495.79	214.5
496.008	203.5
496.225	212.5
496.442	224.5
496.66	212.5
496.877	212.5
497.094	209.5
497.312	214.5
497.529	212.5
497.746	211.5
497.963	193.5
498.181	216.5
498.398	206.5
498.615	225.5
498.832	211.5
499.049	213.5
499.267	229.5
499.484	266.5
499.701	293.5
499.918	310.5
500.135	337.5
500.352	370.5
500.569	358.5
500.786	370.5
501.003	355.5
501.22	326.5
501.437	299.5
501.654	251.5
501.871	257.5
502.088	228.5
502.305	230.5
502.522	226.5
502.739	231.5
502.956	217.5
503.172	227.5
503.389	185.5
503.606	196.5
503.823	208.5
504.04	195.5
504.256	218.5
504.473	197.5
504.69	185.5
504.907	205.5
505.123	197.5
505.34	181.5
505.557	174.5
505.773	170.5
505.99	170.5
506.207	169.5
506.423	169.5
506.64	174.5
506.856	169.5
507.073	153.5
507.289	167.5
507.506	168.5
507.722	161.5
507.939	158.5
508.155	171.5
508.372	158.5
508.588	154.5
508.805	138.5
509.021	148.5
509.238	155.5
509.454	165.5
509.67	141.5
509.887	149.5
510.103	149.5
510.319	150.5
510.536	143.5
510.752	149.5
510.968	141.5
511.184	141.5
511.401	147.5
511.617	149.5
511.833	157.5
512.049	157.5
512.265	154.5
512.481	146.5
512.698	132.5
512.914	143.5
513.13	156.5
513.346	151.5
513.562	154.5
513.778	162.5
513.994	148.5
514.21	149.5
514.426	161.5
514.642	153.5
514.858	156.5
515.074	157.5
515.29	159.5
515.506	131.5
515.721	155.5
515.937	179.5
516.153	138.5
516.369	149.5
516.585	154.5
516.801	157.5
517.016	173.5
517.232	178.5
517.448	183.5
517.664	178.5
517.879	177.5
518.095	180.5
518.311	180.5
518.527	163.5
518.742	161.5
518.958	178.5
519.173	172.5
519.389	164.5
519.605	169.5
519.82	160.5
520.036	175.5
520.251	158.5
520.467	150.5
520.682	162.5
520.898	151.5
521.113	136.5
521.329	147.5
521.544	128.5
521.76	144.5
521.975	152.5
522.19	135.5
522.406	122.5
522.621	138.5
522.836	150.5
523.052	164.5
523.267	153.5
523.482	147.5
523.698	164.5
523.913	158.5
524.128	146.5
524.343	172.5
524.559	182.5
524.774	152.5
524.989	163.5
525.204	165.5
