Data from SampA_HRD10591_00060.txt Node
Date: Mon Jan 19 11:27:07 EST 2026
User: Yrep
Spectrometer: HR+D1059
Trigger mode: 0
Integration Time (sec): 3.443000E-1
Scans to average: 1
Electric dark correction enabled: true
Nonlinearity correction enabled: false
Boxcar width: 0
XAxis mode: Wavelengths
Number of Pixels in Spectrum: 2048
>>>>>Begin Spectral Data<<<<<
223.165	-24.56
223.4	-24.56
223.635	-24.56
223.869	-17.56
224.104	-34.56
224.338	1.44
224.573	-14.56
224.808	-5.56
225.042	11.44
225.277	-11.56
225.511	9.44
225.746	5.44
225.98	12.44
226.215	-3.56
226.449	11.44
226.683	17.44
226.918	21.44
227.152	21.44
227.387	30.44
227.621	31.44
227.856	44.44
228.09	52.44
228.324	47.44
228.559	69.44
228.793	66.44
229.027	57.44
229.262	69.44
229.496	57.44
229.73	72.44
229.964	77.44
230.199	88.44
230.433	70.44
230.667	91.44
230.901	79.44
231.136	77.44
231.37	93.44
231.604	81.44
231.838	79.44
232.072	68.44
232.306	73.44
232.541	86.44
232.775	94.44
233.009	77.44
233.243	95.44
233.477	77.44
233.711	74.44
233.945	80.44
234.179	82.44
234.413	79.44
234.647	96.44
234.881	76.44
235.115	106.44
235.349	77.44
235.583	69.44
235.817	79.44
236.051	54.44
236.285	85.44
236.519	77.44
236.753	83.44
236.987	93.44
237.221	70.44
237.455	86.44
237.689	86.44
237.922	90.44
238.156	76.44
238.39	89.44
238.624	71.44
238.858	68.44
239.091	82.44
239.325	89.44
239.559	78.44
239.793	89.44
240.027	88.44
240.26	92.44
240.494	91.44
240.728	92.44
240.961	90.44
241.195	90.44
241.429	77.44
241.662	84.44
241.896	77.44
242.13	81.44
242.363	75.44
242.597	87.44
242.83	65.44
243.064	91.44
243.298	66.44
243.531	77.44
243.765	82.44
243.998	86.44
244.232	98.44
244.465	91.44
244.699	77.44
244.932	93.44
245.166	79.44
245.399	92.44
245.633	93.44
245.866	87.44
246.099	87.44
246.333	87.44
246.566	89.44
246.8	95.44
247.033	98.44
247.266	73.44
247.5	73.44
247.733	79.44
247.966	83.44
248.2	81.44
248.433	87.44
248.666	79.44
248.899	88.44
249.133	99.44
249.366	90.44
249.599	81.44
249.832	90.44
250.066	94.44
250.299	71.44
250.532	82.44
250.765	83.44
250.998	84.44
251.231	85.44
251.465	87.44
251.698	78.44
251.931	98.44
252.164	86.44
252.397	102.44
252.63	101.44
252.863	90.44
253.096	77.44
253.329	91.44
253.562	101.44
253.795	91.44
254.028	92.44
254.261	94.44
254.494	82.44
254.727	95.44
254.96	100.44
255.193	90.44
255.426	90.44
255.659	91.44
255.892	94.44
256.124	80.44
256.357	90.44
256.59	98.44
256.823	74.44
257.056	94.44
257.289	95.44
257.521	94.44
257.754	102.44
257.987	87.44
258.22	101.44
258.452	98.44
258.685	81.44
258.918	98.44
259.151	97.44
259.383	99.44
259.616	87.44
259.849	100.44
260.081	97.44
260.314	95.44
260.547	101.44
260.779	99.44
261.012	97.44
261.244	96.44
261.477	97.44
261.71	92.44
261.942	92.44
262.175	114.44
262.407	84.44
262.64	92.44
262.872	107.44
263.105	97.44
263.337	83.44
263.57	110.44
263.802	93.44
264.035	109.44
264.267	92.44
264.499	106.44
264.732	93.44
264.964	99.44
265.197	79.44
265.429	93.44
265.661	89.44
265.894	109.44
266.126	107.44
266.358	91.44
266.591	89.44
266.823	95.44
267.055	90.44
267.287	98.44
267.52	104.44
267.752	104.44
267.984	106.44
268.216	101.44
268.448	108.44
268.681	96.44
268.913	114.44
269.145	110.44
269.377	120.44
269.609	100.44
269.841	91.44
270.073	85.44
270.306	108.44
270.538	99.44
270.77	103.44
271.002	100.44
271.234	107.44
271.466	100.44
271.698	87.44
271.93	98.44
272.162	110.44
272.394	127.44
272.626	108.44
272.858	101.44
273.09	115.44
273.322	109.44
273.553	106.44
273.785	125.44
274.017	107.44
274.249	114.44
274.481	108.44
274.713	113.44
274.945	116.44
275.176	110.44
275.408	99.44
275.64	104.44
275.872	106.44
276.104	117.44
276.335	107.44
276.567	104.44
276.799	113.44
277.031	95.44
277.262	114.44
277.494	120.44
277.726	105.44
277.957	96.44
278.189	114.44
278.421	103.44
278.652	108.44
278.884	119.44
279.115	107.44
279.347	120.44
279.579	124.44
279.81	116.44
280.042	122.44
280.273	114.44
280.505	111.44
280.736	116.44
280.968	115.44
281.199	115.44
281.431	100.44
281.662	109.44
281.894	103.44
282.125	117.44
282.356	101.44
282.588	129.44
282.819	117.44
283.051	114.44
283.282	117.44
283.513	115.44
283.745	119.44
283.976	112.44
284.207	114.44
284.439	110.44
284.67	123.44
284.901	124.44
285.132	115.44
285.364	115.44
285.595	121.44
285.826	116.44
286.057	112.44
286.288	123.44
286.52	124.44
286.751	109.44
286.982	110.44
287.213	118.44
287.444	133.44
287.675	114.44
287.906	116.44
288.138	111.44
288.369	104.44
288.6	115.44
288.831	110.44
289.062	115.44
289.293	105.44
289.524	118.44
289.755	112.44
289.986	110.44
290.217	132.44
290.448	114.44
290.679	109.44
290.91	113.44
291.141	105.44
291.371	123.44
291.602	123.44
291.833	134.44
292.064	109.44
292.295	118.44
292.526	115.44
292.757	114.44
292.987	121.44
293.218	124.44
293.449	137.44
293.68	121.44
293.91	113.44
294.141	134.44
294.372	132.44
294.603	121.44
294.833	101.44
295.064	123.44
295.295	101.44
295.525	115.44
295.756	124.44
295.987	123.44
296.217	114.44
296.448	138.44
296.679	114.44
296.909	123.44
297.14	137.44
297.37	112.44
297.601	118.44
297.831	130.44
298.062	125.44
298.292	102.44
298.523	119.44
298.753	120.44
298.984	108.44
299.214	122.44
299.445	125.44
299.675	127.44
299.905	126.44
300.136	129.44
300.366	133.44
300.597	121.44
300.827	126.44
301.057	115.44
301.288	131.44
301.518	114.44
301.748	132.44
301.979	167.44
302.209	133.44
302.439	121.44
302.669	129.44
302.9	117.44
303.13	128.44
303.36	110.44
303.59	120.44
303.82	130.44
304.051	131.44
304.281	145.44
304.511	148.44
304.741	129.44
304.971	134.44
305.201	103.44
305.431	131.44
305.661	119.44
305.891	125.44
306.121	120.44
306.352	135.44
306.582	138.44
306.812	126.44
307.042	123.44
307.272	117.44
307.502	127.44
307.731	118.44
307.961	130.44
308.191	126.44
308.421	129.44
308.651	124.44
308.881	137.44
309.111	118.44
309.341	119.44
309.571	131.44
309.8	123.44
310.03	117.44
310.26	130.44
310.49	145.44
310.72	119.44
310.949	114.44
311.179	131.44
311.409	130.44
311.639	133.44
311.868	130.44
312.098	137.44
312.328	118.44
312.557	123.44
312.787	122.44
313.017	130.44
313.246	130.44
313.476	118.44
313.706	121.44
313.935	117.44
314.165	116.44
314.394	137.44
314.624	133.44
314.853	121.44
315.083	124.44
315.312	126.44
315.542	119.44
315.771	146.44
316.001	109.44
316.23	126.44
316.46	131.44
316.689	122.44
316.919	139.44
317.148	131.44
317.377	126.44
317.607	124.44
317.836	128.44
318.065	139.44
318.295	134.44
318.524	131.44
318.753	119.44
318.983	102.44
319.212	117.44
319.441	122.44
319.67	134.44
319.9	122.44
320.129	129.44
320.358	143.44
320.587	128.44
320.816	124.44
321.046	122.44
321.275	131.44
321.504	124.44
321.733	121.44
321.962	136.44
322.191	126.44
322.42	126.44
322.649	123.44
322.878	130.44
323.108	138.44
323.337	124.44
323.566	133.44
323.795	145.44
324.024	131.44
324.253	146.44
324.482	147.44
324.71	117.44
324.939	131.44
325.168	122.44
325.397	138.44
325.626	154.44
325.855	132.44
326.084	143.44
326.313	134.44
326.542	115.44
326.77	154.44
326.999	141.44
327.228	142.44
327.457	136.44
327.686	138.44
327.914	129.44
328.143	146.44
328.372	131.44
328.6	126.44
328.829	116.44
329.058	152.44
329.287	126.44
329.515	141.44
329.744	131.44
329.972	122.44
330.201	160.44
330.43	125.44
330.658	129.44
330.887	135.44
331.115	120.44
331.344	142.44
331.572	131.44
331.801	146.44
332.03	132.44
332.258	135.44
332.486	157.44
332.715	147.44
332.943	153.44
333.172	163.44
333.4	155.44
333.629	158.44
333.857	161.44
334.085	163.44
334.314	166.44
334.542	160.44
334.771	154.44
334.999	158.44
335.227	159.44
335.455	148.44
335.684	153.44
335.912	149.44
336.14	162.44
336.369	148.44
336.597	150.44
336.825	155.44
337.053	159.44
337.281	144.44
337.51	152.44
337.738	155.44
337.966	146.44
338.194	129.44
338.422	136.44
338.65	137.44
338.878	140.44
339.106	133.44
339.334	145.44
339.562	121.44
339.79	139.44
340.018	138.44
340.246	122.44
340.474	151.44
340.702	146.44
340.93	126.44
341.158	114.44
341.386	144.44
341.614	129.44
341.842	118.44
342.07	119.44
342.298	126.44
342.526	133.44
342.754	131.44
342.981	136.44
343.209	139.44
343.437	157.44
343.665	151.44
343.893	166.44
344.12	162.44
344.348	126.44
344.576	143.44
344.804	132.44
345.031	135.44
345.259	133.44
345.487	129.44
345.714	136.44
345.942	139.44
346.17	130.44
346.397	139.44
346.625	137.44
346.853	136.44
347.08	142.44
347.308	137.44
347.535	141.44
347.763	146.44
347.99	138.44
348.218	145.44
348.445	125.44
348.673	137.44
348.9	135.44
349.128	131.44
349.355	122.44
349.583	143.44
349.81	138.44
350.037	123.44
350.265	129.44
350.492	130.44
350.72	121.44
350.947	143.44
351.174	140.44
351.402	134.44
351.629	130.44
351.856	134.44
352.083	133.44
352.311	126.44
352.538	130.44
352.765	147.44
352.992	141.44
353.22	144.44
353.447	124.44
353.674	135.44
353.901	125.44
354.128	133.44
354.355	149.44
354.583	123.44
354.81	135.44
355.037	124.44
355.264	136.44
355.491	126.44
355.718	137.44
355.945	136.44
356.172	132.44
356.399	123.44
356.626	115.44
356.853	132.44
357.08	124.44
357.307	138.44
357.534	125.44
357.761	140.44
357.988	137.44
358.215	128.44
358.441	148.44
358.668	143.44
358.895	133.44
359.122	121.44
359.349	119.44
359.576	115.44
359.802	128.44
360.029	121.44
360.256	135.44
360.483	149.44
360.709	134.44
360.936	150.44
361.163	141.44
361.39	123.44
361.616	131.44
361.843	142.44
362.07	149.44
362.296	129.44
362.523	135.44
362.749	142.44
362.976	126.44
363.203	155.44
363.429	141.44
363.656	126.44
363.882	124.44
364.109	134.44
364.335	149.44
364.562	136.44
364.788	149.44
365.015	118.44
365.241	135.44
365.468	133.44
365.694	124.44
365.92	161.44
366.147	135.44
366.373	118.44
366.599	129.44
366.826	145.44
367.052	146.44
367.278	147.44
367.505	142.44
367.731	141.44
367.957	132.44
368.184	131.44
368.41	116.44
368.636	144.44
368.862	140.44
369.089	122.44
369.315	138.44
369.541	127.44
369.767	124.44
369.993	137.44
370.219	145.44
370.445	141.44
370.672	153.44
370.898	146.44
371.124	133.44
371.35	141.44
371.576	133.44
371.802	150.44
372.028	131.44
372.254	150.44
372.48	138.44
372.706	147.44
372.932	147.44
373.158	127.44
373.384	152.44
373.61	161.44
373.835	143.44
374.061	139.44
374.287	148.44
374.513	153.44
374.739	134.44
374.965	138.44
375.191	151.44
375.416	156.44
375.642	156.44
375.868	151.44
376.094	143.44
376.319	135.44
376.545	155.44
376.771	149.44
376.997	145.44
377.222	140.44
377.448	159.44
377.674	150.44
377.899	144.44
378.125	146.44
378.35	155.44
378.576	155.44
378.802	131.44
379.027	151.44
379.253	152.44
379.478	143.44
379.704	137.44
379.929	143.44
380.155	134.44
380.38	150.44
380.606	148.44
380.831	150.44
381.057	162.44
381.282	152.44
381.507	142.44
381.733	155.44
381.958	139.44
382.184	130.44
382.409	165.44
382.634	148.44
382.86	163.44
383.085	163.44
383.31	152.44
383.535	158.44
383.761	134.44
383.986	145.44
384.211	156.44
384.436	162.44
384.662	166.44
384.887	159.44
385.112	163.44
385.337	171.44
385.562	166.44
385.787	178.44
386.013	174.44
386.238	166.44
386.463	165.44
386.688	204.44
386.913	153.44
387.138	159.44
387.363	157.44
387.588	171.44
387.813	168.44
388.038	173.44
388.263	166.44
388.488	177.44
388.713	158.44
388.938	158.44
389.163	158.44
389.387	183.44
389.612	162.44
389.837	163.44
390.062	171.44
390.287	184.44
390.512	159.44
390.736	174.44
390.961	153.44
391.186	167.44
391.411	167.44
391.636	183.44
391.86	176.44
392.085	190.44
392.31	173.44
392.534	182.44
392.759	187.44
392.984	169.44
393.208	186.44
393.433	184.44
393.658	176.44
393.882	185.44
394.107	179.44
394.331	182.44
394.556	182.44
394.78	202.44
395.005	191.44
395.229	178.44
395.454	184.44
395.678	204.44
395.903	199.44
396.127	215.44
396.352	195.44
396.576	189.44
396.801	184.44
397.025	196.44
397.249	199.44
397.474	198.44
397.698	195.44
397.922	213.44
398.147	189.44
398.371	197.44
398.595	199.44
398.82	207.44
399.044	222.44
399.268	254.44
399.492	281.44
399.717	297.44
399.941	299.44
400.165	265.44
400.389	249.44
400.613	234.44
400.837	236.44
401.062	227.44
401.286	221.44
401.51	221.44
401.734	214.44
401.958	219.44
402.182	238.44
402.406	224.44
402.63	241.44
402.854	237.44
403.078	249.44
403.302	252.44
403.526	250.44
403.75	254.44
403.974	257.44
404.198	261.44
404.422	263.44
404.645	228.44
404.869	261.44
405.093	252.44
405.317	251.44
405.541	242.44
405.765	250.44
405.988	243.44
406.212	265.44
406.436	259.44
406.66	266.44
406.883	262.44
407.107	280.44
407.331	274.44
407.555	286.44
407.778	285.44
408.002	273.44
408.226	277.44
408.449	281.44
408.673	273.44
408.896	267.44
409.12	266.44
409.344	271.44
409.567	255.44
409.791	273.44
410.014	267.44
410.238	255.44
410.461	273.44
410.685	247.44
410.908	273.44
411.132	273.44
411.355	266.44
411.578	265.44
411.802	253.44
412.025	252.44
412.249	271.44
412.472	243.44
412.695	262.44
412.919	266.44
413.142	255.44
413.365	260.44
413.589	277.44
413.812	254.44
414.035	254.44
414.258	251.44
414.482	251.44
414.705	250.44
414.928	250.44
415.151	241.44
415.374	269.44
415.597	261.44
415.821	254.44
416.044	254.44
416.267	248.44
416.49	265.44
416.713	252.44
416.936	261.44
417.159	251.44
417.382	269.44
417.605	245.44
417.828	263.44
418.051	250.44
418.274	261.44
418.497	253.44
418.72	275.44
418.943	273.44
419.166	290.44
419.389	298.44
419.611	284.44
419.834	293.44
420.057	277.44
420.28	264.44
420.503	262.44
420.726	244.44
420.948	262.44
421.171	271.44
421.394	286.44
421.617	280.44
421.839	275.44
422.062	264.44
422.285	247.44
422.507	275.44
422.73	269.44
422.953	268.44
423.175	281.44
423.398	267.44
423.621	296.44
423.843	273.44
424.066	282.44
424.288	278.44
424.511	282.44
424.733	288.44
424.956	293.44
425.178	265.44
425.401	288.44
425.623	272.44
425.846	262.44
426.068	268.44
426.291	248.44
426.513	241.44
426.735	239.44
426.958	255.44
427.18	251.44
427.402	245.44
427.625	252.44
427.847	236.44
428.069	246.44
428.292	245.44
428.514	250.44
428.736	243.44
428.958	229.44
429.181	263.44
429.403	247.44
429.625	244.44
429.847	242.44
430.069	245.44
430.292	254.44
430.514	244.44
430.736	244.44
430.958	272.44
431.18	263.44
431.402	246.44
431.624	223.44
431.846	229.44
432.068	218.44
432.29	225.44
432.512	229.44
432.734	254.44
432.956	263.44
433.178	253.44
433.4	258.44
433.622	255.44
433.844	258.44
434.066	246.44
434.287	229.44
434.509	229.44
434.731	267.44
434.953	247.44
435.175	274.44
435.397	264.44
435.618	226.44
435.84	236.44
436.062	230.44
436.284	230.44
436.505	237.44
436.727	240.44
436.949	255.44
437.17	246.44
437.392	247.44
437.614	243.44
437.835	226.44
438.057	220.44
438.278	238.44
438.5	229.44
438.721	221.44
438.943	241.44
439.165	247.44
439.386	248.44
439.608	259.44
439.829	267.44
440.05	266.44
440.272	234.44
440.493	281.44
440.715	279.44
440.936	273.44
441.158	291.44
441.379	271.44
441.6	269.44
441.822	269.44
442.043	269.44
442.264	278.44
442.486	265.44
442.707	289.44
442.928	282.44
443.149	262.44
443.371	263.44
443.592	284.44
443.813	280.44
444.034	279.44
444.255	302.44
444.476	300.44
444.698	309.44
444.919	319.44
445.14	475.44
445.361	362.44
445.582	283.44
445.803	293.44
446.024	267.44
446.245	290.44
446.466	280.44
446.687	270.44
446.908	293.44
447.129	267.44
447.35	258.44
447.571	240.44
447.792	246.44
448.013	262.44
448.234	251.44
448.455	253.44
448.675	257.44
448.896	260.44
449.117	255.44
449.338	232.44
449.559	242.44
449.779	244.44
450	235.44
450.221	229.44
450.442	260.44
450.662	244.44
450.883	267.44
451.104	251.44
451.324	225.44
451.545	259.44
451.766	244.44
451.986	232.44
452.207	246.44
452.428	223.44
452.648	239.44
452.869	223.44
453.089	211.44
453.31	212.44
453.53	219.44
453.751	218.44
453.971	209.44
454.192	213.44
454.412	210.44
454.633	223.44
454.853	227.44
455.073	238.44
455.294	225.44
455.514	254.44
455.734	220.44
455.955	210.44
456.175	209.44
456.395	201.44
456.616	222.44
456.836	201.44
457.056	215.44
457.276	203.44
457.497	203.44
457.717	199.44
457.937	204.44
458.157	217.44
458.377	181.44
458.598	191.44
458.818	203.44
459.038	209.44
459.258	211.44
459.478	209.44
459.698	224.44
459.918	221.44
460.138	242.44
460.358	255.44
460.578	265.44
460.798	264.44
461.018	265.44
461.238	242.44
461.458	249.44
461.678	230.44
461.898	253.44
462.118	271.44
462.338	263.44
462.558	281.44
462.777	297.44
462.997	302.44
463.217	304.44
463.437	307.44
463.657	278.44
463.876	293.44
464.096	276.44
464.316	263.44
464.536	279.44
464.755	270.44
464.975	260.44
465.195	269.44
465.414	232.44
465.634	243.44
465.854	246.44
466.073	237.44
466.293	233.44
466.512	225.44
466.732	241.44
466.951	244.44
467.171	247.44
467.391	249.44
467.61	238.44
467.829	229.44
468.049	245.44
468.268	237.44
468.488	227.44
468.707	242.44
468.927	233.44
469.146	265.44
469.365	248.44
469.585	253.44
469.804	258.44
470.023	280.44
470.243	265.44
470.462	263.44
470.681	240.44
470.901	260.44
471.12	254.44
471.339	245.44
471.558	252.44
471.777	236.44
471.997	241.44
472.216	234.44
472.435	226.44
472.654	203.44
472.873	221.44
473.092	228.44
473.311	216.44
473.53	215.44
473.749	234.44
473.968	232.44
474.187	221.44
474.406	225.44
474.625	222.44
474.844	227.44
475.063	215.44
475.282	223.44
475.501	214.44
475.72	246.44
475.939	245.44
476.158	246.44
476.377	246.44
476.596	237.44
476.814	222.44
477.033	214.44
477.252	228.44
477.471	242.44
477.69	251.44
477.908	244.44
478.127	260.44
478.346	253.44
478.564	268.44
478.783	264.44
479.002	300.44
479.22	257.44
479.439	267.44
479.658	260.44
479.876	250.44
480.095	249.44
480.313	261.44
480.532	276.44
480.751	266.44
480.969	228.44
481.188	208.44
481.406	218.44
481.624	232.44
481.843	213.44
482.061	213.44
482.28	234.44
482.498	230.44
482.717	223.44
482.935	244.44
483.153	275.44
483.372	283.44
483.59	260.44
483.808	267.44
484.027	257.44
484.245	254.44
484.463	259.44
484.681	288.44
484.9	263.44
485.118	246.44
485.336	245.44
485.554	239.44
485.772	233.44
485.99	224.44
486.209	243.44
486.427	249.44
486.645	267.44
486.863	253.44
487.081	257.44
487.299	257.44
487.517	280.44
487.735	286.44
487.953	317.44
488.171	290.44
488.389	289.44
488.607	277.44
488.825	251.44
489.043	252.44
489.261	270.44
489.479	251.44
489.696	265.44
489.914	258.44
490.132	273.44
490.35	285.44
490.568	287.44
490.786	302.44
491.003	293.44
491.221	317.44
491.439	314.44
491.657	313.44
491.874	344.44
492.092	350.44
492.31	365.44
492.527	344.44
492.745	330.44
492.963	333.44
493.18	338.44
493.398	315.44
493.615	339.44
493.833	307.44
494.05	310.44
494.268	305.44
494.485	315.44
494.703	301.44
494.92	307.44
495.138	300.44
495.355	302.44
495.573	308.44
495.79	295.44
496.008	300.44
496.225	302.44
496.442	297.44
496.66	311.44
496.877	298.44
497.094	316.44
497.312	310.44
497.529	310.44
497.746	303.44
497.963	305.44
498.181	316.44
498.398	314.44
498.615	317.44
498.832	350.44
499.049	340.44
499.267	393.44
499.484	419.44
499.701	441.44
499.918	504.44
500.135	549.44
500.352	593.44
500.569	611.44
500.786	602.44
501.003	587.44
501.22	502.44
501.437	471.44
501.654	419.44
501.871	397.44
502.088	356.44
502.305	373.44
502.522	347.44
502.739	311.44
502.956	323.44
503.172	310.44
503.389	292.44
503.606	291.44
503.823	295.44
504.04	292.44
504.256	295.44
504.473	296.44
504.69	305.44
504.907	310.44
