Data from SampA_HRD10591_00067.txt Node
Date: Mon Jan 19 11:27:09 EST 2026
User: Yrep
Spectrometer: HR+D1059
Trigger mode: 0
Integration Time (sec): 3.443000E-1
Scans to average: 1
Electric dark correction enabled: true
Nonlinearity correction enabled: false
Boxcar width: 0
XAxis mode: Wavelengths
Number of Pixels in Spectrum: 2048
>>>>>Begin Spectral Data<<<<<
223.165	-15.69
223.4	-15.69
223.635	-15.69
223.869	-22.69
224.104	-28.69
224.338	-17.69
224.573	-6.69
224.808	-9.69
225.042	-5.69
225.277	-2.69
225.511	-3.69
225.746	10.31
225.98	11.31
226.215	0.31
226.449	9.31
226.683	19.31
226.918	27.31
227.152	35.31
227.387	35.31
227.621	51.31
227.856	40.31
228.09	42.31
228.324	49.31
228.559	55.31
228.793	50.31
229.027	80.31
229.262	68.31
229.496	76.31
229.73	75.31
229.964	78.31
230.199	68.31
230.433	75.31
230.667	73.31
230.901	72.31
231.136	72.31
231.37	87.31
231.604	84.31
231.838	94.31
232.072	74.31
232.306	78.31
232.541	89.31
232.775	92.31
233.009	86.31
233.243	97.31
233.477	88.31
233.711	92.31
233.945	85.31
234.179	90.31
234.413	106.31
234.647	84.31
234.881	98.31
235.115	83.31
235.349	76.31
235.583	79.31
235.817	71.31
236.051	87.31
236.285	81.31
236.519	86.31
236.753	89.31
236.987	82.31
237.221	78.31
237.455	97.31
237.689	95.31
237.922	80.31
238.156	94.31
238.39	76.31
238.624	84.31
238.858	97.31
239.091	99.31
239.325	79.31
239.559	81.31
239.793	77.31
240.027	107.31
240.26	81.31
240.494	89.31
240.728	80.31
240.961	78.31
241.195	88.31
241.429	93.31
241.662	71.31
241.896	82.31
242.13	77.31
242.363	81.31
242.597	88.31
242.83	78.31
243.064	88.31
243.298	94.31
243.531	79.31
243.765	93.31
243.998	85.31
244.232	97.31
244.465	83.31
244.699	90.31
244.932	81.31
245.166	81.31
245.399	91.31
245.633	86.31
245.866	92.31
246.099	93.31
246.333	90.31
246.566	85.31
246.8	82.31
247.033	96.31
247.266	91.31
247.5	82.31
247.733	94.31
247.966	83.31
248.2	95.31
248.433	78.31
248.666	83.31
248.899	89.31
249.133	92.31
249.366	99.31
249.599	96.31
249.832	87.31
250.066	96.31
250.299	95.31
250.532	89.31
250.765	105.31
250.998	100.31
251.231	90.31
251.465	92.31
251.698	84.31
251.931	86.31
252.164	91.31
252.397	97.31
252.63	95.31
252.863	89.31
253.096	105.31
253.329	98.31
253.562	105.31
253.795	94.31
254.028	83.31
254.261	101.31
254.494	89.31
254.727	97.31
254.96	74.31
255.193	107.31
255.426	98.31
255.659	92.31
255.892	123.31
256.124	88.31
256.357	82.31
256.59	88.31
256.823	96.31
257.056	94.31
257.289	91.31
257.521	93.31
257.754	108.31
257.987	95.31
258.22	103.31
258.452	105.31
258.685	97.31
258.918	99.31
259.151	101.31
259.383	98.31
259.616	93.31
259.849	100.31
260.081	94.31
260.314	102.31
260.547	98.31
260.779	93.31
261.012	92.31
261.244	96.31
261.477	93.31
261.71	115.31
261.942	110.31
262.175	104.31
262.407	106.31
262.64	99.31
262.872	103.31
263.105	100.31
263.337	102.31
263.57	97.31
263.802	99.31
264.035	111.31
264.267	111.31
264.499	95.31
264.732	112.31
264.964	90.31
265.197	109.31
265.429	104.31
265.661	116.31
265.894	96.31
266.126	113.31
266.358	102.31
266.591	103.31
266.823	94.31
267.055	87.31
267.287	110.31
267.52	114.31
267.752	106.31
267.984	114.31
268.216	104.31
268.448	125.31
268.681	98.31
268.913	103.31
269.145	107.31
269.377	106.31
269.609	105.31
269.841	95.31
270.073	97.31
270.306	110.31
270.538	119.31
270.77	105.31
271.002	120.31
271.234	116.31
271.466	110.31
271.698	100.31
271.93	110.31
272.162	107.31
272.394	119.31
272.626	111.31
272.858	95.31
273.09	105.31
273.322	97.31
273.553	104.31
273.785	97.31
274.017	109.31
274.249	121.31
274.481	119.31
274.713	95.31
274.945	121.31
275.176	110.31
275.408	101.31
275.64	130.31
275.872	99.31
276.104	112.31
276.335	110.31
276.567	110.31
276.799	113.31
277.031	107.31
277.262	111.31
277.494	110.31
277.726	113.31
277.957	115.31
278.189	114.31
278.421	119.31
278.652	109.31
278.884	97.31
279.115	118.31
279.347	112.31
279.579	101.31
279.81	126.31
280.042	128.31
280.273	119.31
280.505	108.31
280.736	105.31
280.968	104.31
281.199	117.31
281.431	120.31
281.662	122.31
281.894	117.31
282.125	112.31
282.356	120.31
282.588	110.31
282.819	119.31
283.051	115.31
283.282	115.31
283.513	118.31
283.745	109.31
283.976	114.31
284.207	111.31
284.439	122.31
284.67	119.31
284.901	110.31
285.132	109.31
285.364	127.31
285.595	122.31
285.826	118.31
286.057	128.31
286.288	132.31
286.52	128.31
286.751	115.31
286.982	123.31
287.213	115.31
287.444	115.31
287.675	122.31
287.906	121.31
288.138	104.31
288.369	130.31
288.6	105.31
288.831	107.31
289.062	133.31
289.293	125.31
289.524	134.31
289.755	132.31
289.986	115.31
290.217	114.31
290.448	103.31
290.679	130.31
290.91	127.31
291.141	125.31
291.371	123.31
291.602	119.31
291.833	119.31
292.064	109.31
292.295	125.31
292.526	125.31
292.757	133.31
292.987	116.31
293.218	125.31
293.449	127.31
293.68	136.31
293.91	123.31
294.141	141.31
294.372	126.31
294.603	129.31
294.833	130.31
295.064	121.31
295.295	125.31
295.525	129.31
295.756	125.31
295.987	124.31
296.217	130.31
296.448	125.31
296.679	131.31
296.909	129.31
297.14	128.31
297.37	134.31
297.601	135.31
297.831	119.31
298.062	119.31
298.292	122.31
298.523	126.31
298.753	115.31
298.984	128.31
299.214	141.31
299.445	129.31
299.675	127.31
299.905	132.31
300.136	124.31
300.366	128.31
300.597	122.31
300.827	127.31
301.057	135.31
301.288	135.31
301.518	117.31
301.748	127.31
301.979	163.31
302.209	120.31
302.439	133.31
302.669	135.31
302.9	126.31
303.13	125.31
303.36	138.31
303.59	137.31
303.82	128.31
304.051	124.31
304.281	138.31
304.511	135.31
304.741	127.31
304.971	139.31
305.201	137.31
305.431	142.31
305.661	129.31
305.891	137.31
306.121	116.31
306.352	142.31
306.582	137.31
306.812	122.31
307.042	118.31
307.272	127.31
307.502	127.31
307.731	127.31
307.961	125.31
308.191	144.31
308.421	122.31
308.651	124.31
308.881	126.31
309.111	129.31
309.341	137.31
309.571	133.31
309.8	118.31
310.03	120.31
310.26	129.31
310.49	128.31
310.72	140.31
310.949	129.31
311.179	131.31
311.409	142.31
311.639	131.31
311.868	149.31
312.098	141.31
312.328	142.31
312.557	129.31
312.787	145.31
313.017	140.31
313.246	133.31
313.476	132.31
313.706	128.31
313.935	130.31
314.165	130.31
314.394	136.31
314.624	139.31
314.853	136.31
315.083	140.31
315.312	120.31
315.542	133.31
315.771	129.31
316.001	146.31
316.23	129.31
316.46	135.31
316.689	137.31
316.919	124.31
317.148	130.31
317.377	135.31
317.607	140.31
317.836	139.31
318.065	125.31
318.295	135.31
318.524	133.31
318.753	126.31
318.983	141.31
319.212	151.31
319.441	137.31
319.67	129.31
319.9	121.31
320.129	123.31
320.358	129.31
320.587	147.31
320.816	125.31
321.046	133.31
321.275	145.31
321.504	147.31
321.733	141.31
321.962	122.31
322.191	120.31
322.42	129.31
322.649	151.31
322.878	139.31
323.108	140.31
323.337	145.31
323.566	138.31
323.795	128.31
324.024	141.31
324.253	147.31
324.482	141.31
324.71	133.31
324.939	145.31
325.168	150.31
325.397	143.31
325.626	127.31
325.855	146.31
326.084	133.31
326.313	138.31
326.542	139.31
326.77	137.31
326.999	140.31
327.228	153.31
327.457	150.31
327.686	135.31
327.914	134.31
328.143	142.31
328.372	141.31
328.6	133.31
328.829	133.31
329.058	133.31
329.287	143.31
329.515	113.31
329.744	148.31
329.972	128.31
330.201	137.31
330.43	136.31
330.658	150.31
330.887	121.31
331.115	137.31
331.344	135.31
331.572	154.31
331.801	138.31
332.03	137.31
332.258	138.31
332.486	144.31
332.715	160.31
332.943	153.31
333.172	173.31
333.4	165.31
333.629	170.31
333.857	160.31
334.085	150.31
334.314	146.31
334.542	149.31
334.771	156.31
334.999	160.31
335.227	164.31
335.455	158.31
335.684	165.31
335.912	177.31
336.14	157.31
336.369	153.31
336.597	150.31
336.825	153.31
337.053	153.31
337.281	156.31
337.51	150.31
337.738	149.31
337.966	157.31
338.194	140.31
338.422	147.31
338.65	158.31
338.878	154.31
339.106	136.31
339.334	151.31
339.562	131.31
339.79	137.31
340.018	132.31
340.246	146.31
340.474	137.31
340.702	135.31
340.93	141.31
341.158	116.31
341.386	127.31
341.614	144.31
341.842	128.31
342.07	140.31
342.298	145.31
342.526	135.31
342.754	140.31
342.981	161.31
343.209	161.31
343.437	164.31
343.665	157.31
343.893	172.31
344.12	168.31
344.348	150.31
344.576	138.31
344.804	146.31
345.031	148.31
345.259	142.31
345.487	131.31
345.714	133.31
345.942	136.31
346.17	134.31
346.397	136.31
346.625	138.31
346.853	135.31
347.08	157.31
347.308	158.31
347.535	140.31
347.763	154.31
347.99	154.31
348.218	165.31
348.445	128.31
348.673	123.31
348.9	134.31
349.128	159.31
349.355	149.31
349.583	130.31
349.81	129.31
350.037	143.31
350.265	151.31
350.492	151.31
350.72	128.31
350.947	138.31
351.174	141.31
351.402	145.31
351.629	144.31
351.856	148.31
352.083	137.31
352.311	138.31
352.538	122.31
352.765	146.31
352.992	162.31
353.22	149.31
353.447	140.31
353.674	140.31
353.901	147.31
354.128	144.31
354.355	137.31
354.583	134.31
354.81	140.31
355.037	151.31
355.264	138.31
355.491	129.31
355.718	132.31
355.945	134.31
356.172	122.31
356.399	130.31
356.626	133.31
356.853	147.31
357.08	149.31
357.307	160.31
357.534	153.31
357.761	152.31
357.988	157.31
358.215	153.31
358.441	131.31
358.668	129.31
358.895	125.31
359.122	133.31
359.349	135.31
359.576	127.31
359.802	139.31
360.029	136.31
360.256	128.31
360.483	139.31
360.709	154.31
360.936	162.31
361.163	153.31
361.39	153.31
361.616	141.31
361.843	144.31
362.07	145.31
362.296	141.31
362.523	121.31
362.749	121.31
362.976	130.31
363.203	141.31
363.429	134.31
363.656	154.31
363.882	132.31
364.109	138.31
364.335	125.31
364.562	143.31
364.788	133.31
365.015	140.31
365.241	125.31
365.468	146.31
365.694	130.31
365.92	137.31
366.147	138.31
366.373	130.31
366.599	134.31
366.826	124.31
367.052	145.31
367.278	145.31
367.505	134.31
367.731	148.31
367.957	121.31
368.184	145.31
368.41	143.31
368.636	152.31
368.862	159.31
369.089	149.31
369.315	140.31
369.541	139.31
369.767	148.31
369.993	141.31
370.219	127.31
370.445	139.31
370.672	137.31
370.898	134.31
371.124	153.31
371.35	137.31
371.576	136.31
371.802	137.31
372.028	140.31
372.254	145.31
372.48	149.31
372.706	142.31
372.932	153.31
373.158	158.31
373.384	164.31
373.61	165.31
373.835	171.31
374.061	156.31
374.287	149.31
374.513	163.31
374.739	151.31
374.965	157.31
375.191	155.31
375.416	157.31
375.642	145.31
375.868	157.31
376.094	138.31
376.319	138.31
376.545	139.31
376.771	134.31
376.997	139.31
377.222	137.31
377.448	130.31
377.674	149.31
377.899	142.31
378.125	140.31
378.35	157.31
378.576	153.31
378.802	163.31
379.027	149.31
379.253	144.31
379.478	140.31
379.704	148.31
379.929	151.31
380.155	146.31
380.38	136.31
380.606	139.31
380.831	166.31
381.057	154.31
381.282	142.31
381.507	155.31
381.733	176.31
381.958	154.31
382.184	163.31
382.409	155.31
382.634	161.31
382.86	165.31
383.085	157.31
383.31	164.31
383.535	172.31
383.761	159.31
383.986	166.31
384.211	161.31
384.436	164.31
384.662	169.31
384.887	172.31
385.112	160.31
385.337	158.31
385.562	154.31
385.787	174.31
386.013	169.31
386.238	177.31
386.463	173.31
386.688	198.31
386.913	155.31
387.138	161.31
387.363	161.31
387.588	172.31
387.813	187.31
388.038	171.31
388.263	181.31
388.488	174.31
388.713	178.31
388.938	176.31
389.163	155.31
389.387	159.31
389.612	149.31
389.837	163.31
390.062	171.31
390.287	186.31
390.512	166.31
390.736	179.31
390.961	178.31
391.186	182.31
391.411	174.31
391.636	186.31
391.86	198.31
392.085	195.31
392.31	197.31
392.534	166.31
392.759	197.31
392.984	183.31
393.208	172.31
393.433	183.31
393.658	205.31
393.882	205.31
394.107	202.31
394.331	191.31
394.556	176.31
394.78	197.31
395.005	182.31
395.229	188.31
395.454	206.31
395.678	197.31
395.903	205.31
396.127	215.31
396.352	191.31
396.576	184.31
396.801	199.31
397.025	201.31
397.249	208.31
397.474	215.31
397.698	226.31
397.922	192.31
398.147	211.31
398.371	219.31
398.595	230.31
398.82	223.31
399.044	233.31
399.268	263.31
399.492	298.31
399.717	304.31
399.941	275.31
400.165	274.31
400.389	257.31
400.613	243.31
400.837	232.31
401.062	217.31
401.286	221.31
401.51	229.31
401.734	233.31
401.958	238.31
402.182	225.31
402.406	223.31
402.63	254.31
402.854	234.31
403.078	234.31
403.302	251.31
403.526	277.31
403.75	267.31
403.974	261.31
404.198	278.31
404.422	263.31
404.645	244.31
404.869	263.31
405.093	255.31
405.317	282.31
405.541	273.31
405.765	254.31
405.988	257.31
406.212	253.31
406.436	250.31
406.66	277.31
406.883	261.31
407.107	282.31
407.331	296.31
407.555	294.31
407.778	285.31
408.002	289.31
408.226	282.31
408.449	279.31
408.673	266.31
408.896	272.31
409.12	281.31
409.344	291.31
409.567	281.31
409.791	277.31
410.014	275.31
410.238	289.31
410.461	266.31
410.685	282.31
410.908	275.31
411.132	283.31
411.355	275.31
411.578	281.31
411.802	275.31
412.025	277.31
412.249	255.31
412.472	295.31
412.695	261.31
412.919	246.31
413.142	281.31
413.365	282.31
413.589	268.31
413.812	281.31
414.035	275.31
414.258	270.31
414.482	262.31
414.705	280.31
414.928	266.31
415.151	269.31
415.374	266.31
415.597	264.31
415.821	275.31
416.044	267.31
416.267	290.31
416.49	269.31
416.713	266.31
416.936	283.31
417.159	263.31
417.382	259.31
417.605	286.31
417.828	275.31
418.051	297.31
418.274	294.31
418.497	258.31
418.72	258.31
418.943	290.31
419.166	274.31
419.389	294.31
419.611	285.31
419.834	280.31
420.057	292.31
420.28	279.31
420.503	270.31
420.726	273.31
420.948	270.31
421.171	280.31
421.394	272.31
421.617	274.31
421.839	259.31
422.062	281.31
422.285	264.31
422.507	287.31
422.73	271.31
422.953	281.31
423.175	269.31
423.398	277.31
423.621	270.31
423.843	289.31
424.066	296.31
424.288	283.31
424.511	286.31
424.733	297.31
424.956	301.31
425.178	290.31
425.401	265.31
425.623	282.31
425.846	267.31
426.068	273.31
426.291	255.31
426.513	276.31
426.735	271.31
426.958	254.31
427.18	258.31
427.402	258.31
427.625	241.31
427.847	249.31
428.069	254.31
428.292	244.31
428.514	268.31
428.736	256.31
428.958	255.31
429.181	264.31
429.403	254.31
429.625	269.31
429.847	262.31
430.069	249.31
430.292	253.31
430.514	257.31
430.736	256.31
430.958	234.31
431.18	247.31
431.402	244.31
431.624	242.31
431.846	235.31
432.068	223.31
432.29	225.31
432.512	239.31
432.734	246.31
432.956	260.31
433.178	273.31
433.4	249.31
433.622	266.31
433.844	264.31
434.066	244.31
434.287	231.31
434.509	228.31
434.731	249.31
434.953	249.31
435.175	269.31
435.397	258.31
435.618	240.31
435.84	234.31
436.062	244.31
436.284	225.31
436.505	231.31
436.727	238.31
436.949	268.31
437.17	274.31
437.392	243.31
437.614	246.31
437.835	221.31
438.057	235.31
438.278	251.31
438.5	238.31
438.721	253.31
438.943	253.31
439.165	255.31
439.386	267.31
439.608	258.31
439.829	239.31
440.05	288.31
440.272	249.31
440.493	273.31
440.715	274.31
440.936	266.31
441.158	284.31
441.379	286.31
441.6	287.31
441.822	285.31
442.043	281.31
442.264	279.31
442.486	278.31
442.707	272.31
442.928	291.31
443.149	270.31
443.371	305.31
443.592	291.31
443.813	268.31
444.034	266.31
444.255	306.31
444.476	295.31
444.698	314.31
444.919	328.31
445.14	493.31
445.361	385.31
445.582	307.31
445.803	279.31
446.024	273.31
446.245	298.31
446.466	293.31
446.687	274.31
446.908	272.31
447.129	281.31
447.35	303.31
447.571	271.31
447.792	267.31
448.013	248.31
448.234	253.31
448.455	251.31
448.675	258.31
448.896	253.31
449.117	244.31
449.338	245.31
449.559	251.31
449.779	240.31
450	242.31
450.221	237.31
450.442	244.31
450.662	271.31
450.883	253.31
451.104	246.31
451.324	245.31
451.545	249.31
451.766	250.31
451.986	234.31
452.207	231.31
452.428	241.31
452.648	243.31
452.869	230.31
453.089	236.31
453.31	224.31
453.53	234.31
453.751	206.31
453.971	209.31
454.192	230.31
454.412	202.31
454.633	220.31
454.853	233.31
455.073	232.31
455.294	243.31
455.514	215.31
455.734	219.31
455.955	229.31
456.175	209.31
456.395	206.31
456.616	228.31
456.836	213.31
457.056	214.31
457.276	207.31
457.497	217.31
457.717	215.31
457.937	221.31
458.157	221.31
458.377	205.31
458.598	216.31
458.818	182.31
459.038	205.31
459.258	203.31
459.478	216.31
459.698	202.31
459.918	235.31
460.138	236.31
460.358	264.31
460.578	282.31
460.798	273.31
461.018	261.31
461.238	271.31
461.458	262.31
461.678	257.31
461.898	269.31
462.118	265.31
462.338	282.31
462.558	289.31
462.777	280.31
462.997	326.31
463.217	313.31
463.437	307.31
463.657	277.31
463.876	288.31
464.096	297.31
464.316	293.31
464.536	282.31
464.755	291.31
464.975	291.31
465.195	277.31
465.414	265.31
465.634	249.31
465.854	242.31
466.073	250.31
466.293	251.31
466.512	263.31
466.732	251.31
466.951	250.31
467.171	256.31
467.391	255.31
467.61	255.31
467.829	239.31
468.049	239.31
468.268	226.31
468.488	249.31
468.707	241.31
468.927	248.31
469.146	258.31
469.365	266.31
469.585	252.31
469.804	259.31
470.023	264.31
470.243	265.31
470.462	272.31
470.681	268.31
470.901	276.31
471.12	251.31
471.339	265.31
471.558	248.31
471.777	273.31
471.997	228.31
472.216	239.31
472.435	220.31
472.654	219.31
472.873	252.31
473.092	215.31
473.311	229.31
473.53	233.31
473.749	227.31
473.968	247.31
474.187	215.31
474.406	229.31
474.625	226.31
474.844	240.31
475.063	232.31
475.282	225.31
475.501	219.31
475.72	223.31
475.939	219.31
476.158	237.31
476.377	255.31
476.596	222.31
476.814	219.31
477.033	214.31
477.252	231.31
477.471	241.31
477.69	242.31
477.908	269.31
478.127	276.31
478.346	269.31
478.564	267.31
478.783	255.31
479.002	279.31
479.22	285.31
479.439	290.31
479.658	254.31
479.876	257.31
480.095	263.31
480.313	263.31
480.532	266.31
480.751	281.31
480.969	234.31
481.188	233.31
481.406	253.31
481.624	231.31
481.843	227.31
482.061	250.31
482.28	234.31
482.498	223.31
482.717	231.31
482.935	259.31
483.153	271.31
483.372	277.31
483.59	269.31
483.808	264.31
484.027	263.31
484.245	251.31
484.463	258.31
484.681	280.31
484.9	258.31
485.118	277.31
485.336	258.31
485.554	253.31
485.772	265.31
485.99	251.31
486.209	247.31
486.427	250.31
486.645	246.31
486.863	272.31
487.081	279.31
487.299	266.31
487.517	268.31
487.735	277.31
487.953	314.31
488.171	299.31
488.389	297.31
488.607	272.31
488.825	265.31
489.043	255.31
489.261	280.31
489.479	271.31
489.696	264.31
489.914	275.31
490.132	288.31
490.35	262.31
490.568	283.31
490.786	312.31
491.003	326.31
491.221	303.31
491.439	317.31
491.657	340.31
491.874	332.31
492.092	347.31
492.31	373.31
492.527	344.31
492.745	318.31
492.963	314.31
493.18	344.31
493.398	327.31
493.615	325.31
493.833	328.31
494.05	336.31
494.268	316.31
494.485	323.31
494.703	320.31
494.92	319.31
495.138	302.31
495.355	325.31
495.573	314.31
495.79	312.31
496.008	318.31
496.225	315.31
496.442	300.31
496.66	325.31
496.877	329.31
497.094	320.31
497.312	321.31
497.529	332.31
497.746	320.31
497.963	322.31
498.181	312.31
498.398	321.31
498.615	327.31
498.832	346.31
499.049	392.31
499.267	394.31
499.484	423.31
499.701	447.31
499.918	510.31
500.135	566.31
500.352	608.31
500.569	650.31
500.786	638.31
501.003	581.31
501.22	524.31
501.437	465.31
501.654	425.31
501.871	383.31
502.088	395.31
502.305	368.31
502.522	346.31
502.739	360.31
502.956	328.31
503.172	312.31
503.389	288.31
503.606	287.31
503.823	296.31
504.04	291.31
504.256	295.31
504.473	288.31
504.69	310.31
