Data from SampA_HRD10591_00013.txt Node
Date: Mon Jan 19 11:26:51 EST 2026
User: Yrep
Spectrometer: HR+D1059
Trigger mode: 0
Integration Time (sec): 3.443000E-1
Scans to average: 1
Electric dark correction enabled: true
Nonlinearity correction enabled: false
Boxcar width: 0
XAxis mode: Wavelengths
Number of Pixels in Spectrum: 2048
>>>>>Begin Spectral Data<<<<<
223.165	-11.12
223.4	-11.12
223.635	-11.12
223.869	-17.12
224.104	-23.12
224.338	-12.12
224.573	-28.12
224.808	-20.12
225.042	7.88
225.277	-4.12
225.511	-6.12
225.746	2.88
225.98	9.88
226.215	12.88
226.449	15.88
226.683	16.88
226.918	30.88
227.152	24.88
227.387	36.88
227.621	44.88
227.856	37.88
228.09	44.88
228.324	49.88
228.559	48.88
228.793	69.88
229.027	59.88
229.262	62.88
229.496	59.88
229.73	60.88
229.964	68.88
230.199	91.88
230.433	76.88
230.667	89.88
230.901	74.88
231.136	71.88
231.37	78.88
231.604	98.88
231.838	82.88
232.072	85.88
232.306	79.88
232.541	89.88
232.775	80.88
233.009	76.88
233.243	84.88
233.477	84.88
233.711	80.88
233.945	76.88
234.179	87.88
234.413	84.88
234.647	84.88
234.881	79.88
235.115	91.88
235.349	88.88
235.583	91.88
235.817	79.88
236.051	75.88
236.285	88.88
236.519	84.88
236.753	93.88
236.987	91.88
237.221	77.88
237.455	78.88
237.689	84.88
237.922	89.88
238.156	75.88
238.39	79.88
238.624	90.88
238.858	87.88
239.091	74.88
239.325	80.88
239.559	80.88
239.793	88.88
240.027	87.88
240.26	80.88
240.494	78.88
240.728	83.88
240.961	80.88
241.195	79.88
241.429	85.88
241.662	88.88
241.896	97.88
242.13	86.88
242.363	80.88
242.597	91.88
242.83	74.88
243.064	78.88
243.298	88.88
243.531	74.88
243.765	91.88
243.998	92.88
244.232	96.88
244.465	89.88
244.699	80.88
244.932	100.88
245.166	90.88
245.399	85.88
245.633	84.88
245.866	83.88
246.099	81.88
246.333	81.88
246.566	93.88
246.8	100.88
247.033	76.88
247.266	101.88
247.5	90.88
247.733	85.88
247.966	91.88
248.2	97.88
248.433	80.88
248.666	83.88
248.899	86.88
249.133	88.88
249.366	94.88
249.599	81.88
249.832	89.88
250.066	98.88
250.299	97.88
250.532	96.88
250.765	93.88
250.998	101.88
251.231	79.88
251.465	88.88
251.698	87.88
251.931	92.88
252.164	93.88
252.397	100.88
252.63	102.88
252.863	93.88
253.096	94.88
253.329	101.88
253.562	109.88
253.795	89.88
254.028	98.88
254.261	89.88
254.494	95.88
254.727	101.88
254.96	92.88
255.193	90.88
255.426	86.88
255.659	89.88
255.892	93.88
256.124	89.88
256.357	97.88
256.59	108.88
256.823	92.88
257.056	103.88
257.289	104.88
257.521	97.88
257.754	101.88
257.987	105.88
258.22	90.88
258.452	112.88
258.685	94.88
258.918	103.88
259.151	94.88
259.383	98.88
259.616	90.88
259.849	125.88
260.081	112.88
260.314	104.88
260.547	117.88
260.779	94.88
261.012	102.88
261.244	107.88
261.477	111.88
261.71	104.88
261.942	93.88
262.175	116.88
262.407	101.88
262.64	107.88
262.872	107.88
263.105	101.88
263.337	107.88
263.57	112.88
263.802	113.88
264.035	124.88
264.267	109.88
264.499	114.88
264.732	113.88
264.964	126.88
265.197	118.88
265.429	105.88
265.661	112.88
265.894	100.88
266.126	123.88
266.358	117.88
266.591	112.88
266.823	108.88
267.055	86.88
267.287	112.88
267.52	117.88
267.752	106.88
267.984	109.88
268.216	99.88
268.448	123.88
268.681	117.88
268.913	111.88
269.145	109.88
269.377	111.88
269.609	106.88
269.841	112.88
270.073	112.88
270.306	117.88
270.538	111.88
270.77	100.88
271.002	113.88
271.234	133.88
271.466	114.88
271.698	101.88
271.93	114.88
272.162	107.88
272.394	119.88
272.626	115.88
272.858	122.88
273.09	111.88
273.322	119.88
273.553	127.88
273.785	122.88
274.017	112.88
274.249	125.88
274.481	102.88
274.713	110.88
274.945	127.88
275.176	124.88
275.408	114.88
275.64	119.88
275.872	103.88
276.104	109.88
276.335	116.88
276.567	105.88
276.799	116.88
277.031	125.88
277.262	120.88
277.494	129.88
277.726	126.88
277.957	121.88
278.189	113.88
278.421	125.88
278.652	117.88
278.884	126.88
279.115	120.88
279.347	117.88
279.579	120.88
279.81	124.88
280.042	122.88
280.273	136.88
280.505	134.88
280.736	119.88
280.968	130.88
281.199	136.88
281.431	137.88
281.662	123.88
281.894	128.88
282.125	141.88
282.356	128.88
282.588	126.88
282.819	136.88
283.051	126.88
283.282	128.88
283.513	128.88
283.745	129.88
283.976	132.88
284.207	134.88
284.439	138.88
284.67	129.88
284.901	140.88
285.132	133.88
285.364	127.88
285.595	124.88
285.826	132.88
286.057	126.88
286.288	118.88
286.52	118.88
286.751	123.88
286.982	122.88
287.213	122.88
287.444	143.88
287.675	138.88
287.906	155.88
288.138	126.88
288.369	130.88
288.6	154.88
288.831	123.88
289.062	140.88
289.293	142.88
289.524	137.88
289.755	133.88
289.986	147.88
290.217	139.88
290.448	138.88
290.679	142.88
290.91	123.88
291.141	134.88
291.371	132.88
291.602	142.88
291.833	142.88
292.064	164.88
292.295	134.88
292.526	149.88
292.757	141.88
292.987	133.88
293.218	125.88
293.449	135.88
293.68	148.88
293.91	141.88
294.141	150.88
294.372	137.88
294.603	144.88
294.833	143.88
295.064	133.88
295.295	141.88
295.525	152.88
295.756	130.88
295.987	134.88
296.217	124.88
296.448	126.88
296.679	126.88
296.909	146.88
297.14	147.88
297.37	152.88
297.601	128.88
297.831	145.88
298.062	151.88
298.292	150.88
298.523	149.88
298.753	146.88
298.984	139.88
299.214	161.88
299.445	137.88
299.675	154.88
299.905	153.88
300.136	146.88
300.366	122.88
300.597	158.88
300.827	164.88
301.057	139.88
301.288	142.88
301.518	146.88
301.748	143.88
301.979	172.88
302.209	142.88
302.439	149.88
302.669	135.88
302.9	142.88
303.13	146.88
303.36	150.88
303.59	149.88
303.82	142.88
304.051	158.88
304.281	153.88
304.511	163.88
304.741	153.88
304.971	137.88
305.201	143.88
305.431	158.88
305.661	149.88
305.891	155.88
306.121	139.88
306.352	146.88
306.582	156.88
306.812	150.88
307.042	155.88
307.272	154.88
307.502	137.88
307.731	153.88
307.961	152.88
308.191	135.88
308.421	152.88
308.651	143.88
308.881	134.88
309.111	147.88
309.341	148.88
309.571	148.88
309.8	150.88
310.03	150.88
310.26	153.88
310.49	139.88
310.72	148.88
310.949	151.88
311.179	139.88
311.409	143.88
311.639	153.88
311.868	160.88
312.098	142.88
312.328	163.88
312.557	151.88
312.787	154.88
313.017	137.88
313.246	157.88
313.476	166.88
313.706	167.88
313.935	164.88
314.165	159.88
314.394	166.88
314.624	163.88
314.853	156.88
315.083	134.88
315.312	166.88
315.542	152.88
315.771	158.88
316.001	142.88
316.23	151.88
316.46	150.88
316.689	145.88
316.919	170.88
317.148	161.88
317.377	146.88
317.607	147.88
317.836	157.88
318.065	147.88
318.295	149.88
318.524	144.88
318.753	148.88
318.983	156.88
319.212	162.88
319.441	151.88
319.67	165.88
319.9	154.88
320.129	148.88
320.358	159.88
320.587	163.88
320.816	147.88
321.046	161.88
321.275	174.88
321.504	149.88
321.733	158.88
321.962	166.88
322.191	161.88
322.42	165.88
322.649	157.88
322.878	160.88
323.108	165.88
323.337	168.88
323.566	171.88
323.795	153.88
324.024	155.88
324.253	154.88
324.482	149.88
324.71	154.88
324.939	153.88
325.168	159.88
325.397	152.88
325.626	173.88
325.855	171.88
326.084	162.88
326.313	172.88
326.542	167.88
326.77	174.88
326.999	171.88
327.228	166.88
327.457	168.88
327.686	160.88
327.914	160.88
328.143	159.88
328.372	155.88
328.6	170.88
328.829	177.88
329.058	182.88
329.287	162.88
329.515	152.88
329.744	154.88
329.972	176.88
330.201	179.88
330.43	150.88
330.658	154.88
330.887	162.88
331.115	158.88
331.344	161.88
331.572	179.88
331.801	181.88
332.03	182.88
332.258	183.88
332.486	182.88
332.715	182.88
332.943	182.88
333.172	189.88
333.4	202.88
333.629	215.88
333.857	190.88
334.085	196.88
334.314	206.88
334.542	185.88
334.771	214.88
334.999	202.88
335.227	203.88
335.455	191.88
335.684	195.88
335.912	186.88
336.14	184.88
336.369	193.88
336.597	198.88
336.825	184.88
337.053	197.88
337.281	185.88
337.51	181.88
337.738	184.88
337.966	188.88
338.194	168.88
338.422	180.88
338.65	178.88
338.878	184.88
339.106	173.88
339.334	172.88
339.562	162.88
339.79	182.88
340.018	165.88
340.246	164.88
340.474	158.88
340.702	162.88
340.93	178.88
341.158	150.88
341.386	168.88
341.614	165.88
341.842	169.88
342.07	159.88
342.298	154.88
342.526	159.88
342.754	185.88
342.981	192.88
343.209	164.88
343.437	216.88
343.665	195.88
343.893	199.88
344.12	211.88
344.348	184.88
344.576	181.88
344.804	186.88
345.031	164.88
345.259	165.88
345.487	156.88
345.714	156.88
345.942	161.88
346.17	184.88
346.397	171.88
346.625	168.88
346.853	156.88
347.08	150.88
347.308	158.88
347.535	164.88
347.763	163.88
347.99	178.88
348.218	177.88
348.445	143.88
348.673	168.88
348.9	152.88
349.128	180.88
349.355	144.88
349.583	167.88
349.81	182.88
350.037	172.88
350.265	169.88
350.492	149.88
350.72	173.88
350.947	174.88
351.174	176.88
351.402	152.88
351.629	165.88
351.856	160.88
352.083	168.88
352.311	175.88
352.538	166.88
352.765	177.88
352.992	168.88
353.22	172.88
353.447	148.88
353.674	175.88
353.901	172.88
354.128	163.88
354.355	163.88
354.583	169.88
354.81	160.88
355.037	185.88
355.264	168.88
355.491	173.88
355.718	164.88
355.945	179.88
356.172	165.88
356.399	158.88
356.626	157.88
356.853	166.88
357.08	176.88
357.307	172.88
357.534	157.88
357.761	164.88
357.988	169.88
358.215	161.88
358.441	167.88
358.668	175.88
358.895	167.88
359.122	153.88
359.349	165.88
359.576	162.88
359.802	150.88
360.029	172.88
360.256	157.88
360.483	164.88
360.709	173.88
360.936	180.88
361.163	178.88
361.39	168.88
361.616	154.88
361.843	150.88
362.07	145.88
362.296	146.88
362.523	159.88
362.749	162.88
362.976	168.88
363.203	180.88
363.429	176.88
363.656	153.88
363.882	146.88
364.109	170.88
364.335	182.88
364.562	162.88
364.788	170.88
365.015	157.88
365.241	163.88
365.468	181.88
365.694	157.88
365.92	155.88
366.147	157.88
366.373	170.88
366.599	167.88
366.826	181.88
367.052	169.88
367.278	166.88
367.505	166.88
367.731	185.88
367.957	156.88
368.184	154.88
368.41	194.88
368.636	167.88
368.862	144.88
369.089	156.88
369.315	172.88
369.541	178.88
369.767	172.88
369.993	162.88
370.219	170.88
370.445	160.88
370.672	171.88
370.898	166.88
371.124	169.88
371.35	171.88
371.576	173.88
371.802	168.88
372.028	166.88
372.254	168.88
372.48	170.88
372.706	182.88
372.932	186.88
373.158	167.88
373.384	179.88
373.61	189.88
373.835	186.88
374.061	171.88
374.287	181.88
374.513	177.88
374.739	208.88
374.965	191.88
375.191	181.88
375.416	190.88
375.642	173.88
375.868	182.88
376.094	185.88
376.319	196.88
376.545	178.88
376.771	164.88
376.997	165.88
377.222	183.88
377.448	192.88
377.674	172.88
377.899	171.88
378.125	176.88
378.35	176.88
378.576	180.88
378.802	169.88
379.027	178.88
379.253	186.88
379.478	168.88
379.704	185.88
379.929	185.88
380.155	166.88
380.38	176.88
380.606	181.88
380.831	173.88
381.057	185.88
381.282	189.88
381.507	172.88
381.733	182.88
381.958	181.88
382.184	176.88
382.409	189.88
382.634	182.88
382.86	171.88
383.085	194.88
383.31	203.88
383.535	202.88
383.761	192.88
383.986	187.88
384.211	196.88
384.436	198.88
384.662	203.88
384.887	206.88
385.112	204.88
385.337	225.88
385.562	193.88
385.787	187.88
386.013	222.88
386.238	213.88
386.463	204.88
386.688	228.88
386.913	202.88
387.138	203.88
387.363	228.88
387.588	194.88
387.813	217.88
388.038	204.88
388.263	185.88
388.488	208.88
388.713	210.88
388.938	203.88
389.163	194.88
389.387	219.88
389.612	211.88
389.837	201.88
390.062	211.88
390.287	195.88
390.512	209.88
390.736	217.88
390.961	205.88
391.186	223.88
391.411	215.88
391.636	225.88
391.86	232.88
392.085	238.88
392.31	218.88
392.534	219.88
392.759	215.88
392.984	219.88
393.208	230.88
393.433	228.88
393.658	245.88
393.882	242.88
394.107	236.88
394.331	230.88
394.556	249.88
394.78	236.88
395.005	224.88
395.229	230.88
395.454	242.88
395.678	230.88
395.903	226.88
396.127	238.88
396.352	215.88
396.576	227.88
396.801	231.88
397.025	240.88
397.249	256.88
397.474	270.88
397.698	266.88
397.922	257.88
398.147	259.88
398.371	260.88
398.595	267.88
398.82	258.88
399.044	290.88
399.268	345.88
399.492	358.88
399.717	388.88
399.941	363.88
400.165	329.88
400.389	296.88
400.613	300.88
400.837	272.88
401.062	270.88
401.286	267.88
401.51	272.88
401.734	265.88
401.958	293.88
402.182	298.88
402.406	274.88
402.63	284.88
402.854	292.88
403.078	314.88
403.302	310.88
403.526	322.88
403.75	322.88
403.974	329.88
404.198	331.88
404.422	317.88
404.645	329.88
404.869	321.88
405.093	338.88
405.317	322.88
405.541	307.88
405.765	321.88
405.988	317.88
406.212	313.88
406.436	315.88
406.66	357.88
406.883	345.88
407.107	334.88
407.331	354.88
407.555	357.88
407.778	354.88
408.002	351.88
408.226	349.88
408.449	328.88
408.673	331.88
408.896	325.88
409.12	325.88
409.344	326.88
409.567	330.88
409.791	321.88
410.014	346.88
410.238	340.88
410.461	334.88
410.685	319.88
410.908	317.88
411.132	313.88
411.355	316.88
411.578	331.88
411.802	320.88
412.025	337.88
412.249	321.88
412.472	300.88
412.695	296.88
412.919	312.88
413.142	311.88
413.365	329.88
413.589	306.88
413.812	320.88
414.035	318.88
414.258	314.88
414.482	325.88
414.705	303.88
414.928	323.88
415.151	320.88
415.374	322.88
415.597	317.88
415.821	323.88
416.044	308.88
416.267	306.88
416.49	308.88
416.713	327.88
416.936	324.88
417.159	311.88
417.382	322.88
417.605	317.88
417.828	311.88
418.051	326.88
418.274	324.88
418.497	328.88
418.72	324.88
418.943	323.88
419.166	343.88
419.389	368.88
419.611	346.88
419.834	341.88
420.057	339.88
420.28	318.88
420.503	324.88
420.726	301.88
420.948	302.88
421.171	329.88
421.394	325.88
421.617	332.88
421.839	336.88
422.062	347.88
422.285	322.88
422.507	353.88
422.73	325.88
422.953	323.88
423.175	325.88
423.398	337.88
423.621	328.88
423.843	336.88
424.066	336.88
424.288	347.88
424.511	348.88
424.733	353.88
424.956	338.88
425.178	329.88
425.401	309.88
425.623	329.88
425.846	318.88
426.068	334.88
426.291	307.88
426.513	308.88
426.735	293.88
426.958	302.88
427.18	311.88
427.402	313.88
427.625	300.88
427.847	301.88
428.069	298.88
428.292	299.88
428.514	314.88
428.736	284.88
428.958	290.88
429.181	290.88
429.403	277.88
429.625	300.88
429.847	306.88
430.069	299.88
430.292	325.88
430.514	301.88
430.736	290.88
430.958	294.88
431.18	276.88
431.402	303.88
431.624	289.88
431.846	274.88
432.068	269.88
432.29	300.88
432.512	283.88
432.734	287.88
432.956	310.88
433.178	286.88
433.4	304.88
433.622	313.88
433.844	289.88
434.066	278.88
434.287	281.88
434.509	264.88
434.731	286.88
434.953	316.88
435.175	310.88
435.397	310.88
435.618	311.88
435.84	276.88
436.062	286.88
436.284	297.88
436.505	296.88
436.727	304.88
436.949	281.88
437.17	290.88
437.392	288.88
437.614	277.88
437.835	249.88
438.057	269.88
438.278	278.88
438.5	282.88
438.721	296.88
438.943	295.88
439.165	290.88
439.386	292.88
439.608	304.88
439.829	301.88
440.05	313.88
440.272	306.88
440.493	297.88
440.715	314.88
440.936	323.88
441.158	324.88
441.379	331.88
441.6	341.88
441.822	357.88
442.043	343.88
442.264	312.88
442.486	309.88
442.707	322.88
442.928	318.88
443.149	325.88
443.371	340.88
443.592	334.88
443.813	351.88
444.034	340.88
444.255	341.88
444.476	366.88
444.698	390.88
444.919	381.88
445.14	538.88
445.361	438.88
445.582	356.88
445.803	335.88
446.024	332.88
446.245	324.88
446.466	333.88
446.687	317.88
446.908	317.88
447.129	310.88
447.35	328.88
447.571	284.88
447.792	306.88
448.013	305.88
448.234	309.88
448.455	293.88
448.675	284.88
448.896	298.88
449.117	288.88
449.338	275.88
449.559	298.88
449.779	294.88
450	274.88
450.221	267.88
450.442	286.88
450.662	291.88
450.883	288.88
451.104	301.88
451.324	278.88
451.545	302.88
451.766	284.88
451.986	274.88
452.207	282.88
452.428	273.88
452.648	268.88
452.869	254.88
453.089	249.88
453.31	270.88
453.53	244.88
453.751	266.88
453.971	241.88
454.192	256.88
454.412	254.88
454.633	274.88
454.853	260.88
455.073	248.88
455.294	276.88
455.514	275.88
455.734	265.88
455.955	250.88
456.175	244.88
456.395	262.88
456.616	248.88
456.836	252.88
457.056	239.88
457.276	234.88
457.497	267.88
457.717	245.88
457.937	249.88
458.157	250.88
458.377	250.88
458.598	256.88
458.818	246.88
459.038	237.88
459.258	242.88
459.478	259.88
459.698	268.88
459.918	272.88
460.138	289.88
460.358	308.88
460.578	320.88
460.798	323.88
461.018	323.88
461.238	302.88
461.458	314.88
461.678	308.88
461.898	329.88
462.118	329.88
462.338	333.88
462.558	345.88
462.777	352.88
462.997	360.88
463.217	400.88
463.437	386.88
463.657	364.88
463.876	351.88
464.096	341.88
464.316	351.88
464.536	349.88
464.755	338.88
464.975	337.88
465.195	347.88
465.414	313.88
465.634	298.88
465.854	267.88
466.073	277.88
466.293	270.88
466.512	285.88
466.732	282.88
466.951	286.88
467.171	295.88
467.391	294.88
467.61	288.88
467.829	297.88
468.049	298.88
468.268	284.88
468.488	280.88
468.707	290.88
468.927	270.88
469.146	279.88
469.365	293.88
469.585	301.88
469.804	320.88
470.023	311.88
470.243	309.88
470.462	320.88
470.681	322.88
470.901	298.88
471.12	294.88
471.339	316.88
471.558	266.88
471.777	287.88
471.997	282.88
472.216	283.88
472.435	254.88
472.654	262.88
472.873	265.88
473.092	256.88
473.311	256.88
473.53	272.88
473.749	273.88
473.968	302.88
474.187	266.88
474.406	253.88
474.625	271.88
474.844	269.88
475.063	265.88
475.282	277.88
475.501	270.88
475.72	285.88
475.939	273.88
476.158	280.88
476.377	285.88
476.596	274.88
476.814	267.88
477.033	257.88
477.252	278.88
477.471	305.88
477.69	306.88
477.908	284.88
478.127	324.88
478.346	315.88
478.564	313.88
478.783	309.88
479.002	321.88
479.22	333.88
479.439	312.88
479.658	312.88
479.876	302.88
480.095	296.88
480.313	321.88
480.532	325.88
480.751	284.88
480.969	298.88
481.188	284.88
481.406	264.88
481.624	276.88
481.843	275.88
482.061	277.88
482.28	285.88
482.498	278.88
482.717	277.88
482.935	278.88
483.153	302.88
483.372	302.88
483.59	311.88
483.808	321.88
484.027	320.88
484.245	309.88
484.463	317.88
484.681	310.88
484.9	287.88
485.118	300.88
485.336	278.88
485.554	278.88
485.772	283.88
485.99	302.88
486.209	298.88
486.427	279.88
486.645	301.88
486.863	318.88
487.081	312.88
487.299	286.88
487.517	304.88
487.735	343.88
487.953	349.88
488.171	342.88
488.389	324.88
488.607	313.88
488.825	297.88
489.043	305.88
489.261	313.88
489.479	302.88
489.696	313.88
489.914	315.88
490.132	311.88
490.35	340.88
490.568	340.88
490.786	349.88
491.003	350.88
491.221	367.88
491.439	362.88
491.657	373.88
491.874	397.88
492.092	408.88
492.31	421.88
492.527	379.88
492.745	402.88
492.963	387.88
493.18	367.88
493.398	364.88
493.615	394.88
493.833	374.88
494.05	362.88
494.268	368.88
494.485	369.88
494.703	390.88
494.92	362.88
495.138	380.88
495.355	346.88
495.573	366.88
495.79	371.88
496.008	378.88
496.225	357.88
496.442	385.88
496.66	376.88
496.877	370.88
497.094	378.88
497.312	373.88
497.529	388.88
497.746	381.88
497.963	365.88
498.181	371.88
498.398	390.88
498.615	398.88
498.832	410.88
499.049	440.88
499.267	498.88
499.484	533.88
499.701	594.88
499.918	650.88
500.135	730.88
500.352	760.88
500.569	789.88
500.786	777.88
501.003	743.88
501.22	673.88
501.437	601.88
501.654	542.88
501.871	485.88
502.088	442.88
502.305	436.88
502.522	420.88
502.739	422.88
502.956	388.88
503.172	364.88
503.389	341.88
503.606	355.88
503.823	342.88
504.04	361.88
504.256	334.88
504.473	353.88
