Data from SampA_HRD10591_00033.txt Node
Date: Mon Jan 19 11:26:57 EST 2026
User: Yrep
Spectrometer: HR+D1059
Trigger mode: 0
Integration Time (sec): 3.443000E-1
Scans to average: 1
Electric dark correction enabled: true
Nonlinearity correction enabled: false
Boxcar width: 0
XAxis mode: Wavelengths
Number of Pixels in Spectrum: 2048
>>>>>Begin Spectral Data<<<<<
223.165	-21.81
223.4	-21.81
223.635	-21.81
223.869	-16.81
224.104	-21.81
224.338	-6.81
224.573	-14.81
224.808	-15.81
225.042	-10.81
225.277	-9.81
225.511	3.19
225.746	10.19
225.98	6.19
226.215	9.19
226.449	16.19
226.683	31.19
226.918	24.19
227.152	18.19
227.387	22.19
227.621	42.19
227.856	43.19
228.09	41.19
228.324	53.19
228.559	66.19
228.793	46.19
229.027	56.19
229.262	68.19
229.496	72.19
229.73	63.19
229.964	74.19
230.199	76.19
230.433	70.19
230.667	72.19
230.901	76.19
231.136	86.19
231.37	86.19
231.604	95.19
231.838	82.19
232.072	90.19
232.306	85.19
232.541	96.19
232.775	79.19
233.009	81.19
233.243	67.19
233.477	88.19
233.711	82.19
233.945	78.19
234.179	78.19
234.413	70.19
234.647	80.19
234.881	95.19
235.115	75.19
235.349	89.19
235.583	73.19
235.817	85.19
236.051	90.19
236.285	79.19
236.519	85.19
236.753	85.19
236.987	77.19
237.221	73.19
237.455	79.19
237.689	89.19
237.922	90.19
238.156	78.19
238.39	82.19
238.624	81.19
238.858	75.19
239.091	74.19
239.325	68.19
239.559	76.19
239.793	73.19
240.027	93.19
240.26	80.19
240.494	81.19
240.728	91.19
240.961	95.19
241.195	85.19
241.429	79.19
241.662	84.19
241.896	86.19
242.13	70.19
242.363	86.19
242.597	92.19
242.83	87.19
243.064	84.19
243.298	84.19
243.531	80.19
243.765	71.19
243.998	79.19
244.232	78.19
244.465	87.19
244.699	92.19
244.932	85.19
245.166	69.19
245.399	81.19
245.633	75.19
245.866	77.19
246.099	62.19
246.333	78.19
246.566	85.19
246.8	84.19
247.033	78.19
247.266	91.19
247.5	71.19
247.733	72.19
247.966	72.19
248.2	86.19
248.433	83.19
248.666	85.19
248.899	95.19
249.133	92.19
249.366	88.19
249.599	106.19
249.832	79.19
250.066	105.19
250.299	87.19
250.532	83.19
250.765	84.19
250.998	80.19
251.231	67.19
251.465	80.19
251.698	93.19
251.931	96.19
252.164	77.19
252.397	76.19
252.63	95.19
252.863	92.19
253.096	92.19
253.329	90.19
253.562	80.19
253.795	84.19
254.028	75.19
254.261	92.19
254.494	83.19
254.727	78.19
254.96	72.19
255.193	73.19
255.426	83.19
255.659	86.19
255.892	94.19
256.124	91.19
256.357	95.19
256.59	96.19
256.823	80.19
257.056	82.19
257.289	80.19
257.521	88.19
257.754	81.19
257.987	83.19
258.22	107.19
258.452	91.19
258.685	95.19
258.918	94.19
259.151	87.19
259.383	85.19
259.616	84.19
259.849	85.19
260.081	82.19
260.314	85.19
260.547	70.19
260.779	78.19
261.012	94.19
261.244	91.19
261.477	94.19
261.71	79.19
261.942	84.19
262.175	87.19
262.407	83.19
262.64	84.19
262.872	89.19
263.105	85.19
263.337	101.19
263.57	90.19
263.802	100.19
264.035	96.19
264.267	104.19
264.499	90.19
264.732	89.19
264.964	99.19
265.197	93.19
265.429	91.19
265.661	91.19
265.894	86.19
266.126	114.19
266.358	93.19
266.591	84.19
266.823	101.19
267.055	81.19
267.287	96.19
267.52	86.19
267.752	77.19
267.984	94.19
268.216	74.19
268.448	101.19
268.681	108.19
268.913	96.19
269.145	92.19
269.377	91.19
269.609	95.19
269.841	88.19
270.073	82.19
270.306	86.19
270.538	100.19
270.77	85.19
271.002	108.19
271.234	101.19
271.466	104.19
271.698	92.19
271.93	85.19
272.162	77.19
272.394	84.19
272.626	91.19
272.858	87.19
273.09	91.19
273.322	98.19
273.553	95.19
273.785	101.19
274.017	89.19
274.249	88.19
274.481	80.19
274.713	98.19
274.945	90.19
275.176	78.19
275.408	91.19
275.64	102.19
275.872	86.19
276.104	109.19
276.335	88.19
276.567	95.19
276.799	102.19
277.031	94.19
277.262	101.19
277.494	102.19
277.726	96.19
277.957	85.19
278.189	78.19
278.421	84.19
278.652	94.19
278.884	94.19
279.115	101.19
279.347	84.19
279.579	90.19
279.81	109.19
280.042	99.19
280.273	90.19
280.505	92.19
280.736	95.19
280.968	96.19
281.199	93.19
281.431	87.19
281.662	98.19
281.894	90.19
282.125	105.19
282.356	96.19
282.588	93.19
282.819	106.19
283.051	99.19
283.282	89.19
283.513	101.19
283.745	106.19
283.976	92.19
284.207	96.19
284.439	94.19
284.67	92.19
284.901	91.19
285.132	113.19
285.364	94.19
285.595	101.19
285.826	91.19
286.057	94.19
286.288	105.19
286.52	111.19
286.751	94.19
286.982	99.19
287.213	85.19
287.444	113.19
287.675	91.19
287.906	96.19
288.138	105.19
288.369	108.19
288.6	108.19
288.831	97.19
289.062	116.19
289.293	101.19
289.524	96.19
289.755	106.19
289.986	101.19
290.217	103.19
290.448	90.19
290.679	108.19
290.91	107.19
291.141	94.19
291.371	104.19
291.602	100.19
291.833	90.19
292.064	92.19
292.295	102.19
292.526	106.19
292.757	94.19
292.987	108.19
293.218	104.19
293.449	102.19
293.68	101.19
293.91	108.19
294.141	103.19
294.372	93.19
294.603	100.19
294.833	104.19
295.064	104.19
295.295	104.19
295.525	102.19
295.756	109.19
295.987	103.19
296.217	100.19
296.448	108.19
296.679	95.19
296.909	111.19
297.14	111.19
297.37	117.19
297.601	90.19
297.831	104.19
298.062	103.19
298.292	103.19
298.523	102.19
298.753	106.19
298.984	93.19
299.214	100.19
299.445	103.19
299.675	107.19
299.905	110.19
300.136	112.19
300.366	100.19
300.597	94.19
300.827	120.19
301.057	106.19
301.288	95.19
301.518	114.19
301.748	104.19
301.979	144.19
302.209	116.19
302.439	110.19
302.669	107.19
302.9	115.19
303.13	104.19
303.36	102.19
303.59	103.19
303.82	101.19
304.051	101.19
304.281	91.19
304.511	117.19
304.741	102.19
304.971	93.19
305.201	117.19
305.431	111.19
305.661	102.19
305.891	105.19
306.121	109.19
306.352	95.19
306.582	109.19
306.812	101.19
307.042	108.19
307.272	99.19
307.502	103.19
307.731	101.19
307.961	95.19
308.191	86.19
308.421	104.19
308.651	111.19
308.881	115.19
309.111	117.19
309.341	108.19
309.571	112.19
309.8	105.19
310.03	113.19
310.26	90.19
310.49	109.19
310.72	98.19
310.949	100.19
311.179	104.19
311.409	100.19
311.639	100.19
311.868	108.19
312.098	110.19
312.328	110.19
312.557	108.19
312.787	110.19
313.017	115.19
313.246	104.19
313.476	118.19
313.706	104.19
313.935	103.19
314.165	119.19
314.394	111.19
314.624	100.19
314.853	107.19
315.083	110.19
315.312	98.19
315.542	117.19
315.771	110.19
316.001	106.19
316.23	118.19
316.46	107.19
316.689	97.19
316.919	99.19
317.148	114.19
317.377	120.19
317.607	111.19
317.836	113.19
318.065	117.19
318.295	106.19
318.524	123.19
318.753	106.19
318.983	112.19
319.212	105.19
319.441	100.19
319.67	102.19
319.9	108.19
320.129	100.19
320.358	99.19
320.587	108.19
320.816	105.19
321.046	110.19
321.275	114.19
321.504	114.19
321.733	107.19
321.962	106.19
322.191	111.19
322.42	96.19
322.649	106.19
322.878	109.19
323.108	105.19
323.337	96.19
323.566	111.19
323.795	113.19
324.024	115.19
324.253	110.19
324.482	97.19
324.71	102.19
324.939	106.19
325.168	103.19
325.397	119.19
325.626	130.19
325.855	113.19
326.084	110.19
326.313	106.19
326.542	104.19
326.77	118.19
326.999	104.19
327.228	95.19
327.457	118.19
327.686	114.19
327.914	112.19
328.143	105.19
328.372	101.19
328.6	101.19
328.829	105.19
329.058	120.19
329.287	101.19
329.515	107.19
329.744	119.19
329.972	93.19
330.201	105.19
330.43	98.19
330.658	93.19
330.887	112.19
331.115	95.19
331.344	119.19
331.572	129.19
331.801	127.19
332.03	117.19
332.258	96.19
332.486	124.19
332.715	120.19
332.943	125.19
333.172	110.19
333.4	117.19
333.629	133.19
333.857	123.19
334.085	115.19
334.314	115.19
334.542	117.19
334.771	108.19
334.999	113.19
335.227	111.19
335.455	120.19
335.684	136.19
335.912	118.19
336.14	119.19
336.369	117.19
336.597	107.19
336.825	106.19
337.053	118.19
337.281	92.19
337.51	116.19
337.738	124.19
337.966	121.19
338.194	106.19
338.422	99.19
338.65	110.19
338.878	121.19
339.106	106.19
339.334	117.19
339.562	83.19
339.79	112.19
340.018	122.19
340.246	110.19
340.474	98.19
340.702	105.19
340.93	106.19
341.158	108.19
341.386	106.19
341.614	118.19
341.842	110.19
342.07	117.19
342.298	116.19
342.526	105.19
342.754	114.19
342.981	107.19
343.209	101.19
343.437	148.19
343.665	123.19
343.893	123.19
344.12	124.19
344.348	112.19
344.576	130.19
344.804	116.19
345.031	119.19
345.259	106.19
345.487	114.19
345.714	116.19
345.942	117.19
346.17	117.19
346.397	105.19
346.625	104.19
346.853	118.19
347.08	112.19
347.308	110.19
347.535	114.19
347.763	108.19
347.99	114.19
348.218	130.19
348.445	106.19
348.673	114.19
348.9	101.19
349.128	111.19
349.355	104.19
349.583	121.19
349.81	111.19
350.037	102.19
350.265	109.19
350.492	117.19
350.72	107.19
350.947	99.19
351.174	106.19
351.402	113.19
351.629	97.19
351.856	126.19
352.083	91.19
352.311	106.19
352.538	90.19
352.765	109.19
352.992	122.19
353.22	110.19
353.447	101.19
353.674	93.19
353.901	110.19
354.128	116.19
354.355	102.19
354.583	115.19
354.81	111.19
355.037	125.19
355.264	115.19
355.491	123.19
355.718	115.19
355.945	112.19
356.172	115.19
356.399	115.19
356.626	116.19
356.853	110.19
357.08	117.19
357.307	119.19
357.534	112.19
357.761	121.19
357.988	123.19
358.215	106.19
358.441	96.19
358.668	114.19
358.895	108.19
359.122	109.19
359.349	116.19
359.576	107.19
359.802	102.19
360.029	95.19
360.256	105.19
360.483	96.19
360.709	115.19
360.936	121.19
361.163	108.19
361.39	118.19
361.616	111.19
361.843	99.19
362.07	101.19
362.296	111.19
362.523	93.19
362.749	107.19
362.976	110.19
363.203	121.19
363.429	111.19
363.656	115.19
363.882	114.19
364.109	103.19
364.335	125.19
364.562	99.19
364.788	120.19
365.015	102.19
365.241	114.19
365.468	131.19
365.694	116.19
365.92	117.19
366.147	123.19
366.373	97.19
366.599	108.19
366.826	100.19
367.052	105.19
367.278	111.19
367.505	100.19
367.731	127.19
367.957	92.19
368.184	95.19
368.41	122.19
368.636	114.19
368.862	105.19
369.089	96.19
369.315	112.19
369.541	125.19
369.767	114.19
369.993	119.19
370.219	111.19
370.445	130.19
370.672	124.19
370.898	100.19
371.124	121.19
371.35	95.19
371.576	114.19
371.802	106.19
372.028	112.19
372.254	112.19
372.48	106.19
372.706	107.19
372.932	115.19
373.158	108.19
373.384	112.19
373.61	119.19
373.835	118.19
374.061	123.19
374.287	123.19
374.513	116.19
374.739	116.19
374.965	103.19
375.191	124.19
375.416	104.19
375.642	110.19
375.868	134.19
376.094	107.19
376.319	119.19
376.545	128.19
376.771	107.19
376.997	137.19
377.222	111.19
377.448	117.19
377.674	113.19
377.899	116.19
378.125	110.19
378.35	95.19
378.576	107.19
378.802	99.19
379.027	119.19
379.253	127.19
379.478	102.19
379.704	112.19
379.929	106.19
380.155	96.19
380.38	99.19
380.606	114.19
380.831	108.19
381.057	127.19
381.282	107.19
381.507	108.19
381.733	131.19
381.958	112.19
382.184	130.19
382.409	115.19
382.634	118.19
382.86	108.19
383.085	114.19
383.31	112.19
383.535	129.19
383.761	127.19
383.986	124.19
384.211	112.19
384.436	104.19
384.662	108.19
384.887	108.19
385.112	121.19
385.337	131.19
385.562	120.19
385.787	131.19
386.013	130.19
386.238	132.19
386.463	120.19
386.688	146.19
386.913	116.19
387.138	123.19
387.363	124.19
387.588	131.19
387.813	120.19
388.038	118.19
388.263	120.19
388.488	119.19
388.713	124.19
388.938	110.19
389.163	123.19
389.387	111.19
389.612	145.19
389.837	116.19
390.062	118.19
390.287	111.19
390.512	120.19
390.736	133.19
390.961	126.19
391.186	125.19
391.411	134.19
391.636	124.19
391.86	140.19
392.085	155.19
392.31	137.19
392.534	132.19
392.759	132.19
392.984	120.19
393.208	148.19
393.433	143.19
393.658	158.19
393.882	138.19
394.107	136.19
394.331	126.19
394.556	143.19
394.78	138.19
395.005	131.19
395.229	133.19
395.454	159.19
395.678	140.19
395.903	136.19
396.127	135.19
396.352	141.19
396.576	133.19
396.801	135.19
397.025	141.19
397.249	131.19
397.474	150.19
397.698	134.19
397.922	127.19
398.147	126.19
398.371	141.19
398.595	150.19
398.82	147.19
399.044	151.19
399.268	181.19
399.492	182.19
399.717	181.19
399.941	185.19
400.165	168.19
400.389	156.19
400.613	149.19
400.837	146.19
401.062	170.19
401.286	155.19
401.51	146.19
401.734	155.19
401.958	162.19
402.182	169.19
402.406	153.19
402.63	158.19
402.854	167.19
403.078	164.19
403.302	175.19
403.526	171.19
403.75	163.19
403.974	174.19
404.198	176.19
404.422	171.19
404.645	156.19
404.869	159.19
405.093	180.19
405.317	182.19
405.541	180.19
405.765	164.19
405.988	180.19
406.212	176.19
406.436	191.19
406.66	183.19
406.883	164.19
407.107	181.19
407.331	191.19
407.555	191.19
407.778	191.19
408.002	176.19
408.226	179.19
408.449	179.19
408.673	183.19
408.896	195.19
409.12	170.19
409.344	200.19
409.567	181.19
409.791	160.19
410.014	179.19
410.238	183.19
410.461	169.19
410.685	175.19
410.908	183.19
411.132	173.19
411.355	149.19
411.578	171.19
411.802	186.19
412.025	172.19
412.249	169.19
412.472	174.19
412.695	166.19
412.919	162.19
413.142	183.19
413.365	175.19
413.589	171.19
413.812	143.19
414.035	185.19
414.258	156.19
414.482	176.19
414.705	169.19
414.928	169.19
415.151	172.19
415.374	183.19
415.597	168.19
415.821	163.19
416.044	176.19
416.267	159.19
416.49	167.19
416.713	172.19
416.936	183.19
417.159	183.19
417.382	170.19
417.605	161.19
417.828	188.19
418.051	172.19
418.274	188.19
418.497	186.19
418.72	174.19
418.943	171.19
419.166	187.19
419.389	176.19
419.611	182.19
419.834	182.19
420.057	166.19
420.28	174.19
420.503	168.19
420.726	173.19
420.948	168.19
421.171	165.19
421.394	182.19
421.617	172.19
421.839	172.19
422.062	191.19
422.285	166.19
422.507	183.19
422.73	172.19
422.953	172.19
423.175	177.19
423.398	168.19
423.621	197.19
423.843	181.19
424.066	168.19
424.288	181.19
424.511	188.19
424.733	174.19
424.956	178.19
425.178	180.19
425.401	171.19
425.623	166.19
425.846	165.19
426.068	168.19
426.291	163.19
426.513	163.19
426.735	185.19
426.958	159.19
427.18	173.19
427.402	181.19
427.625	182.19
427.847	154.19
428.069	171.19
428.292	185.19
428.514	167.19
428.736	166.19
428.958	167.19
429.181	154.19
429.403	178.19
429.625	161.19
429.847	159.19
430.069	176.19
430.292	170.19
430.514	149.19
430.736	168.19
430.958	164.19
431.18	165.19
431.402	158.19
431.624	167.19
431.846	160.19
432.068	161.19
432.29	142.19
432.512	153.19
432.734	159.19
432.956	167.19
433.178	194.19
433.4	174.19
433.622	171.19
433.844	151.19
434.066	148.19
434.287	162.19
434.509	151.19
434.731	161.19
434.953	172.19
435.175	175.19
435.397	191.19
435.618	165.19
435.84	169.19
436.062	171.19
436.284	169.19
436.505	158.19
436.727	154.19
436.949	182.19
437.17	181.19
437.392	158.19
437.614	158.19
437.835	144.19
438.057	142.19
438.278	155.19
438.5	151.19
438.721	153.19
438.943	159.19
439.165	167.19
439.386	187.19
439.608	175.19
439.829	175.19
440.05	161.19
440.272	174.19
440.493	170.19
440.715	188.19
440.936	187.19
441.158	176.19
441.379	186.19
441.6	191.19
441.822	171.19
442.043	199.19
442.264	191.19
442.486	188.19
442.707	174.19
442.928	170.19
443.149	175.19
443.371	179.19
443.592	164.19
443.813	189.19
444.034	188.19
444.255	174.19
444.476	194.19
444.698	194.19
444.919	203.19
445.14	443.19
445.361	294.19
445.582	195.19
445.803	182.19
446.024	183.19
446.245	181.19
446.466	177.19
446.687	168.19
446.908	180.19
447.129	177.19
447.35	170.19
447.571	179.19
447.792	170.19
448.013	174.19
448.234	181.19
448.455	172.19
448.675	144.19
448.896	161.19
449.117	169.19
449.338	158.19
449.559	173.19
449.779	170.19
450	189.19
450.221	171.19
450.442	172.19
450.662	155.19
450.883	164.19
451.104	161.19
451.324	168.19
451.545	157.19
451.766	157.19
451.986	162.19
452.207	161.19
452.428	151.19
452.648	161.19
452.869	139.19
453.089	147.19
453.31	165.19
453.53	153.19
453.751	146.19
453.971	155.19
454.192	151.19
454.412	145.19
454.633	133.19
454.853	137.19
455.073	164.19
455.294	171.19
455.514	153.19
455.734	154.19
455.955	150.19
456.175	138.19
456.395	137.19
456.616	131.19
456.836	151.19
457.056	137.19
457.276	143.19
457.497	142.19
457.717	145.19
457.937	152.19
458.157	130.19
458.377	130.19
458.598	132.19
458.818	158.19
459.038	139.19
459.258	142.19
459.478	137.19
459.698	142.19
459.918	158.19
460.138	169.19
460.358	173.19
460.578	178.19
460.798	181.19
461.018	169.19
461.238	166.19
461.458	156.19
461.678	174.19
461.898	159.19
462.118	172.19
462.338	169.19
462.558	175.19
462.777	187.19
462.997	202.19
463.217	189.19
463.437	208.19
463.657	168.19
463.876	180.19
464.096	174.19
464.316	183.19
464.536	184.19
464.755	181.19
464.975	179.19
465.195	167.19
465.414	172.19
465.634	153.19
465.854	162.19
466.073	154.19
466.293	156.19
466.512	175.19
466.732	158.19
466.951	174.19
467.171	160.19
467.391	161.19
467.61	164.19
467.829	158.19
468.049	174.19
468.268	154.19
468.488	160.19
468.707	163.19
468.927	166.19
469.146	151.19
469.365	160.19
469.585	182.19
469.804	172.19
470.023	174.19
470.243	178.19
470.462	166.19
470.681	166.19
470.901	181.19
471.12	164.19
471.339	177.19
471.558	176.19
471.777	160.19
471.997	168.19
472.216	144.19
472.435	142.19
472.654	161.19
472.873	152.19
473.092	152.19
473.311	142.19
473.53	148.19
473.749	154.19
473.968	169.19
474.187	150.19
474.406	150.19
474.625	154.19
474.844	159.19
475.063	161.19
475.282	152.19
475.501	164.19
475.72	158.19
475.939	147.19
476.158	162.19
476.377	160.19
476.596	155.19
476.814	164.19
477.033	154.19
477.252	176.19
477.471	161.19
477.69	156.19
477.908	178.19
478.127	181.19
478.346	176.19
478.564	187.19
478.783	187.19
479.002	184.19
479.22	183.19
479.439	169.19
479.658	148.19
479.876	164.19
480.095	154.19
480.313	185.19
480.532	181.19
480.751	174.19
480.969	146.19
481.188	143.19
481.406	160.19
481.624	147.19
481.843	137.19
482.061	166.19
482.28	140.19
482.498	160.19
482.717	164.19
482.935	154.19
483.153	163.19
483.372	171.19
483.59	178.19
483.808	168.19
484.027	158.19
484.245	176.19
484.463	168.19
484.681	187.19
484.9	191.19
485.118	176.19
485.336	168.19
485.554	152.19
485.772	148.19
485.99	165.19
486.209	163.19
486.427	165.19
486.645	164.19
486.863	172.19
487.081	169.19
487.299	166.19
487.517	164.19
487.735	189.19
487.953	196.19
488.171	192.19
488.389	181.19
488.607	170.19
488.825	161.19
489.043	165.19
489.261	167.19
489.479	173.19
489.696	187.19
489.914	175.19
490.132	182.19
490.35	175.19
490.568	188.19
490.786	179.19
491.003	192.19
491.221	200.19
491.439	218.19
491.657	186.19
491.874	197.19
492.092	224.19
492.31	223.19
492.527	218.19
492.745	215.19
492.963	204.19
493.18	220.19
493.398	210.19
493.615	211.19
493.833	185.19
494.05	210.19
494.268	195.19
494.485	218.19
494.703	211.19
494.92	198.19
495.138	210.19
495.355	192.19
495.573	208.19
495.79	182.19
496.008	204.19
496.225	206.19
496.442	204.19
496.66	201.19
496.877	189.19
497.094	201.19
497.312	195.19
497.529	208.19
497.746	201.19
497.963	180.19
498.181	188.19
498.398	198.19
498.615	207.19
498.832	206.19
499.049	206.19
499.267	222.19
499.484	240.19
499.701	267.19
499.918	296.19
500.135	300.19
500.352	343.19
500.569	356.19
500.786	334.19
501.003	335.19
501.22	298.19
501.437	280.19
501.654	232.19
501.871	235.19
502.088	206.19
502.305	228.19
502.522	200.19
502.739	209.19
502.956	197.19
503.172	204.19
503.389	188.19
503.606	190.19
503.823	191.19
504.04	202.19
504.256	188.19
504.473	186.19
504.69	200.19
504.907	196.19
505.123	187.19
505.34	188.19
505.557	164.19
505.773	186.19
505.99	167.19
506.207	152.19
506.423	163.19
506.64	154.19
