Data from SampA_HRD10591_00025.txt Node
Date: Mon Jan 19 11:26:55 EST 2026
User: Yrep
Spectrometer: HR+D1059
Trigger mode: 0
Integration Time (sec): 3.443000E-1
Scans to average: 1
Electric dark correction enabled: true
Nonlinearity correction enabled: false
Boxcar width: 0
XAxis mode: Wavelengths
Number of Pixels in Spectrum: 2048
>>>>>Begin Spectral Data<<<<<
223.165	-17.75
223.4	-17.75
223.635	-17.75
223.869	-32.75
224.104	-26.75
224.338	-7.75
224.573	-6.75
224.808	-15.75
225.042	-9.75
225.277	2.25
225.511	-7.75
225.746	-2.75
225.98	20.25
226.215	20.25
226.449	19.25
226.683	18.25
226.918	29.25
227.152	18.25
227.387	51.25
227.621	22.25
227.856	42.25
228.09	50.25
228.324	54.25
228.559	68.25
228.793	72.25
229.027	74.25
229.262	70.25
229.496	79.25
229.73	73.25
229.964	81.25
230.199	87.25
230.433	87.25
230.667	98.25
230.901	98.25
231.136	91.25
231.37	77.25
231.604	84.25
231.838	84.25
232.072	91.25
232.306	82.25
232.541	83.25
232.775	74.25
233.009	95.25
233.243	94.25
233.477	97.25
233.711	84.25
233.945	73.25
234.179	94.25
234.413	102.25
234.647	89.25
234.881	113.25
235.115	95.25
235.349	95.25
235.583	76.25
235.817	78.25
236.051	93.25
236.285	77.25
236.519	81.25
236.753	84.25
236.987	80.25
237.221	96.25
237.455	97.25
237.689	94.25
237.922	80.25
238.156	94.25
238.39	89.25
238.624	89.25
238.858	102.25
239.091	88.25
239.325	90.25
239.559	98.25
239.793	72.25
240.027	90.25
240.26	96.25
240.494	108.25
240.728	97.25
240.961	79.25
241.195	91.25
241.429	94.25
241.662	85.25
241.896	86.25
242.13	84.25
242.363	105.25
242.597	87.25
242.83	96.25
243.064	90.25
243.298	93.25
243.531	78.25
243.765	80.25
243.998	81.25
244.232	106.25
244.465	101.25
244.699	99.25
244.932	91.25
245.166	82.25
245.399	97.25
245.633	107.25
245.866	96.25
246.099	93.25
246.333	105.25
246.566	99.25
246.8	100.25
247.033	100.25
247.266	88.25
247.5	94.25
247.733	92.25
247.966	106.25
248.2	88.25
248.433	98.25
248.666	91.25
248.899	104.25
249.133	94.25
249.366	105.25
249.599	105.25
249.832	85.25
250.066	106.25
250.299	97.25
250.532	91.25
250.765	95.25
250.998	108.25
251.231	89.25
251.465	103.25
251.698	84.25
251.931	104.25
252.164	106.25
252.397	100.25
252.63	105.25
252.863	95.25
253.096	113.25
253.329	98.25
253.562	114.25
253.795	92.25
254.028	96.25
254.261	96.25
254.494	106.25
254.727	121.25
254.96	110.25
255.193	97.25
255.426	98.25
255.659	101.25
255.892	104.25
256.124	106.25
256.357	99.25
256.59	124.25
256.823	104.25
257.056	108.25
257.289	101.25
257.521	96.25
257.754	106.25
257.987	108.25
258.22	114.25
258.452	110.25
258.685	128.25
258.918	102.25
259.151	104.25
259.383	114.25
259.616	114.25
259.849	100.25
260.081	114.25
260.314	109.25
260.547	108.25
260.779	125.25
261.012	117.25
261.244	109.25
261.477	132.25
261.71	113.25
261.942	101.25
262.175	113.25
262.407	114.25
262.64	104.25
262.872	125.25
263.105	104.25
263.337	121.25
263.57	100.25
263.802	100.25
264.035	117.25
264.267	123.25
264.499	103.25
264.732	112.25
264.964	117.25
265.197	110.25
265.429	124.25
265.661	102.25
265.894	116.25
266.126	129.25
266.358	112.25
266.591	109.25
266.823	123.25
267.055	115.25
267.287	128.25
267.52	129.25
267.752	138.25
267.984	121.25
268.216	121.25
268.448	124.25
268.681	137.25
268.913	124.25
269.145	120.25
269.377	127.25
269.609	125.25
269.841	123.25
270.073	116.25
270.306	118.25
270.538	131.25
270.77	119.25
271.002	124.25
271.234	113.25
271.466	121.25
271.698	117.25
271.93	133.25
272.162	126.25
272.394	120.25
272.626	132.25
272.858	106.25
273.09	138.25
273.322	141.25
273.553	126.25
273.785	119.25
274.017	129.25
274.249	129.25
274.481	111.25
274.713	127.25
274.945	125.25
275.176	127.25
275.408	119.25
275.64	124.25
275.872	122.25
276.104	131.25
276.335	124.25
276.567	115.25
276.799	122.25
277.031	124.25
277.262	128.25
277.494	141.25
277.726	146.25
277.957	114.25
278.189	109.25
278.421	121.25
278.652	121.25
278.884	132.25
279.115	137.25
279.347	122.25
279.579	128.25
279.81	148.25
280.042	127.25
280.273	117.25
280.505	132.25
280.736	157.25
280.968	133.25
281.199	143.25
281.431	140.25
281.662	141.25
281.894	143.25
282.125	134.25
282.356	137.25
282.588	148.25
282.819	122.25
283.051	136.25
283.282	138.25
283.513	161.25
283.745	134.25
283.976	143.25
284.207	125.25
284.439	132.25
284.67	149.25
284.901	135.25
285.132	154.25
285.364	135.25
285.595	141.25
285.826	144.25
286.057	131.25
286.288	139.25
286.52	121.25
286.751	160.25
286.982	144.25
287.213	139.25
287.444	152.25
287.675	154.25
287.906	137.25
288.138	143.25
288.369	152.25
288.6	137.25
288.831	143.25
289.062	144.25
289.293	149.25
289.524	125.25
289.755	136.25
289.986	154.25
290.217	145.25
290.448	162.25
290.679	153.25
290.91	168.25
291.141	150.25
291.371	154.25
291.602	137.25
291.833	157.25
292.064	158.25
292.295	148.25
292.526	152.25
292.757	153.25
292.987	142.25
293.218	164.25
293.449	161.25
293.68	160.25
293.91	145.25
294.141	179.25
294.372	149.25
294.603	149.25
294.833	154.25
295.064	157.25
295.295	154.25
295.525	162.25
295.756	168.25
295.987	148.25
296.217	150.25
296.448	166.25
296.679	167.25
296.909	155.25
297.14	156.25
297.37	160.25
297.601	140.25
297.831	136.25
298.062	167.25
298.292	165.25
298.523	161.25
298.753	171.25
298.984	174.25
299.214	155.25
299.445	162.25
299.675	166.25
299.905	159.25
300.136	167.25
300.366	148.25
300.597	152.25
300.827	142.25
301.057	154.25
301.288	154.25
301.518	177.25
301.748	151.25
301.979	194.25
302.209	175.25
302.439	154.25
302.669	158.25
302.9	153.25
303.13	161.25
303.36	165.25
303.59	159.25
303.82	146.25
304.051	162.25
304.281	153.25
304.511	160.25
304.741	161.25
304.971	154.25
305.201	154.25
305.431	163.25
305.661	159.25
305.891	141.25
306.121	172.25
306.352	148.25
306.582	155.25
306.812	164.25
307.042	179.25
307.272	155.25
307.502	159.25
307.731	169.25
307.961	154.25
308.191	132.25
308.421	167.25
308.651	160.25
308.881	160.25
309.111	170.25
309.341	166.25
309.571	159.25
309.8	159.25
310.03	159.25
310.26	153.25
310.49	163.25
310.72	177.25
310.949	170.25
311.179	153.25
311.409	166.25
311.639	170.25
311.868	167.25
312.098	160.25
312.328	176.25
312.557	182.25
312.787	168.25
313.017	156.25
313.246	165.25
313.476	178.25
313.706	167.25
313.935	156.25
314.165	166.25
314.394	171.25
314.624	162.25
314.853	193.25
315.083	177.25
315.312	179.25
315.542	182.25
315.771	190.25
316.001	156.25
316.23	172.25
316.46	176.25
316.689	151.25
316.919	158.25
317.148	160.25
317.377	168.25
317.607	171.25
317.836	158.25
318.065	167.25
318.295	177.25
318.524	166.25
318.753	145.25
318.983	146.25
319.212	166.25
319.441	160.25
319.67	173.25
319.9	152.25
320.129	163.25
320.358	176.25
320.587	171.25
320.816	172.25
321.046	162.25
321.275	171.25
321.504	166.25
321.733	165.25
321.962	168.25
322.191	162.25
322.42	153.25
322.649	172.25
322.878	167.25
323.108	180.25
323.337	172.25
323.566	161.25
323.795	156.25
324.024	181.25
324.253	170.25
324.482	180.25
324.71	169.25
324.939	170.25
325.168	173.25
325.397	174.25
325.626	183.25
325.855	196.25
326.084	180.25
326.313	179.25
326.542	177.25
326.77	170.25
326.999	171.25
327.228	177.25
327.457	170.25
327.686	184.25
327.914	166.25
328.143	184.25
328.372	171.25
328.6	154.25
328.829	185.25
329.058	161.25
329.287	168.25
329.515	179.25
329.744	202.25
329.972	194.25
330.201	159.25
330.43	175.25
330.658	180.25
330.887	167.25
331.115	182.25
331.344	186.25
331.572	194.25
331.801	210.25
332.03	200.25
332.258	221.25
332.486	188.25
332.715	193.25
332.943	221.25
333.172	217.25
333.4	206.25
333.629	229.25
333.857	232.25
334.085	214.25
334.314	218.25
334.542	203.25
334.771	205.25
334.999	206.25
335.227	212.25
335.455	208.25
335.684	199.25
335.912	198.25
336.14	214.25
336.369	201.25
336.597	207.25
336.825	210.25
337.053	192.25
337.281	205.25
337.51	194.25
337.738	198.25
337.966	182.25
338.194	172.25
338.422	196.25
338.65	194.25
338.878	188.25
339.106	198.25
339.334	202.25
339.562	183.25
339.79	182.25
340.018	173.25
340.246	194.25
340.474	180.25
340.702	185.25
340.93	190.25
341.158	172.25
341.386	170.25
341.614	185.25
341.842	177.25
342.07	190.25
342.298	178.25
342.526	173.25
342.754	180.25
342.981	182.25
343.209	193.25
343.437	233.25
343.665	200.25
343.893	209.25
344.12	213.25
344.348	198.25
344.576	182.25
344.804	192.25
345.031	176.25
345.259	194.25
345.487	175.25
345.714	186.25
345.942	184.25
346.17	185.25
346.397	172.25
346.625	187.25
346.853	180.25
347.08	201.25
347.308	185.25
347.535	169.25
347.763	179.25
347.99	187.25
348.218	189.25
348.445	173.25
348.673	197.25
348.9	180.25
349.128	189.25
349.355	176.25
349.583	182.25
349.81	165.25
350.037	169.25
350.265	180.25
350.492	164.25
350.72	170.25
350.947	171.25
351.174	169.25
351.402	174.25
351.629	182.25
351.856	185.25
352.083	165.25
352.311	182.25
352.538	162.25
352.765	177.25
352.992	192.25
353.22	186.25
353.447	187.25
353.674	190.25
353.901	204.25
354.128	180.25
354.355	177.25
354.583	188.25
354.81	178.25
355.037	173.25
355.264	197.25
355.491	180.25
355.718	161.25
355.945	194.25
356.172	175.25
356.399	162.25
356.626	172.25
356.853	184.25
357.08	187.25
357.307	178.25
357.534	188.25
357.761	176.25
357.988	198.25
358.215	177.25
358.441	183.25
358.668	185.25
358.895	181.25
359.122	180.25
359.349	185.25
359.576	166.25
359.802	184.25
360.029	188.25
360.256	176.25
360.483	174.25
360.709	164.25
360.936	179.25
361.163	186.25
361.39	183.25
361.616	181.25
361.843	186.25
362.07	188.25
362.296	198.25
362.523	182.25
362.749	167.25
362.976	172.25
363.203	204.25
363.429	179.25
363.656	186.25
363.882	178.25
364.109	180.25
364.335	169.25
364.562	161.25
364.788	183.25
365.015	185.25
365.241	180.25
365.468	188.25
365.694	177.25
365.92	180.25
366.147	176.25
366.373	185.25
366.599	174.25
366.826	174.25
367.052	185.25
367.278	178.25
367.505	194.25
367.731	192.25
367.957	188.25
368.184	186.25
368.41	170.25
368.636	184.25
368.862	190.25
369.089	172.25
369.315	173.25
369.541	184.25
369.767	188.25
369.993	175.25
370.219	181.25
370.445	187.25
370.672	196.25
370.898	198.25
371.124	192.25
371.35	188.25
371.576	196.25
371.802	203.25
372.028	202.25
372.254	185.25
372.48	206.25
372.706	200.25
372.932	188.25
373.158	187.25
373.384	206.25
373.61	209.25
373.835	199.25
374.061	178.25
374.287	198.25
374.513	203.25
374.739	197.25
374.965	224.25
375.191	210.25
375.416	213.25
375.642	191.25
375.868	198.25
376.094	182.25
376.319	207.25
376.545	188.25
376.771	198.25
376.997	206.25
377.222	186.25
377.448	218.25
377.674	183.25
377.899	209.25
378.125	201.25
378.35	207.25
378.576	190.25
378.802	191.25
379.027	176.25
379.253	184.25
379.478	204.25
379.704	183.25
379.929	200.25
380.155	186.25
380.38	194.25
380.606	187.25
380.831	184.25
381.057	209.25
381.282	209.25
381.507	205.25
381.733	217.25
381.958	186.25
382.184	180.25
382.409	204.25
382.634	215.25
382.86	218.25
383.085	209.25
383.31	215.25
383.535	221.25
383.761	222.25
383.986	224.25
384.211	224.25
384.436	224.25
384.662	217.25
384.887	226.25
385.112	233.25
385.337	226.25
385.562	225.25
385.787	217.25
386.013	226.25
386.238	216.25
386.463	210.25
386.688	248.25
386.913	221.25
387.138	228.25
387.363	238.25
387.588	241.25
387.813	226.25
388.038	226.25
388.263	223.25
388.488	230.25
388.713	235.25
388.938	229.25
389.163	223.25
389.387	226.25
389.612	224.25
389.837	220.25
390.062	232.25
390.287	229.25
390.512	247.25
390.736	246.25
390.961	229.25
391.186	233.25
391.411	237.25
391.636	246.25
391.86	247.25
392.085	258.25
392.31	248.25
392.534	231.25
392.759	243.25
392.984	233.25
393.208	244.25
393.433	242.25
393.658	252.25
393.882	253.25
394.107	235.25
394.331	260.25
394.556	268.25
394.78	255.25
395.005	266.25
395.229	262.25
395.454	257.25
395.678	266.25
395.903	251.25
396.127	268.25
396.352	250.25
396.576	250.25
396.801	238.25
397.025	250.25
397.249	272.25
397.474	278.25
397.698	256.25
397.922	276.25
398.147	272.25
398.371	263.25
398.595	287.25
398.82	308.25
399.044	323.25
399.268	336.25
399.492	405.25
399.717	424.25
399.941	385.25
400.165	336.25
400.389	319.25
400.613	296.25
400.837	300.25
401.062	304.25
401.286	309.25
401.51	304.25
401.734	308.25
401.958	313.25
402.182	319.25
402.406	292.25
402.63	317.25
402.854	343.25
403.078	344.25
403.302	315.25
403.526	341.25
403.75	344.25
403.974	354.25
404.198	346.25
404.422	377.25
404.645	349.25
404.869	348.25
405.093	351.25
405.317	332.25
405.541	347.25
405.765	347.25
405.988	343.25
406.212	342.25
406.436	336.25
406.66	377.25
406.883	365.25
407.107	371.25
407.331	379.25
407.555	397.25
407.778	389.25
408.002	384.25
408.226	374.25
408.449	357.25
408.673	372.25
408.896	358.25
409.12	358.25
409.344	374.25
409.567	349.25
409.791	364.25
410.014	367.25
410.238	352.25
410.461	367.25
410.685	350.25
410.908	350.25
411.132	353.25
411.355	344.25
411.578	353.25
411.802	343.25
412.025	354.25
412.249	354.25
412.472	346.25
412.695	343.25
412.919	340.25
413.142	337.25
413.365	339.25
413.589	324.25
413.812	327.25
414.035	324.25
414.258	334.25
414.482	330.25
414.705	366.25
414.928	350.25
415.151	351.25
415.374	337.25
415.597	335.25
415.821	319.25
416.044	316.25
416.267	333.25
416.49	333.25
416.713	326.25
416.936	347.25
417.159	333.25
417.382	326.25
417.605	336.25
417.828	325.25
418.051	340.25
418.274	351.25
418.497	368.25
418.72	348.25
418.943	341.25
419.166	356.25
419.389	388.25
419.611	376.25
419.834	347.25
420.057	361.25
420.28	342.25
420.503	340.25
420.726	362.25
420.948	335.25
421.171	349.25
421.394	327.25
421.617	358.25
421.839	364.25
422.062	366.25
422.285	352.25
422.507	358.25
422.73	361.25
422.953	358.25
423.175	374.25
423.398	345.25
423.621	364.25
423.843	370.25
424.066	361.25
424.288	363.25
424.511	388.25
424.733	362.25
424.956	362.25
425.178	367.25
425.401	342.25
425.623	340.25
425.846	331.25
426.068	316.25
426.291	337.25
426.513	346.25
426.735	342.25
426.958	328.25
427.18	319.25
427.402	337.25
427.625	329.25
427.847	328.25
428.069	323.25
428.292	301.25
428.514	317.25
428.736	310.25
428.958	294.25
429.181	308.25
429.403	310.25
429.625	309.25
429.847	306.25
430.069	320.25
430.292	314.25
430.514	309.25
430.736	322.25
430.958	317.25
431.18	298.25
431.402	296.25
431.624	297.25
431.846	283.25
432.068	280.25
432.29	280.25
432.512	289.25
432.734	322.25
432.956	321.25
433.178	337.25
433.4	327.25
433.622	316.25
433.844	324.25
434.066	309.25
434.287	300.25
434.509	302.25
434.731	307.25
434.953	313.25
435.175	314.25
435.397	323.25
435.618	302.25
435.84	302.25
436.062	317.25
436.284	299.25
436.505	320.25
436.727	300.25
436.949	319.25
437.17	308.25
437.392	302.25
437.614	305.25
437.835	291.25
438.057	291.25
438.278	293.25
438.5	302.25
438.721	326.25
438.943	309.25
439.165	316.25
439.386	313.25
439.608	333.25
439.829	334.25
440.05	330.25
440.272	338.25
440.493	335.25
440.715	333.25
440.936	345.25
441.158	355.25
441.379	342.25
441.6	345.25
441.822	352.25
442.043	372.25
442.264	340.25
442.486	352.25
442.707	356.25
442.928	360.25
443.149	329.25
443.371	341.25
443.592	361.25
443.813	359.25
444.034	347.25
444.255	388.25
444.476	381.25
444.698	415.25
444.919	410.25
445.14	623.25
445.361	479.25
445.582	362.25
445.803	341.25
446.024	353.25
446.245	363.25
446.466	349.25
446.687	350.25
446.908	362.25
447.129	341.25
447.35	340.25
447.571	319.25
447.792	337.25
448.013	302.25
448.234	310.25
448.455	327.25
448.675	303.25
448.896	276.25
449.117	308.25
449.338	285.25
449.559	309.25
449.779	302.25
450	288.25
450.221	324.25
450.442	315.25
450.662	294.25
450.883	292.25
451.104	332.25
451.324	326.25
451.545	309.25
451.766	304.25
451.986	304.25
452.207	306.25
452.428	296.25
452.648	312.25
452.869	268.25
453.089	260.25
453.31	277.25
453.53	287.25
453.751	262.25
453.971	249.25
454.192	266.25
454.412	266.25
454.633	272.25
454.853	286.25
455.073	297.25
455.294	282.25
455.514	282.25
455.734	268.25
455.955	271.25
456.175	266.25
456.395	268.25
456.616	272.25
456.836	268.25
457.056	269.25
457.276	242.25
457.497	262.25
457.717	252.25
457.937	262.25
458.157	255.25
458.377	257.25
458.598	262.25
458.818	258.25
459.038	260.25
459.258	266.25
459.478	267.25
459.698	289.25
459.918	300.25
460.138	314.25
460.358	348.25
460.578	349.25
460.798	348.25
461.018	327.25
461.238	353.25
461.458	351.25
461.678	329.25
461.898	341.25
462.118	346.25
462.338	337.25
462.558	380.25
462.777	373.25
462.997	400.25
463.217	432.25
463.437	430.25
463.657	383.25
463.876	386.25
464.096	400.25
464.316	391.25
464.536	376.25
464.755	384.25
464.975	346.25
465.195	324.25
465.414	319.25
465.634	316.25
465.854	302.25
466.073	293.25
466.293	300.25
466.512	296.25
466.732	305.25
466.951	317.25
467.171	316.25
467.391	300.25
467.61	304.25
467.829	313.25
468.049	298.25
468.268	298.25
468.488	295.25
468.707	302.25
468.927	303.25
469.146	310.25
469.365	324.25
469.585	302.25
469.804	304.25
470.023	318.25
470.243	316.25
470.462	331.25
470.681	302.25
470.901	321.25
471.12	310.25
471.339	325.25
471.558	306.25
471.777	308.25
471.997	284.25
472.216	301.25
472.435	271.25
472.654	276.25
472.873	279.25
473.092	290.25
473.311	288.25
473.53	288.25
473.749	300.25
473.968	291.25
474.187	277.25
474.406	272.25
474.625	291.25
474.844	309.25
475.063	276.25
475.282	289.25
475.501	279.25
475.72	275.25
475.939	287.25
476.158	286.25
476.377	287.25
476.596	278.25
476.814	273.25
477.033	273.25
477.252	284.25
477.471	298.25
477.69	339.25
477.908	324.25
478.127	346.25
478.346	328.25
478.564	351.25
478.783	342.25
479.002	354.25
479.22	352.25
479.439	349.25
479.658	320.25
479.876	320.25
480.095	328.25
480.313	359.25
480.532	365.25
480.751	347.25
480.969	314.25
481.188	309.25
481.406	304.25
481.624	272.25
481.843	284.25
482.061	288.25
482.28	297.25
482.498	299.25
482.717	288.25
482.935	310.25
483.153	328.25
483.372	326.25
483.59	321.25
483.808	304.25
484.027	324.25
484.245	344.25
484.463	340.25
484.681	344.25
484.9	333.25
485.118	328.25
485.336	341.25
485.554	299.25
485.772	306.25
485.99	301.25
486.209	318.25
486.427	316.25
486.645	324.25
486.863	357.25
487.081	334.25
487.299	338.25
487.517	332.25
487.735	336.25
487.953	384.25
488.171	375.25
488.389	367.25
488.607	350.25
488.825	324.25
489.043	325.25
489.261	339.25
489.479	320.25
489.696	340.25
489.914	329.25
490.132	342.25
490.35	344.25
490.568	358.25
490.786	379.25
491.003	372.25
491.221	385.25
491.439	390.25
491.657	376.25
491.874	398.25
492.092	420.25
492.31	426.25
492.527	422.25
492.745	401.25
492.963	395.25
493.18	400.25
493.398	402.25
493.615	407.25
493.833	398.25
494.05	374.25
494.268	377.25
494.485	384.25
494.703	397.25
494.92	372.25
495.138	402.25
495.355	393.25
495.573	397.25
495.79	377.25
496.008	402.25
496.225	389.25
496.442	381.25
496.66	386.25
496.877	384.25
497.094	392.25
497.312	392.25
497.529	385.25
497.746	381.25
497.963	402.25
498.181	390.25
498.398	413.25
498.615	426.25
498.832	423.25
499.049	463.25
499.267	504.25
499.484	546.25
499.701	639.25
499.918	674.25
500.135	786.25
500.352	862.25
500.569	887.25
500.786	839.25
501.003	768.25
501.22	695.25
501.437	642.25
501.654	572.25
501.871	534.25
502.088	487.25
502.305	474.25
502.522	438.25
502.739	439.25
502.956	411.25
503.172	409.25
503.389	378.25
503.606	373.25
503.823	362.25
504.04	385.25
