Data from SampA_HRD10591_00017.txt Node
Date: Mon Jan 19 11:26:52 EST 2026
User: Yrep
Spectrometer: HR+D1059
Trigger mode: 0
Integration Time (sec): 3.443000E-1
Scans to average: 1
Electric dark correction enabled: true
Nonlinearity correction enabled: false
Boxcar width: 0
XAxis mode: Wavelengths
Number of Pixels in Spectrum: 2048
>>>>>Begin Spectral Data<<<<<
223.165	-33.81
223.4	-33.81
223.635	-33.81
223.869	-21.81
224.104	-30.81
224.338	-14.81
224.573	-12.81
224.808	-9.81
225.042	-1.81
225.277	-7.81
225.511	7.19
225.746	18.19
225.98	6.19
226.215	11.19
226.449	11.19
226.683	16.19
226.918	26.19
227.152	37.19
227.387	34.19
227.621	50.19
227.856	40.19
228.09	46.19
228.324	52.19
228.559	62.19
228.793	70.19
229.027	90.19
229.262	71.19
229.496	71.19
229.73	80.19
229.964	92.19
230.199	78.19
230.433	83.19
230.667	77.19
230.901	76.19
231.136	82.19
231.37	87.19
231.604	80.19
231.838	76.19
232.072	108.19
232.306	79.19
232.541	84.19
232.775	102.19
233.009	86.19
233.243	78.19
233.477	88.19
233.711	87.19
233.945	83.19
234.179	76.19
234.413	79.19
234.647	91.19
234.881	79.19
235.115	75.19
235.349	92.19
235.583	92.19
235.817	79.19
236.051	81.19
236.285	87.19
236.519	77.19
236.753	82.19
236.987	85.19
237.221	83.19
237.455	82.19
237.689	87.19
237.922	73.19
238.156	72.19
238.39	87.19
238.624	94.19
238.858	88.19
239.091	92.19
239.325	84.19
239.559	78.19
239.793	84.19
240.027	87.19
240.26	83.19
240.494	95.19
240.728	73.19
240.961	76.19
241.195	99.19
241.429	77.19
241.662	74.19
241.896	79.19
242.13	74.19
242.363	105.19
242.597	92.19
242.83	96.19
243.064	87.19
243.298	76.19
243.531	92.19
243.765	91.19
243.998	85.19
244.232	95.19
244.465	98.19
244.699	92.19
244.932	74.19
245.166	83.19
245.399	91.19
245.633	97.19
245.866	88.19
246.099	89.19
246.333	90.19
246.566	95.19
246.8	102.19
247.033	92.19
247.266	88.19
247.5	84.19
247.733	93.19
247.966	90.19
248.2	88.19
248.433	88.19
248.666	89.19
248.899	93.19
249.133	86.19
249.366	96.19
249.599	98.19
249.832	86.19
250.066	110.19
250.299	91.19
250.532	97.19
250.765	103.19
250.998	96.19
251.231	109.19
251.465	89.19
251.698	87.19
251.931	100.19
252.164	96.19
252.397	103.19
252.63	99.19
252.863	104.19
253.096	90.19
253.329	87.19
253.562	102.19
253.795	103.19
254.028	110.19
254.261	93.19
254.494	94.19
254.727	95.19
254.96	91.19
255.193	91.19
255.426	78.19
255.659	96.19
255.892	105.19
256.124	102.19
256.357	97.19
256.59	103.19
256.823	86.19
257.056	93.19
257.289	97.19
257.521	110.19
257.754	102.19
257.987	105.19
258.22	119.19
258.452	88.19
258.685	99.19
258.918	92.19
259.151	108.19
259.383	112.19
259.616	99.19
259.849	100.19
260.081	95.19
260.314	114.19
260.547	103.19
260.779	99.19
261.012	100.19
261.244	91.19
261.477	117.19
261.71	112.19
261.942	101.19
262.175	109.19
262.407	111.19
262.64	106.19
262.872	97.19
263.105	103.19
263.337	115.19
263.57	113.19
263.802	117.19
264.035	119.19
264.267	106.19
264.499	110.19
264.732	115.19
264.964	106.19
265.197	110.19
265.429	110.19
265.661	104.19
265.894	106.19
266.126	110.19
266.358	103.19
266.591	107.19
266.823	100.19
267.055	100.19
267.287	120.19
267.52	100.19
267.752	113.19
267.984	106.19
268.216	112.19
268.448	119.19
268.681	123.19
268.913	110.19
269.145	113.19
269.377	115.19
269.609	95.19
269.841	111.19
270.073	107.19
270.306	107.19
270.538	114.19
270.77	111.19
271.002	101.19
271.234	118.19
271.466	127.19
271.698	107.19
271.93	95.19
272.162	111.19
272.394	115.19
272.626	115.19
272.858	117.19
273.09	110.19
273.322	117.19
273.553	119.19
273.785	119.19
274.017	109.19
274.249	116.19
274.481	123.19
274.713	113.19
274.945	108.19
275.176	128.19
275.408	130.19
275.64	104.19
275.872	117.19
276.104	118.19
276.335	124.19
276.567	122.19
276.799	116.19
277.031	100.19
277.262	110.19
277.494	120.19
277.726	124.19
277.957	120.19
278.189	131.19
278.421	111.19
278.652	123.19
278.884	126.19
279.115	122.19
279.347	124.19
279.579	107.19
279.81	115.19
280.042	124.19
280.273	131.19
280.505	112.19
280.736	117.19
280.968	122.19
281.199	125.19
281.431	142.19
281.662	124.19
281.894	114.19
282.125	117.19
282.356	130.19
282.588	127.19
282.819	144.19
283.051	123.19
283.282	119.19
283.513	147.19
283.745	147.19
283.976	136.19
284.207	132.19
284.439	123.19
284.67	135.19
284.901	135.19
285.132	134.19
285.364	123.19
285.595	144.19
285.826	120.19
286.057	126.19
286.288	136.19
286.52	144.19
286.751	152.19
286.982	124.19
287.213	132.19
287.444	141.19
287.675	127.19
287.906	154.19
288.138	126.19
288.369	130.19
288.6	132.19
288.831	136.19
289.062	136.19
289.293	143.19
289.524	119.19
289.755	116.19
289.986	135.19
290.217	138.19
290.448	135.19
290.679	144.19
290.91	156.19
291.141	134.19
291.371	136.19
291.602	136.19
291.833	128.19
292.064	133.19
292.295	132.19
292.526	132.19
292.757	136.19
292.987	121.19
293.218	124.19
293.449	132.19
293.68	140.19
293.91	136.19
294.141	149.19
294.372	133.19
294.603	130.19
294.833	130.19
295.064	142.19
295.295	136.19
295.525	132.19
295.756	129.19
295.987	131.19
296.217	133.19
296.448	148.19
296.679	149.19
296.909	121.19
297.14	132.19
297.37	139.19
297.601	113.19
297.831	132.19
298.062	126.19
298.292	136.19
298.523	150.19
298.753	120.19
298.984	154.19
299.214	153.19
299.445	123.19
299.675	128.19
299.905	127.19
300.136	135.19
300.366	147.19
300.597	168.19
300.827	157.19
301.057	141.19
301.288	160.19
301.518	140.19
301.748	147.19
301.979	171.19
302.209	134.19
302.439	140.19
302.669	150.19
302.9	146.19
303.13	148.19
303.36	151.19
303.59	151.19
303.82	128.19
304.051	146.19
304.281	150.19
304.511	146.19
304.741	151.19
304.971	130.19
305.201	150.19
305.431	156.19
305.661	163.19
305.891	153.19
306.121	150.19
306.352	146.19
306.582	134.19
306.812	130.19
307.042	150.19
307.272	138.19
307.502	143.19
307.731	139.19
307.961	139.19
308.191	151.19
308.421	148.19
308.651	138.19
308.881	143.19
309.111	152.19
309.341	135.19
309.571	129.19
309.8	124.19
310.03	149.19
310.26	150.19
310.49	152.19
310.72	146.19
310.949	154.19
311.179	161.19
311.409	153.19
311.639	154.19
311.868	146.19
312.098	164.19
312.328	160.19
312.557	167.19
312.787	159.19
313.017	156.19
313.246	143.19
313.476	151.19
313.706	148.19
313.935	152.19
314.165	153.19
314.394	161.19
314.624	158.19
314.853	151.19
315.083	156.19
315.312	152.19
315.542	138.19
315.771	165.19
316.001	151.19
316.23	162.19
316.46	138.19
316.689	138.19
316.919	168.19
317.148	158.19
317.377	159.19
317.607	132.19
317.836	146.19
318.065	151.19
318.295	152.19
318.524	145.19
318.753	151.19
318.983	143.19
319.212	139.19
319.441	144.19
319.67	154.19
319.9	143.19
320.129	143.19
320.358	155.19
320.587	152.19
320.816	150.19
321.046	153.19
321.275	163.19
321.504	141.19
321.733	133.19
321.962	151.19
322.191	148.19
322.42	163.19
322.649	179.19
322.878	143.19
323.108	152.19
323.337	161.19
323.566	153.19
323.795	156.19
324.024	158.19
324.253	161.19
324.482	151.19
324.71	147.19
324.939	176.19
325.168	173.19
325.397	140.19
325.626	168.19
325.855	159.19
326.084	168.19
326.313	159.19
326.542	152.19
326.77	168.19
326.999	156.19
327.228	162.19
327.457	164.19
327.686	174.19
327.914	165.19
328.143	170.19
328.372	148.19
328.6	161.19
328.829	161.19
329.058	175.19
329.287	159.19
329.515	152.19
329.744	165.19
329.972	146.19
330.201	170.19
330.43	167.19
330.658	143.19
330.887	163.19
331.115	171.19
331.344	155.19
331.572	164.19
331.801	172.19
332.03	170.19
332.258	191.19
332.486	194.19
332.715	188.19
332.943	186.19
333.172	195.19
333.4	191.19
333.629	203.19
333.857	197.19
334.085	202.19
334.314	192.19
334.542	192.19
334.771	187.19
334.999	184.19
335.227	196.19
335.455	183.19
335.684	180.19
335.912	180.19
336.14	187.19
336.369	180.19
336.597	183.19
336.825	180.19
337.053	176.19
337.281	179.19
337.51	154.19
337.738	190.19
337.966	170.19
338.194	174.19
338.422	180.19
338.65	161.19
338.878	187.19
339.106	171.19
339.334	182.19
339.562	160.19
339.79	169.19
340.018	159.19
340.246	156.19
340.474	168.19
340.702	169.19
340.93	148.19
341.158	178.19
341.386	160.19
341.614	163.19
341.842	156.19
342.07	160.19
342.298	163.19
342.526	165.19
342.754	166.19
342.981	162.19
343.209	164.19
343.437	203.19
343.665	171.19
343.893	167.19
344.12	195.19
344.348	171.19
344.576	182.19
344.804	177.19
345.031	166.19
345.259	166.19
345.487	154.19
345.714	159.19
345.942	160.19
346.17	166.19
346.397	164.19
346.625	172.19
346.853	171.19
347.08	169.19
347.308	170.19
347.535	166.19
347.763	160.19
347.99	168.19
348.218	170.19
348.445	171.19
348.673	156.19
348.9	158.19
349.128	169.19
349.355	155.19
349.583	153.19
349.81	161.19
350.037	168.19
350.265	156.19
350.492	168.19
350.72	170.19
350.947	150.19
351.174	178.19
351.402	156.19
351.629	149.19
351.856	151.19
352.083	147.19
352.311	168.19
352.538	155.19
352.765	163.19
352.992	178.19
353.22	160.19
353.447	165.19
353.674	162.19
353.901	159.19
354.128	160.19
354.355	152.19
354.583	165.19
354.81	160.19
355.037	169.19
355.264	166.19
355.491	167.19
355.718	158.19
355.945	158.19
356.172	168.19
356.399	143.19
356.626	143.19
356.853	156.19
357.08	176.19
357.307	159.19
357.534	167.19
357.761	159.19
357.988	167.19
358.215	163.19
358.441	171.19
358.668	158.19
358.895	170.19
359.122	165.19
359.349	154.19
359.576	175.19
359.802	166.19
360.029	159.19
360.256	168.19
360.483	149.19
360.709	159.19
360.936	172.19
361.163	163.19
361.39	177.19
361.616	158.19
361.843	152.19
362.07	159.19
362.296	162.19
362.523	157.19
362.749	165.19
362.976	154.19
363.203	170.19
363.429	148.19
363.656	163.19
363.882	158.19
364.109	168.19
364.335	162.19
364.562	161.19
364.788	147.19
365.015	183.19
365.241	166.19
365.468	168.19
365.694	163.19
365.92	167.19
366.147	181.19
366.373	178.19
366.599	154.19
366.826	159.19
367.052	156.19
367.278	162.19
367.505	149.19
367.731	176.19
367.957	164.19
368.184	149.19
368.41	156.19
368.636	172.19
368.862	176.19
369.089	169.19
369.315	159.19
369.541	171.19
369.767	186.19
369.993	156.19
370.219	150.19
370.445	164.19
370.672	178.19
370.898	167.19
371.124	177.19
371.35	173.19
371.576	180.19
371.802	154.19
372.028	169.19
372.254	161.19
372.48	163.19
372.706	170.19
372.932	165.19
373.158	174.19
373.384	165.19
373.61	170.19
373.835	184.19
374.061	159.19
374.287	172.19
374.513	168.19
374.739	178.19
374.965	185.19
375.191	172.19
375.416	179.19
375.642	174.19
375.868	182.19
376.094	187.19
376.319	197.19
376.545	178.19
376.771	164.19
376.997	175.19
377.222	171.19
377.448	176.19
377.674	167.19
377.899	181.19
378.125	182.19
378.35	159.19
378.576	150.19
378.802	173.19
379.027	166.19
379.253	179.19
379.478	161.19
379.704	169.19
379.929	174.19
380.155	189.19
380.38	171.19
380.606	175.19
380.831	179.19
381.057	187.19
381.282	169.19
381.507	182.19
381.733	167.19
381.958	170.19
382.184	187.19
382.409	168.19
382.634	180.19
382.86	183.19
383.085	182.19
383.31	183.19
383.535	209.19
383.761	205.19
383.986	196.19
384.211	198.19
384.436	186.19
384.662	191.19
384.887	189.19
385.112	210.19
385.337	208.19
385.562	201.19
385.787	190.19
386.013	215.19
386.238	204.19
386.463	207.19
386.688	222.19
386.913	197.19
387.138	222.19
387.363	211.19
387.588	208.19
387.813	205.19
388.038	211.19
388.263	224.19
388.488	198.19
388.713	212.19
388.938	214.19
389.163	194.19
389.387	175.19
389.612	199.19
389.837	204.19
390.062	202.19
390.287	198.19
390.512	214.19
390.736	203.19
390.961	211.19
391.186	218.19
391.411	214.19
391.636	229.19
391.86	223.19
392.085	222.19
392.31	221.19
392.534	219.19
392.759	218.19
392.984	235.19
393.208	214.19
393.433	215.19
393.658	215.19
393.882	234.19
394.107	239.19
394.331	218.19
394.556	232.19
394.78	209.19
395.005	221.19
395.229	212.19
395.454	216.19
395.678	237.19
395.903	232.19
396.127	226.19
396.352	231.19
396.576	227.19
396.801	224.19
397.025	223.19
397.249	223.19
397.474	245.19
397.698	260.19
397.922	267.19
398.147	239.19
398.371	251.19
398.595	256.19
398.82	263.19
399.044	282.19
399.268	310.19
399.492	338.19
399.717	360.19
399.941	360.19
400.165	323.19
400.389	296.19
400.613	284.19
400.837	272.19
401.062	282.19
401.286	273.19
401.51	280.19
401.734	261.19
401.958	268.19
402.182	284.19
402.406	271.19
402.63	282.19
402.854	279.19
403.078	309.19
403.302	303.19
403.526	306.19
403.75	300.19
403.974	315.19
404.198	314.19
404.422	316.19
404.645	313.19
404.869	309.19
405.093	317.19
405.317	299.19
405.541	307.19
405.765	310.19
405.988	306.19
406.212	336.19
406.436	305.19
406.66	327.19
406.883	326.19
407.107	324.19
407.331	345.19
407.555	336.19
407.778	356.19
408.002	335.19
408.226	322.19
408.449	307.19
408.673	311.19
408.896	339.19
409.12	343.19
409.344	330.19
409.567	330.19
409.791	336.19
410.014	334.19
410.238	332.19
410.461	333.19
410.685	334.19
410.908	314.19
411.132	327.19
411.355	313.19
411.578	327.19
411.802	332.19
412.025	308.19
412.249	327.19
412.472	303.19
412.695	289.19
412.919	293.19
413.142	292.19
413.365	301.19
413.589	310.19
413.812	321.19
414.035	322.19
414.258	324.19
414.482	319.19
414.705	322.19
414.928	310.19
415.151	293.19
415.374	324.19
415.597	318.19
415.821	304.19
416.044	313.19
416.267	310.19
416.49	317.19
416.713	310.19
416.936	305.19
417.159	316.19
417.382	303.19
417.605	306.19
417.828	332.19
418.051	305.19
418.274	324.19
418.497	312.19
418.72	296.19
418.943	317.19
419.166	328.19
419.389	356.19
419.611	368.19
419.834	338.19
420.057	338.19
420.28	317.19
420.503	311.19
420.726	317.19
420.948	289.19
421.171	317.19
421.394	332.19
421.617	338.19
421.839	323.19
422.062	315.19
422.285	308.19
422.507	332.19
422.73	337.19
422.953	315.19
423.175	339.19
423.398	332.19
423.621	346.19
423.843	342.19
424.066	339.19
424.288	347.19
424.511	328.19
424.733	329.19
424.956	323.19
425.178	326.19
425.401	303.19
425.623	322.19
425.846	329.19
426.068	312.19
426.291	304.19
426.513	304.19
426.735	308.19
426.958	304.19
427.18	315.19
427.402	294.19
427.625	284.19
427.847	284.19
428.069	293.19
428.292	286.19
428.514	302.19
428.736	296.19
428.958	276.19
429.181	292.19
429.403	283.19
429.625	275.19
429.847	292.19
430.069	294.19
430.292	312.19
430.514	291.19
430.736	286.19
430.958	284.19
431.18	295.19
431.402	284.19
431.624	269.19
431.846	272.19
432.068	261.19
432.29	264.19
432.512	275.19
432.734	310.19
432.956	295.19
433.178	299.19
433.4	301.19
433.622	308.19
433.844	303.19
434.066	297.19
434.287	266.19
434.509	270.19
434.731	289.19
434.953	292.19
435.175	300.19
435.397	306.19
435.618	299.19
435.84	276.19
436.062	270.19
436.284	292.19
436.505	300.19
436.727	291.19
436.949	297.19
437.17	286.19
437.392	278.19
437.614	279.19
437.835	256.19
438.057	262.19
438.278	262.19
438.5	280.19
438.721	286.19
438.943	302.19
439.165	300.19
439.386	309.19
439.608	314.19
439.829	288.19
440.05	313.19
440.272	309.19
440.493	298.19
440.715	327.19
440.936	309.19
441.158	326.19
441.379	323.19
441.6	331.19
441.822	344.19
442.043	314.19
442.264	339.19
442.486	311.19
442.707	316.19
442.928	320.19
443.149	333.19
443.371	322.19
443.592	309.19
443.813	334.19
444.034	340.19
444.255	354.19
444.476	351.19
444.698	360.19
444.919	357.19
445.14	532.19
445.361	410.19
445.582	325.19
445.803	312.19
446.024	319.19
446.245	318.19
446.466	338.19
446.687	320.19
446.908	327.19
447.129	315.19
447.35	299.19
447.571	322.19
447.792	296.19
448.013	308.19
448.234	282.19
448.455	292.19
448.675	288.19
448.896	292.19
449.117	284.19
449.338	285.19
449.559	288.19
449.779	271.19
450	287.19
450.221	271.19
450.442	276.19
450.662	272.19
450.883	277.19
451.104	288.19
451.324	286.19
451.545	253.19
451.766	269.19
451.986	272.19
452.207	252.19
452.428	276.19
452.648	276.19
452.869	276.19
453.089	233.19
453.31	259.19
453.53	249.19
453.751	242.19
453.971	251.19
454.192	251.19
454.412	255.19
454.633	242.19
454.853	269.19
455.073	260.19
455.294	276.19
455.514	308.19
455.734	261.19
455.955	245.19
456.175	258.19
456.395	243.19
456.616	237.19
456.836	242.19
457.056	243.19
457.276	221.19
457.497	250.19
457.717	249.19
457.937	242.19
458.157	253.19
458.377	240.19
458.598	242.19
458.818	239.19
459.038	255.19
459.258	261.19
459.478	249.19
459.698	268.19
459.918	261.19
460.138	294.19
460.358	310.19
460.578	318.19
460.798	309.19
461.018	315.19
461.238	308.19
461.458	313.19
461.678	285.19
461.898	312.19
462.118	332.19
462.338	330.19
462.558	337.19
462.777	357.19
462.997	366.19
463.217	375.19
463.437	378.19
463.657	342.19
463.876	342.19
464.096	350.19
464.316	328.19
464.536	338.19
464.755	340.19
464.975	320.19
465.195	297.19
465.414	302.19
465.634	279.19
465.854	277.19
466.073	285.19
466.293	295.19
466.512	292.19
466.732	293.19
466.951	279.19
467.171	298.19
467.391	276.19
467.61	278.19
467.829	281.19
468.049	267.19
468.268	279.19
468.488	267.19
468.707	287.19
468.927	285.19
469.146	275.19
469.365	276.19
469.585	285.19
469.804	306.19
470.023	289.19
470.243	306.19
470.462	297.19
470.681	298.19
470.901	287.19
471.12	298.19
471.339	307.19
471.558	287.19
471.777	285.19
471.997	284.19
472.216	270.19
472.435	251.19
472.654	260.19
472.873	254.19
473.092	262.19
473.311	271.19
473.53	254.19
473.749	258.19
473.968	272.19
474.187	257.19
474.406	262.19
474.625	268.19
474.844	277.19
475.063	248.19
475.282	271.19
475.501	256.19
475.72	269.19
475.939	278.19
476.158	249.19
476.377	292.19
476.596	268.19
476.814	269.19
477.033	274.19
477.252	253.19
477.471	292.19
477.69	294.19
477.908	323.19
478.127	312.19
478.346	319.19
478.564	313.19
478.783	313.19
479.002	310.19
479.22	332.19
479.439	313.19
479.658	301.19
479.876	296.19
480.095	293.19
480.313	316.19
480.532	322.19
480.751	310.19
480.969	293.19
481.188	292.19
481.406	273.19
481.624	270.19
481.843	280.19
482.061	279.19
482.28	257.19
482.498	254.19
482.717	278.19
482.935	280.19
483.153	315.19
483.372	323.19
483.59	302.19
483.808	315.19
484.027	290.19
484.245	292.19
484.463	283.19
484.681	330.19
484.9	324.19
485.118	307.19
485.336	282.19
485.554	273.19
485.772	298.19
485.99	280.19
486.209	293.19
486.427	296.19
486.645	285.19
486.863	318.19
487.081	328.19
487.299	307.19
487.517	319.19
487.735	354.19
487.953	341.19
488.171	368.19
488.389	349.19
488.607	326.19
488.825	292.19
489.043	287.19
489.261	303.19
489.479	310.19
489.696	310.19
489.914	326.19
490.132	324.19
490.35	326.19
490.568	340.19
490.786	344.19
491.003	357.19
491.221	349.19
491.439	378.19
491.657	375.19
491.874	375.19
492.092	386.19
492.31	423.19
492.527	394.19
492.745	378.19
492.963	390.19
493.18	384.19
493.398	387.19
493.615	406.19
493.833	388.19
494.05	362.19
494.268	362.19
494.485	359.19
494.703	369.19
494.92	353.19
495.138	371.19
495.355	366.19
495.573	356.19
495.79	354.19
496.008	360.19
496.225	364.19
496.442	345.19
496.66	364.19
496.877	351.19
497.094	363.19
497.312	372.19
497.529	398.19
497.746	364.19
497.963	345.19
498.181	379.19
498.398	380.19
498.615	387.19
498.832	415.19
499.049	435.19
499.267	478.19
499.484	512.19
499.701	542.19
499.918	614.19
500.135	684.19
500.352	763.19
500.569	785.19
500.786	746.19
501.003	704.19
501.22	643.19
501.437	562.19
501.654	540.19
501.871	482.19
502.088	439.19
502.305	426.19
502.522	403.19
502.739	399.19
502.956	367.19
503.172	370.19
503.389	345.19
503.606	335.19
503.823	340.19
504.04	370.19
504.256	348.19
