Data from SampA_HRD10591_00044.txt Node
Date: Mon Jan 19 11:27:01 EST 2026
User: Yrep
Spectrometer: HR+D1059
Trigger mode: 0
Integration Time (sec): 3.443000E-1
Scans to average: 1
Electric dark correction enabled: true
Nonlinearity correction enabled: false
Boxcar width: 0
XAxis mode: Wavelengths
Number of Pixels in Spectrum: 2048
>>>>>Begin Spectral Data<<<<<
223.165	-41.88
223.4	-41.88
223.635	-41.88
223.869	-34.88
224.104	-27.88
224.338	-3.88
224.573	10.12
224.808	-3.88
225.042	-3.88
225.277	-13.88
225.511	-3.88
225.746	6.12
225.98	-2.88
226.215	25.12
226.449	15.12
226.683	21.12
226.918	22.12
227.152	37.12
227.387	25.12
227.621	27.12
227.856	55.12
228.09	18.12
228.324	50.12
228.559	55.12
228.793	46.12
229.027	67.12
229.262	59.12
229.496	63.12
229.73	75.12
229.964	64.12
230.199	69.12
230.433	63.12
230.667	61.12
230.901	73.12
231.136	72.12
231.37	79.12
231.604	66.12
231.838	93.12
232.072	67.12
232.306	75.12
232.541	80.12
232.775	84.12
233.009	83.12
233.243	61.12
233.477	73.12
233.711	76.12
233.945	76.12
234.179	77.12
234.413	87.12
234.647	76.12
234.881	84.12
235.115	71.12
235.349	63.12
235.583	75.12
235.817	74.12
236.051	85.12
236.285	72.12
236.519	83.12
236.753	81.12
236.987	70.12
237.221	79.12
237.455	63.12
237.689	85.12
237.922	72.12
238.156	70.12
238.39	75.12
238.624	68.12
238.858	72.12
239.091	86.12
239.325	89.12
239.559	57.12
239.793	61.12
240.027	88.12
240.26	79.12
240.494	91.12
240.728	85.12
240.961	80.12
241.195	60.12
241.429	75.12
241.662	71.12
241.896	73.12
242.13	67.12
242.363	92.12
242.597	60.12
242.83	81.12
243.064	79.12
243.298	71.12
243.531	80.12
243.765	88.12
243.998	80.12
244.232	83.12
244.465	91.12
244.699	74.12
244.932	80.12
245.166	67.12
245.399	69.12
245.633	93.12
245.866	81.12
246.099	74.12
246.333	92.12
246.566	74.12
246.8	84.12
247.033	82.12
247.266	75.12
247.5	85.12
247.733	80.12
247.966	75.12
248.2	74.12
248.433	71.12
248.666	85.12
248.899	90.12
249.133	80.12
249.366	80.12
249.599	83.12
249.832	72.12
250.066	72.12
250.299	85.12
250.532	95.12
250.765	86.12
250.998	92.12
251.231	80.12
251.465	92.12
251.698	82.12
251.931	73.12
252.164	77.12
252.397	89.12
252.63	96.12
252.863	72.12
253.096	88.12
253.329	91.12
253.562	85.12
253.795	83.12
254.028	68.12
254.261	91.12
254.494	89.12
254.727	92.12
254.96	81.12
255.193	76.12
255.426	74.12
255.659	89.12
255.892	91.12
256.124	76.12
256.357	85.12
256.59	88.12
256.823	75.12
257.056	94.12
257.289	82.12
257.521	91.12
257.754	70.12
257.987	63.12
258.22	98.12
258.452	81.12
258.685	73.12
258.918	83.12
259.151	84.12
259.383	93.12
259.616	94.12
259.849	85.12
260.081	94.12
260.314	81.12
260.547	82.12
260.779	91.12
261.012	86.12
261.244	81.12
261.477	96.12
261.71	96.12
261.942	84.12
262.175	99.12
262.407	79.12
262.64	82.12
262.872	90.12
263.105	86.12
263.337	96.12
263.57	88.12
263.802	86.12
264.035	90.12
264.267	85.12
264.499	58.12
264.732	92.12
264.964	84.12
265.197	84.12
265.429	97.12
265.661	97.12
265.894	85.12
266.126	95.12
266.358	97.12
266.591	86.12
266.823	92.12
267.055	75.12
267.287	88.12
267.52	99.12
267.752	91.12
267.984	92.12
268.216	84.12
268.448	94.12
268.681	87.12
268.913	101.12
269.145	93.12
269.377	99.12
269.609	86.12
269.841	81.12
270.073	93.12
270.306	95.12
270.538	74.12
270.77	89.12
271.002	100.12
271.234	108.12
271.466	93.12
271.698	90.12
271.93	90.12
272.162	84.12
272.394	90.12
272.626	81.12
272.858	86.12
273.09	97.12
273.322	90.12
273.553	92.12
273.785	104.12
274.017	99.12
274.249	76.12
274.481	90.12
274.713	92.12
274.945	93.12
275.176	80.12
275.408	88.12
275.64	97.12
275.872	98.12
276.104	90.12
276.335	86.12
276.567	94.12
276.799	92.12
277.031	92.12
277.262	94.12
277.494	89.12
277.726	98.12
277.957	102.12
278.189	91.12
278.421	77.12
278.652	107.12
278.884	92.12
279.115	103.12
279.347	87.12
279.579	101.12
279.81	82.12
280.042	90.12
280.273	87.12
280.505	97.12
280.736	88.12
280.968	84.12
281.199	94.12
281.431	101.12
281.662	93.12
281.894	89.12
282.125	104.12
282.356	87.12
282.588	91.12
282.819	103.12
283.051	107.12
283.282	93.12
283.513	92.12
283.745	103.12
283.976	94.12
284.207	93.12
284.439	109.12
284.67	99.12
284.901	83.12
285.132	91.12
285.364	104.12
285.595	109.12
285.826	103.12
286.057	108.12
286.288	90.12
286.52	95.12
286.751	99.12
286.982	88.12
287.213	95.12
287.444	98.12
287.675	100.12
287.906	100.12
288.138	96.12
288.369	94.12
288.6	111.12
288.831	88.12
289.062	109.12
289.293	106.12
289.524	96.12
289.755	96.12
289.986	90.12
290.217	99.12
290.448	87.12
290.679	90.12
290.91	93.12
291.141	97.12
291.371	111.12
291.602	86.12
291.833	94.12
292.064	100.12
292.295	107.12
292.526	108.12
292.757	99.12
292.987	97.12
293.218	97.12
293.449	94.12
293.68	115.12
293.91	90.12
294.141	104.12
294.372	102.12
294.603	97.12
294.833	96.12
295.064	103.12
295.295	102.12
295.525	92.12
295.756	101.12
295.987	90.12
296.217	95.12
296.448	92.12
296.679	83.12
296.909	101.12
297.14	104.12
297.37	96.12
297.601	78.12
297.831	92.12
298.062	103.12
298.292	103.12
298.523	99.12
298.753	100.12
298.984	102.12
299.214	89.12
299.445	111.12
299.675	97.12
299.905	116.12
300.136	103.12
300.366	89.12
300.597	106.12
300.827	100.12
301.057	109.12
301.288	106.12
301.518	101.12
301.748	93.12
301.979	141.12
302.209	99.12
302.439	101.12
302.669	95.12
302.9	92.12
303.13	88.12
303.36	101.12
303.59	101.12
303.82	109.12
304.051	108.12
304.281	118.12
304.511	99.12
304.741	96.12
304.971	92.12
305.201	100.12
305.431	109.12
305.661	104.12
305.891	94.12
306.121	97.12
306.352	94.12
306.582	89.12
306.812	100.12
307.042	106.12
307.272	98.12
307.502	99.12
307.731	103.12
307.961	101.12
308.191	91.12
308.421	99.12
308.651	91.12
308.881	96.12
309.111	91.12
309.341	99.12
309.571	85.12
309.8	99.12
310.03	107.12
310.26	96.12
310.49	104.12
310.72	80.12
310.949	103.12
311.179	97.12
311.409	90.12
311.639	89.12
311.868	102.12
312.098	110.12
312.328	103.12
312.557	115.12
312.787	111.12
313.017	105.12
313.246	102.12
313.476	101.12
313.706	100.12
313.935	100.12
314.165	88.12
314.394	106.12
314.624	101.12
314.853	97.12
315.083	96.12
315.312	104.12
315.542	93.12
315.771	117.12
316.001	102.12
316.23	90.12
316.46	92.12
316.689	85.12
316.919	110.12
317.148	95.12
317.377	120.12
317.607	107.12
317.836	94.12
318.065	96.12
318.295	87.12
318.524	103.12
318.753	97.12
318.983	102.12
319.212	112.12
319.441	95.12
319.67	99.12
319.9	103.12
320.129	104.12
320.358	100.12
320.587	107.12
320.816	105.12
321.046	105.12
321.275	116.12
321.504	100.12
321.733	86.12
321.962	99.12
322.191	90.12
322.42	109.12
322.649	116.12
322.878	107.12
323.108	105.12
323.337	97.12
323.566	99.12
323.795	97.12
324.024	103.12
324.253	103.12
324.482	96.12
324.71	113.12
324.939	111.12
325.168	94.12
325.397	102.12
325.626	88.12
325.855	103.12
326.084	101.12
326.313	117.12
326.542	105.12
326.77	102.12
326.999	103.12
327.228	112.12
327.457	90.12
327.686	94.12
327.914	98.12
328.143	113.12
328.372	113.12
328.6	101.12
328.829	113.12
329.058	120.12
329.287	93.12
329.515	99.12
329.744	94.12
329.972	107.12
330.201	107.12
330.43	112.12
330.658	89.12
330.887	111.12
331.115	101.12
331.344	116.12
331.572	111.12
331.801	115.12
332.03	118.12
332.258	117.12
332.486	103.12
332.715	104.12
332.943	111.12
333.172	112.12
333.4	108.12
333.629	133.12
333.857	116.12
334.085	124.12
334.314	117.12
334.542	117.12
334.771	104.12
334.999	117.12
335.227	115.12
335.455	117.12
335.684	131.12
335.912	116.12
336.14	114.12
336.369	109.12
336.597	99.12
336.825	121.12
337.053	106.12
337.281	130.12
337.51	92.12
337.738	114.12
337.966	102.12
338.194	106.12
338.422	113.12
338.65	111.12
338.878	112.12
339.106	99.12
339.334	113.12
339.562	95.12
339.79	118.12
340.018	109.12
340.246	117.12
340.474	106.12
340.702	99.12
340.93	103.12
341.158	99.12
341.386	114.12
341.614	111.12
341.842	103.12
342.07	101.12
342.298	93.12
342.526	94.12
342.754	97.12
342.981	115.12
343.209	118.12
343.437	151.12
343.665	120.12
343.893	117.12
344.12	130.12
344.348	104.12
344.576	115.12
344.804	107.12
345.031	106.12
345.259	87.12
345.487	122.12
345.714	105.12
345.942	112.12
346.17	95.12
346.397	108.12
346.625	112.12
346.853	101.12
347.08	101.12
347.308	107.12
347.535	116.12
347.763	103.12
347.99	119.12
348.218	102.12
348.445	108.12
348.673	85.12
348.9	109.12
349.128	86.12
349.355	108.12
349.583	117.12
349.81	106.12
350.037	103.12
350.265	105.12
350.492	94.12
350.72	97.12
350.947	91.12
351.174	98.12
351.402	100.12
351.629	93.12
351.856	91.12
352.083	97.12
352.311	99.12
352.538	102.12
352.765	103.12
352.992	119.12
353.22	98.12
353.447	108.12
353.674	112.12
353.901	94.12
354.128	113.12
354.355	97.12
354.583	99.12
354.81	111.12
355.037	114.12
355.264	96.12
355.491	115.12
355.718	102.12
355.945	93.12
356.172	101.12
356.399	108.12
356.626	87.12
356.853	94.12
357.08	120.12
357.307	94.12
357.534	108.12
357.761	115.12
357.988	114.12
358.215	112.12
358.441	110.12
358.668	99.12
358.895	91.12
359.122	104.12
359.349	111.12
359.576	88.12
359.802	99.12
360.029	106.12
360.256	118.12
360.483	117.12
360.709	106.12
360.936	113.12
361.163	101.12
361.39	108.12
361.616	110.12
361.843	117.12
362.07	102.12
362.296	101.12
362.523	100.12
362.749	103.12
362.976	112.12
363.203	123.12
363.429	99.12
363.656	110.12
363.882	121.12
364.109	116.12
364.335	108.12
364.562	109.12
364.788	94.12
365.015	101.12
365.241	105.12
365.468	120.12
365.694	107.12
365.92	106.12
366.147	107.12
366.373	103.12
366.599	100.12
366.826	112.12
367.052	106.12
367.278	108.12
367.505	102.12
367.731	130.12
367.957	116.12
368.184	98.12
368.41	100.12
368.636	109.12
368.862	118.12
369.089	105.12
369.315	114.12
369.541	116.12
369.767	111.12
369.993	116.12
370.219	105.12
370.445	114.12
370.672	111.12
370.898	117.12
371.124	116.12
371.35	103.12
371.576	107.12
371.802	119.12
372.028	109.12
372.254	105.12
372.48	107.12
372.706	98.12
372.932	109.12
373.158	116.12
373.384	112.12
373.61	114.12
373.835	106.12
374.061	107.12
374.287	100.12
374.513	104.12
374.739	100.12
374.965	123.12
375.191	113.12
375.416	102.12
375.642	115.12
375.868	111.12
376.094	99.12
376.319	122.12
376.545	100.12
376.771	118.12
376.997	96.12
377.222	108.12
377.448	109.12
377.674	106.12
377.899	108.12
378.125	99.12
378.35	107.12
378.576	99.12
378.802	117.12
379.027	123.12
379.253	112.12
379.478	117.12
379.704	111.12
379.929	108.12
380.155	111.12
380.38	109.12
380.606	93.12
380.831	107.12
381.057	130.12
381.282	93.12
381.507	113.12
381.733	115.12
381.958	108.12
382.184	107.12
382.409	115.12
382.634	120.12
382.86	118.12
383.085	114.12
383.31	119.12
383.535	111.12
383.761	116.12
383.986	124.12
384.211	113.12
384.436	121.12
384.662	123.12
384.887	132.12
385.112	109.12
385.337	123.12
385.562	120.12
385.787	120.12
386.013	127.12
386.238	119.12
386.463	133.12
386.688	146.12
386.913	114.12
387.138	114.12
387.363	109.12
387.588	129.12
387.813	115.12
388.038	125.12
388.263	143.12
388.488	115.12
388.713	130.12
388.938	122.12
389.163	123.12
389.387	120.12
389.612	123.12
389.837	121.12
390.062	128.12
390.287	130.12
390.512	124.12
390.736	124.12
390.961	124.12
391.186	131.12
391.411	121.12
391.636	135.12
391.86	132.12
392.085	128.12
392.31	127.12
392.534	131.12
392.759	138.12
392.984	137.12
393.208	133.12
393.433	132.12
393.658	128.12
393.882	127.12
394.107	128.12
394.331	129.12
394.556	141.12
394.78	123.12
395.005	134.12
395.229	130.12
395.454	122.12
395.678	149.12
395.903	139.12
396.127	131.12
396.352	129.12
396.576	143.12
396.801	153.12
397.025	136.12
397.249	142.12
397.474	137.12
397.698	136.12
397.922	135.12
398.147	136.12
398.371	139.12
398.595	150.12
398.82	143.12
399.044	163.12
399.268	160.12
399.492	164.12
399.717	204.12
399.941	178.12
400.165	155.12
400.389	143.12
400.613	153.12
400.837	148.12
401.062	144.12
401.286	155.12
401.51	166.12
401.734	156.12
401.958	155.12
402.182	145.12
402.406	162.12
402.63	160.12
402.854	172.12
403.078	168.12
403.302	176.12
403.526	176.12
403.75	177.12
403.974	175.12
404.198	174.12
404.422	172.12
404.645	170.12
404.869	163.12
405.093	170.12
405.317	160.12
405.541	185.12
405.765	171.12
405.988	165.12
406.212	169.12
406.436	157.12
406.66	168.12
406.883	174.12
407.107	171.12
407.331	193.12
407.555	173.12
407.778	192.12
408.002	168.12
408.226	178.12
408.449	171.12
408.673	177.12
408.896	175.12
409.12	169.12
409.344	168.12
409.567	172.12
409.791	164.12
410.014	185.12
410.238	182.12
410.461	169.12
410.685	169.12
410.908	169.12
411.132	186.12
411.355	166.12
411.578	167.12
411.802	156.12
412.025	167.12
412.249	175.12
412.472	167.12
412.695	167.12
412.919	170.12
413.142	191.12
413.365	180.12
413.589	169.12
413.812	162.12
414.035	165.12
414.258	172.12
414.482	170.12
414.705	173.12
414.928	185.12
415.151	191.12
415.374	173.12
415.597	171.12
415.821	180.12
416.044	172.12
416.267	172.12
416.49	160.12
416.713	167.12
416.936	173.12
417.159	172.12
417.382	164.12
417.605	154.12
417.828	193.12
418.051	156.12
418.274	178.12
418.497	171.12
418.72	179.12
418.943	181.12
419.166	188.12
419.389	193.12
419.611	182.12
419.834	162.12
420.057	184.12
420.28	183.12
420.503	169.12
420.726	169.12
420.948	184.12
421.171	163.12
421.394	178.12
421.617	160.12
421.839	168.12
422.062	164.12
422.285	176.12
422.507	181.12
422.73	172.12
422.953	167.12
423.175	196.12
423.398	175.12
423.621	176.12
423.843	176.12
424.066	180.12
424.288	188.12
424.511	180.12
424.733	182.12
424.956	181.12
425.178	175.12
425.401	162.12
425.623	178.12
425.846	186.12
426.068	164.12
426.291	168.12
426.513	159.12
426.735	179.12
426.958	159.12
427.18	169.12
427.402	166.12
427.625	157.12
427.847	155.12
428.069	162.12
428.292	169.12
428.514	166.12
428.736	166.12
428.958	154.12
429.181	156.12
429.403	164.12
429.625	172.12
429.847	167.12
430.069	172.12
430.292	169.12
430.514	163.12
430.736	167.12
430.958	154.12
431.18	154.12
431.402	156.12
431.624	160.12
431.846	154.12
432.068	159.12
432.29	145.12
432.512	157.12
432.734	178.12
432.956	169.12
433.178	157.12
433.4	166.12
433.622	168.12
433.844	169.12
434.066	167.12
434.287	161.12
434.509	144.12
434.731	163.12
434.953	168.12
435.175	171.12
435.397	173.12
435.618	153.12
435.84	157.12
436.062	161.12
436.284	164.12
436.505	161.12
436.727	170.12
436.949	152.12
437.17	157.12
437.392	154.12
437.614	147.12
437.835	150.12
438.057	164.12
438.278	147.12
438.5	152.12
438.721	163.12
438.943	164.12
439.165	157.12
439.386	162.12
439.608	175.12
439.829	164.12
440.05	174.12
440.272	161.12
440.493	176.12
440.715	167.12
440.936	180.12
441.158	177.12
441.379	178.12
441.6	187.12
441.822	172.12
442.043	185.12
442.264	172.12
442.486	180.12
442.707	175.12
442.928	185.12
443.149	164.12
443.371	180.12
443.592	186.12
443.813	189.12
444.034	187.12
444.255	188.12
444.476	188.12
444.698	199.12
444.919	207.12
445.14	450.12
445.361	306.12
445.582	179.12
445.803	181.12
446.024	179.12
446.245	182.12
446.466	194.12
446.687	165.12
446.908	176.12
447.129	172.12
447.35	171.12
447.571	165.12
447.792	158.12
448.013	175.12
448.234	169.12
448.455	161.12
448.675	163.12
448.896	165.12
449.117	166.12
449.338	167.12
449.559	165.12
449.779	146.12
450	152.12
450.221	175.12
450.442	158.12
450.662	151.12
450.883	170.12
451.104	161.12
451.324	159.12
451.545	152.12
451.766	161.12
451.986	156.12
452.207	167.12
452.428	150.12
452.648	154.12
452.869	140.12
453.089	135.12
453.31	149.12
453.53	141.12
453.751	153.12
453.971	150.12
454.192	138.12
454.412	137.12
454.633	154.12
454.853	153.12
455.073	143.12
455.294	144.12
455.514	165.12
455.734	153.12
455.955	159.12
456.175	160.12
456.395	124.12
456.616	117.12
456.836	144.12
457.056	128.12
457.276	137.12
457.497	147.12
457.717	145.12
457.937	139.12
458.157	150.12
458.377	138.12
458.598	120.12
458.818	136.12
459.038	151.12
459.258	151.12
459.478	140.12
459.698	141.12
459.918	160.12
460.138	153.12
460.358	167.12
460.578	175.12
460.798	169.12
461.018	188.12
461.238	176.12
461.458	173.12
461.678	165.12
461.898	174.12
462.118	156.12
462.338	181.12
462.558	155.12
462.777	181.12
462.997	201.12
463.217	197.12
463.437	196.12
463.657	181.12
463.876	181.12
464.096	189.12
464.316	192.12
464.536	187.12
464.755	180.12
464.975	175.12
465.195	170.12
465.414	163.12
465.634	161.12
465.854	156.12
466.073	148.12
466.293	155.12
466.512	155.12
466.732	174.12
466.951	163.12
467.171	151.12
467.391	153.12
467.61	167.12
467.829	169.12
468.049	170.12
468.268	156.12
468.488	157.12
468.707	143.12
468.927	167.12
469.146	156.12
469.365	152.12
469.585	167.12
469.804	171.12
470.023	165.12
470.243	155.12
470.462	156.12
470.681	167.12
470.901	164.12
471.12	175.12
471.339	173.12
471.558	167.12
471.777	154.12
471.997	172.12
472.216	155.12
472.435	151.12
472.654	125.12
472.873	164.12
473.092	140.12
473.311	152.12
473.53	147.12
473.749	161.12
473.968	163.12
474.187	150.12
474.406	146.12
474.625	165.12
474.844	156.12
475.063	142.12
475.282	148.12
475.501	154.12
475.72	165.12
475.939	156.12
476.158	161.12
476.377	163.12
476.596	151.12
476.814	162.12
477.033	152.12
477.252	138.12
477.471	156.12
477.69	158.12
477.908	153.12
478.127	180.12
478.346	163.12
478.564	189.12
478.783	174.12
479.002	187.12
479.22	173.12
479.439	170.12
479.658	159.12
479.876	152.12
480.095	157.12
480.313	164.12
480.532	182.12
480.751	153.12
480.969	149.12
481.188	155.12
481.406	158.12
481.624	151.12
481.843	128.12
482.061	134.12
482.28	155.12
482.498	148.12
482.717	153.12
482.935	163.12
483.153	179.12
483.372	169.12
483.59	168.12
483.808	157.12
484.027	178.12
484.245	171.12
484.463	161.12
484.681	169.12
484.9	175.12
485.118	175.12
485.336	160.12
485.554	151.12
485.772	163.12
485.99	154.12
486.209	162.12
486.427	170.12
486.645	176.12
486.863	170.12
487.081	171.12
487.299	166.12
487.517	172.12
487.735	195.12
487.953	191.12
488.171	192.12
488.389	190.12
488.607	181.12
488.825	173.12
489.043	152.12
489.261	171.12
489.479	177.12
489.696	155.12
489.914	173.12
490.132	179.12
490.35	182.12
490.568	183.12
490.786	198.12
491.003	196.12
491.221	188.12
491.439	188.12
491.657	202.12
491.874	225.12
492.092	210.12
492.31	216.12
492.527	223.12
492.745	212.12
492.963	211.12
493.18	219.12
493.398	207.12
493.615	207.12
493.833	193.12
494.05	192.12
494.268	204.12
494.485	199.12
494.703	203.12
494.92	212.12
495.138	196.12
495.355	217.12
495.573	202.12
495.79	201.12
496.008	200.12
496.225	204.12
496.442	198.12
496.66	206.12
496.877	187.12
497.094	208.12
497.312	186.12
497.529	197.12
497.746	201.12
497.963	194.12
498.181	194.12
498.398	208.12
498.615	211.12
498.832	213.12
499.049	219.12
499.267	228.12
499.484	252.12
499.701	261.12
499.918	311.12
500.135	327.12
500.352	356.12
500.569	352.12
500.786	360.12
501.003	328.12
501.22	303.12
501.437	271.12
501.654	255.12
501.871	234.12
502.088	226.12
502.305	211.12
502.522	222.12
502.739	193.12
502.956	194.12
503.172	201.12
503.389	175.12
503.606	181.12
503.823	181.12
504.04	172.12
504.256	195.12
504.473	174.12
504.69	189.12
504.907	211.12
505.123	182.12
505.34	181.12
505.557	187.12
505.773	164.12
505.99	157.12
506.207	166.12
506.423	163.12
506.64	155.12
506.856	164.12
507.073	156.12
507.289	162.12
507.506	160.12
507.722	175.12
