Data from SampA_HRD10591_00010.txt Node
Date: Mon Jan 19 11:26:50 EST 2026
User: Yrep
Spectrometer: HR+D1059
Trigger mode: 0
Integration Time (sec): 3.443000E-1
Scans to average: 1
Electric dark correction enabled: true
Nonlinearity correction enabled: false
Boxcar width: 0
XAxis mode: Wavelengths
Number of Pixels in Spectrum: 2048
>>>>>Begin Spectral Data<<<<<
223.165	-24.19
223.4	-24.19
223.635	-24.19
223.869	-15.19
224.104	-18.19
224.338	-10.19
224.573	-10.19
224.808	-13.19
225.042	-11.19
225.277	5.81
225.511	-5.19
225.746	-0.19
225.98	1.81
226.215	14.81
226.449	17.81
226.683	16.81
226.918	26.81
227.152	23.81
227.387	48.81
227.621	45.81
227.856	54.81
228.09	47.81
228.324	56.81
228.559	62.81
228.793	72.81
229.027	57.81
229.262	85.81
229.496	73.81
229.73	74.81
229.964	70.81
230.199	83.81
230.433	71.81
230.667	84.81
230.901	96.81
231.136	86.81
231.37	75.81
231.604	87.81
231.838	88.81
232.072	89.81
232.306	92.81
232.541	95.81
232.775	80.81
233.009	102.81
233.243	78.81
233.477	89.81
233.711	94.81
233.945	105.81
234.179	85.81
234.413	92.81
234.647	94.81
234.881	93.81
235.115	87.81
235.349	98.81
235.583	93.81
235.817	87.81
236.051	90.81
236.285	78.81
236.519	87.81
236.753	88.81
236.987	87.81
237.221	73.81
237.455	83.81
237.689	77.81
237.922	80.81
238.156	75.81
238.39	68.81
238.624	85.81
238.858	73.81
239.091	85.81
239.325	86.81
239.559	78.81
239.793	84.81
240.027	95.81
240.26	78.81
240.494	85.81
240.728	74.81
240.961	88.81
241.195	95.81
241.429	92.81
241.662	86.81
241.896	75.81
242.13	96.81
242.363	78.81
242.597	86.81
242.83	79.81
243.064	80.81
243.298	89.81
243.531	84.81
243.765	81.81
243.998	92.81
244.232	94.81
244.465	85.81
244.699	76.81
244.932	80.81
245.166	76.81
245.399	99.81
245.633	85.81
245.866	96.81
246.099	83.81
246.333	77.81
246.566	97.81
246.8	88.81
247.033	75.81
247.266	93.81
247.5	77.81
247.733	88.81
247.966	90.81
248.2	95.81
248.433	83.81
248.666	91.81
248.899	93.81
249.133	84.81
249.366	96.81
249.599	95.81
249.832	87.81
250.066	83.81
250.299	91.81
250.532	89.81
250.765	96.81
250.998	89.81
251.231	91.81
251.465	97.81
251.698	92.81
251.931	95.81
252.164	100.81
252.397	79.81
252.63	83.81
252.863	94.81
253.096	88.81
253.329	100.81
253.562	100.81
253.795	98.81
254.028	95.81
254.261	105.81
254.494	98.81
254.727	96.81
254.96	83.81
255.193	89.81
255.426	93.81
255.659	77.81
255.892	118.81
256.124	93.81
256.357	90.81
256.59	97.81
256.823	100.81
257.056	92.81
257.289	108.81
257.521	100.81
257.754	100.81
257.987	99.81
258.22	100.81
258.452	101.81
258.685	98.81
258.918	101.81
259.151	87.81
259.383	99.81
259.616	91.81
259.849	88.81
260.081	107.81
260.314	106.81
260.547	86.81
260.779	108.81
261.012	98.81
261.244	92.81
261.477	115.81
261.71	104.81
261.942	94.81
262.175	89.81
262.407	101.81
262.64	90.81
262.872	99.81
263.105	102.81
263.337	112.81
263.57	102.81
263.802	110.81
264.035	81.81
264.267	101.81
264.499	108.81
264.732	89.81
264.964	91.81
265.197	94.81
265.429	91.81
265.661	103.81
265.894	104.81
266.126	114.81
266.358	103.81
266.591	109.81
266.823	105.81
267.055	97.81
267.287	94.81
267.52	97.81
267.752	111.81
267.984	102.81
268.216	101.81
268.448	116.81
268.681	107.81
268.913	110.81
269.145	101.81
269.377	119.81
269.609	100.81
269.841	112.81
270.073	111.81
270.306	109.81
270.538	97.81
270.77	98.81
271.002	99.81
271.234	111.81
271.466	117.81
271.698	102.81
271.93	103.81
272.162	104.81
272.394	121.81
272.626	87.81
272.858	108.81
273.09	101.81
273.322	101.81
273.553	106.81
273.785	96.81
274.017	105.81
274.249	98.81
274.481	106.81
274.713	105.81
274.945	104.81
275.176	107.81
275.408	109.81
275.64	113.81
275.872	104.81
276.104	109.81
276.335	114.81
276.567	96.81
276.799	111.81
277.031	104.81
277.262	113.81
277.494	110.81
277.726	109.81
277.957	108.81
278.189	105.81
278.421	101.81
278.652	117.81
278.884	104.81
279.115	111.81
279.347	120.81
279.579	112.81
279.81	115.81
280.042	115.81
280.273	106.81
280.505	96.81
280.736	96.81
280.968	106.81
281.199	98.81
281.431	119.81
281.662	106.81
281.894	116.81
282.125	114.81
282.356	109.81
282.588	115.81
282.819	111.81
283.051	119.81
283.282	104.81
283.513	118.81
283.745	124.81
283.976	105.81
284.207	106.81
284.439	121.81
284.67	107.81
284.901	114.81
285.132	110.81
285.364	125.81
285.595	117.81
285.826	125.81
286.057	121.81
286.288	115.81
286.52	120.81
286.751	102.81
286.982	118.81
287.213	103.81
287.444	122.81
287.675	120.81
287.906	118.81
288.138	109.81
288.369	104.81
288.6	119.81
288.831	116.81
289.062	120.81
289.293	122.81
289.524	121.81
289.755	143.81
289.986	133.81
290.217	102.81
290.448	127.81
290.679	94.81
290.91	135.81
291.141	120.81
291.371	114.81
291.602	102.81
291.833	112.81
292.064	110.81
292.295	116.81
292.526	119.81
292.757	135.81
292.987	112.81
293.218	110.81
293.449	110.81
293.68	120.81
293.91	115.81
294.141	115.81
294.372	129.81
294.603	116.81
294.833	115.81
295.064	125.81
295.295	117.81
295.525	131.81
295.756	136.81
295.987	119.81
296.217	128.81
296.448	128.81
296.679	140.81
296.909	120.81
297.14	140.81
297.37	108.81
297.601	122.81
297.831	128.81
298.062	108.81
298.292	122.81
298.523	124.81
298.753	121.81
298.984	127.81
299.214	110.81
299.445	125.81
299.675	112.81
299.905	136.81
300.136	125.81
300.366	128.81
300.597	139.81
300.827	125.81
301.057	132.81
301.288	120.81
301.518	131.81
301.748	129.81
301.979	157.81
302.209	128.81
302.439	118.81
302.669	133.81
302.9	133.81
303.13	125.81
303.36	120.81
303.59	118.81
303.82	135.81
304.051	143.81
304.281	127.81
304.511	145.81
304.741	114.81
304.971	125.81
305.201	129.81
305.431	127.81
305.661	121.81
305.891	128.81
306.121	117.81
306.352	118.81
306.582	112.81
306.812	122.81
307.042	120.81
307.272	132.81
307.502	120.81
307.731	128.81
307.961	133.81
308.191	128.81
308.421	131.81
308.651	124.81
308.881	140.81
309.111	132.81
309.341	117.81
309.571	122.81
309.8	122.81
310.03	120.81
310.26	118.81
310.49	126.81
310.72	126.81
310.949	115.81
311.179	118.81
311.409	116.81
311.639	121.81
311.868	113.81
312.098	133.81
312.328	143.81
312.557	135.81
312.787	133.81
313.017	145.81
313.246	132.81
313.476	131.81
313.706	127.81
313.935	121.81
314.165	120.81
314.394	130.81
314.624	134.81
314.853	141.81
315.083	140.81
315.312	132.81
315.542	136.81
315.771	127.81
316.001	123.81
316.23	111.81
316.46	123.81
316.689	131.81
316.919	119.81
317.148	127.81
317.377	131.81
317.607	121.81
317.836	111.81
318.065	119.81
318.295	131.81
318.524	125.81
318.753	125.81
318.983	122.81
319.212	147.81
319.441	123.81
319.67	140.81
319.9	128.81
320.129	132.81
320.358	132.81
320.587	135.81
320.816	139.81
321.046	118.81
321.275	136.81
321.504	143.81
321.733	120.81
321.962	122.81
322.191	144.81
322.42	141.81
322.649	136.81
322.878	123.81
323.108	128.81
323.337	144.81
323.566	122.81
323.795	137.81
324.024	147.81
324.253	135.81
324.482	129.81
324.71	120.81
324.939	151.81
325.168	141.81
325.397	131.81
325.626	138.81
325.855	136.81
326.084	146.81
326.313	135.81
326.542	115.81
326.77	135.81
326.999	133.81
327.228	141.81
327.457	155.81
327.686	140.81
327.914	150.81
328.143	146.81
328.372	125.81
328.6	132.81
328.829	138.81
329.058	137.81
329.287	143.81
329.515	127.81
329.744	149.81
329.972	131.81
330.201	147.81
330.43	122.81
330.658	128.81
330.887	151.81
331.115	143.81
331.344	134.81
331.572	151.81
331.801	135.81
332.03	145.81
332.258	151.81
332.486	152.81
332.715	145.81
332.943	153.81
333.172	167.81
333.4	161.81
333.629	147.81
333.857	156.81
334.085	159.81
334.314	155.81
334.542	155.81
334.771	181.81
334.999	160.81
335.227	143.81
335.455	159.81
335.684	142.81
335.912	163.81
336.14	149.81
336.369	152.81
336.597	157.81
336.825	144.81
337.053	120.81
337.281	125.81
337.51	133.81
337.738	171.81
337.966	139.81
338.194	145.81
338.422	136.81
338.65	147.81
338.878	144.81
339.106	140.81
339.334	163.81
339.562	135.81
339.79	142.81
340.018	144.81
340.246	144.81
340.474	144.81
340.702	134.81
340.93	132.81
341.158	123.81
341.386	124.81
341.614	133.81
341.842	121.81
342.07	133.81
342.298	133.81
342.526	135.81
342.754	132.81
342.981	138.81
343.209	124.81
343.437	186.81
343.665	153.81
343.893	148.81
344.12	152.81
344.348	141.81
344.576	139.81
344.804	150.81
345.031	133.81
345.259	125.81
345.487	145.81
345.714	145.81
345.942	127.81
346.17	144.81
346.397	136.81
346.625	138.81
346.853	135.81
347.08	135.81
347.308	149.81
347.535	120.81
347.763	134.81
347.99	142.81
348.218	140.81
348.445	144.81
348.673	140.81
348.9	148.81
349.128	131.81
349.355	131.81
349.583	144.81
349.81	113.81
350.037	149.81
350.265	150.81
350.492	143.81
350.72	128.81
350.947	137.81
351.174	131.81
351.402	119.81
351.629	136.81
351.856	123.81
352.083	119.81
352.311	139.81
352.538	131.81
352.765	150.81
352.992	143.81
353.22	134.81
353.447	136.81
353.674	133.81
353.901	144.81
354.128	135.81
354.355	140.81
354.583	131.81
354.81	123.81
355.037	132.81
355.264	136.81
355.491	130.81
355.718	116.81
355.945	126.81
356.172	135.81
356.399	126.81
356.626	156.81
356.853	135.81
357.08	136.81
357.307	127.81
357.534	125.81
357.761	152.81
357.988	143.81
358.215	134.81
358.441	123.81
358.668	128.81
358.895	122.81
359.122	113.81
359.349	151.81
359.576	139.81
359.802	132.81
360.029	137.81
360.256	141.81
360.483	131.81
360.709	139.81
360.936	140.81
361.163	128.81
361.39	137.81
361.616	134.81
361.843	123.81
362.07	137.81
362.296	140.81
362.523	128.81
362.749	132.81
362.976	144.81
363.203	131.81
363.429	119.81
363.656	151.81
363.882	142.81
364.109	152.81
364.335	139.81
364.562	135.81
364.788	141.81
365.015	130.81
365.241	123.81
365.468	143.81
365.694	139.81
365.92	138.81
366.147	135.81
366.373	136.81
366.599	128.81
366.826	144.81
367.052	128.81
367.278	132.81
367.505	141.81
367.731	152.81
367.957	143.81
368.184	128.81
368.41	132.81
368.636	126.81
368.862	138.81
369.089	128.81
369.315	121.81
369.541	153.81
369.767	156.81
369.993	130.81
370.219	144.81
370.445	125.81
370.672	135.81
370.898	131.81
371.124	154.81
371.35	136.81
371.576	143.81
371.802	135.81
372.028	147.81
372.254	143.81
372.48	119.81
372.706	135.81
372.932	120.81
373.158	156.81
373.384	144.81
373.61	162.81
373.835	159.81
374.061	135.81
374.287	140.81
374.513	149.81
374.739	147.81
374.965	147.81
375.191	141.81
375.416	138.81
375.642	134.81
375.868	171.81
376.094	149.81
376.319	151.81
376.545	145.81
376.771	143.81
376.997	136.81
377.222	146.81
377.448	140.81
377.674	152.81
377.899	132.81
378.125	134.81
378.35	139.81
378.576	151.81
378.802	141.81
379.027	144.81
379.253	145.81
379.478	139.81
379.704	140.81
379.929	144.81
380.155	139.81
380.38	155.81
380.606	133.81
380.831	153.81
381.057	160.81
381.282	149.81
381.507	154.81
381.733	147.81
381.958	153.81
382.184	150.81
382.409	158.81
382.634	146.81
382.86	163.81
383.085	159.81
383.31	149.81
383.535	153.81
383.761	165.81
383.986	156.81
384.211	159.81
384.436	174.81
384.662	167.81
384.887	155.81
385.112	155.81
385.337	177.81
385.562	140.81
385.787	174.81
386.013	186.81
386.238	171.81
386.463	187.81
386.688	201.81
386.913	165.81
387.138	159.81
387.363	149.81
387.588	163.81
387.813	157.81
388.038	165.81
388.263	174.81
388.488	151.81
388.713	180.81
388.938	165.81
389.163	162.81
389.387	160.81
389.612	173.81
389.837	165.81
390.062	161.81
390.287	176.81
390.512	171.81
390.736	174.81
390.961	171.81
391.186	177.81
391.411	172.81
391.636	157.81
391.86	175.81
392.085	187.81
392.31	175.81
392.534	196.81
392.759	185.81
392.984	171.81
393.208	181.81
393.433	184.81
393.658	175.81
393.882	183.81
394.107	170.81
394.331	189.81
394.556	175.81
394.78	177.81
395.005	172.81
395.229	186.81
395.454	191.81
395.678	194.81
395.903	197.81
396.127	196.81
396.352	182.81
396.576	190.81
396.801	189.81
397.025	202.81
397.249	205.81
397.474	196.81
397.698	196.81
397.922	203.81
398.147	195.81
398.371	198.81
398.595	204.81
398.82	205.81
399.044	231.81
399.268	263.81
399.492	283.81
399.717	286.81
399.941	264.81
400.165	254.81
400.389	226.81
400.613	231.81
400.837	221.81
401.062	223.81
401.286	232.81
401.51	238.81
401.734	220.81
401.958	216.81
402.182	215.81
402.406	232.81
402.63	234.81
402.854	233.81
403.078	243.81
403.302	257.81
403.526	254.81
403.75	259.81
403.974	261.81
404.198	272.81
404.422	277.81
404.645	260.81
404.869	259.81
405.093	259.81
405.317	253.81
405.541	249.81
405.765	249.81
405.988	256.81
406.212	252.81
406.436	263.81
406.66	251.81
406.883	252.81
407.107	285.81
407.331	285.81
407.555	289.81
407.778	291.81
408.002	288.81
408.226	277.81
408.449	291.81
408.673	265.81
408.896	267.81
409.12	267.81
409.344	294.81
409.567	254.81
409.791	268.81
410.014	268.81
410.238	258.81
410.461	269.81
410.685	274.81
410.908	268.81
411.132	269.81
411.355	264.81
411.578	263.81
411.802	266.81
412.025	265.81
412.249	251.81
412.472	266.81
412.695	250.81
412.919	250.81
413.142	248.81
413.365	255.81
413.589	266.81
413.812	243.81
414.035	249.81
414.258	264.81
414.482	263.81
414.705	268.81
414.928	267.81
415.151	279.81
415.374	276.81
415.597	257.81
415.821	266.81
416.044	269.81
416.267	268.81
416.49	252.81
416.713	255.81
416.936	270.81
417.159	281.81
417.382	266.81
417.605	246.81
417.828	256.81
418.051	247.81
418.274	279.81
418.497	260.81
418.72	276.81
418.943	268.81
419.166	279.81
419.389	287.81
419.611	275.81
419.834	287.81
420.057	278.81
420.28	269.81
420.503	265.81
420.726	256.81
420.948	257.81
421.171	268.81
421.394	285.81
421.617	283.81
421.839	281.81
422.062	286.81
422.285	274.81
422.507	276.81
422.73	266.81
422.953	267.81
423.175	280.81
423.398	273.81
423.621	270.81
423.843	276.81
424.066	289.81
424.288	266.81
424.511	280.81
424.733	288.81
424.956	283.81
425.178	289.81
425.401	276.81
425.623	274.81
425.846	275.81
426.068	235.81
426.291	254.81
426.513	275.81
426.735	267.81
426.958	256.81
427.18	255.81
427.402	253.81
427.625	261.81
427.847	233.81
428.069	252.81
428.292	243.81
428.514	265.81
428.736	246.81
428.958	265.81
429.181	243.81
429.403	236.81
429.625	254.81
429.847	250.81
430.069	254.81
430.292	254.81
430.514	238.81
430.736	248.81
430.958	245.81
431.18	243.81
431.402	241.81
431.624	243.81
431.846	219.81
432.068	215.81
432.29	218.81
432.512	237.81
432.734	246.81
432.956	267.81
433.178	243.81
433.4	251.81
433.622	277.81
433.844	270.81
434.066	236.81
434.287	227.81
434.509	230.81
434.731	237.81
434.953	240.81
435.175	260.81
435.397	263.81
435.618	234.81
435.84	239.81
436.062	232.81
436.284	262.81
436.505	236.81
436.727	261.81
436.949	247.81
437.17	259.81
437.392	252.81
437.614	235.81
437.835	238.81
438.057	206.81
438.278	224.81
438.5	243.81
438.721	252.81
438.943	246.81
439.165	264.81
439.386	243.81
439.608	267.81
439.829	265.81
440.05	256.81
440.272	263.81
440.493	262.81
440.715	268.81
440.936	271.81
441.158	292.81
441.379	270.81
441.6	294.81
441.822	305.81
442.043	280.81
442.264	279.81
442.486	296.81
442.707	272.81
442.928	271.81
443.149	270.81
443.371	270.81
443.592	270.81
443.813	279.81
444.034	279.81
444.255	312.81
444.476	288.81
444.698	309.81
444.919	303.81
445.14	475.81
445.361	379.81
445.582	288.81
445.803	292.81
446.024	273.81
446.245	292.81
446.466	279.81
446.687	279.81
446.908	278.81
447.129	262.81
447.35	254.81
447.571	248.81
447.792	270.81
448.013	261.81
448.234	255.81
448.455	252.81
448.675	267.81
448.896	231.81
449.117	261.81
449.338	235.81
449.559	233.81
449.779	248.81
450	242.81
450.221	230.81
450.442	249.81
450.662	248.81
450.883	247.81
451.104	240.81
451.324	240.81
451.545	245.81
451.766	249.81
451.986	232.81
452.207	244.81
452.428	251.81
452.648	245.81
452.869	238.81
453.089	230.81
453.31	229.81
453.53	219.81
453.751	205.81
453.971	202.81
454.192	190.81
454.412	222.81
454.633	225.81
454.853	233.81
455.073	245.81
455.294	208.81
455.514	219.81
455.734	224.81
455.955	229.81
456.175	196.81
456.395	198.81
456.616	219.81
456.836	204.81
457.056	204.81
457.276	206.81
457.497	218.81
457.717	208.81
457.937	205.81
458.157	220.81
458.377	192.81
458.598	206.81
458.818	211.81
459.038	199.81
459.258	207.81
459.478	200.81
459.698	203.81
459.918	231.81
460.138	240.81
460.358	270.81
460.578	250.81
460.798	257.81
461.018	260.81
461.238	265.81
461.458	260.81
461.678	251.81
461.898	263.81
462.118	264.81
462.338	277.81
462.558	273.81
462.777	286.81
462.997	297.81
463.217	334.81
463.437	309.81
463.657	290.81
463.876	280.81
464.096	304.81
464.316	282.81
464.536	289.81
464.755	274.81
464.975	264.81
465.195	246.81
465.414	251.81
465.634	226.81
465.854	247.81
466.073	240.81
466.293	230.81
466.512	238.81
466.732	237.81
466.951	246.81
467.171	249.81
467.391	266.81
467.61	238.81
467.829	241.81
468.049	261.81
468.268	255.81
468.488	230.81
468.707	241.81
468.927	249.81
469.146	248.81
469.365	252.81
469.585	253.81
469.804	264.81
470.023	263.81
470.243	259.81
470.462	271.81
470.681	254.81
470.901	249.81
471.12	255.81
471.339	273.81
471.558	238.81
471.777	245.81
471.997	243.81
472.216	228.81
472.435	219.81
472.654	210.81
472.873	228.81
473.092	240.81
473.311	212.81
473.53	228.81
473.749	236.81
473.968	229.81
474.187	231.81
474.406	228.81
474.625	238.81
474.844	251.81
475.063	220.81
475.282	220.81
475.501	230.81
475.72	246.81
475.939	221.81
476.158	228.81
476.377	238.81
476.596	232.81
476.814	247.81
477.033	230.81
477.252	227.81
477.471	250.81
477.69	263.81
477.908	265.81
478.127	263.81
478.346	234.81
478.564	263.81
478.783	267.81
479.002	263.81
479.22	268.81
479.439	284.81
479.658	254.81
479.876	231.81
480.095	231.81
480.313	254.81
480.532	267.81
480.751	247.81
480.969	231.81
481.188	235.81
481.406	224.81
481.624	220.81
481.843	216.81
482.061	213.81
482.28	236.81
482.498	251.81
482.717	233.81
482.935	248.81
483.153	262.81
483.372	271.81
483.59	276.81
483.808	251.81
484.027	249.81
484.245	262.81
484.463	252.81
484.681	261.81
484.9	259.81
485.118	261.81
485.336	242.81
485.554	239.81
485.772	227.81
485.99	228.81
486.209	239.81
486.427	241.81
486.645	252.81
486.863	269.81
487.081	272.81
487.299	266.81
487.517	261.81
487.735	280.81
487.953	292.81
488.171	299.81
488.389	288.81
488.607	277.81
488.825	246.81
489.043	255.81
489.261	261.81
489.479	261.81
489.696	265.81
489.914	279.81
490.132	300.81
490.35	275.81
490.568	279.81
490.786	297.81
491.003	311.81
491.221	323.81
491.439	311.81
491.657	335.81
491.874	335.81
492.092	345.81
492.31	374.81
492.527	347.81
492.745	339.81
492.963	330.81
493.18	326.81
493.398	340.81
493.615	338.81
493.833	323.81
494.05	324.81
494.268	313.81
494.485	311.81
494.703	304.81
494.92	315.81
495.138	297.81
495.355	314.81
495.573	318.81
495.79	313.81
496.008	293.81
496.225	303.81
496.442	323.81
496.66	320.81
496.877	315.81
497.094	313.81
497.312	333.81
497.529	313.81
497.746	319.81
497.963	311.81
498.181	312.81
498.398	317.81
498.615	299.81
498.832	348.81
499.049	342.81
499.267	384.81
499.484	400.81
499.701	464.81
499.918	481.81
500.135	564.81
500.352	609.81
500.569	636.81
500.786	601.81
501.003	558.81
501.22	489.81
501.437	462.81
501.654	433.81
501.871	389.81
502.088	338.81
502.305	347.81
502.522	337.81
502.739	335.81
502.956	312.81
503.172	316.81
503.389	297.81
503.606	279.81
503.823	311.81
504.04	274.81
504.256	295.81
504.473	281.81
504.69	291.81
