Data from SampA_HRD10591_00024.txt Node
Date: Mon Jan 19 11:26:54 EST 2026
User: Yrep
Spectrometer: HR+D1059
Trigger mode: 0
Integration Time (sec): 3.443000E-1
Scans to average: 1
Electric dark correction enabled: true
Nonlinearity correction enabled: false
Boxcar width: 0
XAxis mode: Wavelengths
Number of Pixels in Spectrum: 2048
>>>>>Begin Spectral Data<<<<<
223.165	-11.88
223.4	-11.88
223.635	-11.88
223.869	-32.88
224.104	-27.88
224.338	-22.88
224.573	-10.88
224.808	-12.88
225.042	3.12
225.277	2.12
225.511	-3.88
225.746	1.12
225.98	9.12
226.215	18.12
226.449	15.12
226.683	15.12
226.918	18.12
227.152	41.12
227.387	38.12
227.621	40.12
227.856	49.12
228.09	38.12
228.324	59.12
228.559	52.12
228.793	49.12
229.027	71.12
229.262	80.12
229.496	75.12
229.73	82.12
229.964	92.12
230.199	72.12
230.433	82.12
230.667	93.12
230.901	99.12
231.136	93.12
231.37	88.12
231.604	81.12
231.838	108.12
232.072	88.12
232.306	94.12
232.541	86.12
232.775	91.12
233.009	86.12
233.243	97.12
233.477	80.12
233.711	90.12
233.945	96.12
234.179	81.12
234.413	87.12
234.647	79.12
234.881	78.12
235.115	90.12
235.349	82.12
235.583	91.12
235.817	85.12
236.051	91.12
236.285	81.12
236.519	90.12
236.753	92.12
236.987	96.12
237.221	90.12
237.455	92.12
237.689	95.12
237.922	89.12
238.156	92.12
238.39	85.12
238.624	82.12
238.858	87.12
239.091	98.12
239.325	90.12
239.559	77.12
239.793	81.12
240.027	97.12
240.26	106.12
240.494	96.12
240.728	77.12
240.961	94.12
241.195	92.12
241.429	86.12
241.662	95.12
241.896	103.12
242.13	92.12
242.363	100.12
242.597	87.12
242.83	89.12
243.064	87.12
243.298	104.12
243.531	96.12
243.765	98.12
243.998	108.12
244.232	106.12
244.465	99.12
244.699	100.12
244.932	106.12
245.166	91.12
245.399	100.12
245.633	113.12
245.866	92.12
246.099	111.12
246.333	90.12
246.566	93.12
246.8	95.12
247.033	91.12
247.266	90.12
247.5	98.12
247.733	98.12
247.966	107.12
248.2	102.12
248.433	110.12
248.666	104.12
248.899	93.12
249.133	93.12
249.366	101.12
249.599	107.12
249.832	93.12
250.066	101.12
250.299	102.12
250.532	109.12
250.765	108.12
250.998	98.12
251.231	105.12
251.465	102.12
251.698	109.12
251.931	113.12
252.164	100.12
252.397	102.12
252.63	112.12
252.863	110.12
253.096	92.12
253.329	106.12
253.562	121.12
253.795	115.12
254.028	129.12
254.261	114.12
254.494	109.12
254.727	111.12
254.96	111.12
255.193	103.12
255.426	111.12
255.659	111.12
255.892	133.12
256.124	117.12
256.357	107.12
256.59	105.12
256.823	106.12
257.056	104.12
257.289	117.12
257.521	113.12
257.754	127.12
257.987	110.12
258.22	129.12
258.452	122.12
258.685	93.12
258.918	115.12
259.151	120.12
259.383	112.12
259.616	114.12
259.849	121.12
260.081	112.12
260.314	101.12
260.547	120.12
260.779	118.12
261.012	115.12
261.244	120.12
261.477	121.12
261.71	110.12
261.942	117.12
262.175	134.12
262.407	114.12
262.64	125.12
262.872	120.12
263.105	122.12
263.337	108.12
263.57	121.12
263.802	135.12
264.035	122.12
264.267	121.12
264.499	107.12
264.732	131.12
264.964	133.12
265.197	115.12
265.429	108.12
265.661	125.12
265.894	134.12
266.126	143.12
266.358	121.12
266.591	137.12
266.823	137.12
267.055	132.12
267.287	117.12
267.52	127.12
267.752	130.12
267.984	143.12
268.216	127.12
268.448	141.12
268.681	134.12
268.913	143.12
269.145	125.12
269.377	122.12
269.609	153.12
269.841	139.12
270.073	131.12
270.306	137.12
270.538	151.12
270.77	132.12
271.002	137.12
271.234	132.12
271.466	124.12
271.698	119.12
271.93	135.12
272.162	151.12
272.394	141.12
272.626	133.12
272.858	133.12
273.09	145.12
273.322	145.12
273.553	139.12
273.785	138.12
274.017	133.12
274.249	142.12
274.481	135.12
274.713	127.12
274.945	145.12
275.176	136.12
275.408	138.12
275.64	124.12
275.872	128.12
276.104	141.12
276.335	149.12
276.567	127.12
276.799	132.12
277.031	131.12
277.262	151.12
277.494	144.12
277.726	133.12
277.957	133.12
278.189	131.12
278.421	130.12
278.652	143.12
278.884	141.12
279.115	149.12
279.347	130.12
279.579	143.12
279.81	155.12
280.042	140.12
280.273	137.12
280.505	154.12
280.736	141.12
280.968	152.12
281.199	152.12
281.431	149.12
281.662	150.12
281.894	151.12
282.125	163.12
282.356	137.12
282.588	158.12
282.819	159.12
283.051	141.12
283.282	147.12
283.513	155.12
283.745	173.12
283.976	160.12
284.207	149.12
284.439	143.12
284.67	163.12
284.901	162.12
285.132	161.12
285.364	159.12
285.595	145.12
285.826	172.12
286.057	159.12
286.288	164.12
286.52	164.12
286.751	156.12
286.982	159.12
287.213	160.12
287.444	161.12
287.675	158.12
287.906	166.12
288.138	159.12
288.369	149.12
288.6	157.12
288.831	154.12
289.062	174.12
289.293	158.12
289.524	161.12
289.755	171.12
289.986	170.12
290.217	174.12
290.448	167.12
290.679	168.12
290.91	166.12
291.141	164.12
291.371	171.12
291.602	173.12
291.833	150.12
292.064	165.12
292.295	164.12
292.526	166.12
292.757	165.12
292.987	184.12
293.218	166.12
293.449	171.12
293.68	162.12
293.91	147.12
294.141	158.12
294.372	169.12
294.603	155.12
294.833	159.12
295.064	170.12
295.295	177.12
295.525	160.12
295.756	171.12
295.987	157.12
296.217	163.12
296.448	181.12
296.679	180.12
296.909	182.12
297.14	179.12
297.37	179.12
297.601	181.12
297.831	165.12
298.062	163.12
298.292	182.12
298.523	184.12
298.753	169.12
298.984	179.12
299.214	159.12
299.445	171.12
299.675	175.12
299.905	173.12
300.136	164.12
300.366	191.12
300.597	171.12
300.827	183.12
301.057	188.12
301.288	171.12
301.518	182.12
301.748	175.12
301.979	211.12
302.209	181.12
302.439	182.12
302.669	191.12
302.9	187.12
303.13	178.12
303.36	179.12
303.59	190.12
303.82	175.12
304.051	190.12
304.281	173.12
304.511	178.12
304.741	174.12
304.971	172.12
305.201	186.12
305.431	157.12
305.661	179.12
305.891	170.12
306.121	189.12
306.352	183.12
306.582	175.12
306.812	179.12
307.042	174.12
307.272	192.12
307.502	182.12
307.731	196.12
307.961	161.12
308.191	170.12
308.421	169.12
308.651	180.12
308.881	193.12
309.111	180.12
309.341	167.12
309.571	170.12
309.8	177.12
310.03	180.12
310.26	179.12
310.49	173.12
310.72	185.12
310.949	186.12
311.179	188.12
311.409	176.12
311.639	186.12
311.868	171.12
312.098	191.12
312.328	172.12
312.557	169.12
312.787	197.12
313.017	204.12
313.246	179.12
313.476	191.12
313.706	182.12
313.935	192.12
314.165	179.12
314.394	185.12
314.624	194.12
314.853	200.12
315.083	197.12
315.312	173.12
315.542	183.12
315.771	201.12
316.001	196.12
316.23	185.12
316.46	184.12
316.689	200.12
316.919	200.12
317.148	205.12
317.377	200.12
317.607	193.12
317.836	186.12
318.065	190.12
318.295	160.12
318.524	186.12
318.753	196.12
318.983	182.12
319.212	181.12
319.441	193.12
319.67	180.12
319.9	199.12
320.129	207.12
320.358	191.12
320.587	193.12
320.816	193.12
321.046	197.12
321.275	181.12
321.504	183.12
321.733	164.12
321.962	187.12
322.191	197.12
322.42	188.12
322.649	190.12
322.878	198.12
323.108	204.12
323.337	196.12
323.566	182.12
323.795	197.12
324.024	192.12
324.253	196.12
324.482	201.12
324.71	187.12
324.939	190.12
325.168	211.12
325.397	206.12
325.626	207.12
325.855	198.12
326.084	196.12
326.313	203.12
326.542	208.12
326.77	196.12
326.999	203.12
327.228	190.12
327.457	184.12
327.686	199.12
327.914	205.12
328.143	200.12
328.372	209.12
328.6	209.12
328.829	198.12
329.058	202.12
329.287	203.12
329.515	218.12
329.744	213.12
329.972	209.12
330.201	201.12
330.43	206.12
330.658	189.12
330.887	203.12
331.115	213.12
331.344	229.12
331.572	214.12
331.801	220.12
332.03	231.12
332.258	229.12
332.486	222.12
332.715	235.12
332.943	231.12
333.172	235.12
333.4	264.12
333.629	253.12
333.857	257.12
334.085	261.12
334.314	243.12
334.542	237.12
334.771	236.12
334.999	243.12
335.227	241.12
335.455	244.12
335.684	243.12
335.912	223.12
336.14	233.12
336.369	239.12
336.597	222.12
336.825	227.12
337.053	213.12
337.281	219.12
337.51	227.12
337.738	213.12
337.966	221.12
338.194	209.12
338.422	221.12
338.65	214.12
338.878	223.12
339.106	212.12
339.334	237.12
339.562	218.12
339.79	211.12
340.018	203.12
340.246	222.12
340.474	215.12
340.702	208.12
340.93	219.12
341.158	216.12
341.386	212.12
341.614	206.12
341.842	210.12
342.07	203.12
342.298	209.12
342.526	194.12
342.754	203.12
342.981	209.12
343.209	223.12
343.437	253.12
343.665	243.12
343.893	237.12
344.12	239.12
344.348	248.12
344.576	220.12
344.804	215.12
345.031	222.12
345.259	216.12
345.487	204.12
345.714	207.12
345.942	206.12
346.17	212.12
346.397	222.12
346.625	205.12
346.853	186.12
347.08	182.12
347.308	207.12
347.535	207.12
347.763	197.12
347.99	205.12
348.218	199.12
348.445	198.12
348.673	202.12
348.9	211.12
349.128	211.12
349.355	221.12
349.583	202.12
349.81	212.12
350.037	213.12
350.265	201.12
350.492	188.12
350.72	184.12
350.947	206.12
351.174	203.12
351.402	202.12
351.629	198.12
351.856	200.12
352.083	187.12
352.311	202.12
352.538	197.12
352.765	209.12
352.992	212.12
353.22	209.12
353.447	198.12
353.674	209.12
353.901	200.12
354.128	201.12
354.355	187.12
354.583	217.12
354.81	215.12
355.037	200.12
355.264	200.12
355.491	212.12
355.718	209.12
355.945	188.12
356.172	197.12
356.399	211.12
356.626	195.12
356.853	209.12
357.08	222.12
357.307	201.12
357.534	191.12
357.761	217.12
357.988	199.12
358.215	206.12
358.441	201.12
358.668	203.12
358.895	203.12
359.122	214.12
359.349	203.12
359.576	193.12
359.802	197.12
360.029	194.12
360.256	206.12
360.483	200.12
360.709	210.12
360.936	213.12
361.163	213.12
361.39	207.12
361.616	199.12
361.843	203.12
362.07	209.12
362.296	201.12
362.523	194.12
362.749	193.12
362.976	218.12
363.203	210.12
363.429	182.12
363.656	186.12
363.882	205.12
364.109	209.12
364.335	205.12
364.562	207.12
364.788	200.12
365.015	207.12
365.241	207.12
365.468	198.12
365.694	204.12
365.92	202.12
366.147	200.12
366.373	208.12
366.599	199.12
366.826	219.12
367.052	210.12
367.278	223.12
367.505	223.12
367.731	201.12
367.957	214.12
368.184	206.12
368.41	197.12
368.636	221.12
368.862	219.12
369.089	209.12
369.315	197.12
369.541	214.12
369.767	213.12
369.993	203.12
370.219	201.12
370.445	207.12
370.672	204.12
370.898	215.12
371.124	209.12
371.35	219.12
371.576	218.12
371.802	207.12
372.028	234.12
372.254	212.12
372.48	221.12
372.706	219.12
372.932	214.12
373.158	225.12
373.384	228.12
373.61	225.12
373.835	220.12
374.061	221.12
374.287	229.12
374.513	240.12
374.739	213.12
374.965	240.12
375.191	233.12
375.416	238.12
375.642	224.12
375.868	222.12
376.094	221.12
376.319	237.12
376.545	220.12
376.771	227.12
376.997	222.12
377.222	218.12
377.448	232.12
377.674	206.12
377.899	226.12
378.125	204.12
378.35	223.12
378.576	213.12
378.802	201.12
379.027	223.12
379.253	222.12
379.478	228.12
379.704	217.12
379.929	220.12
380.155	223.12
380.38	215.12
380.606	219.12
380.831	219.12
381.057	230.12
381.282	220.12
381.507	247.12
381.733	239.12
381.958	231.12
382.184	218.12
382.409	233.12
382.634	237.12
382.86	243.12
383.085	237.12
383.31	250.12
383.535	250.12
383.761	250.12
383.986	260.12
384.211	246.12
384.436	260.12
384.662	246.12
384.887	267.12
385.112	273.12
385.337	261.12
385.562	263.12
385.787	270.12
386.013	268.12
386.238	268.12
386.463	270.12
386.688	299.12
386.913	285.12
387.138	245.12
387.363	261.12
387.588	253.12
387.813	257.12
388.038	266.12
388.263	279.12
388.488	248.12
388.713	269.12
388.938	262.12
389.163	266.12
389.387	269.12
389.612	251.12
389.837	263.12
390.062	263.12
390.287	250.12
390.512	249.12
390.736	262.12
390.961	273.12
391.186	277.12
391.411	281.12
391.636	286.12
391.86	314.12
392.085	303.12
392.31	293.12
392.534	281.12
392.759	289.12
392.984	287.12
393.208	285.12
393.433	269.12
393.658	285.12
393.882	292.12
394.107	281.12
394.331	297.12
394.556	290.12
394.78	291.12
395.005	277.12
395.229	278.12
395.454	304.12
395.678	294.12
395.903	302.12
396.127	306.12
396.352	287.12
396.576	281.12
396.801	307.12
397.025	296.12
397.249	299.12
397.474	309.12
397.698	294.12
397.922	308.12
398.147	335.12
398.371	339.12
398.595	366.12
398.82	365.12
399.044	381.12
399.268	414.12
399.492	495.12
399.717	506.12
399.941	480.12
400.165	429.12
400.389	383.12
400.613	357.12
400.837	371.12
401.062	339.12
401.286	348.12
401.51	362.12
401.734	356.12
401.958	366.12
402.182	386.12
402.406	386.12
402.63	382.12
402.854	389.12
403.078	393.12
403.302	391.12
403.526	411.12
403.75	410.12
403.974	430.12
404.198	444.12
404.422	438.12
404.645	422.12
404.869	413.12
405.093	418.12
405.317	398.12
405.541	426.12
405.765	427.12
405.988	412.12
406.212	402.12
406.436	410.12
406.66	433.12
406.883	434.12
407.107	464.12
407.331	452.12
407.555	475.12
407.778	468.12
408.002	453.12
408.226	441.12
408.449	447.12
408.673	420.12
408.896	431.12
409.12	409.12
409.344	412.12
409.567	424.12
409.791	426.12
410.014	447.12
410.238	449.12
410.461	434.12
410.685	423.12
410.908	413.12
411.132	405.12
411.355	409.12
411.578	427.12
411.802	401.12
412.025	397.12
412.249	429.12
412.472	412.12
412.695	395.12
412.919	382.12
413.142	411.12
413.365	397.12
413.589	382.12
413.812	379.12
414.035	411.12
414.258	401.12
414.482	424.12
414.705	410.12
414.928	393.12
415.151	406.12
415.374	423.12
415.597	408.12
415.821	389.12
416.044	390.12
416.267	371.12
416.49	395.12
416.713	376.12
416.936	410.12
417.159	396.12
417.382	395.12
417.605	390.12
417.828	396.12
418.051	408.12
418.274	433.12
418.497	388.12
418.72	420.12
418.943	412.12
419.166	436.12
419.389	444.12
419.611	454.12
419.834	428.12
420.057	408.12
420.28	413.12
420.503	391.12
420.726	405.12
420.948	421.12
421.171	407.12
421.394	436.12
421.617	387.12
421.839	433.12
422.062	427.12
422.285	406.12
422.507	411.12
422.73	428.12
422.953	395.12
423.175	427.12
423.398	457.12
423.621	432.12
423.843	463.12
424.066	436.12
424.288	431.12
424.511	438.12
424.733	447.12
424.956	434.12
425.178	405.12
425.401	407.12
425.623	409.12
425.846	389.12
426.068	383.12
426.291	370.12
426.513	380.12
426.735	406.12
426.958	402.12
427.18	375.12
427.402	363.12
427.625	374.12
427.847	347.12
428.069	377.12
428.292	385.12
428.514	370.12
428.736	358.12
428.958	358.12
429.181	382.12
429.403	363.12
429.625	390.12
429.847	369.12
430.069	361.12
430.292	371.12
430.514	360.12
430.736	346.12
430.958	352.12
431.18	356.12
431.402	359.12
431.624	349.12
431.846	343.12
432.068	326.12
432.29	315.12
432.512	369.12
432.734	349.12
432.956	378.12
433.178	369.12
433.4	374.12
433.622	389.12
433.844	383.12
434.066	356.12
434.287	350.12
434.509	346.12
434.731	387.12
434.953	390.12
435.175	404.12
435.397	383.12
435.618	362.12
435.84	351.12
436.062	342.12
436.284	347.12
436.505	351.12
436.727	378.12
436.949	380.12
437.17	358.12
437.392	366.12
437.614	352.12
437.835	335.12
438.057	350.12
438.278	347.12
438.5	338.12
438.721	355.12
438.943	379.12
439.165	389.12
439.386	368.12
439.608	389.12
439.829	383.12
440.05	372.12
440.272	378.12
440.493	397.12
440.715	395.12
440.936	379.12
441.158	399.12
441.379	406.12
441.6	420.12
441.822	423.12
442.043	409.12
442.264	413.12
442.486	395.12
442.707	417.12
442.928	423.12
443.149	427.12
443.371	415.12
443.592	418.12
443.813	416.12
444.034	408.12
444.255	441.12
444.476	478.12
444.698	495.12
444.919	482.12
445.14	695.12
445.361	535.12
445.582	408.12
445.803	400.12
446.024	398.12
446.245	396.12
446.466	390.12
446.687	394.12
446.908	377.12
447.129	380.12
447.35	380.12
447.571	359.12
447.792	355.12
448.013	367.12
448.234	364.12
448.455	357.12
448.675	350.12
448.896	355.12
449.117	338.12
449.338	343.12
449.559	360.12
449.779	359.12
450	359.12
450.221	378.12
450.442	354.12
450.662	344.12
450.883	355.12
451.104	369.12
451.324	349.12
451.545	330.12
451.766	364.12
451.986	331.12
452.207	322.12
452.428	354.12
452.648	336.12
452.869	315.12
453.089	333.12
453.31	315.12
453.53	311.12
453.751	314.12
453.971	294.12
454.192	331.12
454.412	303.12
454.633	333.12
454.853	322.12
455.073	308.12
455.294	309.12
455.514	328.12
455.734	318.12
455.955	301.12
456.175	312.12
456.395	289.12
456.616	303.12
456.836	309.12
457.056	308.12
457.276	310.12
457.497	321.12
457.717	314.12
457.937	308.12
458.157	305.12
458.377	318.12
458.598	322.12
458.818	295.12
459.038	313.12
459.258	338.12
459.478	338.12
459.698	351.12
459.918	355.12
460.138	386.12
460.358	400.12
460.578	408.12
460.798	388.12
461.018	414.12
461.238	403.12
461.458	429.12
461.678	383.12
461.898	405.12
462.118	420.12
462.338	409.12
462.558	428.12
462.777	452.12
462.997	505.12
463.217	521.12
463.437	495.12
463.657	458.12
463.876	449.12
464.096	442.12
464.316	445.12
464.536	453.12
464.755	441.12
464.975	441.12
465.195	386.12
465.414	363.12
465.634	346.12
465.854	348.12
466.073	351.12
466.293	355.12
466.512	327.12
466.732	339.12
466.951	367.12
467.171	358.12
467.391	364.12
467.61	355.12
467.829	350.12
468.049	342.12
468.268	340.12
468.488	333.12
468.707	328.12
468.927	333.12
469.146	337.12
469.365	338.12
469.585	351.12
469.804	381.12
470.023	362.12
470.243	378.12
470.462	359.12
470.681	362.12
470.901	365.12
471.12	360.12
471.339	346.12
471.558	366.12
471.777	349.12
471.997	334.12
472.216	346.12
472.435	314.12
472.654	307.12
472.873	315.12
473.092	322.12
473.311	322.12
473.53	338.12
473.749	321.12
473.968	349.12
474.187	319.12
474.406	317.12
474.625	329.12
474.844	350.12
475.063	343.12
475.282	343.12
475.501	339.12
475.72	348.12
475.939	333.12
476.158	346.12
476.377	354.12
476.596	314.12
476.814	326.12
477.033	342.12
477.252	349.12
477.471	384.12
477.69	381.12
477.908	380.12
478.127	382.12
478.346	360.12
478.564	393.12
478.783	394.12
479.002	401.12
479.22	387.12
479.439	404.12
479.658	390.12
479.876	405.12
480.095	379.12
480.313	417.12
480.532	409.12
480.751	418.12
480.969	360.12
481.188	355.12
481.406	360.12
481.624	345.12
481.843	341.12
482.061	357.12
482.28	361.12
482.498	355.12
482.717	351.12
482.935	365.12
483.153	376.12
483.372	403.12
483.59	377.12
483.808	382.12
484.027	358.12
484.245	379.12
484.463	382.12
484.681	388.12
484.9	401.12
485.118	374.12
485.336	387.12
485.554	374.12
485.772	352.12
485.99	358.12
486.209	364.12
486.427	360.12
486.645	359.12
486.863	386.12
487.081	406.12
487.299	391.12
487.517	381.12
487.735	417.12
487.953	453.12
488.171	419.12
488.389	415.12
488.607	413.12
488.825	389.12
489.043	370.12
489.261	398.12
489.479	378.12
489.696	389.12
489.914	400.12
490.132	404.12
490.35	403.12
490.568	400.12
490.786	419.12
491.003	424.12
491.221	429.12
491.439	423.12
491.657	451.12
491.874	451.12
492.092	470.12
492.31	476.12
492.527	475.12
492.745	445.12
492.963	442.12
493.18	447.12
493.398	474.12
493.615	455.12
493.833	454.12
494.05	427.12
494.268	427.12
494.485	459.12
494.703	454.12
494.92	454.12
495.138	446.12
495.355	459.12
495.573	461.12
495.79	445.12
496.008	435.12
496.225	433.12
496.442	440.12
496.66	470.12
496.877	459.12
497.094	463.12
497.312	437.12
497.529	451.12
497.746	469.12
497.963	449.12
498.181	491.12
498.398	496.12
498.615	492.12
498.832	523.12
499.049	589.12
499.267	639.12
499.484	701.12
499.701	748.12
499.918	829.12
500.135	922.12
500.352	1015.12
500.569	1081.12
500.786	1061.12
501.003	997.12
501.22	873.12
501.437	747.12
501.654	669.12
501.871	597.12
502.088	592.12
502.305	554.12
502.522	533.12
502.739	493.12
502.956	504.12
503.172	486.12
503.389	439.12
503.606	449.12
503.823	436.12
