Data from SampA_HRD10591_00084.txt Node
Date: Mon Jan 19 11:27:15 EST 2026
User: Yrep
Spectrometer: HR+D1059
Trigger mode: 0
Integration Time (sec): 3.443000E-1
Scans to average: 1
Electric dark correction enabled: true
Nonlinearity correction enabled: false
Boxcar width: 0
XAxis mode: Wavelengths
Number of Pixels in Spectrum: 2048
>>>>>Begin Spectral Data<<<<<
223.165	-36.56
223.4	-36.56
223.635	-36.56
223.869	-17.56
224.104	-17.56
224.338	-0.56
224.573	-9.56
224.808	-13.56
225.042	-20.56
225.277	-0.56
225.511	-16.56
225.746	10.44
225.98	14.44
226.215	16.44
226.449	21.44
226.683	14.44
226.918	22.44
227.152	33.44
227.387	21.44
227.621	27.44
227.856	39.44
228.09	43.44
228.324	36.44
228.559	42.44
228.793	54.44
229.027	63.44
229.262	82.44
229.496	68.44
229.73	67.44
229.964	76.44
230.199	95.44
230.433	69.44
230.667	82.44
230.901	84.44
231.136	79.44
231.37	73.44
231.604	78.44
231.838	81.44
232.072	72.44
232.306	75.44
232.541	65.44
232.775	66.44
233.009	84.44
233.243	73.44
233.477	74.44
233.711	76.44
233.945	70.44
234.179	85.44
234.413	82.44
234.647	86.44
234.881	82.44
235.115	79.44
235.349	90.44
235.583	69.44
235.817	83.44
236.051	82.44
236.285	80.44
236.519	83.44
236.753	91.44
236.987	77.44
237.221	71.44
237.455	84.44
237.689	86.44
237.922	79.44
238.156	72.44
238.39	78.44
238.624	75.44
238.858	79.44
239.091	88.44
239.325	87.44
239.559	75.44
239.793	86.44
240.027	76.44
240.26	83.44
240.494	79.44
240.728	80.44
240.961	80.44
241.195	82.44
241.429	91.44
241.662	77.44
241.896	86.44
242.13	88.44
242.363	87.44
242.597	85.44
242.83	87.44
243.064	103.44
243.298	85.44
243.531	75.44
243.765	75.44
243.998	74.44
244.232	87.44
244.465	90.44
244.699	95.44
244.932	107.44
245.166	86.44
245.399	82.44
245.633	86.44
245.866	85.44
246.099	75.44
246.333	91.44
246.566	83.44
246.8	89.44
247.033	86.44
247.266	80.44
247.5	88.44
247.733	84.44
247.966	94.44
248.2	81.44
248.433	74.44
248.666	76.44
248.899	84.44
249.133	95.44
249.366	78.44
249.599	85.44
249.832	82.44
250.066	88.44
250.299	100.44
250.532	88.44
250.765	82.44
250.998	80.44
251.231	90.44
251.465	70.44
251.698	85.44
251.931	84.44
252.164	78.44
252.397	102.44
252.63	84.44
252.863	88.44
253.096	82.44
253.329	86.44
253.562	82.44
253.795	97.44
254.028	100.44
254.261	96.44
254.494	87.44
254.727	92.44
254.96	86.44
255.193	76.44
255.426	83.44
255.659	103.44
255.892	102.44
256.124	98.44
256.357	84.44
256.59	100.44
256.823	103.44
257.056	93.44
257.289	87.44
257.521	91.44
257.754	84.44
257.987	98.44
258.22	95.44
258.452	113.44
258.685	97.44
258.918	88.44
259.151	89.44
259.383	87.44
259.616	99.44
259.849	86.44
260.081	81.44
260.314	101.44
260.547	99.44
260.779	82.44
261.012	90.44
261.244	95.44
261.477	103.44
261.71	101.44
261.942	108.44
262.175	88.44
262.407	92.44
262.64	97.44
262.872	105.44
263.105	101.44
263.337	93.44
263.57	92.44
263.802	106.44
264.035	94.44
264.267	99.44
264.499	109.44
264.732	102.44
264.964	95.44
265.197	84.44
265.429	98.44
265.661	92.44
265.894	126.44
266.126	101.44
266.358	111.44
266.591	93.44
266.823	93.44
267.055	94.44
267.287	96.44
267.52	104.44
267.752	106.44
267.984	107.44
268.216	95.44
268.448	107.44
268.681	112.44
268.913	119.44
269.145	95.44
269.377	112.44
269.609	107.44
269.841	101.44
270.073	97.44
270.306	113.44
270.538	101.44
270.77	97.44
271.002	104.44
271.234	104.44
271.466	119.44
271.698	109.44
271.93	102.44
272.162	90.44
272.394	102.44
272.626	98.44
272.858	96.44
273.09	106.44
273.322	112.44
273.553	95.44
273.785	99.44
274.017	104.44
274.249	107.44
274.481	103.44
274.713	93.44
274.945	120.44
275.176	100.44
275.408	108.44
275.64	103.44
275.872	103.44
276.104	106.44
276.335	99.44
276.567	96.44
276.799	101.44
277.031	98.44
277.262	96.44
277.494	96.44
277.726	117.44
277.957	107.44
278.189	110.44
278.421	98.44
278.652	106.44
278.884	100.44
279.115	113.44
279.347	107.44
279.579	102.44
279.81	114.44
280.042	97.44
280.273	117.44
280.505	114.44
280.736	116.44
280.968	113.44
281.199	113.44
281.431	107.44
281.662	126.44
281.894	120.44
282.125	126.44
282.356	106.44
282.588	110.44
282.819	115.44
283.051	105.44
283.282	107.44
283.513	127.44
283.745	117.44
283.976	101.44
284.207	113.44
284.439	115.44
284.67	122.44
284.901	121.44
285.132	108.44
285.364	128.44
285.595	119.44
285.826	96.44
286.057	105.44
286.288	104.44
286.52	126.44
286.751	116.44
286.982	128.44
287.213	112.44
287.444	130.44
287.675	102.44
287.906	130.44
288.138	129.44
288.369	120.44
288.6	132.44
288.831	128.44
289.062	133.44
289.293	131.44
289.524	115.44
289.755	113.44
289.986	135.44
290.217	124.44
290.448	116.44
290.679	121.44
290.91	113.44
291.141	112.44
291.371	127.44
291.602	131.44
291.833	122.44
292.064	102.44
292.295	133.44
292.526	121.44
292.757	123.44
292.987	130.44
293.218	119.44
293.449	119.44
293.68	115.44
293.91	121.44
294.141	146.44
294.372	145.44
294.603	113.44
294.833	126.44
295.064	116.44
295.295	130.44
295.525	113.44
295.756	130.44
295.987	113.44
296.217	124.44
296.448	123.44
296.679	124.44
296.909	130.44
297.14	128.44
297.37	118.44
297.601	116.44
297.831	117.44
298.062	146.44
298.292	126.44
298.523	131.44
298.753	109.44
298.984	133.44
299.214	132.44
299.445	132.44
299.675	123.44
299.905	138.44
300.136	116.44
300.366	115.44
300.597	119.44
300.827	132.44
301.057	142.44
301.288	142.44
301.518	136.44
301.748	121.44
301.979	162.44
302.209	117.44
302.439	146.44
302.669	117.44
302.9	116.44
303.13	130.44
303.36	126.44
303.59	120.44
303.82	135.44
304.051	136.44
304.281	125.44
304.511	136.44
304.741	116.44
304.971	131.44
305.201	144.44
305.431	128.44
305.661	129.44
305.891	119.44
306.121	114.44
306.352	115.44
306.582	127.44
306.812	119.44
307.042	122.44
307.272	139.44
307.502	133.44
307.731	148.44
307.961	128.44
308.191	115.44
308.421	131.44
308.651	126.44
308.881	116.44
309.111	130.44
309.341	137.44
309.571	118.44
309.8	126.44
310.03	126.44
310.26	115.44
310.49	121.44
310.72	127.44
310.949	133.44
311.179	146.44
311.409	121.44
311.639	121.44
311.868	126.44
312.098	150.44
312.328	137.44
312.557	144.44
312.787	130.44
313.017	145.44
313.246	155.44
313.476	138.44
313.706	138.44
313.935	133.44
314.165	123.44
314.394	129.44
314.624	128.44
314.853	150.44
315.083	123.44
315.312	142.44
315.542	116.44
315.771	150.44
316.001	141.44
316.23	129.44
316.46	140.44
316.689	128.44
316.919	109.44
317.148	132.44
317.377	152.44
317.607	137.44
317.836	123.44
318.065	133.44
318.295	106.44
318.524	122.44
318.753	143.44
318.983	130.44
319.212	126.44
319.441	120.44
319.67	139.44
319.9	130.44
320.129	128.44
320.358	134.44
320.587	126.44
320.816	140.44
321.046	135.44
321.275	134.44
321.504	131.44
321.733	130.44
321.962	142.44
322.191	131.44
322.42	129.44
322.649	130.44
322.878	130.44
323.108	137.44
323.337	143.44
323.566	121.44
323.795	138.44
324.024	136.44
324.253	122.44
324.482	122.44
324.71	149.44
324.939	162.44
325.168	150.44
325.397	149.44
325.626	147.44
325.855	143.44
326.084	147.44
326.313	150.44
326.542	160.44
326.77	130.44
326.999	150.44
327.228	142.44
327.457	147.44
327.686	140.44
327.914	144.44
328.143	152.44
328.372	144.44
328.6	130.44
328.829	133.44
329.058	138.44
329.287	136.44
329.515	120.44
329.744	150.44
329.972	155.44
330.201	153.44
330.43	145.44
330.658	151.44
330.887	129.44
331.115	160.44
331.344	151.44
331.572	151.44
331.801	162.44
332.03	148.44
332.258	141.44
332.486	159.44
332.715	159.44
332.943	164.44
333.172	171.44
333.4	174.44
333.629	179.44
333.857	165.44
334.085	172.44
334.314	172.44
334.542	160.44
334.771	165.44
334.999	162.44
335.227	164.44
335.455	166.44
335.684	161.44
335.912	162.44
336.14	156.44
336.369	157.44
336.597	160.44
336.825	137.44
337.053	174.44
337.281	156.44
337.51	156.44
337.738	153.44
337.966	126.44
338.194	143.44
338.422	143.44
338.65	156.44
338.878	153.44
339.106	143.44
339.334	143.44
339.562	142.44
339.79	134.44
340.018	142.44
340.246	152.44
340.474	130.44
340.702	148.44
340.93	154.44
341.158	164.44
341.386	147.44
341.614	134.44
341.842	146.44
342.07	139.44
342.298	135.44
342.526	131.44
342.754	154.44
342.981	150.44
343.209	145.44
343.437	178.44
343.665	151.44
343.893	167.44
344.12	167.44
344.348	155.44
344.576	144.44
344.804	152.44
345.031	151.44
345.259	140.44
345.487	134.44
345.714	154.44
345.942	143.44
346.17	134.44
346.397	149.44
346.625	142.44
346.853	149.44
347.08	129.44
347.308	139.44
347.535	138.44
347.763	134.44
347.99	147.44
348.218	144.44
348.445	135.44
348.673	138.44
348.9	142.44
349.128	172.44
349.355	124.44
349.583	143.44
349.81	144.44
350.037	153.44
350.265	136.44
350.492	140.44
350.72	127.44
350.947	130.44
351.174	147.44
351.402	145.44
351.629	127.44
351.856	146.44
352.083	130.44
352.311	152.44
352.538	136.44
352.765	139.44
352.992	157.44
353.22	135.44
353.447	119.44
353.674	160.44
353.901	154.44
354.128	135.44
354.355	147.44
354.583	141.44
354.81	133.44
355.037	166.44
355.264	148.44
355.491	135.44
355.718	137.44
355.945	152.44
356.172	149.44
356.399	135.44
356.626	135.44
356.853	140.44
357.08	149.44
357.307	159.44
357.534	144.44
357.761	142.44
357.988	142.44
358.215	163.44
358.441	142.44
358.668	138.44
358.895	146.44
359.122	162.44
359.349	122.44
359.576	145.44
359.802	140.44
360.029	148.44
360.256	143.44
360.483	136.44
360.709	151.44
360.936	152.44
361.163	144.44
361.39	143.44
361.616	122.44
361.843	160.44
362.07	154.44
362.296	149.44
362.523	133.44
362.749	146.44
362.976	142.44
363.203	164.44
363.429	133.44
363.656	142.44
363.882	160.44
364.109	134.44
364.335	133.44
364.562	150.44
364.788	139.44
365.015	132.44
365.241	145.44
365.468	129.44
365.694	143.44
365.92	138.44
366.147	138.44
366.373	147.44
366.599	119.44
366.826	126.44
367.052	144.44
367.278	155.44
367.505	140.44
367.731	148.44
367.957	151.44
368.184	140.44
368.41	156.44
368.636	140.44
368.862	142.44
369.089	142.44
369.315	138.44
369.541	164.44
369.767	159.44
369.993	161.44
370.219	147.44
370.445	143.44
370.672	151.44
370.898	146.44
371.124	155.44
371.35	141.44
371.576	156.44
371.802	136.44
372.028	154.44
372.254	147.44
372.48	159.44
372.706	152.44
372.932	156.44
373.158	160.44
373.384	171.44
373.61	153.44
373.835	154.44
374.061	152.44
374.287	166.44
374.513	163.44
374.739	155.44
374.965	163.44
375.191	158.44
375.416	136.44
375.642	164.44
375.868	157.44
376.094	167.44
376.319	149.44
376.545	176.44
376.771	158.44
376.997	146.44
377.222	154.44
377.448	168.44
377.674	162.44
377.899	153.44
378.125	145.44
378.35	168.44
378.576	148.44
378.802	145.44
379.027	156.44
379.253	150.44
379.478	137.44
379.704	155.44
379.929	142.44
380.155	150.44
380.38	150.44
380.606	140.44
380.831	143.44
381.057	173.44
381.282	151.44
381.507	153.44
381.733	165.44
381.958	152.44
382.184	154.44
382.409	143.44
382.634	161.44
382.86	174.44
383.085	168.44
383.31	167.44
383.535	162.44
383.761	179.44
383.986	159.44
384.211	160.44
384.436	164.44
384.662	168.44
384.887	176.44
385.112	175.44
385.337	176.44
385.562	195.44
385.787	168.44
386.013	166.44
386.238	176.44
386.463	186.44
386.688	202.44
386.913	167.44
387.138	169.44
387.363	160.44
387.588	184.44
387.813	183.44
388.038	185.44
388.263	162.44
388.488	185.44
388.713	168.44
388.938	189.44
389.163	170.44
389.387	184.44
389.612	175.44
389.837	180.44
390.062	177.44
390.287	191.44
390.512	187.44
390.736	187.44
390.961	172.44
391.186	187.44
391.411	196.44
391.636	189.44
391.86	204.44
392.085	203.44
392.31	193.44
392.534	199.44
392.759	198.44
392.984	193.44
393.208	194.44
393.433	183.44
393.658	193.44
393.882	207.44
394.107	201.44
394.331	207.44
394.556	203.44
394.78	196.44
395.005	217.44
395.229	214.44
395.454	210.44
395.678	223.44
395.903	210.44
396.127	210.44
396.352	209.44
396.576	202.44
396.801	212.44
397.025	195.44
397.249	220.44
397.474	212.44
397.698	214.44
397.922	226.44
398.147	225.44
398.371	228.44
398.595	220.44
398.82	235.44
399.044	250.44
399.268	270.44
399.492	298.44
399.717	298.44
399.941	309.44
400.165	288.44
400.389	272.44
400.613	261.44
400.837	249.44
401.062	240.44
401.286	244.44
401.51	269.44
401.734	248.44
401.958	263.44
402.182	242.44
402.406	254.44
402.63	262.44
402.854	271.44
403.078	264.44
403.302	270.44
403.526	298.44
403.75	282.44
403.974	277.44
404.198	279.44
404.422	290.44
404.645	286.44
404.869	272.44
405.093	293.44
405.317	280.44
405.541	279.44
405.765	297.44
405.988	281.44
406.212	280.44
406.436	290.44
406.66	292.44
406.883	266.44
407.107	316.44
407.331	313.44
407.555	315.44
407.778	327.44
408.002	307.44
408.226	293.44
408.449	320.44
408.673	300.44
408.896	312.44
409.12	295.44
409.344	308.44
409.567	278.44
409.791	288.44
410.014	308.44
410.238	300.44
410.461	312.44
410.685	308.44
410.908	304.44
411.132	305.44
411.355	294.44
411.578	270.44
411.802	283.44
412.025	273.44
412.249	290.44
412.472	292.44
412.695	279.44
412.919	283.44
413.142	275.44
413.365	294.44
413.589	294.44
413.812	280.44
414.035	271.44
414.258	304.44
414.482	285.44
414.705	282.44
414.928	304.44
415.151	310.44
415.374	272.44
415.597	282.44
415.821	276.44
416.044	287.44
416.267	282.44
416.49	283.44
416.713	289.44
416.936	276.44
417.159	281.44
417.382	269.44
417.605	272.44
417.828	290.44
418.051	296.44
418.274	284.44
418.497	324.44
418.72	318.44
418.943	306.44
419.166	322.44
419.389	324.44
419.611	312.44
419.834	316.44
420.057	303.44
420.28	308.44
420.503	294.44
420.726	292.44
420.948	294.44
421.171	295.44
421.394	288.44
421.617	327.44
421.839	289.44
422.062	295.44
422.285	309.44
422.507	298.44
422.73	296.44
422.953	295.44
423.175	299.44
423.398	301.44
423.621	311.44
423.843	311.44
424.066	318.44
424.288	322.44
424.511	312.44
424.733	310.44
424.956	324.44
425.178	312.44
425.401	301.44
425.623	294.44
425.846	278.44
426.068	274.44
426.291	292.44
426.513	273.44
426.735	294.44
426.958	283.44
427.18	274.44
427.402	287.44
427.625	287.44
427.847	271.44
428.069	266.44
428.292	291.44
428.514	279.44
428.736	272.44
428.958	273.44
429.181	275.44
429.403	289.44
429.625	260.44
429.847	278.44
430.069	278.44
430.292	278.44
430.514	266.44
430.736	266.44
430.958	278.44
431.18	291.44
431.402	264.44
431.624	240.44
431.846	255.44
432.068	247.44
432.29	244.44
432.512	265.44
432.734	272.44
432.956	269.44
433.178	265.44
433.4	291.44
433.622	272.44
433.844	282.44
434.066	256.44
434.287	249.44
434.509	230.44
434.731	258.44
434.953	262.44
435.175	283.44
435.397	279.44
435.618	273.44
435.84	259.44
436.062	262.44
436.284	271.44
436.505	279.44
436.727	303.44
436.949	277.44
437.17	280.44
437.392	275.44
437.614	261.44
437.835	234.44
438.057	240.44
438.278	245.44
438.5	267.44
438.721	276.44
438.943	290.44
439.165	272.44
439.386	272.44
439.608	291.44
439.829	284.44
440.05	283.44
440.272	276.44
440.493	308.44
440.715	302.44
440.936	292.44
441.158	307.44
441.379	300.44
441.6	314.44
441.822	306.44
442.043	316.44
442.264	303.44
442.486	294.44
442.707	285.44
442.928	296.44
443.149	307.44
443.371	296.44
443.592	296.44
443.813	294.44
444.034	336.44
444.255	312.44
444.476	328.44
444.698	335.44
444.919	339.44
445.14	545.44
445.361	427.44
445.582	331.44
445.803	291.44
446.024	300.44
446.245	323.44
446.466	301.44
446.687	280.44
446.908	296.44
447.129	290.44
447.35	315.44
447.571	286.44
447.792	276.44
448.013	266.44
448.234	266.44
448.455	275.44
448.675	291.44
448.896	292.44
449.117	255.44
449.338	260.44
449.559	268.44
449.779	260.44
450	286.44
450.221	261.44
450.442	268.44
450.662	275.44
450.883	274.44
451.104	265.44
451.324	272.44
451.545	262.44
451.766	260.44
451.986	246.44
452.207	260.44
452.428	240.44
452.648	250.44
452.869	241.44
453.089	233.44
453.31	237.44
453.53	245.44
453.751	219.44
453.971	203.44
454.192	220.44
454.412	213.44
454.633	233.44
454.853	225.44
455.073	243.44
455.294	265.44
455.514	278.44
455.734	256.44
455.955	235.44
456.175	232.44
456.395	230.44
456.616	225.44
456.836	209.44
457.056	228.44
457.276	222.44
457.497	233.44
457.717	227.44
457.937	230.44
458.157	233.44
458.377	225.44
458.598	214.44
458.818	212.44
459.038	210.44
459.258	241.44
459.478	217.44
459.698	255.44
459.918	246.44
460.138	254.44
460.358	267.44
460.578	282.44
460.798	292.44
461.018	294.44
461.238	287.44
461.458	289.44
461.678	284.44
461.898	274.44
462.118	283.44
462.338	295.44
462.558	309.44
462.777	326.44
462.997	347.44
463.217	355.44
463.437	351.44
463.657	320.44
463.876	314.44
464.096	306.44
464.316	310.44
464.536	307.44
464.755	328.44
464.975	302.44
465.195	280.44
465.414	268.44
465.634	262.44
465.854	259.44
466.073	259.44
466.293	263.44
466.512	265.44
466.732	240.44
466.951	268.44
467.171	272.44
467.391	259.44
467.61	270.44
467.829	265.44
468.049	272.44
468.268	276.44
468.488	272.44
468.707	274.44
468.927	267.44
469.146	277.44
469.365	278.44
469.585	277.44
469.804	283.44
470.023	277.44
470.243	277.44
470.462	290.44
470.681	302.44
470.901	295.44
471.12	286.44
471.339	279.44
471.558	263.44
471.777	274.44
471.997	253.44
472.216	243.44
472.435	232.44
472.654	231.44
472.873	225.44
473.092	227.44
473.311	236.44
473.53	245.44
473.749	249.44
473.968	259.44
474.187	238.44
474.406	230.44
474.625	271.44
474.844	260.44
475.063	247.44
475.282	251.44
475.501	239.44
475.72	252.44
475.939	261.44
476.158	262.44
476.377	249.44
476.596	227.44
476.814	235.44
477.033	238.44
477.252	256.44
477.471	269.44
477.69	284.44
477.908	288.44
478.127	292.44
478.346	295.44
478.564	277.44
478.783	306.44
479.002	299.44
479.22	296.44
479.439	294.44
479.658	274.44
479.876	280.44
480.095	263.44
480.313	296.44
480.532	294.44
480.751	282.44
480.969	252.44
481.188	258.44
481.406	240.44
481.624	239.44
481.843	235.44
482.061	244.44
482.28	259.44
482.498	264.44
482.717	256.44
482.935	264.44
483.153	278.44
483.372	299.44
483.59	283.44
483.808	260.44
484.027	300.44
484.245	265.44
484.463	284.44
484.681	323.44
484.9	277.44
485.118	285.44
485.336	263.44
485.554	261.44
485.772	233.44
485.99	260.44
486.209	266.44
486.427	256.44
486.645	278.44
486.863	312.44
487.081	300.44
487.299	284.44
487.517	283.44
487.735	311.44
487.953	328.44
488.171	339.44
488.389	324.44
488.607	298.44
488.825	276.44
489.043	271.44
489.261	283.44
489.479	295.44
489.696	303.44
489.914	281.44
490.132	308.44
490.35	293.44
490.568	322.44
490.786	340.44
491.003	361.44
491.221	337.44
491.439	353.44
491.657	356.44
491.874	376.44
492.092	363.44
492.31	422.44
492.527	371.44
492.745	358.44
492.963	359.44
493.18	392.44
493.398	386.44
493.615	369.44
493.833	362.44
494.05	357.44
494.268	353.44
494.485	369.44
494.703	352.44
494.92	352.44
495.138	347.44
495.355	334.44
495.573	331.44
495.79	349.44
496.008	366.44
496.225	335.44
496.442	348.44
496.66	356.44
496.877	341.44
497.094	342.44
497.312	345.44
497.529	353.44
497.746	341.44
497.963	335.44
498.181	334.44
498.398	343.44
498.615	349.44
498.832	370.44
499.049	392.44
499.267	437.44
499.484	465.44
499.701	518.44
499.918	560.44
500.135	617.44
500.352	694.44
500.569	723.44
500.786	677.44
501.003	629.44
501.22	568.44
501.437	516.44
501.654	451.44
501.871	450.44
502.088	415.44
502.305	391.44
502.522	392.44
502.739	358.44
502.956	348.44
503.172	315.44
503.389	324.44
503.606	329.44
503.823	315.44
504.04	318.44
504.256	332.44
504.473	312.44
504.69	324.44
504.907	338.44
