Data from SampA_HRD10591_00070.txt Node
Date: Mon Jan 19 11:27:10 EST 2026
User: Yrep
Spectrometer: HR+D1059
Trigger mode: 0
Integration Time (sec): 3.443000E-1
Scans to average: 1
Electric dark correction enabled: true
Nonlinearity correction enabled: false
Boxcar width: 0
XAxis mode: Wavelengths
Number of Pixels in Spectrum: 2048
>>>>>Begin Spectral Data<<<<<
223.165	-8.06
223.4	-8.06
223.635	-8.06
223.869	-24.06
224.104	-11.06
224.338	-1.06
224.573	-13.06
224.808	-17.06
225.042	-5.06
225.277	-7.06
225.511	-9.06
225.746	-0.06
225.98	7.94
226.215	12.94
226.449	11.94
226.683	14.94
226.918	24.94
227.152	22.94
227.387	48.94
227.621	47.94
227.856	37.94
228.09	35.94
228.324	35.94
228.559	63.94
228.793	64.94
229.027	70.94
229.262	72.94
229.496	73.94
229.73	72.94
229.964	78.94
230.199	75.94
230.433	87.94
230.667	77.94
230.901	93.94
231.136	101.94
231.37	92.94
231.604	97.94
231.838	100.94
232.072	90.94
232.306	84.94
232.541	96.94
232.775	88.94
233.009	89.94
233.243	103.94
233.477	93.94
233.711	94.94
233.945	93.94
234.179	75.94
234.413	103.94
234.647	93.94
234.881	92.94
235.115	102.94
235.349	94.94
235.583	77.94
235.817	88.94
236.051	86.94
236.285	87.94
236.519	98.94
236.753	87.94
236.987	84.94
237.221	96.94
237.455	95.94
237.689	88.94
237.922	91.94
238.156	81.94
238.39	75.94
238.624	90.94
238.858	92.94
239.091	81.94
239.325	97.94
239.559	98.94
239.793	70.94
240.027	95.94
240.26	106.94
240.494	83.94
240.728	73.94
240.961	95.94
241.195	110.94
241.429	104.94
241.662	89.94
241.896	95.94
242.13	100.94
242.363	96.94
242.597	87.94
242.83	94.94
243.064	84.94
243.298	95.94
243.531	97.94
243.765	99.94
243.998	100.94
244.232	91.94
244.465	101.94
244.699	84.94
244.932	82.94
245.166	90.94
245.399	103.94
245.633	109.94
245.866	100.94
246.099	90.94
246.333	80.94
246.566	89.94
246.8	86.94
247.033	89.94
247.266	85.94
247.5	83.94
247.733	87.94
247.966	91.94
248.2	81.94
248.433	102.94
248.666	97.94
248.899	97.94
249.133	106.94
249.366	112.94
249.599	98.94
249.832	89.94
250.066	113.94
250.299	119.94
250.532	97.94
250.765	92.94
250.998	103.94
251.231	104.94
251.465	100.94
251.698	95.94
251.931	96.94
252.164	109.94
252.397	109.94
252.63	100.94
252.863	82.94
253.096	94.94
253.329	107.94
253.562	92.94
253.795	109.94
254.028	110.94
254.261	109.94
254.494	103.94
254.727	117.94
254.96	106.94
255.193	106.94
255.426	99.94
255.659	96.94
255.892	106.94
256.124	107.94
256.357	107.94
256.59	99.94
256.823	104.94
257.056	117.94
257.289	105.94
257.521	80.94
257.754	107.94
257.987	111.94
258.22	111.94
258.452	106.94
258.685	117.94
258.918	114.94
259.151	92.94
259.383	113.94
259.616	104.94
259.849	112.94
260.081	132.94
260.314	121.94
260.547	116.94
260.779	115.94
261.012	108.94
261.244	103.94
261.477	120.94
261.71	98.94
261.942	112.94
262.175	117.94
262.407	105.94
262.64	107.94
262.872	106.94
263.105	105.94
263.337	109.94
263.57	120.94
263.802	113.94
264.035	95.94
264.267	120.94
264.499	127.94
264.732	117.94
264.964	107.94
265.197	116.94
265.429	106.94
265.661	102.94
265.894	114.94
266.126	126.94
266.358	111.94
266.591	114.94
266.823	111.94
267.055	111.94
267.287	127.94
267.52	117.94
267.752	110.94
267.984	120.94
268.216	125.94
268.448	112.94
268.681	118.94
268.913	126.94
269.145	116.94
269.377	120.94
269.609	113.94
269.841	117.94
270.073	124.94
270.306	112.94
270.538	121.94
270.77	127.94
271.002	114.94
271.234	109.94
271.466	126.94
271.698	107.94
271.93	112.94
272.162	130.94
272.394	131.94
272.626	123.94
272.858	120.94
273.09	133.94
273.322	125.94
273.553	119.94
273.785	107.94
274.017	119.94
274.249	126.94
274.481	135.94
274.713	120.94
274.945	133.94
275.176	121.94
275.408	132.94
275.64	113.94
275.872	119.94
276.104	118.94
276.335	121.94
276.567	126.94
276.799	129.94
277.031	112.94
277.262	132.94
277.494	138.94
277.726	145.94
277.957	118.94
278.189	121.94
278.421	130.94
278.652	143.94
278.884	130.94
279.115	134.94
279.347	123.94
279.579	133.94
279.81	121.94
280.042	124.94
280.273	135.94
280.505	122.94
280.736	126.94
280.968	155.94
281.199	136.94
281.431	142.94
281.662	132.94
281.894	142.94
282.125	147.94
282.356	135.94
282.588	146.94
282.819	135.94
283.051	133.94
283.282	133.94
283.513	125.94
283.745	129.94
283.976	129.94
284.207	134.94
284.439	136.94
284.67	135.94
284.901	141.94
285.132	123.94
285.364	132.94
285.595	137.94
285.826	130.94
286.057	136.94
286.288	124.94
286.52	135.94
286.751	143.94
286.982	133.94
287.213	145.94
287.444	141.94
287.675	143.94
287.906	140.94
288.138	120.94
288.369	122.94
288.6	135.94
288.831	144.94
289.062	149.94
289.293	132.94
289.524	149.94
289.755	146.94
289.986	139.94
290.217	136.94
290.448	136.94
290.679	154.94
290.91	158.94
291.141	151.94
291.371	142.94
291.602	146.94
291.833	146.94
292.064	152.94
292.295	140.94
292.526	134.94
292.757	155.94
292.987	151.94
293.218	150.94
293.449	130.94
293.68	155.94
293.91	153.94
294.141	148.94
294.372	138.94
294.603	135.94
294.833	155.94
295.064	141.94
295.295	147.94
295.525	149.94
295.756	154.94
295.987	138.94
296.217	153.94
296.448	151.94
296.679	154.94
296.909	156.94
297.14	152.94
297.37	157.94
297.601	136.94
297.831	125.94
298.062	148.94
298.292	143.94
298.523	150.94
298.753	147.94
298.984	157.94
299.214	162.94
299.445	145.94
299.675	166.94
299.905	149.94
300.136	156.94
300.366	144.94
300.597	156.94
300.827	173.94
301.057	162.94
301.288	152.94
301.518	158.94
301.748	140.94
301.979	191.94
302.209	164.94
302.439	142.94
302.669	156.94
302.9	156.94
303.13	167.94
303.36	133.94
303.59	143.94
303.82	171.94
304.051	152.94
304.281	164.94
304.511	158.94
304.741	150.94
304.971	140.94
305.201	169.94
305.431	169.94
305.661	149.94
305.891	144.94
306.121	166.94
306.352	155.94
306.582	150.94
306.812	158.94
307.042	169.94
307.272	157.94
307.502	148.94
307.731	159.94
307.961	153.94
308.191	160.94
308.421	163.94
308.651	151.94
308.881	158.94
309.111	159.94
309.341	149.94
309.571	154.94
309.8	139.94
310.03	160.94
310.26	155.94
310.49	149.94
310.72	159.94
310.949	152.94
311.179	164.94
311.409	153.94
311.639	157.94
311.868	140.94
312.098	160.94
312.328	173.94
312.557	172.94
312.787	160.94
313.017	162.94
313.246	165.94
313.476	187.94
313.706	159.94
313.935	168.94
314.165	153.94
314.394	160.94
314.624	165.94
314.853	159.94
315.083	162.94
315.312	171.94
315.542	155.94
315.771	164.94
316.001	160.94
316.23	163.94
316.46	158.94
316.689	162.94
316.919	174.94
317.148	157.94
317.377	171.94
317.607	162.94
317.836	153.94
318.065	157.94
318.295	161.94
318.524	150.94
318.753	169.94
318.983	156.94
319.212	164.94
319.441	154.94
319.67	161.94
319.9	161.94
320.129	157.94
320.358	157.94
320.587	170.94
320.816	164.94
321.046	162.94
321.275	162.94
321.504	156.94
321.733	165.94
321.962	183.94
322.191	166.94
322.42	166.94
322.649	161.94
322.878	177.94
323.108	156.94
323.337	184.94
323.566	179.94
323.795	176.94
324.024	182.94
324.253	172.94
324.482	164.94
324.71	172.94
324.939	174.94
325.168	172.94
325.397	175.94
325.626	174.94
325.855	169.94
326.084	159.94
326.313	169.94
326.542	180.94
326.77	167.94
326.999	161.94
327.228	153.94
327.457	181.94
327.686	170.94
327.914	178.94
328.143	175.94
328.372	161.94
328.6	168.94
328.829	168.94
329.058	166.94
329.287	154.94
329.515	160.94
329.744	174.94
329.972	168.94
330.201	180.94
330.43	168.94
330.658	170.94
330.887	161.94
331.115	175.94
331.344	186.94
331.572	181.94
331.801	189.94
332.03	192.94
332.258	186.94
332.486	186.94
332.715	177.94
332.943	187.94
333.172	208.94
333.4	219.94
333.629	217.94
333.857	211.94
334.085	220.94
334.314	216.94
334.542	202.94
334.771	223.94
334.999	211.94
335.227	204.94
335.455	207.94
335.684	193.94
335.912	186.94
336.14	189.94
336.369	199.94
336.597	216.94
336.825	181.94
337.053	176.94
337.281	182.94
337.51	192.94
337.738	187.94
337.966	175.94
338.194	189.94
338.422	176.94
338.65	204.94
338.878	191.94
339.106	178.94
339.334	191.94
339.562	189.94
339.79	181.94
340.018	169.94
340.246	169.94
340.474	161.94
340.702	173.94
340.93	172.94
341.158	173.94
341.386	181.94
341.614	172.94
341.842	164.94
342.07	190.94
342.298	168.94
342.526	179.94
342.754	166.94
342.981	182.94
343.209	189.94
343.437	207.94
343.665	184.94
343.893	204.94
344.12	198.94
344.348	194.94
344.576	183.94
344.804	181.94
345.031	174.94
345.259	171.94
345.487	173.94
345.714	196.94
345.942	158.94
346.17	156.94
346.397	164.94
346.625	151.94
346.853	184.94
347.08	167.94
347.308	207.94
347.535	181.94
347.763	153.94
347.99	176.94
348.218	186.94
348.445	176.94
348.673	193.94
348.9	177.94
349.128	173.94
349.355	182.94
349.583	179.94
349.81	182.94
350.037	182.94
350.265	172.94
350.492	181.94
350.72	169.94
350.947	164.94
351.174	161.94
351.402	179.94
351.629	174.94
351.856	168.94
352.083	170.94
352.311	159.94
352.538	154.94
352.765	150.94
352.992	184.94
353.22	168.94
353.447	180.94
353.674	176.94
353.901	183.94
354.128	178.94
354.355	163.94
354.583	176.94
354.81	186.94
355.037	171.94
355.264	181.94
355.491	174.94
355.718	161.94
355.945	172.94
356.172	171.94
356.399	182.94
356.626	159.94
356.853	167.94
357.08	180.94
357.307	177.94
357.534	166.94
357.761	162.94
357.988	177.94
358.215	181.94
358.441	162.94
358.668	170.94
358.895	162.94
359.122	170.94
359.349	191.94
359.576	173.94
359.802	164.94
360.029	180.94
360.256	163.94
360.483	161.94
360.709	178.94
360.936	173.94
361.163	167.94
361.39	178.94
361.616	174.94
361.843	180.94
362.07	181.94
362.296	160.94
362.523	165.94
362.749	176.94
362.976	156.94
363.203	178.94
363.429	162.94
363.656	170.94
363.882	166.94
364.109	171.94
364.335	169.94
364.562	167.94
364.788	149.94
365.015	157.94
365.241	167.94
365.468	160.94
365.694	161.94
365.92	149.94
366.147	172.94
366.373	162.94
366.599	172.94
366.826	157.94
367.052	171.94
367.278	179.94
367.505	155.94
367.731	196.94
367.957	172.94
368.184	170.94
368.41	170.94
368.636	203.94
368.862	180.94
369.089	175.94
369.315	181.94
369.541	176.94
369.767	169.94
369.993	177.94
370.219	183.94
370.445	166.94
370.672	188.94
370.898	183.94
371.124	175.94
371.35	182.94
371.576	186.94
371.802	175.94
372.028	175.94
372.254	170.94
372.48	170.94
372.706	186.94
372.932	171.94
373.158	188.94
373.384	191.94
373.61	182.94
373.835	197.94
374.061	173.94
374.287	193.94
374.513	182.94
374.739	181.94
374.965	198.94
375.191	199.94
375.416	189.94
375.642	185.94
375.868	216.94
376.094	202.94
376.319	185.94
376.545	184.94
376.771	169.94
376.997	198.94
377.222	184.94
377.448	178.94
377.674	184.94
377.899	177.94
378.125	176.94
378.35	180.94
378.576	181.94
378.802	170.94
379.027	170.94
379.253	176.94
379.478	173.94
379.704	160.94
379.929	179.94
380.155	181.94
380.38	178.94
380.606	183.94
380.831	202.94
381.057	187.94
381.282	185.94
381.507	187.94
381.733	207.94
381.958	193.94
382.184	184.94
382.409	193.94
382.634	181.94
382.86	205.94
383.085	202.94
383.31	197.94
383.535	207.94
383.761	193.94
383.986	201.94
384.211	198.94
384.436	204.94
384.662	200.94
384.887	198.94
385.112	210.94
385.337	201.94
385.562	210.94
385.787	221.94
386.013	220.94
386.238	186.94
386.463	202.94
386.688	240.94
386.913	220.94
387.138	198.94
387.363	206.94
387.588	208.94
387.813	210.94
388.038	215.94
388.263	226.94
388.488	210.94
388.713	226.94
388.938	222.94
389.163	214.94
389.387	223.94
389.612	206.94
389.837	210.94
390.062	225.94
390.287	216.94
390.512	213.94
390.736	206.94
390.961	215.94
391.186	216.94
391.411	234.94
391.636	231.94
391.86	228.94
392.085	242.94
392.31	245.94
392.534	231.94
392.759	231.94
392.984	238.94
393.208	238.94
393.433	220.94
393.658	231.94
393.882	231.94
394.107	229.94
394.331	235.94
394.556	227.94
394.78	251.94
395.005	239.94
395.229	223.94
395.454	253.94
395.678	236.94
395.903	248.94
396.127	258.94
396.352	238.94
396.576	242.94
396.801	252.94
397.025	251.94
397.249	234.94
397.474	272.94
397.698	248.94
397.922	250.94
398.147	251.94
398.371	247.94
398.595	250.94
398.82	261.94
399.044	278.94
399.268	340.94
399.492	374.94
399.717	388.94
399.941	376.94
400.165	341.94
400.389	289.94
400.613	286.94
400.837	290.94
401.062	286.94
401.286	305.94
401.51	254.94
401.734	257.94
401.958	280.94
402.182	311.94
402.406	290.94
402.63	308.94
402.854	319.94
403.078	300.94
403.302	310.94
403.526	310.94
403.75	343.94
403.974	343.94
404.198	333.94
404.422	340.94
404.645	330.94
404.869	326.94
405.093	324.94
405.317	317.94
405.541	324.94
405.765	338.94
405.988	336.94
406.212	328.94
406.436	341.94
406.66	344.94
406.883	336.94
407.107	345.94
407.331	356.94
407.555	369.94
407.778	372.94
408.002	354.94
408.226	349.94
408.449	348.94
408.673	344.94
408.896	347.94
409.12	349.94
409.344	334.94
409.567	344.94
409.791	351.94
410.014	350.94
410.238	328.94
410.461	346.94
410.685	329.94
410.908	335.94
411.132	332.94
411.355	336.94
411.578	341.94
411.802	311.94
412.025	309.94
412.249	317.94
412.472	319.94
412.695	327.94
412.919	316.94
413.142	318.94
413.365	316.94
413.589	325.94
413.812	312.94
414.035	338.94
414.258	328.94
414.482	316.94
414.705	322.94
414.928	309.94
415.151	330.94
415.374	337.94
415.597	306.94
415.821	321.94
416.044	314.94
416.267	318.94
416.49	314.94
416.713	327.94
416.936	333.94
417.159	326.94
417.382	324.94
417.605	326.94
417.828	330.94
418.051	337.94
418.274	336.94
418.497	338.94
418.72	335.94
418.943	342.94
419.166	344.94
419.389	379.94
419.611	353.94
419.834	356.94
420.057	347.94
420.28	328.94
420.503	313.94
420.726	320.94
420.948	319.94
421.171	333.94
421.394	334.94
421.617	320.94
421.839	333.94
422.062	340.94
422.285	320.94
422.507	358.94
422.73	338.94
422.953	329.94
423.175	334.94
423.398	350.94
423.621	349.94
423.843	348.94
424.066	349.94
424.288	360.94
424.511	342.94
424.733	348.94
424.956	330.94
425.178	355.94
425.401	319.94
425.623	361.94
425.846	330.94
426.068	324.94
426.291	309.94
426.513	313.94
426.735	321.94
426.958	324.94
427.18	316.94
427.402	314.94
427.625	314.94
427.847	284.94
428.069	306.94
428.292	285.94
428.514	310.94
428.736	302.94
428.958	290.94
429.181	294.94
429.403	291.94
429.625	294.94
429.847	313.94
430.069	294.94
430.292	304.94
430.514	306.94
430.736	283.94
430.958	300.94
431.18	286.94
431.402	276.94
431.624	291.94
431.846	273.94
432.068	272.94
432.29	282.94
432.512	295.94
432.734	286.94
432.956	320.94
433.178	312.94
433.4	303.94
433.622	336.94
433.844	318.94
434.066	312.94
434.287	283.94
434.509	291.94
434.731	295.94
434.953	310.94
435.175	322.94
435.397	331.94
435.618	286.94
435.84	292.94
436.062	289.94
436.284	294.94
436.505	297.94
436.727	309.94
436.949	307.94
437.17	295.94
437.392	278.94
437.614	292.94
437.835	270.94
438.057	291.94
438.278	267.94
438.5	260.94
438.721	298.94
438.943	279.94
439.165	300.94
439.386	299.94
439.608	325.94
439.829	328.94
440.05	316.94
440.272	295.94
440.493	325.94
440.715	324.94
440.936	325.94
441.158	341.94
441.379	337.94
441.6	337.94
441.822	340.94
442.043	332.94
442.264	324.94
442.486	315.94
442.707	333.94
442.928	326.94
443.149	344.94
443.371	336.94
443.592	335.94
443.813	335.94
444.034	354.94
444.255	352.94
444.476	370.94
444.698	397.94
444.919	382.94
445.14	550.94
445.361	457.94
445.582	375.94
445.803	327.94
446.024	331.94
446.245	347.94
446.466	362.94
446.687	315.94
446.908	335.94
447.129	324.94
447.35	320.94
447.571	312.94
447.792	311.94
448.013	293.94
448.234	315.94
448.455	272.94
448.675	294.94
448.896	299.94
449.117	300.94
449.338	291.94
449.559	305.94
449.779	304.94
450	278.94
450.221	304.94
450.442	293.94
450.662	287.94
450.883	290.94
451.104	289.94
451.324	292.94
451.545	258.94
451.766	277.94
451.986	296.94
452.207	298.94
452.428	280.94
452.648	306.94
452.869	278.94
453.089	267.94
453.31	270.94
453.53	253.94
453.751	254.94
453.971	259.94
454.192	266.94
454.412	247.94
454.633	248.94
454.853	256.94
455.073	281.94
455.294	302.94
455.514	328.94
455.734	278.94
455.955	272.94
456.175	248.94
456.395	267.94
456.616	257.94
456.836	265.94
457.056	252.94
457.276	237.94
457.497	249.94
457.717	250.94
457.937	267.94
458.157	264.94
458.377	238.94
458.598	245.94
458.818	251.94
459.038	258.94
459.258	263.94
459.478	262.94
459.698	268.94
459.918	295.94
460.138	302.94
460.358	321.94
460.578	325.94
460.798	328.94
461.018	329.94
461.238	321.94
461.458	331.94
461.678	328.94
461.898	327.94
462.118	323.94
462.338	334.94
462.558	337.94
462.777	363.94
462.997	390.94
463.217	421.94
463.437	400.94
463.657	354.94
463.876	347.94
464.096	368.94
464.316	354.94
464.536	352.94
464.755	350.94
464.975	342.94
465.195	298.94
465.414	326.94
465.634	303.94
465.854	271.94
466.073	294.94
466.293	286.94
466.512	294.94
466.732	286.94
466.951	289.94
467.171	302.94
467.391	300.94
467.61	287.94
467.829	293.94
468.049	297.94
468.268	294.94
468.488	305.94
468.707	285.94
468.927	294.94
469.146	289.94
469.365	295.94
469.585	296.94
469.804	303.94
470.023	294.94
470.243	304.94
470.462	313.94
470.681	312.94
470.901	308.94
471.12	306.94
471.339	292.94
471.558	309.94
471.777	283.94
471.997	286.94
472.216	294.94
472.435	273.94
472.654	246.94
472.873	264.94
473.092	268.94
473.311	278.94
473.53	283.94
473.749	280.94
473.968	274.94
474.187	271.94
474.406	268.94
474.625	273.94
474.844	290.94
475.063	279.94
475.282	289.94
475.501	279.94
475.72	288.94
475.939	290.94
476.158	272.94
476.377	279.94
476.596	264.94
476.814	259.94
477.033	284.94
477.252	271.94
477.471	280.94
477.69	321.94
477.908	330.94
478.127	328.94
478.346	324.94
478.564	316.94
478.783	312.94
479.002	319.94
479.22	320.94
479.439	329.94
479.658	314.94
479.876	319.94
480.095	334.94
480.313	347.94
480.532	349.94
480.751	315.94
480.969	299.94
481.188	284.94
481.406	281.94
481.624	283.94
481.843	268.94
482.061	279.94
482.28	288.94
482.498	295.94
482.717	274.94
482.935	294.94
483.153	313.94
483.372	319.94
483.59	319.94
483.808	300.94
484.027	315.94
484.245	333.94
484.463	317.94
484.681	330.94
484.9	305.94
485.118	327.94
485.336	303.94
485.554	301.94
485.772	298.94
485.99	296.94
486.209	308.94
486.427	306.94
486.645	298.94
486.863	343.94
487.081	313.94
487.299	293.94
487.517	334.94
487.735	349.94
487.953	361.94
488.171	360.94
488.389	351.94
488.607	324.94
488.825	322.94
489.043	309.94
489.261	318.94
489.479	326.94
489.696	319.94
489.914	318.94
490.132	335.94
490.35	330.94
490.568	334.94
490.786	352.94
491.003	366.94
491.221	357.94
491.439	368.94
491.657	366.94
491.874	401.94
492.092	410.94
492.31	432.94
492.527	385.94
492.745	393.94
492.963	392.94
493.18	392.94
493.398	409.94
493.615	482.94
493.833	426.94
494.05	354.94
494.268	391.94
494.485	374.94
494.703	380.94
494.92	372.94
495.138	367.94
495.355	373.94
495.573	373.94
495.79	357.94
496.008	392.94
496.225	368.94
496.442	364.94
496.66	394.94
496.877	372.94
497.094	386.94
497.312	398.94
497.529	378.94
497.746	376.94
497.963	351.94
498.181	393.94
498.398	389.94
498.615	415.94
498.832	428.94
499.049	449.94
499.267	489.94
499.484	533.94
499.701	584.94
499.918	666.94
500.135	712.94
500.352	830.94
500.569	838.94
500.786	790.94
501.003	761.94
501.22	672.94
501.437	600.94
501.654	546.94
501.871	505.94
502.088	458.94
502.305	435.94
502.522	412.94
502.739	418.94
502.956	398.94
503.172	390.94
503.389	356.94
503.606	382.94
503.823	382.94
504.04	353.94
