Data from SampA_HRD10591_00021.txt Node
Date: Mon Jan 19 11:26:53 EST 2026
User: Yrep
Spectrometer: HR+D1059
Trigger mode: 0
Integration Time (sec): 3.443000E-1
Scans to average: 1
Electric dark correction enabled: true
Nonlinearity correction enabled: false
Boxcar width: 0
XAxis mode: Wavelengths
Number of Pixels in Spectrum: 2048
>>>>>Begin Spectral Data<<<<<
223.165	-16.44
223.4	-16.44
223.635	-16.44
223.869	-35.44
224.104	-33.44
224.338	1.56
224.573	-8.44
224.808	-10.44
225.042	-11.44
225.277	0.56
225.511	6.56
225.746	7.56
225.98	14.56
226.215	9.56
226.449	3.56
226.683	18.56
226.918	23.56
227.152	29.56
227.387	40.56
227.621	30.56
227.856	38.56
228.09	40.56
228.324	48.56
228.559	60.56
228.793	67.56
229.027	64.56
229.262	67.56
229.496	74.56
229.73	80.56
229.964	81.56
230.199	69.56
230.433	90.56
230.667	83.56
230.901	74.56
231.136	72.56
231.37	92.56
231.604	97.56
231.838	76.56
232.072	86.56
232.306	76.56
232.541	85.56
232.775	92.56
233.009	85.56
233.243	81.56
233.477	81.56
233.711	74.56
233.945	70.56
234.179	83.56
234.413	94.56
234.647	82.56
234.881	83.56
235.115	86.56
235.349	82.56
235.583	79.56
235.817	77.56
236.051	82.56
236.285	81.56
236.519	80.56
236.753	81.56
236.987	91.56
237.221	89.56
237.455	76.56
237.689	81.56
237.922	79.56
238.156	85.56
238.39	78.56
238.624	88.56
238.858	74.56
239.091	69.56
239.325	72.56
239.559	81.56
239.793	92.56
240.027	87.56
240.26	84.56
240.494	69.56
240.728	82.56
240.961	71.56
241.195	89.56
241.429	93.56
241.662	81.56
241.896	80.56
242.13	86.56
242.363	72.56
242.597	69.56
242.83	84.56
243.064	86.56
243.298	85.56
243.531	85.56
243.765	86.56
243.998	69.56
244.232	83.56
244.465	73.56
244.699	94.56
244.932	88.56
245.166	97.56
245.399	90.56
245.633	77.56
245.866	70.56
246.099	90.56
246.333	84.56
246.566	80.56
246.8	86.56
247.033	76.56
247.266	68.56
247.5	81.56
247.733	90.56
247.966	88.56
248.2	86.56
248.433	95.56
248.666	87.56
248.899	88.56
249.133	91.56
249.366	95.56
249.599	93.56
249.832	68.56
250.066	92.56
250.299	79.56
250.532	70.56
250.765	87.56
250.998	96.56
251.231	88.56
251.465	95.56
251.698	87.56
251.931	86.56
252.164	85.56
252.397	96.56
252.63	73.56
252.863	90.56
253.096	93.56
253.329	98.56
253.562	84.56
253.795	104.56
254.028	97.56
254.261	90.56
254.494	86.56
254.727	103.56
254.96	86.56
255.193	74.56
255.426	101.56
255.659	83.56
255.892	107.56
256.124	83.56
256.357	90.56
256.59	98.56
256.823	90.56
257.056	91.56
257.289	103.56
257.521	95.56
257.754	98.56
257.987	103.56
258.22	101.56
258.452	96.56
258.685	94.56
258.918	108.56
259.151	98.56
259.383	102.56
259.616	79.56
259.849	98.56
260.081	103.56
260.314	92.56
260.547	98.56
260.779	88.56
261.012	112.56
261.244	81.56
261.477	98.56
261.71	90.56
261.942	99.56
262.175	93.56
262.407	88.56
262.64	94.56
262.872	102.56
263.105	98.56
263.337	112.56
263.57	105.56
263.802	101.56
264.035	105.56
264.267	111.56
264.499	97.56
264.732	105.56
264.964	93.56
265.197	102.56
265.429	98.56
265.661	100.56
265.894	90.56
266.126	103.56
266.358	102.56
266.591	101.56
266.823	111.56
267.055	101.56
267.287	98.56
267.52	117.56
267.752	103.56
267.984	98.56
268.216	105.56
268.448	107.56
268.681	94.56
268.913	104.56
269.145	100.56
269.377	96.56
269.609	99.56
269.841	121.56
270.073	97.56
270.306	90.56
270.538	92.56
270.77	98.56
271.002	97.56
271.234	103.56
271.466	104.56
271.698	98.56
271.93	109.56
272.162	108.56
272.394	118.56
272.626	94.56
272.858	102.56
273.09	109.56
273.322	109.56
273.553	99.56
273.785	107.56
274.017	108.56
274.249	107.56
274.481	101.56
274.713	93.56
274.945	118.56
275.176	106.56
275.408	105.56
275.64	114.56
275.872	104.56
276.104	123.56
276.335	126.56
276.567	98.56
276.799	109.56
277.031	120.56
277.262	112.56
277.494	115.56
277.726	125.56
277.957	107.56
278.189	100.56
278.421	117.56
278.652	112.56
278.884	103.56
279.115	112.56
279.347	99.56
279.579	104.56
279.81	92.56
280.042	97.56
280.273	118.56
280.505	113.56
280.736	104.56
280.968	116.56
281.199	116.56
281.431	117.56
281.662	121.56
281.894	113.56
282.125	105.56
282.356	107.56
282.588	115.56
282.819	117.56
283.051	100.56
283.282	106.56
283.513	116.56
283.745	126.56
283.976	130.56
284.207	112.56
284.439	131.56
284.67	109.56
284.901	102.56
285.132	117.56
285.364	120.56
285.595	115.56
285.826	116.56
286.057	114.56
286.288	119.56
286.52	119.56
286.751	114.56
286.982	111.56
287.213	121.56
287.444	129.56
287.675	130.56
287.906	115.56
288.138	117.56
288.369	110.56
288.6	122.56
288.831	107.56
289.062	114.56
289.293	118.56
289.524	117.56
289.755	116.56
289.986	113.56
290.217	119.56
290.448	119.56
290.679	114.56
290.91	139.56
291.141	115.56
291.371	122.56
291.602	122.56
291.833	125.56
292.064	119.56
292.295	119.56
292.526	111.56
292.757	127.56
292.987	110.56
293.218	124.56
293.449	126.56
293.68	116.56
293.91	120.56
294.141	120.56
294.372	130.56
294.603	120.56
294.833	116.56
295.064	128.56
295.295	122.56
295.525	116.56
295.756	118.56
295.987	110.56
296.217	109.56
296.448	126.56
296.679	118.56
296.909	118.56
297.14	118.56
297.37	128.56
297.601	123.56
297.831	117.56
298.062	129.56
298.292	115.56
298.523	134.56
298.753	134.56
298.984	148.56
299.214	129.56
299.445	131.56
299.675	122.56
299.905	133.56
300.136	121.56
300.366	109.56
300.597	124.56
300.827	120.56
301.057	132.56
301.288	126.56
301.518	124.56
301.748	140.56
301.979	178.56
302.209	129.56
302.439	132.56
302.669	109.56
302.9	131.56
303.13	121.56
303.36	123.56
303.59	121.56
303.82	130.56
304.051	125.56
304.281	136.56
304.511	135.56
304.741	111.56
304.971	122.56
305.201	134.56
305.431	121.56
305.661	120.56
305.891	122.56
306.121	134.56
306.352	133.56
306.582	134.56
306.812	116.56
307.042	120.56
307.272	117.56
307.502	117.56
307.731	133.56
307.961	135.56
308.191	107.56
308.421	121.56
308.651	124.56
308.881	123.56
309.111	113.56
309.341	123.56
309.571	129.56
309.8	116.56
310.03	121.56
310.26	124.56
310.49	138.56
310.72	134.56
310.949	120.56
311.179	104.56
311.409	124.56
311.639	134.56
311.868	124.56
312.098	139.56
312.328	125.56
312.557	122.56
312.787	123.56
313.017	138.56
313.246	132.56
313.476	122.56
313.706	128.56
313.935	144.56
314.165	130.56
314.394	119.56
314.624	149.56
314.853	126.56
315.083	116.56
315.312	148.56
315.542	124.56
315.771	123.56
316.001	134.56
316.23	148.56
316.46	120.56
316.689	138.56
316.919	135.56
317.148	139.56
317.377	124.56
317.607	126.56
317.836	131.56
318.065	134.56
318.295	117.56
318.524	116.56
318.753	133.56
318.983	120.56
319.212	116.56
319.441	133.56
319.67	139.56
319.9	148.56
320.129	129.56
320.358	131.56
320.587	123.56
320.816	135.56
321.046	132.56
321.275	115.56
321.504	132.56
321.733	128.56
321.962	147.56
322.191	131.56
322.42	122.56
322.649	142.56
322.878	141.56
323.108	132.56
323.337	143.56
323.566	137.56
323.795	128.56
324.024	128.56
324.253	132.56
324.482	140.56
324.71	162.56
324.939	144.56
325.168	138.56
325.397	116.56
325.626	133.56
325.855	126.56
326.084	162.56
326.313	138.56
326.542	126.56
326.77	133.56
326.999	126.56
327.228	132.56
327.457	144.56
327.686	114.56
327.914	138.56
328.143	155.56
328.372	145.56
328.6	123.56
328.829	119.56
329.058	140.56
329.287	137.56
329.515	130.56
329.744	141.56
329.972	133.56
330.201	150.56
330.43	147.56
330.658	152.56
330.887	112.56
331.115	151.56
331.344	157.56
331.572	148.56
331.801	115.56
332.03	139.56
332.258	156.56
332.486	140.56
332.715	164.56
332.943	169.56
333.172	158.56
333.4	152.56
333.629	168.56
333.857	155.56
334.085	164.56
334.314	161.56
334.542	150.56
334.771	161.56
334.999	149.56
335.227	153.56
335.455	167.56
335.684	162.56
335.912	141.56
336.14	144.56
336.369	157.56
336.597	161.56
336.825	154.56
337.053	146.56
337.281	142.56
337.51	152.56
337.738	142.56
337.966	136.56
338.194	127.56
338.422	161.56
338.65	148.56
338.878	162.56
339.106	140.56
339.334	165.56
339.562	142.56
339.79	153.56
340.018	142.56
340.246	140.56
340.474	141.56
340.702	146.56
340.93	133.56
341.158	144.56
341.386	132.56
341.614	151.56
341.842	152.56
342.07	142.56
342.298	148.56
342.526	144.56
342.754	123.56
342.981	136.56
343.209	128.56
343.437	183.56
343.665	157.56
343.893	161.56
344.12	160.56
344.348	151.56
344.576	158.56
344.804	153.56
345.031	138.56
345.259	147.56
345.487	144.56
345.714	150.56
345.942	139.56
346.17	129.56
346.397	146.56
346.625	142.56
346.853	135.56
347.08	122.56
347.308	161.56
347.535	130.56
347.763	122.56
347.99	156.56
348.218	156.56
348.445	132.56
348.673	134.56
348.9	145.56
349.128	137.56
349.355	136.56
349.583	138.56
349.81	123.56
350.037	137.56
350.265	150.56
350.492	144.56
350.72	145.56
350.947	148.56
351.174	143.56
351.402	134.56
351.629	134.56
351.856	136.56
352.083	136.56
352.311	140.56
352.538	117.56
352.765	148.56
352.992	156.56
353.22	129.56
353.447	142.56
353.674	147.56
353.901	142.56
354.128	136.56
354.355	128.56
354.583	150.56
354.81	141.56
355.037	138.56
355.264	145.56
355.491	143.56
355.718	127.56
355.945	126.56
356.172	133.56
356.399	138.56
356.626	134.56
356.853	145.56
357.08	129.56
357.307	146.56
357.534	137.56
357.761	133.56
357.988	135.56
358.215	150.56
358.441	124.56
358.668	143.56
358.895	128.56
359.122	151.56
359.349	145.56
359.576	138.56
359.802	128.56
360.029	125.56
360.256	134.56
360.483	144.56
360.709	132.56
360.936	142.56
361.163	134.56
361.39	123.56
361.616	133.56
361.843	149.56
362.07	128.56
362.296	143.56
362.523	132.56
362.749	124.56
362.976	136.56
363.203	151.56
363.429	144.56
363.656	138.56
363.882	128.56
364.109	146.56
364.335	131.56
364.562	146.56
364.788	126.56
365.015	136.56
365.241	142.56
365.468	144.56
365.694	141.56
365.92	121.56
366.147	146.56
366.373	131.56
366.599	144.56
366.826	126.56
367.052	148.56
367.278	139.56
367.505	146.56
367.731	154.56
367.957	150.56
368.184	142.56
368.41	146.56
368.636	148.56
368.862	139.56
369.089	131.56
369.315	146.56
369.541	154.56
369.767	150.56
369.993	149.56
370.219	135.56
370.445	135.56
370.672	150.56
370.898	165.56
371.124	138.56
371.35	148.56
371.576	137.56
371.802	135.56
372.028	123.56
372.254	164.56
372.48	152.56
372.706	145.56
372.932	152.56
373.158	146.56
373.384	155.56
373.61	157.56
373.835	146.56
374.061	155.56
374.287	163.56
374.513	159.56
374.739	147.56
374.965	147.56
375.191	146.56
375.416	150.56
375.642	148.56
375.868	156.56
376.094	163.56
376.319	153.56
376.545	146.56
376.771	145.56
376.997	137.56
377.222	135.56
377.448	163.56
377.674	149.56
377.899	138.56
378.125	149.56
378.35	168.56
378.576	150.56
378.802	138.56
379.027	157.56
379.253	150.56
379.478	150.56
379.704	149.56
379.929	130.56
380.155	152.56
380.38	153.56
380.606	151.56
380.831	138.56
381.057	164.56
381.282	138.56
381.507	150.56
381.733	160.56
381.958	161.56
382.184	158.56
382.409	146.56
382.634	155.56
382.86	147.56
383.085	162.56
383.31	149.56
383.535	152.56
383.761	158.56
383.986	160.56
384.211	148.56
384.436	172.56
384.662	173.56
384.887	170.56
385.112	172.56
385.337	178.56
385.562	175.56
385.787	157.56
386.013	169.56
386.238	178.56
386.463	171.56
386.688	206.56
386.913	147.56
387.138	176.56
387.363	178.56
387.588	182.56
387.813	185.56
388.038	174.56
388.263	159.56
388.488	169.56
388.713	162.56
388.938	171.56
389.163	171.56
389.387	169.56
389.612	181.56
389.837	168.56
390.062	168.56
390.287	195.56
390.512	172.56
390.736	166.56
390.961	173.56
391.186	178.56
391.411	195.56
391.636	207.56
391.86	183.56
392.085	193.56
392.31	171.56
392.534	184.56
392.759	195.56
392.984	187.56
393.208	192.56
393.433	197.56
393.658	178.56
393.882	179.56
394.107	195.56
394.331	192.56
394.556	179.56
394.78	171.56
395.005	186.56
395.229	212.56
395.454	198.56
395.678	208.56
395.903	207.56
396.127	203.56
396.352	192.56
396.576	180.56
396.801	189.56
397.025	197.56
397.249	209.56
397.474	214.56
397.698	200.56
397.922	194.56
398.147	209.56
398.371	214.56
398.595	216.56
398.82	220.56
399.044	231.56
399.268	234.56
399.492	292.56
399.717	300.56
399.941	274.56
400.165	277.56
400.389	258.56
400.613	240.56
400.837	229.56
401.062	219.56
401.286	234.56
401.51	224.56
401.734	227.56
401.958	220.56
402.182	230.56
402.406	242.56
402.63	248.56
402.854	256.56
403.078	247.56
403.302	264.56
403.526	272.56
403.75	260.56
403.974	272.56
404.198	283.56
404.422	275.56
404.645	273.56
404.869	241.56
405.093	270.56
405.317	257.56
405.541	268.56
405.765	262.56
405.988	260.56
406.212	261.56
406.436	260.56
406.66	294.56
406.883	273.56
407.107	275.56
407.331	276.56
407.555	282.56
407.778	282.56
408.002	288.56
408.226	294.56
408.449	291.56
408.673	275.56
408.896	290.56
409.12	268.56
409.344	290.56
409.567	273.56
409.791	296.56
410.014	288.56
410.238	267.56
410.461	278.56
410.685	276.56
410.908	277.56
411.132	283.56
411.355	277.56
411.578	276.56
411.802	265.56
412.025	270.56
412.249	268.56
412.472	263.56
412.695	269.56
412.919	266.56
413.142	256.56
413.365	261.56
413.589	264.56
413.812	269.56
414.035	263.56
414.258	260.56
414.482	267.56
414.705	273.56
414.928	268.56
415.151	260.56
415.374	268.56
415.597	250.56
415.821	257.56
416.044	265.56
416.267	286.56
416.49	270.56
416.713	269.56
416.936	260.56
417.159	276.56
417.382	264.56
417.605	263.56
417.828	291.56
418.051	266.56
418.274	268.56
418.497	278.56
418.72	291.56
418.943	279.56
419.166	311.56
419.389	307.56
419.611	289.56
419.834	305.56
420.057	285.56
420.28	288.56
420.503	252.56
420.726	274.56
420.948	296.56
421.171	276.56
421.394	272.56
421.617	279.56
421.839	293.56
422.062	273.56
422.285	277.56
422.507	289.56
422.73	292.56
422.953	282.56
423.175	294.56
423.398	292.56
423.621	300.56
423.843	296.56
424.066	291.56
424.288	291.56
424.511	309.56
424.733	314.56
424.956	290.56
425.178	299.56
425.401	286.56
425.623	280.56
425.846	248.56
426.068	296.56
426.291	262.56
426.513	268.56
426.735	264.56
426.958	265.56
427.18	262.56
427.402	268.56
427.625	266.56
427.847	250.56
428.069	260.56
428.292	267.56
428.514	262.56
428.736	267.56
428.958	265.56
429.181	260.56
429.403	248.56
429.625	251.56
429.847	263.56
430.069	257.56
430.292	245.56
430.514	256.56
430.736	245.56
430.958	265.56
431.18	258.56
431.402	244.56
431.624	245.56
431.846	237.56
432.068	240.56
432.29	229.56
432.512	238.56
432.734	262.56
432.956	258.56
433.178	264.56
433.4	265.56
433.622	272.56
433.844	268.56
434.066	248.56
434.287	234.56
434.509	236.56
434.731	246.56
434.953	264.56
435.175	282.56
435.397	263.56
435.618	249.56
435.84	224.56
436.062	240.56
436.284	249.56
436.505	262.56
436.727	253.56
436.949	272.56
437.17	257.56
437.392	241.56
437.614	252.56
437.835	228.56
438.057	242.56
438.278	242.56
438.5	246.56
438.721	251.56
438.943	274.56
439.165	259.56
439.386	250.56
439.608	268.56
439.829	276.56
440.05	277.56
440.272	281.56
440.493	274.56
440.715	276.56
440.936	294.56
441.158	278.56
441.379	273.56
441.6	304.56
441.822	290.56
442.043	294.56
442.264	275.56
442.486	276.56
442.707	261.56
442.928	281.56
443.149	281.56
443.371	283.56
443.592	307.56
443.813	292.56
444.034	290.56
444.255	294.56
444.476	300.56
444.698	321.56
444.919	333.56
445.14	489.56
445.361	399.56
445.582	287.56
445.803	276.56
446.024	284.56
446.245	289.56
446.466	289.56
446.687	263.56
446.908	280.56
447.129	290.56
447.35	280.56
447.571	284.56
447.792	268.56
448.013	243.56
448.234	271.56
448.455	249.56
448.675	270.56
448.896	254.56
449.117	248.56
449.338	228.56
449.559	259.56
449.779	239.56
450	246.56
450.221	242.56
450.442	267.56
450.662	238.56
450.883	243.56
451.104	264.56
451.324	240.56
451.545	239.56
451.766	244.56
451.986	242.56
452.207	241.56
452.428	265.56
452.648	241.56
452.869	232.56
453.089	216.56
453.31	216.56
453.53	231.56
453.751	214.56
453.971	198.56
454.192	208.56
454.412	217.56
454.633	208.56
454.853	236.56
455.073	203.56
455.294	203.56
455.514	229.56
455.734	228.56
455.955	216.56
456.175	222.56
456.395	210.56
456.616	205.56
456.836	202.56
457.056	212.56
457.276	219.56
457.497	214.56
457.717	212.56
457.937	218.56
458.157	202.56
458.377	201.56
458.598	216.56
458.818	211.56
459.038	217.56
459.258	218.56
459.478	222.56
459.698	227.56
459.918	235.56
460.138	241.56
460.358	270.56
460.578	262.56
460.798	294.56
461.018	278.56
461.238	257.56
461.458	282.56
461.678	265.56
461.898	264.56
462.118	280.56
462.338	267.56
462.558	298.56
462.777	286.56
462.997	320.56
463.217	337.56
463.437	321.56
463.657	304.56
463.876	286.56
464.096	277.56
464.316	281.56
464.536	304.56
464.755	296.56
464.975	289.56
465.195	296.56
465.414	266.56
465.634	248.56
465.854	240.56
466.073	241.56
466.293	253.56
466.512	255.56
466.732	247.56
466.951	242.56
467.171	256.56
467.391	258.56
467.61	240.56
467.829	260.56
468.049	258.56
468.268	260.56
468.488	245.56
468.707	247.56
468.927	252.56
469.146	240.56
469.365	269.56
469.585	245.56
469.804	270.56
470.023	272.56
470.243	272.56
470.462	257.56
470.681	281.56
470.901	263.56
471.12	258.56
471.339	262.56
471.558	247.56
471.777	257.56
471.997	263.56
472.216	226.56
472.435	225.56
472.654	210.56
472.873	226.56
473.092	227.56
473.311	228.56
473.53	247.56
473.749	237.56
473.968	248.56
474.187	222.56
474.406	244.56
474.625	224.56
474.844	237.56
475.063	246.56
475.282	251.56
475.501	230.56
475.72	233.56
475.939	221.56
476.158	245.56
476.377	239.56
476.596	243.56
476.814	245.56
477.033	228.56
477.252	239.56
477.471	244.56
477.69	269.56
477.908	268.56
478.127	281.56
478.346	268.56
478.564	278.56
478.783	283.56
479.002	281.56
479.22	279.56
479.439	280.56
479.658	269.56
479.876	244.56
480.095	268.56
480.313	281.56
480.532	274.56
480.751	277.56
480.969	246.56
481.188	239.56
481.406	239.56
481.624	236.56
481.843	223.56
482.061	244.56
482.28	256.56
482.498	213.56
482.717	228.56
482.935	254.56
483.153	269.56
483.372	285.56
483.59	285.56
483.808	259.56
484.027	241.56
484.245	264.56
484.463	246.56
484.681	270.56
484.9	288.56
485.118	269.56
485.336	252.56
485.554	261.56
485.772	236.56
485.99	242.56
486.209	257.56
486.427	246.56
486.645	274.56
486.863	268.56
487.081	275.56
487.299	270.56
487.517	280.56
487.735	300.56
487.953	325.56
488.171	326.56
488.389	310.56
488.607	282.56
488.825	268.56
489.043	258.56
489.261	272.56
489.479	274.56
489.696	272.56
489.914	281.56
490.132	275.56
490.35	299.56
490.568	300.56
490.786	310.56
491.003	295.56
491.221	332.56
491.439	345.56
491.657	328.56
491.874	339.56
492.092	342.56
492.31	387.56
492.527	346.56
492.745	347.56
492.963	352.56
493.18	334.56
493.398	332.56
493.615	339.56
493.833	332.56
494.05	320.56
494.268	308.56
494.485	316.56
494.703	323.56
494.92	305.56
495.138	320.56
495.355	325.56
495.573	332.56
495.79	314.56
496.008	319.56
496.225	336.56
496.442	313.56
496.66	315.56
496.877	307.56
497.094	325.56
497.312	327.56
497.529	320.56
497.746	313.56
497.963	302.56
498.181	334.56
498.398	327.56
498.615	321.56
498.832	328.56
499.049	400.56
499.267	407.56
499.484	432.56
499.701	486.56
499.918	536.56
500.135	593.56
500.352	650.56
500.569	670.56
500.786	652.56
501.003	587.56
501.22	528.56
501.437	495.56
501.654	437.56
501.871	405.56
502.088	379.56
502.305	371.56
502.522	348.56
502.739	340.56
502.956	305.56
503.172	309.56
503.389	311.56
503.606	287.56
503.823	293.56
504.04	305.56
504.256	298.56
504.473	302.56
504.69	283.56
504.907	298.56
