Data from SampA_HRD10591_00031.txt Node
Date: Mon Jan 19 11:26:57 EST 2026
User: Yrep
Spectrometer: HR+D1059
Trigger mode: 0
Integration Time (sec): 3.443000E-1
Scans to average: 1
Electric dark correction enabled: true
Nonlinearity correction enabled: false
Boxcar width: 0
XAxis mode: Wavelengths
Number of Pixels in Spectrum: 2048
>>>>>Begin Spectral Data<<<<<
223.165	-15.94
223.4	-15.94
223.635	-15.94
223.869	-22.94
224.104	-26.94
224.338	-3.94
224.573	-14.94
224.808	-18.94
225.042	-9.94
225.277	-10.94
225.511	-12.94
225.746	23.06
225.98	12.06
226.215	15.06
226.449	21.06
226.683	23.06
226.918	14.06
227.152	29.06
227.387	49.06
227.621	33.06
227.856	53.06
228.09	31.06
228.324	53.06
228.559	54.06
228.793	67.06
229.027	70.06
229.262	64.06
229.496	64.06
229.73	53.06
229.964	79.06
230.199	68.06
230.433	71.06
230.667	84.06
230.901	71.06
231.136	96.06
231.37	93.06
231.604	85.06
231.838	89.06
232.072	86.06
232.306	80.06
232.541	90.06
232.775	96.06
233.009	91.06
233.243	80.06
233.477	97.06
233.711	84.06
233.945	87.06
234.179	78.06
234.413	92.06
234.647	90.06
234.881	77.06
235.115	90.06
235.349	75.06
235.583	93.06
235.817	83.06
236.051	91.06
236.285	100.06
236.519	73.06
236.753	62.06
236.987	79.06
237.221	93.06
237.455	73.06
237.689	82.06
237.922	79.06
238.156	77.06
238.39	71.06
238.624	88.06
238.858	91.06
239.091	96.06
239.325	92.06
239.559	89.06
239.793	81.06
240.027	80.06
240.26	88.06
240.494	94.06
240.728	89.06
240.961	84.06
241.195	80.06
241.429	89.06
241.662	92.06
241.896	79.06
242.13	76.06
242.363	91.06
242.597	75.06
242.83	96.06
243.064	75.06
243.298	75.06
243.531	83.06
243.765	90.06
243.998	86.06
244.232	90.06
244.465	88.06
244.699	85.06
244.932	84.06
245.166	89.06
245.399	82.06
245.633	102.06
245.866	83.06
246.099	91.06
246.333	95.06
246.566	81.06
246.8	69.06
247.033	89.06
247.266	87.06
247.5	94.06
247.733	98.06
247.966	95.06
248.2	89.06
248.433	91.06
248.666	82.06
248.899	95.06
249.133	101.06
249.366	103.06
249.599	88.06
249.832	100.06
250.066	108.06
250.299	97.06
250.532	88.06
250.765	82.06
250.998	80.06
251.231	87.06
251.465	92.06
251.698	89.06
251.931	101.06
252.164	103.06
252.397	86.06
252.63	95.06
252.863	89.06
253.096	98.06
253.329	92.06
253.562	88.06
253.795	93.06
254.028	103.06
254.261	90.06
254.494	97.06
254.727	108.06
254.96	99.06
255.193	87.06
255.426	100.06
255.659	95.06
255.892	96.06
256.124	92.06
256.357	93.06
256.59	95.06
256.823	91.06
257.056	89.06
257.289	92.06
257.521	106.06
257.754	107.06
257.987	101.06
258.22	98.06
258.452	90.06
258.685	102.06
258.918	108.06
259.151	93.06
259.383	75.06
259.616	98.06
259.849	110.06
260.081	107.06
260.314	98.06
260.547	95.06
260.779	96.06
261.012	98.06
261.244	103.06
261.477	103.06
261.71	117.06
261.942	97.06
262.175	98.06
262.407	108.06
262.64	104.06
262.872	100.06
263.105	114.06
263.337	93.06
263.57	104.06
263.802	107.06
264.035	110.06
264.267	95.06
264.499	106.06
264.732	103.06
264.964	116.06
265.197	106.06
265.429	105.06
265.661	105.06
265.894	106.06
266.126	112.06
266.358	98.06
266.591	95.06
266.823	108.06
267.055	103.06
267.287	115.06
267.52	116.06
267.752	94.06
267.984	100.06
268.216	103.06
268.448	119.06
268.681	120.06
268.913	95.06
269.145	99.06
269.377	102.06
269.609	104.06
269.841	109.06
270.073	122.06
270.306	103.06
270.538	106.06
270.77	102.06
271.002	123.06
271.234	101.06
271.466	114.06
271.698	116.06
271.93	109.06
272.162	103.06
272.394	115.06
272.626	112.06
272.858	109.06
273.09	111.06
273.322	111.06
273.553	104.06
273.785	113.06
274.017	102.06
274.249	104.06
274.481	115.06
274.713	100.06
274.945	123.06
275.176	115.06
275.408	102.06
275.64	110.06
275.872	108.06
276.104	131.06
276.335	110.06
276.567	99.06
276.799	102.06
277.031	104.06
277.262	119.06
277.494	119.06
277.726	120.06
277.957	118.06
278.189	109.06
278.421	123.06
278.652	126.06
278.884	115.06
279.115	118.06
279.347	97.06
279.579	104.06
279.81	109.06
280.042	107.06
280.273	97.06
280.505	98.06
280.736	113.06
280.968	126.06
281.199	118.06
281.431	113.06
281.662	118.06
281.894	111.06
282.125	126.06
282.356	123.06
282.588	134.06
282.819	104.06
283.051	131.06
283.282	108.06
283.513	111.06
283.745	121.06
283.976	120.06
284.207	125.06
284.439	118.06
284.67	110.06
284.901	115.06
285.132	118.06
285.364	121.06
285.595	120.06
285.826	119.06
286.057	121.06
286.288	129.06
286.52	125.06
286.751	120.06
286.982	110.06
287.213	115.06
287.444	118.06
287.675	131.06
287.906	133.06
288.138	132.06
288.369	121.06
288.6	118.06
288.831	125.06
289.062	119.06
289.293	110.06
289.524	105.06
289.755	116.06
289.986	123.06
290.217	133.06
290.448	131.06
290.679	133.06
290.91	121.06
291.141	126.06
291.371	125.06
291.602	121.06
291.833	117.06
292.064	127.06
292.295	126.06
292.526	124.06
292.757	123.06
292.987	129.06
293.218	125.06
293.449	124.06
293.68	118.06
293.91	116.06
294.141	137.06
294.372	120.06
294.603	136.06
294.833	130.06
295.064	124.06
295.295	117.06
295.525	121.06
295.756	126.06
295.987	137.06
296.217	127.06
296.448	151.06
296.679	139.06
296.909	144.06
297.14	141.06
297.37	145.06
297.601	127.06
297.831	126.06
298.062	127.06
298.292	144.06
298.523	151.06
298.753	132.06
298.984	123.06
299.214	139.06
299.445	128.06
299.675	144.06
299.905	142.06
300.136	124.06
300.366	121.06
300.597	127.06
300.827	132.06
301.057	133.06
301.288	118.06
301.518	140.06
301.748	122.06
301.979	181.06
302.209	150.06
302.439	135.06
302.669	124.06
302.9	131.06
303.13	124.06
303.36	138.06
303.59	133.06
303.82	139.06
304.051	133.06
304.281	141.06
304.511	126.06
304.741	145.06
304.971	147.06
305.201	143.06
305.431	120.06
305.661	149.06
305.891	134.06
306.121	122.06
306.352	131.06
306.582	137.06
306.812	139.06
307.042	128.06
307.272	141.06
307.502	130.06
307.731	131.06
307.961	134.06
308.191	124.06
308.421	134.06
308.651	137.06
308.881	124.06
309.111	124.06
309.341	132.06
309.571	124.06
309.8	128.06
310.03	120.06
310.26	119.06
310.49	117.06
310.72	128.06
310.949	126.06
311.179	128.06
311.409	133.06
311.639	136.06
311.868	136.06
312.098	139.06
312.328	122.06
312.557	124.06
312.787	136.06
313.017	139.06
313.246	135.06
313.476	123.06
313.706	128.06
313.935	136.06
314.165	144.06
314.394	123.06
314.624	137.06
314.853	158.06
315.083	143.06
315.312	152.06
315.542	140.06
315.771	140.06
316.001	125.06
316.23	143.06
316.46	139.06
316.689	149.06
316.919	132.06
317.148	129.06
317.377	147.06
317.607	149.06
317.836	117.06
318.065	130.06
318.295	126.06
318.524	132.06
318.753	129.06
318.983	141.06
319.212	143.06
319.441	136.06
319.67	136.06
319.9	123.06
320.129	136.06
320.358	141.06
320.587	126.06
320.816	131.06
321.046	151.06
321.275	143.06
321.504	140.06
321.733	135.06
321.962	141.06
322.191	139.06
322.42	145.06
322.649	137.06
322.878	138.06
323.108	139.06
323.337	141.06
323.566	125.06
323.795	131.06
324.024	139.06
324.253	147.06
324.482	136.06
324.71	126.06
324.939	124.06
325.168	143.06
325.397	140.06
325.626	143.06
325.855	147.06
326.084	150.06
326.313	150.06
326.542	148.06
326.77	128.06
326.999	136.06
327.228	143.06
327.457	132.06
327.686	139.06
327.914	133.06
328.143	143.06
328.372	140.06
328.6	159.06
328.829	149.06
329.058	144.06
329.287	154.06
329.515	140.06
329.744	150.06
329.972	129.06
330.201	140.06
330.43	144.06
330.658	131.06
330.887	148.06
331.115	158.06
331.344	155.06
331.572	167.06
331.801	152.06
332.03	153.06
332.258	163.06
332.486	144.06
332.715	151.06
332.943	156.06
333.172	165.06
333.4	168.06
333.629	182.06
333.857	152.06
334.085	177.06
334.314	161.06
334.542	159.06
334.771	158.06
334.999	161.06
335.227	143.06
335.455	159.06
335.684	160.06
335.912	167.06
336.14	157.06
336.369	158.06
336.597	143.06
336.825	147.06
337.053	154.06
337.281	135.06
337.51	153.06
337.738	158.06
337.966	155.06
338.194	149.06
338.422	142.06
338.65	153.06
338.878	163.06
339.106	153.06
339.334	165.06
339.562	130.06
339.79	147.06
340.018	143.06
340.246	151.06
340.474	144.06
340.702	150.06
340.93	143.06
341.158	157.06
341.386	141.06
341.614	150.06
341.842	135.06
342.07	134.06
342.298	123.06
342.526	133.06
342.754	140.06
342.981	147.06
343.209	141.06
343.437	187.06
343.665	155.06
343.893	172.06
344.12	168.06
344.348	162.06
344.576	158.06
344.804	145.06
345.031	148.06
345.259	151.06
345.487	148.06
345.714	147.06
345.942	136.06
346.17	147.06
346.397	142.06
346.625	133.06
346.853	153.06
347.08	142.06
347.308	139.06
347.535	141.06
347.763	131.06
347.99	157.06
348.218	143.06
348.445	147.06
348.673	139.06
348.9	155.06
349.128	147.06
349.355	148.06
349.583	128.06
349.81	141.06
350.037	135.06
350.265	135.06
350.492	146.06
350.72	151.06
350.947	140.06
351.174	138.06
351.402	128.06
351.629	146.06
351.856	121.06
352.083	149.06
352.311	148.06
352.538	139.06
352.765	147.06
352.992	158.06
353.22	136.06
353.447	145.06
353.674	151.06
353.901	136.06
354.128	155.06
354.355	139.06
354.583	142.06
354.81	131.06
355.037	151.06
355.264	128.06
355.491	140.06
355.718	128.06
355.945	148.06
356.172	154.06
356.399	149.06
356.626	127.06
356.853	155.06
357.08	126.06
357.307	138.06
357.534	135.06
357.761	128.06
357.988	136.06
358.215	141.06
358.441	140.06
358.668	140.06
358.895	144.06
359.122	147.06
359.349	134.06
359.576	134.06
359.802	149.06
360.029	140.06
360.256	148.06
360.483	143.06
360.709	138.06
360.936	156.06
361.163	156.06
361.39	147.06
361.616	145.06
361.843	134.06
362.07	151.06
362.296	135.06
362.523	151.06
362.749	151.06
362.976	144.06
363.203	161.06
363.429	134.06
363.656	142.06
363.882	137.06
364.109	146.06
364.335	146.06
364.562	132.06
364.788	135.06
365.015	157.06
365.241	144.06
365.468	146.06
365.694	139.06
365.92	150.06
366.147	139.06
366.373	125.06
366.599	145.06
366.826	147.06
367.052	150.06
367.278	132.06
367.505	152.06
367.731	148.06
367.957	137.06
368.184	140.06
368.41	129.06
368.636	163.06
368.862	147.06
369.089	128.06
369.315	140.06
369.541	159.06
369.767	149.06
369.993	145.06
370.219	144.06
370.445	151.06
370.672	133.06
370.898	159.06
371.124	150.06
371.35	147.06
371.576	129.06
371.802	133.06
372.028	159.06
372.254	151.06
372.48	150.06
372.706	126.06
372.932	162.06
373.158	160.06
373.384	168.06
373.61	162.06
373.835	151.06
374.061	138.06
374.287	166.06
374.513	157.06
374.739	157.06
374.965	139.06
375.191	171.06
375.416	167.06
375.642	168.06
375.868	159.06
376.094	158.06
376.319	167.06
376.545	164.06
376.771	138.06
376.997	159.06
377.222	137.06
377.448	152.06
377.674	159.06
377.899	147.06
378.125	155.06
378.35	148.06
378.576	145.06
378.802	147.06
379.027	159.06
379.253	156.06
379.478	130.06
379.704	149.06
379.929	152.06
380.155	149.06
380.38	149.06
380.606	158.06
380.831	150.06
381.057	179.06
381.282	157.06
381.507	155.06
381.733	157.06
381.958	135.06
382.184	154.06
382.409	149.06
382.634	162.06
382.86	157.06
383.085	165.06
383.31	170.06
383.535	143.06
383.761	147.06
383.986	156.06
384.211	166.06
384.436	174.06
384.662	182.06
384.887	167.06
385.112	164.06
385.337	179.06
385.562	167.06
385.787	166.06
386.013	172.06
386.238	179.06
386.463	166.06
386.688	191.06
386.913	181.06
387.138	189.06
387.363	177.06
387.588	184.06
387.813	173.06
388.038	172.06
388.263	176.06
388.488	168.06
388.713	182.06
388.938	172.06
389.163	176.06
389.387	160.06
389.612	170.06
389.837	153.06
390.062	170.06
390.287	176.06
390.512	179.06
390.736	190.06
390.961	190.06
391.186	184.06
391.411	182.06
391.636	190.06
391.86	206.06
392.085	201.06
392.31	201.06
392.534	191.06
392.759	183.06
392.984	201.06
393.208	184.06
393.433	176.06
393.658	178.06
393.882	186.06
394.107	190.06
394.331	210.06
394.556	192.06
394.78	199.06
395.005	191.06
395.229	190.06
395.454	205.06
395.678	213.06
395.903	212.06
396.127	218.06
396.352	199.06
396.576	201.06
396.801	200.06
397.025	198.06
397.249	211.06
397.474	215.06
397.698	220.06
397.922	197.06
398.147	214.06
398.371	216.06
398.595	233.06
398.82	228.06
399.044	240.06
399.268	271.06
399.492	304.06
399.717	325.06
399.941	288.06
400.165	264.06
400.389	259.06
400.613	252.06
400.837	244.06
401.062	244.06
401.286	216.06
401.51	214.06
401.734	229.06
401.958	244.06
402.182	246.06
402.406	233.06
402.63	249.06
402.854	254.06
403.078	265.06
403.302	271.06
403.526	282.06
403.75	283.06
403.974	289.06
404.198	300.06
404.422	264.06
404.645	279.06
404.869	279.06
405.093	260.06
405.317	277.06
405.541	283.06
405.765	276.06
405.988	274.06
406.212	264.06
406.436	283.06
406.66	272.06
406.883	281.06
407.107	287.06
407.331	294.06
407.555	299.06
407.778	290.06
408.002	291.06
408.226	300.06
408.449	293.06
408.673	303.06
408.896	291.06
409.12	291.06
409.344	287.06
409.567	290.06
409.791	296.06
410.014	280.06
410.238	303.06
410.461	275.06
410.685	301.06
410.908	281.06
411.132	287.06
411.355	268.06
411.578	274.06
411.802	283.06
412.025	279.06
412.249	288.06
412.472	272.06
412.695	267.06
412.919	278.06
413.142	271.06
413.365	276.06
413.589	275.06
413.812	275.06
414.035	280.06
414.258	267.06
414.482	275.06
414.705	277.06
414.928	269.06
415.151	272.06
415.374	264.06
415.597	277.06
415.821	269.06
416.044	262.06
416.267	268.06
416.49	278.06
416.713	271.06
416.936	265.06
417.159	275.06
417.382	281.06
417.605	274.06
417.828	284.06
418.051	280.06
418.274	293.06
418.497	291.06
418.72	288.06
418.943	291.06
419.166	288.06
419.389	325.06
419.611	297.06
419.834	295.06
420.057	301.06
420.28	281.06
420.503	277.06
420.726	284.06
420.948	280.06
421.171	292.06
421.394	265.06
421.617	302.06
421.839	275.06
422.062	299.06
422.285	290.06
422.507	284.06
422.73	273.06
422.953	280.06
423.175	278.06
423.398	293.06
423.621	312.06
423.843	295.06
424.066	307.06
424.288	307.06
424.511	303.06
424.733	293.06
424.956	300.06
425.178	312.06
425.401	299.06
425.623	279.06
425.846	279.06
426.068	288.06
426.291	275.06
426.513	276.06
426.735	267.06
426.958	265.06
427.18	255.06
427.402	257.06
427.625	273.06
427.847	266.06
428.069	267.06
428.292	263.06
428.514	255.06
428.736	238.06
428.958	254.06
429.181	259.06
429.403	259.06
429.625	259.06
429.847	267.06
430.069	271.06
430.292	277.06
430.514	271.06
430.736	263.06
430.958	276.06
431.18	240.06
431.402	255.06
431.624	263.06
431.846	233.06
432.068	248.06
432.29	240.06
432.512	233.06
432.734	245.06
432.956	272.06
433.178	277.06
433.4	283.06
433.622	299.06
433.844	269.06
434.066	267.06
434.287	239.06
434.509	245.06
434.731	269.06
434.953	277.06
435.175	264.06
435.397	268.06
435.618	277.06
435.84	235.06
436.062	249.06
436.284	249.06
436.505	271.06
436.727	282.06
436.949	273.06
437.17	274.06
437.392	245.06
437.614	238.06
437.835	249.06
438.057	248.06
438.278	236.06
438.5	248.06
438.721	257.06
438.943	282.06
439.165	276.06
439.386	264.06
439.608	264.06
439.829	285.06
440.05	295.06
440.272	265.06
440.493	272.06
440.715	285.06
440.936	287.06
441.158	287.06
441.379	296.06
441.6	300.06
441.822	298.06
442.043	267.06
442.264	302.06
442.486	275.06
442.707	283.06
442.928	295.06
443.149	285.06
443.371	294.06
443.592	287.06
443.813	298.06
444.034	289.06
444.255	291.06
444.476	324.06
444.698	333.06
444.919	313.06
445.14	540.06
445.361	405.06
445.582	288.06
445.803	278.06
446.024	272.06
446.245	285.06
446.466	298.06
446.687	279.06
446.908	305.06
447.129	298.06
447.35	269.06
447.571	271.06
447.792	260.06
448.013	262.06
448.234	286.06
448.455	262.06
448.675	263.06
448.896	254.06
449.117	255.06
449.338	247.06
449.559	254.06
449.779	255.06
450	264.06
450.221	256.06
450.442	259.06
450.662	263.06
450.883	269.06
451.104	277.06
451.324	253.06
451.545	255.06
451.766	241.06
451.986	244.06
452.207	269.06
452.428	244.06
452.648	252.06
452.869	246.06
453.089	242.06
453.31	232.06
453.53	218.06
453.751	232.06
453.971	213.06
454.192	227.06
454.412	209.06
454.633	235.06
454.853	224.06
455.073	236.06
455.294	228.06
455.514	227.06
455.734	252.06
455.955	229.06
456.175	229.06
456.395	220.06
456.616	210.06
456.836	212.06
457.056	241.06
457.276	220.06
457.497	218.06
457.717	229.06
457.937	209.06
458.157	208.06
458.377	220.06
458.598	219.06
458.818	211.06
459.038	198.06
459.258	230.06
459.478	217.06
459.698	225.06
459.918	241.06
460.138	276.06
460.358	267.06
460.578	285.06
460.798	277.06
461.018	263.06
461.238	269.06
461.458	261.06
461.678	273.06
461.898	272.06
462.118	286.06
462.338	313.06
462.558	306.06
462.777	299.06
462.997	340.06
463.217	331.06
463.437	325.06
463.657	310.06
463.876	290.06
464.096	301.06
464.316	293.06
464.536	299.06
464.755	302.06
464.975	282.06
465.195	276.06
465.414	277.06
465.634	256.06
465.854	255.06
466.073	266.06
466.293	245.06
466.512	250.06
466.732	254.06
466.951	255.06
467.171	263.06
467.391	259.06
467.61	275.06
467.829	261.06
468.049	260.06
468.268	245.06
468.488	246.06
468.707	241.06
468.927	243.06
469.146	247.06
469.365	252.06
469.585	266.06
469.804	277.06
470.023	271.06
470.243	261.06
470.462	283.06
470.681	282.06
470.901	261.06
471.12	274.06
471.339	257.06
471.558	257.06
471.777	260.06
471.997	227.06
472.216	243.06
472.435	239.06
472.654	226.06
472.873	246.06
473.092	246.06
473.311	223.06
473.53	244.06
473.749	253.06
473.968	237.06
474.187	221.06
474.406	223.06
474.625	251.06
474.844	257.06
475.063	247.06
475.282	243.06
475.501	240.06
475.72	256.06
475.939	256.06
476.158	260.06
476.377	248.06
476.596	249.06
476.814	250.06
477.033	227.06
477.252	235.06
477.471	265.06
477.69	268.06
477.908	280.06
478.127	279.06
478.346	273.06
478.564	276.06
478.783	287.06
479.002	301.06
479.22	280.06
479.439	295.06
479.658	267.06
479.876	254.06
480.095	267.06
480.313	266.06
480.532	294.06
480.751	280.06
480.969	259.06
481.188	236.06
481.406	253.06
481.624	240.06
481.843	238.06
482.061	250.06
482.28	248.06
482.498	253.06
482.717	239.06
482.935	245.06
483.153	272.06
483.372	275.06
483.59	264.06
483.808	267.06
484.027	263.06
484.245	261.06
484.463	269.06
484.681	277.06
484.9	282.06
485.118	291.06
485.336	268.06
485.554	251.06
485.772	258.06
485.99	243.06
486.209	285.06
486.427	262.06
486.645	269.06
486.863	282.06
487.081	277.06
487.299	274.06
487.517	263.06
487.735	293.06
487.953	328.06
488.171	309.06
488.389	301.06
488.607	293.06
488.825	284.06
489.043	276.06
489.261	273.06
489.479	274.06
489.696	313.06
489.914	268.06
490.132	269.06
490.35	303.06
490.568	295.06
490.786	319.06
491.003	315.06
491.221	315.06
491.439	326.06
491.657	334.06
491.874	354.06
492.092	332.06
492.31	362.06
492.527	357.06
492.745	344.06
492.963	333.06
493.18	344.06
493.398	315.06
493.615	351.06
493.833	341.06
494.05	316.06
494.268	324.06
494.485	356.06
494.703	320.06
494.92	333.06
495.138	310.06
495.355	329.06
495.573	332.06
495.79	341.06
496.008	333.06
496.225	319.06
496.442	325.06
496.66	337.06
496.877	324.06
497.094	339.06
497.312	331.06
497.529	340.06
497.746	327.06
497.963	334.06
498.181	315.06
498.398	339.06
498.615	330.06
498.832	359.06
499.049	383.06
499.267	409.06
499.484	442.06
499.701	507.06
499.918	535.06
500.135	607.06
500.352	671.06
500.569	681.06
500.786	648.06
501.003	606.06
501.22	549.06
501.437	485.06
501.654	438.06
501.871	409.06
502.088	393.06
502.305	366.06
502.522	366.06
502.739	350.06
502.956	320.06
503.172	332.06
503.389	303.06
503.606	307.06
503.823	316.06
504.04	297.06
504.256	285.06
504.473	304.06
