Data from SampA_HRD10591_00057.txt Node
Date: Mon Jan 19 11:27:06 EST 2026
User: Yrep
Spectrometer: HR+D1059
Trigger mode: 0
Integration Time (sec): 3.443000E-1
Scans to average: 1
Electric dark correction enabled: true
Nonlinearity correction enabled: false
Boxcar width: 0
XAxis mode: Wavelengths
Number of Pixels in Spectrum: 2048
>>>>>Begin Spectral Data<<<<<
223.165	-11
223.4	-11
223.635	-11
223.869	-20
224.104	-28
224.338	-9
224.573	-5
224.808	-14
225.042	-6
225.277	1
225.511	-11
225.746	3
225.98	3
226.215	-3
226.449	23
226.683	37
226.918	18
227.152	22
227.387	27
227.621	51
227.856	54
228.09	49
228.324	49
228.559	52
228.793	66
229.027	64
229.262	54
229.496	67
229.73	68
229.964	68
230.199	78
230.433	71
230.667	77
230.901	83
231.136	93
231.37	92
231.604	85
231.838	85
232.072	82
232.306	75
232.541	69
232.775	72
233.009	88
233.243	83
233.477	80
233.711	89
233.945	74
234.179	82
234.413	79
234.647	101
234.881	78
235.115	80
235.349	84
235.583	89
235.817	68
236.051	87
236.285	65
236.519	84
236.753	92
236.987	93
237.221	87
237.455	74
237.689	73
237.922	97
238.156	67
238.39	71
238.624	85
238.858	91
239.091	98
239.325	84
239.559	81
239.793	97
240.027	102
240.26	73
240.494	81
240.728	83
240.961	90
241.195	91
241.429	88
241.662	83
241.896	63
242.13	74
242.363	77
242.597	85
242.83	89
243.064	83
243.298	77
243.531	64
243.765	93
243.998	86
244.232	98
244.465	91
244.699	69
244.932	73
245.166	87
245.399	86
245.633	90
245.866	73
246.099	82
246.333	93
246.566	86
246.8	89
247.033	83
247.266	93
247.5	85
247.733	90
247.966	87
248.2	84
248.433	111
248.666	90
248.899	76
249.133	87
249.366	94
249.599	114
249.832	92
250.066	103
250.299	100
250.532	95
250.765	85
250.998	81
251.231	90
251.465	110
251.698	96
251.931	90
252.164	96
252.397	78
252.63	101
252.863	87
253.096	90
253.329	92
253.562	91
253.795	93
254.028	84
254.261	94
254.494	99
254.727	102
254.96	97
255.193	101
255.426	81
255.659	79
255.892	85
256.124	100
256.357	91
256.59	94
256.823	98
257.056	104
257.289	114
257.521	101
257.754	113
257.987	86
258.22	101
258.452	98
258.685	103
258.918	95
259.151	96
259.383	91
259.616	108
259.849	87
260.081	95
260.314	89
260.547	77
260.779	87
261.012	90
261.244	92
261.477	108
261.71	94
261.942	102
262.175	98
262.407	84
262.64	85
262.872	113
263.105	97
263.337	99
263.57	95
263.802	99
264.035	99
264.267	91
264.499	92
264.732	91
264.964	108
265.197	89
265.429	105
265.661	88
265.894	117
266.126	90
266.358	92
266.591	95
266.823	111
267.055	99
267.287	111
267.52	90
267.752	109
267.984	104
268.216	107
268.448	110
268.681	127
268.913	95
269.145	101
269.377	103
269.609	103
269.841	118
270.073	99
270.306	116
270.538	102
270.77	97
271.002	99
271.234	101
271.466	96
271.698	117
271.93	114
272.162	102
272.394	111
272.626	104
272.858	102
273.09	106
273.322	114
273.553	120
273.785	100
274.017	104
274.249	116
274.481	110
274.713	103
274.945	107
275.176	104
275.408	111
275.64	113
275.872	117
276.104	106
276.335	107
276.567	107
276.799	104
277.031	107
277.262	110
277.494	119
277.726	120
277.957	102
278.189	105
278.421	99
278.652	115
278.884	111
279.115	113
279.347	112
279.579	114
279.81	102
280.042	117
280.273	104
280.505	110
280.736	106
280.968	120
281.199	125
281.431	121
281.662	117
281.894	117
282.125	113
282.356	106
282.588	93
282.819	111
283.051	104
283.282	105
283.513	120
283.745	113
283.976	124
284.207	114
284.439	109
284.67	116
284.901	109
285.132	126
285.364	104
285.595	125
285.826	105
286.057	130
286.288	116
286.52	122
286.751	113
286.982	129
287.213	113
287.444	123
287.675	108
287.906	121
288.138	126
288.369	116
288.6	129
288.831	126
289.062	121
289.293	123
289.524	137
289.755	129
289.986	118
290.217	115
290.448	114
290.679	134
290.91	125
291.141	118
291.371	126
291.602	121
291.833	112
292.064	132
292.295	116
292.526	122
292.757	109
292.987	113
293.218	110
293.449	113
293.68	113
293.91	124
294.141	128
294.372	113
294.603	121
294.833	113
295.064	118
295.295	122
295.525	99
295.756	118
295.987	128
296.217	129
296.448	114
296.679	124
296.909	131
297.14	111
297.37	132
297.601	113
297.831	115
298.062	141
298.292	111
298.523	114
298.753	133
298.984	141
299.214	116
299.445	117
299.675	132
299.905	115
300.136	122
300.366	122
300.597	121
300.827	118
301.057	122
301.288	126
301.518	122
301.748	121
301.979	165
302.209	119
302.439	125
302.669	124
302.9	131
303.13	143
303.36	126
303.59	123
303.82	142
304.051	123
304.281	133
304.511	128
304.741	129
304.971	126
305.201	137
305.431	129
305.661	130
305.891	131
306.121	124
306.352	131
306.582	115
306.812	121
307.042	132
307.272	135
307.502	124
307.731	133
307.961	122
308.191	115
308.421	125
308.651	126
308.881	110
309.111	117
309.341	118
309.571	143
309.8	134
310.03	125
310.26	124
310.49	115
310.72	137
310.949	109
311.179	126
311.409	116
311.639	126
311.868	131
312.098	133
312.328	159
312.557	133
312.787	123
313.017	140
313.246	125
313.476	147
313.706	133
313.935	122
314.165	130
314.394	140
314.624	131
314.853	137
315.083	126
315.312	129
315.542	123
315.771	144
316.001	133
316.23	121
316.46	120
316.689	123
316.919	123
317.148	124
317.377	146
317.607	129
317.836	138
318.065	104
318.295	132
318.524	126
318.753	117
318.983	126
319.212	137
319.441	116
319.67	130
319.9	129
320.129	126
320.358	131
320.587	133
320.816	132
321.046	147
321.275	135
321.504	122
321.733	126
321.962	118
322.191	137
322.42	131
322.649	120
322.878	145
323.108	139
323.337	134
323.566	132
323.795	132
324.024	143
324.253	132
324.482	145
324.71	134
324.939	120
325.168	137
325.397	118
325.626	129
325.855	151
326.084	137
326.313	135
326.542	131
326.77	134
326.999	126
327.228	143
327.457	127
327.686	126
327.914	142
328.143	146
328.372	125
328.6	147
328.829	141
329.058	124
329.287	137
329.515	145
329.744	140
329.972	138
330.201	127
330.43	127
330.658	132
330.887	131
331.115	152
331.344	131
331.572	138
331.801	146
332.03	133
332.258	137
332.486	149
332.715	145
332.943	151
333.172	158
333.4	149
333.629	166
333.857	170
334.085	154
334.314	157
334.542	151
334.771	154
334.999	151
335.227	146
335.455	146
335.684	161
335.912	145
336.14	148
336.369	154
336.597	149
336.825	145
337.053	145
337.281	136
337.51	155
337.738	147
337.966	133
338.194	131
338.422	148
338.65	150
338.878	139
339.106	143
339.334	155
339.562	140
339.79	141
340.018	138
340.246	116
340.474	147
340.702	127
340.93	140
341.158	125
341.386	129
341.614	137
341.842	156
342.07	135
342.298	141
342.526	142
342.754	151
342.981	133
343.209	146
343.437	168
343.665	158
343.893	161
344.12	158
344.348	133
344.576	135
344.804	144
345.031	146
345.259	129
345.487	143
345.714	130
345.942	128
346.17	127
346.397	144
346.625	132
346.853	140
347.08	115
347.308	131
347.535	133
347.763	133
347.99	148
348.218	132
348.445	125
348.673	149
348.9	140
349.128	159
349.355	145
349.583	150
349.81	121
350.037	111
350.265	133
350.492	141
350.72	138
350.947	148
351.174	129
351.402	131
351.629	127
351.856	136
352.083	139
352.311	125
352.538	130
352.765	139
352.992	145
353.22	134
353.447	136
353.674	146
353.901	147
354.128	161
354.355	137
354.583	129
354.81	132
355.037	135
355.264	131
355.491	137
355.718	153
355.945	134
356.172	131
356.399	146
356.626	139
356.853	144
357.08	151
357.307	134
357.534	142
357.761	146
357.988	141
358.215	145
358.441	126
358.668	129
358.895	140
359.122	156
359.349	124
359.576	127
359.802	145
360.029	131
360.256	141
360.483	136
360.709	143
360.936	143
361.163	142
361.39	136
361.616	134
361.843	141
362.07	150
362.296	144
362.523	138
362.749	135
362.976	131
363.203	150
363.429	111
363.656	143
363.882	126
364.109	147
364.335	147
364.562	134
364.788	138
365.015	138
365.241	144
365.468	145
365.694	120
365.92	137
366.147	125
366.373	138
366.599	146
366.826	132
367.052	130
367.278	133
367.505	129
367.731	157
367.957	130
368.184	125
368.41	125
368.636	133
368.862	143
369.089	135
369.315	130
369.541	137
369.767	141
369.993	144
370.219	139
370.445	134
370.672	125
370.898	129
371.124	136
371.35	132
371.576	135
371.802	149
372.028	152
372.254	137
372.48	149
372.706	135
372.932	158
373.158	152
373.384	157
373.61	159
373.835	134
374.061	149
374.287	147
374.513	163
374.739	151
374.965	143
375.191	162
375.416	137
375.642	164
375.868	154
376.094	162
376.319	162
376.545	154
376.771	138
376.997	163
377.222	151
377.448	149
377.674	147
377.899	157
378.125	143
378.35	137
378.576	135
378.802	135
379.027	158
379.253	151
379.478	129
379.704	129
379.929	153
380.155	120
380.38	162
380.606	151
380.831	133
381.057	147
381.282	155
381.507	153
381.733	141
381.958	154
382.184	156
382.409	158
382.634	155
382.86	163
383.085	149
383.31	164
383.535	156
383.761	159
383.986	167
384.211	151
384.436	161
384.662	164
384.887	160
385.112	162
385.337	162
385.562	179
385.787	149
386.013	168
386.238	175
386.463	170
386.688	179
386.913	157
387.138	157
387.363	168
387.588	179
387.813	163
388.038	173
388.263	163
388.488	161
388.713	164
388.938	154
389.163	168
389.387	177
389.612	166
389.837	166
390.062	165
390.287	160
390.512	174
390.736	178
390.961	179
391.186	194
391.411	183
391.636	172
391.86	182
392.085	206
392.31	170
392.534	167
392.759	192
392.984	179
393.208	179
393.433	182
393.658	195
393.882	171
394.107	184
394.331	198
394.556	177
394.78	189
395.005	191
395.229	185
395.454	190
395.678	205
395.903	213
396.127	189
396.352	190
396.576	187
396.801	190
397.025	179
397.249	191
397.474	210
397.698	208
397.922	194
398.147	198
398.371	212
398.595	220
398.82	194
399.044	222
399.268	248
399.492	269
399.717	287
399.941	298
400.165	249
400.389	260
400.613	234
400.837	236
401.062	229
401.286	234
401.51	244
401.734	218
401.958	207
402.182	236
402.406	254
402.63	247
402.854	236
403.078	258
403.302	250
403.526	248
403.75	249
403.974	265
404.198	264
404.422	265
404.645	253
404.869	251
405.093	280
405.317	269
405.541	249
405.765	269
405.988	254
406.212	254
406.436	256
406.66	262
406.883	255
407.107	276
407.331	271
407.555	304
407.778	290
408.002	278
408.226	282
408.449	284
408.673	261
408.896	273
409.12	273
409.344	270
409.567	277
409.791	261
410.014	286
410.238	265
410.461	279
410.685	249
410.908	255
411.132	273
411.355	275
411.578	274
411.802	276
412.025	263
412.249	254
412.472	269
412.695	265
412.919	232
413.142	259
413.365	249
413.589	275
413.812	257
414.035	269
414.258	261
414.482	233
414.705	265
414.928	277
415.151	279
415.374	270
415.597	262
415.821	286
416.044	269
416.267	237
416.49	273
416.713	265
416.936	263
417.159	248
417.382	260
417.605	269
417.828	279
418.051	267
418.274	270
418.497	277
418.72	278
418.943	280
419.166	308
419.389	285
419.611	289
419.834	275
420.057	301
420.28	280
420.503	287
420.726	285
420.948	276
421.171	271
421.394	283
421.617	271
421.839	270
422.062	276
422.285	269
422.507	271
422.73	278
422.953	279
423.175	293
423.398	276
423.621	274
423.843	278
424.066	287
424.288	269
424.511	285
424.733	292
424.956	268
425.178	267
425.401	281
425.623	295
425.846	263
426.068	265
426.291	259
426.513	261
426.735	266
426.958	264
427.18	261
427.402	255
427.625	273
427.847	233
428.069	243
428.292	254
428.514	265
428.736	254
428.958	238
429.181	263
429.403	257
429.625	256
429.847	237
430.069	225
430.292	253
430.514	232
430.736	273
430.958	265
431.18	252
431.402	238
431.624	238
431.846	214
432.068	224
432.29	216
432.512	253
432.734	251
432.956	257
433.178	257
433.4	236
433.622	247
433.844	238
434.066	246
434.287	229
434.509	232
434.731	242
434.953	241
435.175	246
435.397	257
435.618	259
435.84	243
436.062	239
436.284	233
436.505	254
436.727	258
436.949	255
437.17	250
437.392	234
437.614	222
437.835	199
438.057	215
438.278	219
438.5	230
438.721	251
438.943	254
439.165	265
439.386	249
439.608	255
439.829	251
440.05	260
440.272	277
440.493	257
440.715	286
440.936	276
441.158	282
441.379	264
441.6	290
441.822	301
442.043	291
442.264	274
442.486	271
442.707	278
442.928	290
443.149	283
443.371	281
443.592	263
443.813	265
444.034	291
444.255	299
444.476	289
444.698	317
444.919	317
445.14	485
445.361	380
445.582	284
445.803	295
446.024	270
446.245	279
446.466	294
446.687	273
446.908	277
447.129	267
447.35	276
447.571	274
447.792	258
448.013	264
448.234	237
448.455	244
448.675	265
448.896	278
449.117	249
449.338	230
449.559	242
449.779	239
450	229
450.221	249
450.442	231
450.662	255
450.883	251
451.104	248
451.324	233
451.545	223
451.766	232
451.986	242
452.207	250
452.428	233
452.648	224
452.869	227
453.089	225
453.31	210
453.53	204
453.751	217
453.971	207
454.192	212
454.412	210
454.633	177
454.853	236
455.073	235
455.294	228
455.514	218
455.734	218
455.955	222
456.175	209
456.395	211
456.616	226
456.836	222
457.056	211
457.276	222
457.497	201
457.717	193
457.937	208
458.157	218
458.377	201
458.598	203
458.818	188
459.038	214
459.258	202
459.478	207
459.698	207
459.918	236
460.138	229
460.358	270
460.578	249
460.798	261
461.018	264
461.238	268
461.458	276
461.678	267
461.898	269
462.118	262
462.338	284
462.558	278
462.777	293
462.997	296
463.217	327
463.437	313
463.657	281
463.876	285
464.096	277
464.316	294
464.536	292
464.755	281
464.975	276
465.195	268
465.414	260
465.634	220
465.854	242
466.073	249
466.293	244
466.512	241
466.732	242
466.951	262
467.171	241
467.391	251
467.61	241
467.829	239
468.049	246
468.268	226
468.488	239
468.707	235
468.927	234
469.146	245
469.365	257
469.585	243
469.804	263
470.023	258
470.243	257
470.462	260
470.681	259
470.901	249
471.12	265
471.339	254
471.558	246
471.777	250
471.997	255
472.216	235
472.435	213
472.654	222
472.873	228
473.092	222
473.311	224
473.53	237
473.749	228
473.968	222
474.187	231
474.406	236
474.625	233
474.844	250
475.063	249
475.282	233
475.501	228
475.72	233
475.939	228
476.158	237
476.377	234
476.596	223
476.814	244
477.033	201
477.252	227
477.471	235
477.69	252
477.908	261
478.127	277
478.346	267
478.564	272
478.783	276
479.002	265
479.22	276
479.439	291
479.658	266
479.876	257
480.095	250
480.313	277
480.532	293
480.751	249
480.969	233
481.188	243
481.406	221
481.624	213
481.843	221
482.061	229
482.28	241
482.498	227
482.717	233
482.935	252
483.153	248
483.372	284
483.59	273
483.808	255
484.027	250
484.245	262
484.463	254
484.681	282
484.9	262
485.118	253
485.336	250
485.554	228
485.772	232
485.99	234
486.209	236
486.427	256
486.645	245
486.863	269
487.081	272
487.299	261
487.517	261
487.735	328
487.953	309
488.171	314
488.389	300
488.607	288
488.825	267
489.043	271
489.261	264
489.479	250
489.696	269
489.914	273
490.132	297
490.35	292
490.568	292
490.786	293
491.003	306
491.221	309
491.439	314
491.657	330
491.874	350
492.092	373
492.31	355
492.527	363
492.745	342
492.963	325
493.18	322
493.398	332
493.615	332
493.833	329
494.05	331
494.268	329
494.485	316
494.703	305
494.92	318
495.138	320
495.355	313
495.573	322
495.79	315
496.008	336
496.225	311
496.442	298
496.66	326
496.877	311
497.094	329
497.312	302
497.529	318
497.746	310
497.963	309
498.181	308
498.398	315
498.615	349
498.832	345
499.049	361
499.267	390
499.484	404
499.701	451
499.918	486
500.135	556
500.352	602
500.569	636
500.786	622
501.003	585
501.22	511
501.437	469
501.654	422
501.871	404
502.088	360
502.305	365
502.522	332
502.739	341
502.956	308
503.172	315
503.389	277
503.606	295
503.823	298
504.04	292
504.256	288
504.473	283
504.69	302
504.907	316
505.123	279
505.34	288
505.557	260
505.773	270
505.99	270
506.207	261
506.423	271
506.64	251
506.856	253
507.073	248
507.289	258
507.506	251
507.722	261
507.939	231
508.155	238
508.372	229
508.588	218
508.805	248
509.021	229
509.238	236
509.454	209
509.67	212
509.887	210
510.103	221
510.319	223
510.536	217
510.752	186
510.968	217
511.184	205
511.401	207
511.617	203
511.833	203
512.049	198
512.265	205
512.481	215
512.698	222
512.914	195
513.13	226
513.346	204
513.562	219
513.778	223
513.994	212
514.21	215
514.426	210
514.642	213
514.858	224
515.074	198
515.29	245
515.506	214
515.721	220
515.937	235
516.153	220
516.369	222
516.585	236
516.801	237
517.016	239
517.232	261
517.448	281
517.664	274
517.879	276
518.095	276
518.311	257
518.527	264
518.742	272
518.958	244
519.173	251
519.389	227
519.605	234
519.82	224
520.036	245
520.251	228
520.467	216
520.682	213
520.898	220
521.113	207
521.329	202
521.544	195
521.76	219
521.975	214
522.19	205
522.406	215
522.621	207
522.836	227
523.052	213
523.267	223
523.482	206
523.698	206
523.913	231
524.128	211
524.343	230
524.559	230
524.774	229
524.989	224
525.204	237
525.419	235
525.634	218
525.849	204
526.064	220
526.28	204
526.495	196
526.71	198
526.925	188
527.14	201
527.355	185
527.57	183
527.785	188
527.999	205
528.214	200
528.429	209
528.644	232
528.859	237
529.074	238
529.289	247
529.503	247
529.718	246
529.933	225
530.148	216
530.363	206
530.577	196
530.792	188
531.007	182
531.221	189
531.436	194
531.651	207
531.865	202
532.08	190
532.295	204
532.509	202
532.724	209
532.938	198
533.153	207
533.367	213
533.582	235
533.796	222
534.011	222
534.225	185
534.44	205
534.654	197
534.868	203
535.083	201
535.297	211
535.511	214
535.726	191
535.94	205
536.154	223
536.369	206
536.583	180
536.797	181
537.011	201
537.225	186
537.44	173
537.654	189
537.868	183
538.082	181
538.296	179
538.51	210
538.724	193
538.938	212
539.153	215
539.367	236
539.581	204
539.795	201
540.009	207
540.222	199
540.436	204
540.65	205
540.864	218
541.078	207
541.292	234
541.506	241
541.72	252
541.934	271
542.147	286
542.361	280
542.575	252
542.789	239
543.002	213
543.216	222
543.43	206
543.644	233
543.857	249
544.071	248
544.285	245
544.498	231
544.712	249
544.925	244
545.139	263
545.352	257
545.566	265
545.779	267
545.993	261
546.206	253
546.42	265
546.633	265
546.847	268
547.06	238
547.274	243
547.487	273
547.7	275
547.914	267
548.127	277
548.34	265
548.554	251
548.767	268
548.98	261
549.193	262
549.407	259
549.62	239
549.833	257
550.046	253
550.259	246
550.473	244
550.686	257
550.899	250
551.112	248
551.325	238
551.538	219
551.751	213
551.964	220
552.177	227
552.39	242
552.603	262
552.816	257
553.029	264
553.242	263
553.455	269
553.667	285
553.88	268
554.093	275
554.306	247
554.519	254
554.732	240
554.944	249
555.157	240
555.37	237
555.583	242
555.795	223
556.008	218
556.221	206
556.433	237
556.646	234
556.859	208
557.071	205
557.284	222
557.496	237
557.709	221
557.921	222
558.134	222
558.346	229
558.559	217
558.771	195
558.984	213
559.196	215
559.409	201
559.621	228
559.833	190
560.046	201
560.258	218
560.47	218
560.683	223
560.895	212
561.107	212
561.32	200
561.532	195
561.744	213
561.956	195
562.168	218
562.381	204
562.593	221
562.805	211
563.017	213
563.229	190
563.441	219
563.653	194
563.865	197
564.077	217
564.289	227
564.501	212
564.713	195
564.925	219
565.137	194
565.349	213
565.561	212
565.773	238
565.985	213
566.197	231
566.408	258
566.62	237
566.832	255
567.044	274
