Data from SampA_HRD10591_00048.txt Node
Date: Mon Jan 19 11:27:03 EST 2026
User: Yrep
Spectrometer: HR+D1059
Trigger mode: 0
Integration Time (sec): 3.443000E-1
Scans to average: 1
Electric dark correction enabled: true
Nonlinearity correction enabled: false
Boxcar width: 0
XAxis mode: Wavelengths
Number of Pixels in Spectrum: 2048
>>>>>Begin Spectral Data<<<<<
223.165	-33.88
223.4	-33.88
223.635	-33.88
223.869	-9.88
224.104	-16.88
224.338	-24.88
224.573	-13.88
224.808	-11.88
225.042	4.12
225.277	0.12
225.511	-5.88
225.746	9.12
225.98	5.12
226.215	-1.88
226.449	10.12
226.683	21.12
226.918	39.12
227.152	30.12
227.387	29.12
227.621	49.12
227.856	41.12
228.09	35.12
228.324	48.12
228.559	52.12
228.793	52.12
229.027	54.12
229.262	67.12
229.496	75.12
229.73	83.12
229.964	90.12
230.199	68.12
230.433	75.12
230.667	72.12
230.901	73.12
231.136	76.12
231.37	70.12
231.604	92.12
231.838	77.12
232.072	76.12
232.306	85.12
232.541	70.12
232.775	62.12
233.009	62.12
233.243	88.12
233.477	83.12
233.711	86.12
233.945	87.12
234.179	89.12
234.413	81.12
234.647	87.12
234.881	85.12
235.115	74.12
235.349	91.12
235.583	92.12
235.817	94.12
236.051	92.12
236.285	82.12
236.519	80.12
236.753	73.12
236.987	87.12
237.221	93.12
237.455	81.12
237.689	81.12
237.922	84.12
238.156	82.12
238.39	77.12
238.624	89.12
238.858	84.12
239.091	92.12
239.325	75.12
239.559	90.12
239.793	79.12
240.027	80.12
240.26	75.12
240.494	92.12
240.728	71.12
240.961	68.12
241.195	73.12
241.429	81.12
241.662	87.12
241.896	83.12
242.13	80.12
242.363	78.12
242.597	84.12
242.83	90.12
243.064	84.12
243.298	82.12
243.531	83.12
243.765	99.12
243.998	86.12
244.232	100.12
244.465	94.12
244.699	91.12
244.932	76.12
245.166	91.12
245.399	64.12
245.633	91.12
245.866	88.12
246.099	91.12
246.333	78.12
246.566	96.12
246.8	87.12
247.033	79.12
247.266	90.12
247.5	83.12
247.733	77.12
247.966	84.12
248.2	80.12
248.433	99.12
248.666	88.12
248.899	95.12
249.133	78.12
249.366	91.12
249.599	99.12
249.832	98.12
250.066	101.12
250.299	73.12
250.532	99.12
250.765	93.12
250.998	84.12
251.231	89.12
251.465	106.12
251.698	80.12
251.931	77.12
252.164	94.12
252.397	94.12
252.63	86.12
252.863	92.12
253.096	87.12
253.329	86.12
253.562	93.12
253.795	88.12
254.028	100.12
254.261	98.12
254.494	100.12
254.727	82.12
254.96	83.12
255.193	90.12
255.426	84.12
255.659	90.12
255.892	92.12
256.124	90.12
256.357	102.12
256.59	99.12
256.823	94.12
257.056	98.12
257.289	103.12
257.521	91.12
257.754	87.12
257.987	77.12
258.22	94.12
258.452	98.12
258.685	88.12
258.918	77.12
259.151	102.12
259.383	120.12
259.616	92.12
259.849	104.12
260.081	106.12
260.314	106.12
260.547	91.12
260.779	94.12
261.012	96.12
261.244	87.12
261.477	88.12
261.71	87.12
261.942	104.12
262.175	112.12
262.407	97.12
262.64	87.12
262.872	94.12
263.105	90.12
263.337	105.12
263.57	102.12
263.802	81.12
264.035	108.12
264.267	105.12
264.499	97.12
264.732	100.12
264.964	100.12
265.197	111.12
265.429	98.12
265.661	98.12
265.894	97.12
266.126	111.12
266.358	100.12
266.591	101.12
266.823	101.12
267.055	107.12
267.287	101.12
267.52	103.12
267.752	100.12
267.984	109.12
268.216	119.12
268.448	114.12
268.681	113.12
268.913	118.12
269.145	91.12
269.377	110.12
269.609	96.12
269.841	105.12
270.073	104.12
270.306	102.12
270.538	90.12
270.77	90.12
271.002	94.12
271.234	93.12
271.466	114.12
271.698	110.12
271.93	104.12
272.162	101.12
272.394	112.12
272.626	94.12
272.858	99.12
273.09	107.12
273.322	91.12
273.553	103.12
273.785	96.12
274.017	108.12
274.249	109.12
274.481	104.12
274.713	108.12
274.945	107.12
275.176	113.12
275.408	117.12
275.64	119.12
275.872	105.12
276.104	117.12
276.335	105.12
276.567	93.12
276.799	104.12
277.031	109.12
277.262	96.12
277.494	106.12
277.726	116.12
277.957	112.12
278.189	110.12
278.421	101.12
278.652	100.12
278.884	114.12
279.115	109.12
279.347	102.12
279.579	118.12
279.81	129.12
280.042	97.12
280.273	117.12
280.505	109.12
280.736	111.12
280.968	104.12
281.199	94.12
281.431	97.12
281.662	108.12
281.894	124.12
282.125	109.12
282.356	111.12
282.588	114.12
282.819	123.12
283.051	107.12
283.282	100.12
283.513	114.12
283.745	120.12
283.976	123.12
284.207	104.12
284.439	114.12
284.67	117.12
284.901	117.12
285.132	100.12
285.364	108.12
285.595	121.12
285.826	108.12
286.057	112.12
286.288	126.12
286.52	115.12
286.751	106.12
286.982	116.12
287.213	116.12
287.444	114.12
287.675	107.12
287.906	108.12
288.138	115.12
288.369	123.12
288.6	121.12
288.831	109.12
289.062	118.12
289.293	116.12
289.524	107.12
289.755	120.12
289.986	112.12
290.217	107.12
290.448	100.12
290.679	130.12
290.91	132.12
291.141	110.12
291.371	135.12
291.602	117.12
291.833	112.12
292.064	119.12
292.295	112.12
292.526	131.12
292.757	128.12
292.987	115.12
293.218	108.12
293.449	121.12
293.68	118.12
293.91	113.12
294.141	130.12
294.372	111.12
294.603	122.12
294.833	118.12
295.064	118.12
295.295	120.12
295.525	107.12
295.756	112.12
295.987	115.12
296.217	119.12
296.448	109.12
296.679	124.12
296.909	125.12
297.14	125.12
297.37	121.12
297.601	121.12
297.831	122.12
298.062	137.12
298.292	120.12
298.523	117.12
298.753	124.12
298.984	128.12
299.214	136.12
299.445	115.12
299.675	118.12
299.905	115.12
300.136	115.12
300.366	125.12
300.597	132.12
300.827	121.12
301.057	125.12
301.288	129.12
301.518	109.12
301.748	133.12
301.979	155.12
302.209	136.12
302.439	137.12
302.669	124.12
302.9	126.12
303.13	120.12
303.36	118.12
303.59	126.12
303.82	134.12
304.051	126.12
304.281	130.12
304.511	130.12
304.741	120.12
304.971	134.12
305.201	138.12
305.431	122.12
305.661	119.12
305.891	110.12
306.121	105.12
306.352	125.12
306.582	124.12
306.812	129.12
307.042	117.12
307.272	112.12
307.502	130.12
307.731	121.12
307.961	121.12
308.191	116.12
308.421	128.12
308.651	122.12
308.881	121.12
309.111	127.12
309.341	139.12
309.571	114.12
309.8	120.12
310.03	130.12
310.26	112.12
310.49	125.12
310.72	125.12
310.949	113.12
311.179	117.12
311.409	125.12
311.639	147.12
311.868	128.12
312.098	116.12
312.328	127.12
312.557	124.12
312.787	116.12
313.017	145.12
313.246	120.12
313.476	132.12
313.706	122.12
313.935	129.12
314.165	130.12
314.394	122.12
314.624	114.12
314.853	132.12
315.083	125.12
315.312	117.12
315.542	117.12
315.771	138.12
316.001	128.12
316.23	132.12
316.46	134.12
316.689	124.12
316.919	121.12
317.148	129.12
317.377	137.12
317.607	139.12
317.836	139.12
318.065	117.12
318.295	125.12
318.524	117.12
318.753	128.12
318.983	133.12
319.212	130.12
319.441	121.12
319.67	125.12
319.9	122.12
320.129	130.12
320.358	116.12
320.587	141.12
320.816	127.12
321.046	134.12
321.275	129.12
321.504	113.12
321.733	142.12
321.962	131.12
322.191	134.12
322.42	112.12
322.649	115.12
322.878	115.12
323.108	131.12
323.337	128.12
323.566	144.12
323.795	132.12
324.024	137.12
324.253	142.12
324.482	137.12
324.71	114.12
324.939	135.12
325.168	128.12
325.397	130.12
325.626	138.12
325.855	124.12
326.084	122.12
326.313	123.12
326.542	119.12
326.77	122.12
326.999	120.12
327.228	145.12
327.457	136.12
327.686	133.12
327.914	129.12
328.143	139.12
328.372	130.12
328.6	135.12
328.829	117.12
329.058	150.12
329.287	121.12
329.515	123.12
329.744	137.12
329.972	138.12
330.201	133.12
330.43	116.12
330.658	144.12
330.887	156.12
331.115	143.12
331.344	149.12
331.572	156.12
331.801	128.12
332.03	141.12
332.258	160.12
332.486	150.12
332.715	161.12
332.943	167.12
333.172	164.12
333.4	161.12
333.629	132.12
333.857	167.12
334.085	162.12
334.314	149.12
334.542	165.12
334.771	157.12
334.999	151.12
335.227	138.12
335.455	164.12
335.684	164.12
335.912	158.12
336.14	140.12
336.369	160.12
336.597	154.12
336.825	157.12
337.053	139.12
337.281	149.12
337.51	138.12
337.738	150.12
337.966	130.12
338.194	145.12
338.422	126.12
338.65	146.12
338.878	137.12
339.106	126.12
339.334	154.12
339.562	121.12
339.79	139.12
340.018	131.12
340.246	129.12
340.474	137.12
340.702	133.12
340.93	135.12
341.158	144.12
341.386	133.12
341.614	142.12
341.842	137.12
342.07	134.12
342.298	146.12
342.526	140.12
342.754	136.12
342.981	141.12
343.209	132.12
343.437	172.12
343.665	166.12
343.893	158.12
344.12	166.12
344.348	149.12
344.576	156.12
344.804	149.12
345.031	136.12
345.259	144.12
345.487	130.12
345.714	147.12
345.942	150.12
346.17	156.12
346.397	138.12
346.625	134.12
346.853	122.12
347.08	148.12
347.308	141.12
347.535	138.12
347.763	132.12
347.99	137.12
348.218	136.12
348.445	126.12
348.673	126.12
348.9	149.12
349.128	132.12
349.355	130.12
349.583	136.12
349.81	119.12
350.037	135.12
350.265	131.12
350.492	140.12
350.72	132.12
350.947	136.12
351.174	144.12
351.402	128.12
351.629	117.12
351.856	142.12
352.083	145.12
352.311	123.12
352.538	131.12
352.765	122.12
352.992	140.12
353.22	130.12
353.447	111.12
353.674	139.12
353.901	158.12
354.128	125.12
354.355	129.12
354.583	142.12
354.81	134.12
355.037	132.12
355.264	139.12
355.491	146.12
355.718	119.12
355.945	135.12
356.172	138.12
356.399	138.12
356.626	142.12
356.853	145.12
357.08	138.12
357.307	146.12
357.534	136.12
357.761	126.12
357.988	158.12
358.215	140.12
358.441	132.12
358.668	118.12
358.895	129.12
359.122	125.12
359.349	130.12
359.576	128.12
359.802	124.12
360.029	131.12
360.256	126.12
360.483	135.12
360.709	132.12
360.936	161.12
361.163	151.12
361.39	152.12
361.616	120.12
361.843	136.12
362.07	129.12
362.296	139.12
362.523	131.12
362.749	136.12
362.976	133.12
363.203	127.12
363.429	130.12
363.656	128.12
363.882	137.12
364.109	126.12
364.335	124.12
364.562	132.12
364.788	134.12
365.015	137.12
365.241	133.12
365.468	140.12
365.694	135.12
365.92	148.12
366.147	115.12
366.373	137.12
366.599	132.12
366.826	136.12
367.052	144.12
367.278	131.12
367.505	124.12
367.731	165.12
367.957	124.12
368.184	125.12
368.41	121.12
368.636	139.12
368.862	135.12
369.089	140.12
369.315	136.12
369.541	134.12
369.767	149.12
369.993	119.12
370.219	133.12
370.445	145.12
370.672	149.12
370.898	132.12
371.124	144.12
371.35	143.12
371.576	137.12
371.802	154.12
372.028	147.12
372.254	144.12
372.48	135.12
372.706	166.12
372.932	164.12
373.158	145.12
373.384	148.12
373.61	140.12
373.835	147.12
374.061	149.12
374.287	141.12
374.513	151.12
374.739	161.12
374.965	169.12
375.191	148.12
375.416	151.12
375.642	152.12
375.868	154.12
376.094	155.12
376.319	153.12
376.545	147.12
376.771	114.12
376.997	162.12
377.222	139.12
377.448	148.12
377.674	142.12
377.899	157.12
378.125	138.12
378.35	149.12
378.576	148.12
378.802	143.12
379.027	162.12
379.253	147.12
379.478	145.12
379.704	141.12
379.929	145.12
380.155	134.12
380.38	149.12
380.606	125.12
380.831	162.12
381.057	166.12
381.282	136.12
381.507	154.12
381.733	155.12
381.958	146.12
382.184	152.12
382.409	158.12
382.634	169.12
382.86	151.12
383.085	172.12
383.31	141.12
383.535	148.12
383.761	156.12
383.986	170.12
384.211	144.12
384.436	167.12
384.662	165.12
384.887	158.12
385.112	162.12
385.337	172.12
385.562	164.12
385.787	162.12
386.013	173.12
386.238	170.12
386.463	165.12
386.688	192.12
386.913	170.12
387.138	148.12
387.363	162.12
387.588	174.12
387.813	157.12
388.038	179.12
388.263	171.12
388.488	177.12
388.713	159.12
388.938	156.12
389.163	168.12
389.387	152.12
389.612	151.12
389.837	155.12
390.062	170.12
390.287	157.12
390.512	162.12
390.736	159.12
390.961	166.12
391.186	177.12
391.411	187.12
391.636	173.12
391.86	176.12
392.085	193.12
392.31	192.12
392.534	192.12
392.759	184.12
392.984	192.12
393.208	184.12
393.433	178.12
393.658	201.12
393.882	188.12
394.107	181.12
394.331	173.12
394.556	185.12
394.78	189.12
395.005	189.12
395.229	205.12
395.454	203.12
395.678	194.12
395.903	197.12
396.127	205.12
396.352	181.12
396.576	187.12
396.801	185.12
397.025	189.12
397.249	202.12
397.474	210.12
397.698	209.12
397.922	202.12
398.147	187.12
398.371	205.12
398.595	209.12
398.82	232.12
399.044	232.12
399.268	260.12
399.492	283.12
399.717	301.12
399.941	292.12
400.165	276.12
400.389	241.12
400.613	226.12
400.837	219.12
401.062	237.12
401.286	226.12
401.51	234.12
401.734	229.12
401.958	238.12
402.182	224.12
402.406	227.12
402.63	245.12
402.854	240.12
403.078	239.12
403.302	264.12
403.526	257.12
403.75	252.12
403.974	270.12
404.198	254.12
404.422	272.12
404.645	262.12
404.869	237.12
405.093	253.12
405.317	253.12
405.541	277.12
405.765	254.12
405.988	255.12
406.212	266.12
406.436	266.12
406.66	272.12
406.883	269.12
407.107	281.12
407.331	279.12
407.555	296.12
407.778	281.12
408.002	277.12
408.226	282.12
408.449	282.12
408.673	279.12
408.896	284.12
409.12	263.12
409.344	292.12
409.567	264.12
409.791	286.12
410.014	274.12
410.238	277.12
410.461	266.12
410.685	258.12
410.908	269.12
411.132	277.12
411.355	250.12
411.578	260.12
411.802	252.12
412.025	261.12
412.249	260.12
412.472	265.12
412.695	253.12
412.919	247.12
413.142	258.12
413.365	251.12
413.589	266.12
413.812	280.12
414.035	264.12
414.258	266.12
414.482	261.12
414.705	265.12
414.928	270.12
415.151	257.12
415.374	267.12
415.597	261.12
415.821	259.12
416.044	267.12
416.267	270.12
416.49	245.12
416.713	264.12
416.936	262.12
417.159	261.12
417.382	264.12
417.605	260.12
417.828	282.12
418.051	258.12
418.274	277.12
418.497	262.12
418.72	274.12
418.943	288.12
419.166	273.12
419.389	300.12
419.611	304.12
419.834	284.12
420.057	279.12
420.28	280.12
420.503	268.12
420.726	288.12
420.948	273.12
421.171	261.12
421.394	272.12
421.617	268.12
421.839	282.12
422.062	280.12
422.285	289.12
422.507	279.12
422.73	266.12
422.953	272.12
423.175	273.12
423.398	284.12
423.621	306.12
423.843	304.12
424.066	308.12
424.288	287.12
424.511	266.12
424.733	277.12
424.956	292.12
425.178	278.12
425.401	284.12
425.623	286.12
425.846	274.12
426.068	259.12
426.291	241.12
426.513	258.12
426.735	256.12
426.958	260.12
427.18	264.12
427.402	265.12
427.625	270.12
427.847	244.12
428.069	268.12
428.292	256.12
428.514	254.12
428.736	238.12
428.958	247.12
429.181	249.12
429.403	231.12
429.625	238.12
429.847	241.12
430.069	236.12
430.292	252.12
430.514	263.12
430.736	259.12
430.958	250.12
431.18	252.12
431.402	247.12
431.624	243.12
431.846	253.12
432.068	211.12
432.29	213.12
432.512	232.12
432.734	254.12
432.956	254.12
433.178	243.12
433.4	253.12
433.622	246.12
433.844	262.12
434.066	258.12
434.287	252.12
434.509	230.12
434.731	258.12
434.953	245.12
435.175	266.12
435.397	272.12
435.618	256.12
435.84	232.12
436.062	238.12
436.284	233.12
436.505	271.12
436.727	253.12
436.949	257.12
437.17	253.12
437.392	233.12
437.614	226.12
437.835	233.12
438.057	219.12
438.278	226.12
438.5	244.12
438.721	254.12
438.943	249.12
439.165	266.12
439.386	272.12
439.608	255.12
439.829	261.12
440.05	240.12
440.272	264.12
440.493	254.12
440.715	268.12
440.936	268.12
441.158	272.12
441.379	277.12
441.6	300.12
441.822	278.12
442.043	283.12
442.264	270.12
442.486	269.12
442.707	289.12
442.928	263.12
443.149	279.12
443.371	272.12
443.592	294.12
443.813	290.12
444.034	280.12
444.255	288.12
444.476	305.12
444.698	308.12
444.919	316.12
445.14	552.12
445.361	405.12
445.582	301.12
445.803	283.12
446.024	284.12
446.245	287.12
446.466	276.12
446.687	274.12
446.908	274.12
447.129	268.12
447.35	274.12
447.571	255.12
447.792	256.12
448.013	253.12
448.234	253.12
448.455	248.12
448.675	251.12
448.896	260.12
449.117	260.12
449.338	256.12
449.559	250.12
449.779	248.12
450	237.12
450.221	239.12
450.442	253.12
450.662	231.12
450.883	260.12
451.104	264.12
451.324	244.12
451.545	256.12
451.766	248.12
451.986	237.12
452.207	241.12
452.428	216.12
452.648	230.12
452.869	219.12
453.089	221.12
453.31	219.12
453.53	214.12
453.751	199.12
453.971	199.12
454.192	208.12
454.412	214.12
454.633	229.12
454.853	237.12
455.073	197.12
455.294	229.12
455.514	256.12
455.734	221.12
455.955	216.12
456.175	223.12
456.395	193.12
456.616	209.12
456.836	201.12
457.056	213.12
457.276	210.12
457.497	208.12
457.717	205.12
457.937	196.12
458.157	209.12
458.377	222.12
458.598	213.12
458.818	211.12
459.038	197.12
459.258	212.12
459.478	217.12
459.698	222.12
459.918	230.12
460.138	234.12
460.358	260.12
460.578	260.12
460.798	265.12
461.018	279.12
461.238	264.12
461.458	263.12
461.678	254.12
461.898	261.12
462.118	274.12
462.338	285.12
462.558	270.12
462.777	303.12
462.997	305.12
463.217	317.12
463.437	316.12
463.657	293.12
463.876	279.12
464.096	272.12
464.316	269.12
464.536	290.12
464.755	290.12
464.975	285.12
465.195	259.12
465.414	264.12
465.634	240.12
465.854	247.12
466.073	251.12
466.293	237.12
466.512	259.12
466.732	248.12
466.951	234.12
467.171	237.12
467.391	242.12
467.61	258.12
467.829	262.12
468.049	240.12
468.268	247.12
468.488	231.12
468.707	260.12
468.927	250.12
469.146	235.12
469.365	254.12
469.585	237.12
469.804	250.12
470.023	265.12
470.243	257.12
470.462	258.12
470.681	254.12
470.901	262.12
471.12	249.12
471.339	262.12
471.558	244.12
471.777	260.12
471.997	249.12
472.216	242.12
472.435	223.12
472.654	212.12
472.873	212.12
473.092	212.12
473.311	236.12
473.53	225.12
473.749	243.12
473.968	241.12
474.187	220.12
474.406	214.12
474.625	236.12
474.844	219.12
475.063	242.12
475.282	225.12
475.501	231.12
475.72	228.12
475.939	246.12
476.158	231.12
476.377	228.12
476.596	222.12
476.814	220.12
477.033	233.12
477.252	223.12
477.471	260.12
477.69	257.12
477.908	247.12
478.127	276.12
478.346	275.12
478.564	260.12
478.783	268.12
479.002	279.12
479.22	273.12
479.439	261.12
479.658	249.12
479.876	249.12
480.095	241.12
480.313	280.12
480.532	286.12
480.751	265.12
480.969	248.12
481.188	235.12
481.406	229.12
481.624	238.12
481.843	224.12
482.061	219.12
482.28	256.12
482.498	243.12
482.717	228.12
482.935	232.12
483.153	254.12
483.372	301.12
483.59	270.12
483.808	260.12
484.027	250.12
484.245	259.12
484.463	251.12
484.681	259.12
484.9	258.12
485.118	264.12
485.336	262.12
485.554	251.12
485.772	220.12
485.99	231.12
486.209	251.12
486.427	257.12
486.645	256.12
486.863	276.12
487.081	262.12
487.299	250.12
487.517	281.12
487.735	300.12
487.953	315.12
488.171	325.12
488.389	291.12
488.607	283.12
488.825	250.12
489.043	263.12
489.261	263.12
489.479	263.12
489.696	262.12
489.914	272.12
490.132	273.12
490.35	296.12
490.568	283.12
490.786	292.12
491.003	283.12
491.221	301.12
491.439	324.12
491.657	330.12
491.874	341.12
492.092	344.12
492.31	352.12
492.527	337.12
492.745	324.12
492.963	322.12
493.18	330.12
493.398	326.12
493.615	333.12
493.833	314.12
494.05	315.12
494.268	305.12
494.485	309.12
494.703	313.12
494.92	322.12
495.138	313.12
495.355	321.12
495.573	333.12
495.79	296.12
496.008	325.12
496.225	293.12
496.442	299.12
496.66	334.12
496.877	315.12
497.094	325.12
497.312	325.12
497.529	319.12
497.746	298.12
497.963	307.12
498.181	292.12
498.398	311.12
498.615	331.12
498.832	340.12
499.049	339.12
499.267	398.12
499.484	424.12
499.701	469.12
499.918	512.12
500.135	551.12
500.352	624.12
500.569	627.12
500.786	625.12
501.003	572.12
501.22	515.12
501.437	470.12
501.654	422.12
501.871	397.12
502.088	358.12
502.305	360.12
502.522	343.12
502.739	319.12
502.956	324.12
503.172	305.12
503.389	290.12
503.606	275.12
503.823	298.12
504.04	287.12
504.256	296.12
504.473	285.12
504.69	294.12
504.907	288.12
