Data from SampA_HRD10591_00081.txt Node
Date: Mon Jan 19 11:27:14 EST 2026
User: Yrep
Spectrometer: HR+D1059
Trigger mode: 0
Integration Time (sec): 3.443000E-1
Scans to average: 1
Electric dark correction enabled: true
Nonlinearity correction enabled: false
Boxcar width: 0
XAxis mode: Wavelengths
Number of Pixels in Spectrum: 2048
>>>>>Begin Spectral Data<<<<<
223.165	-17.56
223.4	-17.56
223.635	-17.56
223.869	-19.56
224.104	-31.56
224.338	-20.56
224.573	-20.56
224.808	-8.56
225.042	0.44
225.277	-5.56
225.511	2.44
225.746	8.44
225.98	1.44
226.215	28.44
226.449	16.44
226.683	22.44
226.918	13.44
227.152	30.44
227.387	40.44
227.621	35.44
227.856	42.44
228.09	49.44
228.324	61.44
228.559	69.44
228.793	71.44
229.027	50.44
229.262	58.44
229.496	62.44
229.73	76.44
229.964	69.44
230.199	72.44
230.433	74.44
230.667	88.44
230.901	73.44
231.136	87.44
231.37	91.44
231.604	80.44
231.838	83.44
232.072	89.44
232.306	80.44
232.541	82.44
232.775	87.44
233.009	95.44
233.243	71.44
233.477	90.44
233.711	90.44
233.945	92.44
234.179	95.44
234.413	102.44
234.647	86.44
234.881	93.44
235.115	95.44
235.349	82.44
235.583	94.44
235.817	92.44
236.051	75.44
236.285	91.44
236.519	95.44
236.753	65.44
236.987	82.44
237.221	81.44
237.455	88.44
237.689	86.44
237.922	85.44
238.156	76.44
238.39	85.44
238.624	85.44
238.858	103.44
239.091	87.44
239.325	85.44
239.559	75.44
239.793	84.44
240.027	97.44
240.26	86.44
240.494	82.44
240.728	90.44
240.961	94.44
241.195	98.44
241.429	90.44
241.662	89.44
241.896	79.44
242.13	87.44
242.363	91.44
242.597	79.44
242.83	97.44
243.064	81.44
243.298	82.44
243.531	93.44
243.765	81.44
243.998	77.44
244.232	92.44
244.465	89.44
244.699	80.44
244.932	98.44
245.166	83.44
245.399	92.44
245.633	81.44
245.866	84.44
246.099	88.44
246.333	73.44
246.566	98.44
246.8	81.44
247.033	89.44
247.266	83.44
247.5	84.44
247.733	91.44
247.966	76.44
248.2	82.44
248.433	93.44
248.666	85.44
248.899	87.44
249.133	94.44
249.366	90.44
249.599	79.44
249.832	82.44
250.066	98.44
250.299	76.44
250.532	103.44
250.765	72.44
250.998	89.44
251.231	106.44
251.465	99.44
251.698	91.44
251.931	101.44
252.164	91.44
252.397	95.44
252.63	98.44
252.863	84.44
253.096	98.44
253.329	94.44
253.562	95.44
253.795	90.44
254.028	106.44
254.261	105.44
254.494	89.44
254.727	98.44
254.96	91.44
255.193	95.44
255.426	89.44
255.659	94.44
255.892	86.44
256.124	94.44
256.357	84.44
256.59	99.44
256.823	108.44
257.056	94.44
257.289	114.44
257.521	95.44
257.754	89.44
257.987	94.44
258.22	113.44
258.452	81.44
258.685	89.44
258.918	99.44
259.151	92.44
259.383	102.44
259.616	102.44
259.849	105.44
260.081	103.44
260.314	95.44
260.547	97.44
260.779	90.44
261.012	101.44
261.244	109.44
261.477	105.44
261.71	95.44
261.942	95.44
262.175	108.44
262.407	84.44
262.64	108.44
262.872	109.44
263.105	96.44
263.337	123.44
263.57	98.44
263.802	94.44
264.035	108.44
264.267	98.44
264.499	104.44
264.732	110.44
264.964	95.44
265.197	107.44
265.429	108.44
265.661	90.44
265.894	97.44
266.126	106.44
266.358	100.44
266.591	109.44
266.823	101.44
267.055	106.44
267.287	96.44
267.52	104.44
267.752	112.44
267.984	95.44
268.216	98.44
268.448	110.44
268.681	88.44
268.913	100.44
269.145	92.44
269.377	96.44
269.609	101.44
269.841	129.44
270.073	96.44
270.306	117.44
270.538	103.44
270.77	88.44
271.002	105.44
271.234	107.44
271.466	119.44
271.698	97.44
271.93	116.44
272.162	113.44
272.394	104.44
272.626	95.44
272.858	92.44
273.09	122.44
273.322	96.44
273.553	107.44
273.785	106.44
274.017	113.44
274.249	101.44
274.481	97.44
274.713	102.44
274.945	117.44
275.176	101.44
275.408	108.44
275.64	108.44
275.872	112.44
276.104	109.44
276.335	102.44
276.567	106.44
276.799	105.44
277.031	109.44
277.262	114.44
277.494	118.44
277.726	114.44
277.957	107.44
278.189	116.44
278.421	110.44
278.652	102.44
278.884	113.44
279.115	108.44
279.347	113.44
279.579	111.44
279.81	104.44
280.042	101.44
280.273	113.44
280.505	107.44
280.736	101.44
280.968	124.44
281.199	106.44
281.431	118.44
281.662	115.44
281.894	112.44
282.125	129.44
282.356	126.44
282.588	106.44
282.819	116.44
283.051	114.44
283.282	105.44
283.513	119.44
283.745	132.44
283.976	132.44
284.207	96.44
284.439	112.44
284.67	116.44
284.901	113.44
285.132	129.44
285.364	118.44
285.595	122.44
285.826	104.44
286.057	127.44
286.288	122.44
286.52	118.44
286.751	116.44
286.982	101.44
287.213	118.44
287.444	111.44
287.675	108.44
287.906	127.44
288.138	123.44
288.369	118.44
288.6	118.44
288.831	115.44
289.062	130.44
289.293	125.44
289.524	101.44
289.755	125.44
289.986	111.44
290.217	117.44
290.448	121.44
290.679	120.44
290.91	113.44
291.141	104.44
291.371	143.44
291.602	114.44
291.833	118.44
292.064	125.44
292.295	123.44
292.526	121.44
292.757	134.44
292.987	121.44
293.218	136.44
293.449	122.44
293.68	130.44
293.91	109.44
294.141	112.44
294.372	123.44
294.603	122.44
294.833	138.44
295.064	127.44
295.295	130.44
295.525	129.44
295.756	131.44
295.987	132.44
296.217	134.44
296.448	118.44
296.679	124.44
296.909	123.44
297.14	115.44
297.37	128.44
297.601	121.44
297.831	118.44
298.062	116.44
298.292	139.44
298.523	128.44
298.753	121.44
298.984	122.44
299.214	123.44
299.445	123.44
299.675	127.44
299.905	141.44
300.136	132.44
300.366	122.44
300.597	130.44
300.827	126.44
301.057	121.44
301.288	129.44
301.518	135.44
301.748	126.44
301.979	168.44
302.209	118.44
302.439	123.44
302.669	152.44
302.9	122.44
303.13	128.44
303.36	114.44
303.59	125.44
303.82	118.44
304.051	111.44
304.281	140.44
304.511	147.44
304.741	121.44
304.971	132.44
305.201	132.44
305.431	136.44
305.661	109.44
305.891	122.44
306.121	157.44
306.352	130.44
306.582	116.44
306.812	130.44
307.042	134.44
307.272	128.44
307.502	118.44
307.731	120.44
307.961	121.44
308.191	128.44
308.421	124.44
308.651	118.44
308.881	136.44
309.111	129.44
309.341	133.44
309.571	110.44
309.8	128.44
310.03	123.44
310.26	144.44
310.49	132.44
310.72	117.44
310.949	137.44
311.179	137.44
311.409	120.44
311.639	137.44
311.868	148.44
312.098	129.44
312.328	124.44
312.557	142.44
312.787	123.44
313.017	145.44
313.246	137.44
313.476	135.44
313.706	133.44
313.935	134.44
314.165	112.44
314.394	139.44
314.624	136.44
314.853	130.44
315.083	143.44
315.312	138.44
315.542	136.44
315.771	154.44
316.001	134.44
316.23	140.44
316.46	145.44
316.689	128.44
316.919	153.44
317.148	126.44
317.377	135.44
317.607	140.44
317.836	116.44
318.065	125.44
318.295	133.44
318.524	120.44
318.753	158.44
318.983	146.44
319.212	127.44
319.441	123.44
319.67	116.44
319.9	130.44
320.129	134.44
320.358	134.44
320.587	122.44
320.816	121.44
321.046	135.44
321.275	144.44
321.504	135.44
321.733	136.44
321.962	125.44
322.191	137.44
322.42	146.44
322.649	150.44
322.878	147.44
323.108	147.44
323.337	119.44
323.566	129.44
323.795	118.44
324.024	153.44
324.253	129.44
324.482	142.44
324.71	113.44
324.939	140.44
325.168	145.44
325.397	129.44
325.626	148.44
325.855	137.44
326.084	133.44
326.313	134.44
326.542	139.44
326.77	143.44
326.999	155.44
327.228	122.44
327.457	138.44
327.686	139.44
327.914	142.44
328.143	146.44
328.372	146.44
328.6	142.44
328.829	128.44
329.058	151.44
329.287	144.44
329.515	141.44
329.744	133.44
329.972	127.44
330.201	133.44
330.43	129.44
330.658	154.44
330.887	153.44
331.115	136.44
331.344	152.44
331.572	143.44
331.801	152.44
332.03	150.44
332.258	184.44
332.486	158.44
332.715	152.44
332.943	136.44
333.172	156.44
333.4	156.44
333.629	158.44
333.857	175.44
334.085	171.44
334.314	153.44
334.542	166.44
334.771	150.44
334.999	158.44
335.227	149.44
335.455	163.44
335.684	162.44
335.912	152.44
336.14	144.44
336.369	168.44
336.597	160.44
336.825	165.44
337.053	154.44
337.281	154.44
337.51	153.44
337.738	163.44
337.966	148.44
338.194	144.44
338.422	159.44
338.65	159.44
338.878	150.44
339.106	144.44
339.334	139.44
339.562	148.44
339.79	133.44
340.018	146.44
340.246	120.44
340.474	143.44
340.702	144.44
340.93	143.44
341.158	125.44
341.386	135.44
341.614	125.44
341.842	134.44
342.07	140.44
342.298	150.44
342.526	152.44
342.754	160.44
342.981	152.44
343.209	149.44
343.437	171.44
343.665	142.44
343.893	162.44
344.12	150.44
344.348	156.44
344.576	150.44
344.804	138.44
345.031	140.44
345.259	143.44
345.487	141.44
345.714	144.44
345.942	120.44
346.17	125.44
346.397	128.44
346.625	148.44
346.853	145.44
347.08	146.44
347.308	142.44
347.535	127.44
347.763	136.44
347.99	138.44
348.218	139.44
348.445	127.44
348.673	133.44
348.9	132.44
349.128	145.44
349.355	144.44
349.583	133.44
349.81	134.44
350.037	148.44
350.265	149.44
350.492	135.44
350.72	137.44
350.947	139.44
351.174	118.44
351.402	136.44
351.629	135.44
351.856	123.44
352.083	148.44
352.311	131.44
352.538	132.44
352.765	132.44
352.992	152.44
353.22	129.44
353.447	149.44
353.674	137.44
353.901	145.44
354.128	152.44
354.355	128.44
354.583	142.44
354.81	138.44
355.037	136.44
355.264	136.44
355.491	134.44
355.718	123.44
355.945	139.44
356.172	133.44
356.399	140.44
356.626	128.44
356.853	147.44
357.08	140.44
357.307	145.44
357.534	139.44
357.761	149.44
357.988	145.44
358.215	141.44
358.441	132.44
358.668	129.44
358.895	132.44
359.122	127.44
359.349	126.44
359.576	132.44
359.802	114.44
360.029	133.44
360.256	150.44
360.483	138.44
360.709	140.44
360.936	151.44
361.163	138.44
361.39	155.44
361.616	133.44
361.843	135.44
362.07	151.44
362.296	135.44
362.523	132.44
362.749	133.44
362.976	120.44
363.203	136.44
363.429	130.44
363.656	136.44
363.882	134.44
364.109	157.44
364.335	153.44
364.562	146.44
364.788	148.44
365.015	130.44
365.241	140.44
365.468	141.44
365.694	141.44
365.92	141.44
366.147	142.44
366.373	149.44
366.599	125.44
366.826	141.44
367.052	148.44
367.278	145.44
367.505	133.44
367.731	140.44
367.957	124.44
368.184	137.44
368.41	159.44
368.636	146.44
368.862	141.44
369.089	137.44
369.315	142.44
369.541	126.44
369.767	151.44
369.993	156.44
370.219	127.44
370.445	150.44
370.672	139.44
370.898	140.44
371.124	136.44
371.35	144.44
371.576	147.44
371.802	135.44
372.028	136.44
372.254	164.44
372.48	154.44
372.706	149.44
372.932	148.44
373.158	145.44
373.384	148.44
373.61	158.44
373.835	151.44
374.061	136.44
374.287	162.44
374.513	148.44
374.739	158.44
374.965	167.44
375.191	165.44
375.416	168.44
375.642	152.44
375.868	172.44
376.094	155.44
376.319	156.44
376.545	152.44
376.771	149.44
376.997	142.44
377.222	129.44
377.448	153.44
377.674	156.44
377.899	145.44
378.125	151.44
378.35	150.44
378.576	135.44
378.802	142.44
379.027	155.44
379.253	140.44
379.478	145.44
379.704	163.44
379.929	150.44
380.155	140.44
380.38	148.44
380.606	141.44
380.831	154.44
381.057	159.44
381.282	159.44
381.507	127.44
381.733	157.44
381.958	157.44
382.184	154.44
382.409	144.44
382.634	145.44
382.86	148.44
383.085	162.44
383.31	146.44
383.535	152.44
383.761	152.44
383.986	172.44
384.211	152.44
384.436	171.44
384.662	184.44
384.887	175.44
385.112	158.44
385.337	164.44
385.562	155.44
385.787	164.44
386.013	178.44
386.238	170.44
386.463	161.44
386.688	206.44
386.913	173.44
387.138	173.44
387.363	184.44
387.588	184.44
387.813	162.44
388.038	180.44
388.263	166.44
388.488	183.44
388.713	174.44
388.938	181.44
389.163	168.44
389.387	161.44
389.612	177.44
389.837	176.44
390.062	183.44
390.287	161.44
390.512	177.44
390.736	170.44
390.961	178.44
391.186	172.44
391.411	174.44
391.636	195.44
391.86	188.44
392.085	182.44
392.31	195.44
392.534	186.44
392.759	194.44
392.984	183.44
393.208	178.44
393.433	183.44
393.658	183.44
393.882	187.44
394.107	183.44
394.331	190.44
394.556	185.44
394.78	188.44
395.005	193.44
395.229	181.44
395.454	181.44
395.678	207.44
395.903	191.44
396.127	205.44
396.352	204.44
396.576	200.44
396.801	197.44
397.025	193.44
397.249	206.44
397.474	205.44
397.698	207.44
397.922	202.44
398.147	197.44
398.371	212.44
398.595	208.44
398.82	230.44
399.044	252.44
399.268	256.44
399.492	299.44
399.717	309.44
399.941	277.44
400.165	267.44
400.389	263.44
400.613	243.44
400.837	236.44
401.062	238.44
401.286	230.44
401.51	223.44
401.734	223.44
401.958	242.44
402.182	242.44
402.406	240.44
402.63	267.44
402.854	240.44
403.078	248.44
403.302	258.44
403.526	277.44
403.75	271.44
403.974	270.44
404.198	264.44
404.422	264.44
404.645	273.44
404.869	266.44
405.093	267.44
405.317	278.44
405.541	274.44
405.765	261.44
405.988	283.44
406.212	276.44
406.436	270.44
406.66	269.44
406.883	288.44
407.107	288.44
407.331	293.44
407.555	293.44
407.778	290.44
408.002	298.44
408.226	279.44
408.449	282.44
408.673	280.44
408.896	281.44
409.12	291.44
409.344	288.44
409.567	280.44
409.791	289.44
410.014	302.44
410.238	272.44
410.461	271.44
410.685	278.44
410.908	276.44
411.132	289.44
411.355	275.44
411.578	284.44
411.802	268.44
412.025	285.44
412.249	273.44
412.472	278.44
412.695	278.44
412.919	259.44
413.142	270.44
413.365	273.44
413.589	269.44
413.812	281.44
414.035	284.44
414.258	283.44
414.482	281.44
414.705	256.44
414.928	273.44
415.151	274.44
415.374	270.44
415.597	252.44
415.821	257.44
416.044	261.44
416.267	268.44
416.49	268.44
416.713	256.44
416.936	276.44
417.159	282.44
417.382	271.44
417.605	272.44
417.828	268.44
418.051	273.44
418.274	277.44
418.497	280.44
418.72	290.44
418.943	293.44
419.166	307.44
419.389	306.44
419.611	296.44
419.834	304.44
420.057	282.44
420.28	291.44
420.503	272.44
420.726	290.44
420.948	279.44
421.171	275.44
421.394	280.44
421.617	267.44
421.839	301.44
422.062	290.44
422.285	286.44
422.507	289.44
422.73	272.44
422.953	304.44
423.175	286.44
423.398	304.44
423.621	287.44
423.843	289.44
424.066	312.44
424.288	310.44
424.511	302.44
424.733	312.44
424.956	294.44
425.178	282.44
425.401	273.44
425.623	284.44
425.846	276.44
426.068	273.44
426.291	279.44
426.513	279.44
426.735	281.44
426.958	260.44
427.18	268.44
427.402	276.44
427.625	265.44
427.847	266.44
428.069	281.44
428.292	271.44
428.514	270.44
428.736	268.44
428.958	256.44
429.181	266.44
429.403	276.44
429.625	253.44
429.847	272.44
430.069	253.44
430.292	270.44
430.514	253.44
430.736	257.44
430.958	270.44
431.18	271.44
431.402	240.44
431.624	237.44
431.846	229.44
432.068	225.44
432.29	226.44
432.512	255.44
432.734	248.44
432.956	252.44
433.178	267.44
433.4	278.44
433.622	290.44
433.844	272.44
434.066	244.44
434.287	240.44
434.509	235.44
434.731	243.44
434.953	262.44
435.175	277.44
435.397	274.44
435.618	249.44
435.84	232.44
436.062	241.44
436.284	254.44
436.505	257.44
436.727	272.44
436.949	281.44
437.17	264.44
437.392	269.44
437.614	246.44
437.835	250.44
438.057	228.44
438.278	261.44
438.5	251.44
438.721	264.44
438.943	264.44
439.165	266.44
439.386	285.44
439.608	263.44
439.829	280.44
440.05	270.44
440.272	287.44
440.493	270.44
440.715	286.44
440.936	307.44
441.158	307.44
441.379	300.44
441.6	301.44
441.822	283.44
442.043	314.44
442.264	291.44
442.486	286.44
442.707	267.44
442.928	293.44
443.149	296.44
443.371	302.44
443.592	281.44
443.813	289.44
444.034	294.44
444.255	317.44
444.476	300.44
444.698	322.44
444.919	349.44
445.14	497.44
445.361	393.44
445.582	317.44
445.803	288.44
446.024	271.44
446.245	294.44
446.466	287.44
446.687	295.44
446.908	285.44
447.129	282.44
447.35	278.44
447.571	283.44
447.792	252.44
448.013	266.44
448.234	268.44
448.455	260.44
448.675	269.44
448.896	263.44
449.117	272.44
449.338	252.44
449.559	266.44
449.779	268.44
450	251.44
450.221	264.44
450.442	254.44
450.662	246.44
450.883	256.44
451.104	267.44
451.324	233.44
451.545	247.44
451.766	238.44
451.986	245.44
452.207	256.44
452.428	250.44
452.648	246.44
452.869	240.44
453.089	226.44
453.31	198.44
453.53	223.44
453.751	204.44
453.971	223.44
454.192	214.44
454.412	235.44
454.633	214.44
454.853	223.44
455.073	233.44
455.294	235.44
455.514	241.44
455.734	244.44
455.955	230.44
456.175	232.44
456.395	224.44
456.616	225.44
456.836	207.44
457.056	218.44
457.276	206.44
457.497	197.44
457.717	216.44
457.937	229.44
458.157	231.44
458.377	210.44
458.598	204.44
458.818	209.44
459.038	216.44
459.258	210.44
459.478	215.44
459.698	229.44
459.918	245.44
460.138	244.44
460.358	250.44
460.578	264.44
460.798	278.44
461.018	270.44
461.238	278.44
461.458	267.44
461.678	256.44
461.898	257.44
462.118	289.44
462.338	289.44
462.558	294.44
462.777	285.44
462.997	312.44
463.217	326.44
463.437	312.44
463.657	297.44
463.876	295.44
464.096	314.44
464.316	312.44
464.536	293.44
464.755	287.44
464.975	275.44
465.195	276.44
465.414	257.44
465.634	252.44
465.854	255.44
466.073	255.44
466.293	253.44
466.512	245.44
466.732	233.44
466.951	258.44
467.171	260.44
467.391	262.44
467.61	245.44
467.829	239.44
468.049	247.44
468.268	225.44
468.488	253.44
468.707	206.44
468.927	256.44
469.146	257.44
469.365	274.44
469.585	256.44
469.804	270.44
470.023	262.44
470.243	294.44
470.462	285.44
470.681	265.44
470.901	269.44
471.12	269.44
471.339	276.44
471.558	245.44
471.777	258.44
471.997	250.44
472.216	239.44
472.435	237.44
472.654	201.44
472.873	227.44
473.092	242.44
473.311	234.44
473.53	246.44
473.749	254.44
473.968	253.44
474.187	229.44
474.406	230.44
474.625	240.44
474.844	255.44
475.063	243.44
475.282	235.44
475.501	228.44
475.72	246.44
475.939	226.44
476.158	232.44
476.377	237.44
476.596	237.44
476.814	231.44
477.033	222.44
477.252	232.44
477.471	246.44
477.69	249.44
477.908	289.44
478.127	284.44
478.346	274.44
478.564	268.44
478.783	278.44
479.002	289.44
479.22	270.44
479.439	278.44
479.658	277.44
479.876	241.44
480.095	264.44
480.313	254.44
480.532	270.44
480.751	267.44
480.969	242.44
481.188	236.44
481.406	236.44
481.624	226.44
481.843	209.44
482.061	233.44
482.28	249.44
482.498	244.44
482.717	225.44
482.935	262.44
483.153	288.44
483.372	281.44
483.59	271.44
483.808	282.44
484.027	249.44
484.245	246.44
484.463	258.44
484.681	274.44
484.9	267.44
485.118	283.44
485.336	241.44
485.554	254.44
485.772	239.44
485.99	246.44
486.209	242.44
486.427	249.44
486.645	263.44
486.863	284.44
487.081	283.44
487.299	269.44
487.517	293.44
487.735	295.44
487.953	326.44
488.171	309.44
488.389	315.44
488.607	290.44
488.825	263.44
489.043	267.44
489.261	261.44
489.479	258.44
489.696	284.44
489.914	287.44
490.132	296.44
490.35	308.44
490.568	309.44
490.786	289.44
491.003	316.44
491.221	335.44
491.439	336.44
491.657	334.44
491.874	357.44
492.092	380.44
492.31	401.44
492.527	365.44
492.745	343.44
492.963	362.44
493.18	350.44
493.398	342.44
493.615	344.44
493.833	345.44
494.05	336.44
494.268	317.44
494.485	322.44
494.703	328.44
494.92	324.44
495.138	341.44
495.355	341.44
495.573	334.44
495.79	340.44
496.008	317.44
496.225	333.44
496.442	335.44
496.66	330.44
496.877	321.44
497.094	336.44
497.312	336.44
497.529	337.44
497.746	319.44
497.963	313.44
498.181	318.44
498.398	313.44
498.615	338.44
498.832	336.44
499.049	364.44
499.267	403.44
499.484	421.44
499.701	472.44
499.918	513.44
500.135	556.44
500.352	646.44
500.569	631.44
500.786	644.44
501.003	594.44
501.22	529.44
501.437	497.44
501.654	428.44
501.871	391.44
502.088	359.44
502.305	357.44
502.522	347.44
502.739	339.44
502.956	326.44
503.172	309.44
503.389	278.44
503.606	292.44
503.823	297.44
504.04	296.44
504.256	295.44
504.473	298.44
504.69	312.44
