Data from SampA_HRD10591_00073.txt Node
Date: Mon Jan 19 11:27:11 EST 2026
User: Yrep
Spectrometer: HR+D1059
Trigger mode: 0
Integration Time (sec): 3.443000E-1
Scans to average: 1
Electric dark correction enabled: true
Nonlinearity correction enabled: false
Boxcar width: 0
XAxis mode: Wavelengths
Number of Pixels in Spectrum: 2048
>>>>>Begin Spectral Data<<<<<
223.165	-25.12
223.4	-25.12
223.635	-25.12
223.869	-32.12
224.104	-28.12
224.338	-18.12
224.573	-10.12
224.808	-11.12
225.042	6.88
225.277	-8.12
225.511	-2.12
225.746	14.88
225.98	13.88
226.215	14.88
226.449	18.88
226.683	10.88
226.918	25.88
227.152	28.88
227.387	34.88
227.621	35.88
227.856	60.88
228.09	51.88
228.324	53.88
228.559	63.88
228.793	68.88
229.027	65.88
229.262	65.88
229.496	65.88
229.73	76.88
229.964	62.88
230.199	65.88
230.433	78.88
230.667	93.88
230.901	98.88
231.136	83.88
231.37	86.88
231.604	81.88
231.838	93.88
232.072	86.88
232.306	75.88
232.541	95.88
232.775	82.88
233.009	91.88
233.243	86.88
233.477	81.88
233.711	100.88
233.945	94.88
234.179	85.88
234.413	93.88
234.647	93.88
234.881	85.88
235.115	80.88
235.349	78.88
235.583	79.88
235.817	86.88
236.051	77.88
236.285	82.88
236.519	86.88
236.753	74.88
236.987	81.88
237.221	60.88
237.455	81.88
237.689	95.88
237.922	97.88
238.156	87.88
238.39	79.88
238.624	88.88
238.858	91.88
239.091	87.88
239.325	78.88
239.559	93.88
239.793	88.88
240.027	107.88
240.26	84.88
240.494	102.88
240.728	78.88
240.961	83.88
241.195	87.88
241.429	90.88
241.662	90.88
241.896	90.88
242.13	99.88
242.363	87.88
242.597	77.88
242.83	93.88
243.064	93.88
243.298	90.88
243.531	79.88
243.765	88.88
243.998	85.88
244.232	85.88
244.465	91.88
244.699	99.88
244.932	94.88
245.166	93.88
245.399	87.88
245.633	101.88
245.866	101.88
246.099	88.88
246.333	84.88
246.566	109.88
246.8	96.88
247.033	91.88
247.266	87.88
247.5	76.88
247.733	98.88
247.966	104.88
248.2	78.88
248.433	88.88
248.666	96.88
248.899	101.88
249.133	102.88
249.366	100.88
249.599	78.88
249.832	82.88
250.066	82.88
250.299	91.88
250.532	96.88
250.765	87.88
250.998	89.88
251.231	87.88
251.465	93.88
251.698	90.88
251.931	111.88
252.164	99.88
252.397	93.88
252.63	99.88
252.863	96.88
253.096	100.88
253.329	94.88
253.562	112.88
253.795	113.88
254.028	97.88
254.261	103.88
254.494	107.88
254.727	99.88
254.96	101.88
255.193	103.88
255.426	92.88
255.659	87.88
255.892	105.88
256.124	106.88
256.357	116.88
256.59	100.88
256.823	109.88
257.056	124.88
257.289	96.88
257.521	93.88
257.754	100.88
257.987	93.88
258.22	114.88
258.452	117.88
258.685	98.88
258.918	95.88
259.151	100.88
259.383	117.88
259.616	105.88
259.849	99.88
260.081	100.88
260.314	107.88
260.547	94.88
260.779	116.88
261.012	111.88
261.244	114.88
261.477	113.88
261.71	104.88
261.942	120.88
262.175	104.88
262.407	99.88
262.64	96.88
262.872	90.88
263.105	106.88
263.337	101.88
263.57	101.88
263.802	119.88
264.035	107.88
264.267	104.88
264.499	102.88
264.732	113.88
264.964	108.88
265.197	120.88
265.429	109.88
265.661	113.88
265.894	116.88
266.126	105.88
266.358	123.88
266.591	111.88
266.823	114.88
267.055	103.88
267.287	116.88
267.52	115.88
267.752	114.88
267.984	105.88
268.216	111.88
268.448	119.88
268.681	116.88
268.913	114.88
269.145	96.88
269.377	113.88
269.609	102.88
269.841	120.88
270.073	116.88
270.306	118.88
270.538	112.88
270.77	109.88
271.002	114.88
271.234	115.88
271.466	134.88
271.698	113.88
271.93	121.88
272.162	117.88
272.394	115.88
272.626	102.88
272.858	114.88
273.09	109.88
273.322	116.88
273.553	117.88
273.785	123.88
274.017	121.88
274.249	111.88
274.481	124.88
274.713	134.88
274.945	112.88
275.176	127.88
275.408	116.88
275.64	117.88
275.872	124.88
276.104	127.88
276.335	116.88
276.567	126.88
276.799	126.88
277.031	132.88
277.262	124.88
277.494	123.88
277.726	130.88
277.957	122.88
278.189	116.88
278.421	118.88
278.652	123.88
278.884	126.88
279.115	134.88
279.347	123.88
279.579	122.88
279.81	118.88
280.042	137.88
280.273	120.88
280.505	120.88
280.736	120.88
280.968	125.88
281.199	121.88
281.431	124.88
281.662	122.88
281.894	150.88
282.125	136.88
282.356	128.88
282.588	136.88
282.819	147.88
283.051	130.88
283.282	129.88
283.513	127.88
283.745	136.88
283.976	142.88
284.207	141.88
284.439	133.88
284.67	127.88
284.901	135.88
285.132	126.88
285.364	122.88
285.595	137.88
285.826	131.88
286.057	134.88
286.288	134.88
286.52	133.88
286.751	129.88
286.982	134.88
287.213	147.88
287.444	141.88
287.675	125.88
287.906	129.88
288.138	105.88
288.369	149.88
288.6	133.88
288.831	130.88
289.062	152.88
289.293	125.88
289.524	128.88
289.755	145.88
289.986	144.88
290.217	131.88
290.448	147.88
290.679	146.88
290.91	136.88
291.141	127.88
291.371	134.88
291.602	135.88
291.833	136.88
292.064	142.88
292.295	154.88
292.526	146.88
292.757	138.88
292.987	130.88
293.218	133.88
293.449	152.88
293.68	136.88
293.91	130.88
294.141	147.88
294.372	141.88
294.603	125.88
294.833	147.88
295.064	151.88
295.295	142.88
295.525	144.88
295.756	135.88
295.987	148.88
296.217	149.88
296.448	134.88
296.679	145.88
296.909	146.88
297.14	162.88
297.37	159.88
297.601	158.88
297.831	157.88
298.062	157.88
298.292	158.88
298.523	142.88
298.753	144.88
298.984	157.88
299.214	148.88
299.445	137.88
299.675	155.88
299.905	167.88
300.136	140.88
300.366	153.88
300.597	162.88
300.827	152.88
301.057	158.88
301.288	147.88
301.518	153.88
301.748	146.88
301.979	193.88
302.209	141.88
302.439	140.88
302.669	158.88
302.9	146.88
303.13	171.88
303.36	136.88
303.59	159.88
303.82	169.88
304.051	158.88
304.281	167.88
304.511	164.88
304.741	154.88
304.971	146.88
305.201	160.88
305.431	147.88
305.661	162.88
305.891	147.88
306.121	141.88
306.352	151.88
306.582	158.88
306.812	162.88
307.042	135.88
307.272	155.88
307.502	162.88
307.731	143.88
307.961	159.88
308.191	148.88
308.421	153.88
308.651	172.88
308.881	145.88
309.111	157.88
309.341	134.88
309.571	138.88
309.8	168.88
310.03	143.88
310.26	148.88
310.49	149.88
310.72	138.88
310.949	163.88
311.179	157.88
311.409	162.88
311.639	151.88
311.868	156.88
312.098	150.88
312.328	149.88
312.557	168.88
312.787	160.88
313.017	164.88
313.246	146.88
313.476	161.88
313.706	149.88
313.935	156.88
314.165	155.88
314.394	159.88
314.624	157.88
314.853	167.88
315.083	168.88
315.312	154.88
315.542	161.88
315.771	155.88
316.001	155.88
316.23	169.88
316.46	168.88
316.689	158.88
316.919	159.88
317.148	164.88
317.377	158.88
317.607	158.88
317.836	159.88
318.065	161.88
318.295	157.88
318.524	151.88
318.753	160.88
318.983	154.88
319.212	167.88
319.441	150.88
319.67	169.88
319.9	165.88
320.129	157.88
320.358	140.88
320.587	155.88
320.816	149.88
321.046	156.88
321.275	152.88
321.504	165.88
321.733	165.88
321.962	149.88
322.191	150.88
322.42	166.88
322.649	160.88
322.878	181.88
323.108	151.88
323.337	163.88
323.566	158.88
323.795	163.88
324.024	160.88
324.253	161.88
324.482	155.88
324.71	174.88
324.939	156.88
325.168	157.88
325.397	158.88
325.626	164.88
325.855	149.88
326.084	177.88
326.313	172.88
326.542	157.88
326.77	185.88
326.999	150.88
327.228	158.88
327.457	164.88
327.686	172.88
327.914	157.88
328.143	166.88
328.372	165.88
328.6	163.88
328.829	178.88
329.058	165.88
329.287	170.88
329.515	159.88
329.744	165.88
329.972	169.88
330.201	179.88
330.43	163.88
330.658	167.88
330.887	171.88
331.115	173.88
331.344	168.88
331.572	196.88
331.801	180.88
332.03	185.88
332.258	183.88
332.486	187.88
332.715	175.88
332.943	180.88
333.172	217.88
333.4	196.88
333.629	211.88
333.857	206.88
334.085	205.88
334.314	188.88
334.542	184.88
334.771	198.88
334.999	196.88
335.227	195.88
335.455	193.88
335.684	195.88
335.912	197.88
336.14	177.88
336.369	193.88
336.597	196.88
336.825	180.88
337.053	182.88
337.281	189.88
337.51	181.88
337.738	200.88
337.966	173.88
338.194	191.88
338.422	151.88
338.65	178.88
338.878	188.88
339.106	170.88
339.334	180.88
339.562	172.88
339.79	172.88
340.018	170.88
340.246	158.88
340.474	181.88
340.702	172.88
340.93	173.88
341.158	164.88
341.386	157.88
341.614	184.88
341.842	162.88
342.07	156.88
342.298	172.88
342.526	171.88
342.754	181.88
342.981	177.88
343.209	179.88
343.437	214.88
343.665	203.88
343.893	209.88
344.12	222.88
344.348	194.88
344.576	200.88
344.804	169.88
345.031	180.88
345.259	172.88
345.487	180.88
345.714	183.88
345.942	174.88
346.17	179.88
346.397	182.88
346.625	176.88
346.853	164.88
347.08	167.88
347.308	165.88
347.535	180.88
347.763	174.88
347.99	158.88
348.218	173.88
348.445	170.88
348.673	172.88
348.9	169.88
349.128	185.88
349.355	187.88
349.583	165.88
349.81	168.88
350.037	151.88
350.265	179.88
350.492	172.88
350.72	169.88
350.947	162.88
351.174	169.88
351.402	181.88
351.629	171.88
351.856	178.88
352.083	166.88
352.311	166.88
352.538	158.88
352.765	177.88
352.992	184.88
353.22	167.88
353.447	170.88
353.674	157.88
353.901	165.88
354.128	185.88
354.355	156.88
354.583	162.88
354.81	172.88
355.037	181.88
355.264	178.88
355.491	181.88
355.718	166.88
355.945	165.88
356.172	159.88
356.399	158.88
356.626	168.88
356.853	171.88
357.08	170.88
357.307	175.88
357.534	172.88
357.761	169.88
357.988	167.88
358.215	170.88
358.441	159.88
358.668	151.88
358.895	174.88
359.122	164.88
359.349	169.88
359.576	181.88
359.802	159.88
360.029	169.88
360.256	181.88
360.483	159.88
360.709	167.88
360.936	179.88
361.163	178.88
361.39	182.88
361.616	177.88
361.843	178.88
362.07	178.88
362.296	191.88
362.523	171.88
362.749	167.88
362.976	169.88
363.203	179.88
363.429	170.88
363.656	166.88
363.882	164.88
364.109	175.88
364.335	173.88
364.562	164.88
364.788	162.88
365.015	179.88
365.241	183.88
365.468	167.88
365.694	152.88
365.92	159.88
366.147	158.88
366.373	175.88
366.599	177.88
366.826	178.88
367.052	178.88
367.278	164.88
367.505	174.88
367.731	183.88
367.957	165.88
368.184	177.88
368.41	174.88
368.636	182.88
368.862	181.88
369.089	172.88
369.315	169.88
369.541	177.88
369.767	175.88
369.993	196.88
370.219	151.88
370.445	164.88
370.672	177.88
370.898	179.88
371.124	177.88
371.35	187.88
371.576	197.88
371.802	188.88
372.028	181.88
372.254	169.88
372.48	189.88
372.706	191.88
372.932	179.88
373.158	175.88
373.384	206.88
373.61	185.88
373.835	180.88
374.061	171.88
374.287	173.88
374.513	187.88
374.739	177.88
374.965	187.88
375.191	188.88
375.416	186.88
375.642	178.88
375.868	193.88
376.094	210.88
376.319	178.88
376.545	185.88
376.771	196.88
376.997	185.88
377.222	181.88
377.448	178.88
377.674	172.88
377.899	175.88
378.125	174.88
378.35	172.88
378.576	181.88
378.802	185.88
379.027	195.88
379.253	193.88
379.478	191.88
379.704	185.88
379.929	186.88
380.155	165.88
380.38	180.88
380.606	172.88
380.831	188.88
381.057	193.88
381.282	186.88
381.507	177.88
381.733	182.88
381.958	179.88
382.184	190.88
382.409	191.88
382.634	196.88
382.86	203.88
383.085	202.88
383.31	210.88
383.535	210.88
383.761	216.88
383.986	202.88
384.211	210.88
384.436	205.88
384.662	181.88
384.887	209.88
385.112	211.88
385.337	210.88
385.562	215.88
385.787	218.88
386.013	227.88
386.238	223.88
386.463	211.88
386.688	242.88
386.913	219.88
387.138	204.88
387.363	227.88
387.588	225.88
387.813	207.88
388.038	196.88
388.263	203.88
388.488	205.88
388.713	225.88
388.938	210.88
389.163	207.88
389.387	216.88
389.612	203.88
389.837	215.88
390.062	222.88
390.287	206.88
390.512	216.88
390.736	226.88
390.961	222.88
391.186	215.88
391.411	245.88
391.636	238.88
391.86	235.88
392.085	236.88
392.31	228.88
392.534	226.88
392.759	240.88
392.984	222.88
393.208	211.88
393.433	234.88
393.658	224.88
393.882	217.88
394.107	245.88
394.331	245.88
394.556	227.88
394.78	251.88
395.005	210.88
395.229	250.88
395.454	249.88
395.678	264.88
395.903	253.88
396.127	248.88
396.352	247.88
396.576	231.88
396.801	240.88
397.025	245.88
397.249	248.88
397.474	253.88
397.698	224.88
397.922	268.88
398.147	269.88
398.371	253.88
398.595	274.88
398.82	271.88
399.044	283.88
399.268	327.88
399.492	364.88
399.717	386.88
399.941	373.88
400.165	334.88
400.389	318.88
400.613	290.88
400.837	300.88
401.062	274.88
401.286	289.88
401.51	294.88
401.734	274.88
401.958	291.88
402.182	277.88
402.406	304.88
402.63	320.88
402.854	313.88
403.078	302.88
403.302	307.88
403.526	323.88
403.75	305.88
403.974	322.88
404.198	319.88
404.422	336.88
404.645	350.88
404.869	307.88
405.093	325.88
405.317	319.88
405.541	325.88
405.765	313.88
405.988	313.88
406.212	338.88
406.436	334.88
406.66	326.88
406.883	332.88
407.107	332.88
407.331	358.88
407.555	363.88
407.778	358.88
408.002	343.88
408.226	364.88
408.449	335.88
408.673	322.88
408.896	350.88
409.12	341.88
409.344	350.88
409.567	343.88
409.791	337.88
410.014	363.88
410.238	346.88
410.461	353.88
410.685	340.88
410.908	325.88
411.132	343.88
411.355	329.88
411.578	349.88
411.802	314.88
412.025	314.88
412.249	321.88
412.472	329.88
412.695	328.88
412.919	322.88
413.142	323.88
413.365	328.88
413.589	333.88
413.812	325.88
414.035	343.88
414.258	338.88
414.482	308.88
414.705	328.88
414.928	332.88
415.151	316.88
415.374	321.88
415.597	324.88
415.821	337.88
416.044	337.88
416.267	323.88
416.49	325.88
416.713	325.88
416.936	332.88
417.159	321.88
417.382	305.88
417.605	299.88
417.828	326.88
418.051	337.88
418.274	335.88
418.497	324.88
418.72	331.88
418.943	338.88
419.166	357.88
419.389	358.88
419.611	351.88
419.834	356.88
420.057	352.88
420.28	333.88
420.503	317.88
420.726	328.88
420.948	333.88
421.171	331.88
421.394	314.88
421.617	324.88
421.839	348.88
422.062	334.88
422.285	342.88
422.507	331.88
422.73	351.88
422.953	338.88
423.175	340.88
423.398	339.88
423.621	318.88
423.843	352.88
424.066	363.88
424.288	351.88
424.511	351.88
424.733	343.88
424.956	329.88
425.178	316.88
425.401	313.88
425.623	335.88
425.846	315.88
426.068	309.88
426.291	321.88
426.513	301.88
426.735	323.88
426.958	334.88
427.18	316.88
427.402	299.88
427.625	317.88
427.847	297.88
428.069	294.88
428.292	315.88
428.514	319.88
428.736	313.88
428.958	305.88
429.181	313.88
429.403	294.88
429.625	274.88
429.847	286.88
430.069	292.88
430.292	279.88
430.514	298.88
430.736	299.88
430.958	301.88
431.18	294.88
431.402	298.88
431.624	286.88
431.846	285.88
432.068	267.88
432.29	275.88
432.512	293.88
432.734	297.88
432.956	301.88
433.178	322.88
433.4	312.88
433.622	306.88
433.844	302.88
434.066	285.88
434.287	271.88
434.509	276.88
434.731	297.88
434.953	292.88
435.175	330.88
435.397	325.88
435.618	305.88
435.84	278.88
436.062	287.88
436.284	303.88
436.505	292.88
436.727	299.88
436.949	303.88
437.17	298.88
437.392	294.88
437.614	288.88
437.835	273.88
438.057	271.88
438.278	279.88
438.5	284.88
438.721	290.88
438.943	295.88
439.165	311.88
439.386	302.88
439.608	313.88
439.829	296.88
440.05	331.88
440.272	319.88
440.493	327.88
440.715	324.88
440.936	325.88
441.158	310.88
441.379	330.88
441.6	346.88
441.822	340.88
442.043	342.88
442.264	324.88
442.486	334.88
442.707	333.88
442.928	320.88
443.149	337.88
443.371	335.88
443.592	323.88
443.813	334.88
444.034	356.88
444.255	351.88
444.476	361.88
444.698	395.88
444.919	385.88
445.14	598.88
445.361	469.88
445.582	364.88
445.803	334.88
446.024	321.88
446.245	327.88
446.466	329.88
446.687	300.88
446.908	324.88
447.129	310.88
447.35	309.88
447.571	338.88
447.792	317.88
448.013	301.88
448.234	291.88
448.455	286.88
448.675	293.88
448.896	289.88
449.117	297.88
449.338	303.88
449.559	287.88
449.779	278.88
450	290.88
450.221	295.88
450.442	286.88
450.662	297.88
450.883	285.88
451.104	313.88
451.324	302.88
451.545	284.88
451.766	282.88
451.986	288.88
452.207	291.88
452.428	277.88
452.648	285.88
452.869	260.88
453.089	262.88
453.31	265.88
453.53	258.88
453.751	263.88
453.971	236.88
454.192	267.88
454.412	250.88
454.633	251.88
454.853	273.88
455.073	261.88
455.294	282.88
455.514	279.88
455.734	281.88
455.955	258.88
456.175	257.88
456.395	258.88
456.616	250.88
456.836	247.88
457.056	257.88
457.276	237.88
457.497	247.88
457.717	236.88
457.937	229.88
458.157	241.88
458.377	237.88
458.598	253.88
458.818	232.88
459.038	250.88
459.258	259.88
459.478	265.88
459.698	283.88
459.918	305.88
460.138	296.88
460.358	305.88
460.578	333.88
460.798	333.88
461.018	336.88
461.238	318.88
461.458	337.88
461.678	311.88
461.898	335.88
462.118	323.88
462.338	334.88
462.558	333.88
462.777	360.88
462.997	378.88
463.217	413.88
463.437	377.88
463.657	349.88
463.876	365.88
464.096	351.88
464.316	347.88
464.536	338.88
464.755	349.88
464.975	331.88
465.195	325.88
465.414	305.88
465.634	287.88
465.854	295.88
466.073	294.88
466.293	300.88
466.512	301.88
466.732	289.88
466.951	300.88
467.171	296.88
467.391	304.88
467.61	291.88
467.829	297.88
468.049	287.88
468.268	296.88
468.488	273.88
468.707	299.88
468.927	287.88
469.146	301.88
469.365	311.88
469.585	299.88
469.804	301.88
470.023	315.88
470.243	318.88
470.462	330.88
470.681	323.88
470.901	311.88
471.12	322.88
471.339	306.88
471.558	296.88
471.777	292.88
471.997	297.88
472.216	278.88
472.435	275.88
472.654	266.88
472.873	262.88
473.092	269.88
473.311	268.88
473.53	272.88
473.749	287.88
473.968	293.88
474.187	277.88
474.406	267.88
474.625	279.88
474.844	294.88
475.063	286.88
475.282	279.88
475.501	259.88
475.72	273.88
475.939	275.88
476.158	285.88
476.377	293.88
476.596	278.88
476.814	292.88
477.033	279.88
477.252	277.88
477.471	279.88
477.69	313.88
477.908	333.88
478.127	331.88
478.346	331.88
478.564	315.88
478.783	318.88
479.002	342.88
479.22	327.88
479.439	329.88
479.658	325.88
479.876	297.88
480.095	319.88
480.313	326.88
480.532	333.88
480.751	331.88
480.969	293.88
481.188	265.88
481.406	282.88
481.624	277.88
481.843	263.88
482.061	284.88
482.28	302.88
482.498	282.88
482.717	271.88
482.935	292.88
483.153	327.88
483.372	315.88
483.59	327.88
483.808	313.88
484.027	287.88
484.245	308.88
484.463	325.88
484.681	347.88
484.9	328.88
485.118	282.88
485.336	319.88
485.554	313.88
485.772	317.88
485.99	287.88
486.209	291.88
486.427	302.88
486.645	307.88
486.863	326.88
487.081	325.88
487.299	332.88
487.517	343.88
487.735	362.88
487.953	377.88
488.171	373.88
488.389	350.88
488.607	326.88
488.825	307.88
489.043	312.88
489.261	329.88
489.479	318.88
489.696	335.88
489.914	346.88
490.132	332.88
490.35	333.88
490.568	342.88
490.786	354.88
491.003	363.88
491.221	366.88
491.439	366.88
491.657	381.88
491.874	410.88
492.092	419.88
492.31	430.88
492.527	404.88
492.745	409.88
492.963	392.88
493.18	388.88
493.398	407.88
493.615	402.88
493.833	379.88
494.05	391.88
494.268	375.88
494.485	376.88
494.703	365.88
494.92	376.88
495.138	384.88
495.355	370.88
495.573	397.88
495.79	361.88
496.008	389.88
496.225	375.88
496.442	367.88
496.66	396.88
496.877	369.88
497.094	390.88
497.312	356.88
497.529	375.88
497.746	385.88
497.963	387.88
498.181	377.88
498.398	366.88
498.615	400.88
498.832	401.88
499.049	484.88
499.267	494.88
499.484	530.88
499.701	592.88
499.918	619.88
500.135	723.88
500.352	795.88
500.569	799.88
500.786	777.88
501.003	692.88
501.22	668.88
501.437	579.88
501.654	551.88
501.871	523.88
502.088	463.88
502.305	427.88
502.522	443.88
502.739	407.88
502.956	373.88
503.172	395.88
503.389	373.88
503.606	371.88
503.823	359.88
504.04	375.88
504.256	351.88
