Data from SampA_HRD10591_00093.txt Node
Date: Mon Jan 19 11:27:18 EST 2026
User: Yrep
Spectrometer: HR+D1059
Trigger mode: 0
Integration Time (sec): 3.443000E-1
Scans to average: 1
Electric dark correction enabled: true
Nonlinearity correction enabled: false
Boxcar width: 0
XAxis mode: Wavelengths
Number of Pixels in Spectrum: 2048
>>>>>Begin Spectral Data<<<<<
223.165	-13.44
223.4	-13.44
223.635	-13.44
223.869	-26.44
224.104	-21.44
224.338	-20.44
224.573	-1.44
224.808	-15.44
225.042	0.56
225.277	-13.44
225.511	-2.44
225.746	7.56
225.98	9.56
226.215	11.56
226.449	10.56
226.683	23.56
226.918	30.56
227.152	20.56
227.387	38.56
227.621	39.56
227.856	50.56
228.09	53.56
228.324	40.56
228.559	55.56
228.793	57.56
229.027	73.56
229.262	72.56
229.496	55.56
229.73	75.56
229.964	71.56
230.199	83.56
230.433	104.56
230.667	92.56
230.901	79.56
231.136	72.56
231.37	96.56
231.604	83.56
231.838	91.56
232.072	77.56
232.306	77.56
232.541	94.56
232.775	75.56
233.009	77.56
233.243	86.56
233.477	87.56
233.711	91.56
233.945	81.56
234.179	85.56
234.413	80.56
234.647	89.56
234.881	85.56
235.115	86.56
235.349	76.56
235.583	100.56
235.817	73.56
236.051	85.56
236.285	71.56
236.519	79.56
236.753	81.56
236.987	80.56
237.221	93.56
237.455	80.56
237.689	76.56
237.922	80.56
238.156	84.56
238.39	83.56
238.624	81.56
238.858	84.56
239.091	87.56
239.325	86.56
239.559	71.56
239.793	70.56
240.027	80.56
240.26	85.56
240.494	83.56
240.728	94.56
240.961	91.56
241.195	89.56
241.429	92.56
241.662	90.56
241.896	82.56
242.13	85.56
242.363	87.56
242.597	85.56
242.83	92.56
243.064	86.56
243.298	81.56
243.531	84.56
243.765	97.56
243.998	88.56
244.232	108.56
244.465	81.56
244.699	72.56
244.932	89.56
245.166	91.56
245.399	91.56
245.633	92.56
245.866	77.56
246.099	78.56
246.333	87.56
246.566	91.56
246.8	73.56
247.033	83.56
247.266	81.56
247.5	84.56
247.733	84.56
247.966	84.56
248.2	78.56
248.433	87.56
248.666	85.56
248.899	96.56
249.133	99.56
249.366	96.56
249.599	88.56
249.832	92.56
250.066	90.56
250.299	91.56
250.532	107.56
250.765	84.56
250.998	100.56
251.231	102.56
251.465	83.56
251.698	92.56
251.931	87.56
252.164	70.56
252.397	84.56
252.63	105.56
252.863	98.56
253.096	77.56
253.329	95.56
253.562	104.56
253.795	92.56
254.028	109.56
254.261	87.56
254.494	89.56
254.727	100.56
254.96	100.56
255.193	98.56
255.426	91.56
255.659	87.56
255.892	106.56
256.124	92.56
256.357	88.56
256.59	90.56
256.823	103.56
257.056	96.56
257.289	86.56
257.521	103.56
257.754	101.56
257.987	95.56
258.22	114.56
258.452	97.56
258.685	91.56
258.918	108.56
259.151	93.56
259.383	91.56
259.616	109.56
259.849	77.56
260.081	99.56
260.314	101.56
260.547	88.56
260.779	110.56
261.012	87.56
261.244	107.56
261.477	112.56
261.71	90.56
261.942	105.56
262.175	96.56
262.407	97.56
262.64	96.56
262.872	97.56
263.105	97.56
263.337	105.56
263.57	82.56
263.802	112.56
264.035	100.56
264.267	75.56
264.499	102.56
264.732	107.56
264.964	99.56
265.197	103.56
265.429	101.56
265.661	95.56
265.894	103.56
266.126	116.56
266.358	102.56
266.591	95.56
266.823	99.56
267.055	99.56
267.287	106.56
267.52	107.56
267.752	116.56
267.984	118.56
268.216	109.56
268.448	108.56
268.681	112.56
268.913	105.56
269.145	105.56
269.377	116.56
269.609	112.56
269.841	104.56
270.073	110.56
270.306	97.56
270.538	105.56
270.77	93.56
271.002	103.56
271.234	97.56
271.466	112.56
271.698	94.56
271.93	91.56
272.162	107.56
272.394	110.56
272.626	100.56
272.858	114.56
273.09	103.56
273.322	110.56
273.553	106.56
273.785	111.56
274.017	101.56
274.249	111.56
274.481	107.56
274.713	98.56
274.945	124.56
275.176	98.56
275.408	108.56
275.64	113.56
275.872	118.56
276.104	104.56
276.335	115.56
276.567	106.56
276.799	92.56
277.031	100.56
277.262	104.56
277.494	106.56
277.726	118.56
277.957	99.56
278.189	108.56
278.421	117.56
278.652	117.56
278.884	111.56
279.115	107.56
279.347	96.56
279.579	100.56
279.81	106.56
280.042	115.56
280.273	93.56
280.505	105.56
280.736	109.56
280.968	106.56
281.199	107.56
281.431	115.56
281.662	112.56
281.894	118.56
282.125	124.56
282.356	123.56
282.588	113.56
282.819	92.56
283.051	120.56
283.282	117.56
283.513	120.56
283.745	121.56
283.976	103.56
284.207	111.56
284.439	113.56
284.67	125.56
284.901	111.56
285.132	109.56
285.364	126.56
285.595	127.56
285.826	123.56
286.057	133.56
286.288	117.56
286.52	133.56
286.751	112.56
286.982	116.56
287.213	116.56
287.444	117.56
287.675	119.56
287.906	120.56
288.138	135.56
288.369	120.56
288.6	114.56
288.831	108.56
289.062	126.56
289.293	120.56
289.524	113.56
289.755	116.56
289.986	117.56
290.217	101.56
290.448	120.56
290.679	119.56
290.91	117.56
291.141	119.56
291.371	123.56
291.602	124.56
291.833	115.56
292.064	120.56
292.295	123.56
292.526	123.56
292.757	118.56
292.987	103.56
293.218	114.56
293.449	118.56
293.68	123.56
293.91	125.56
294.141	142.56
294.372	117.56
294.603	127.56
294.833	123.56
295.064	122.56
295.295	120.56
295.525	113.56
295.756	128.56
295.987	112.56
296.217	118.56
296.448	121.56
296.679	96.56
296.909	139.56
297.14	116.56
297.37	116.56
297.601	108.56
297.831	116.56
298.062	113.56
298.292	125.56
298.523	126.56
298.753	125.56
298.984	148.56
299.214	117.56
299.445	125.56
299.675	120.56
299.905	137.56
300.136	133.56
300.366	114.56
300.597	147.56
300.827	123.56
301.057	127.56
301.288	131.56
301.518	125.56
301.748	133.56
301.979	175.56
302.209	117.56
302.439	141.56
302.669	131.56
302.9	144.56
303.13	135.56
303.36	121.56
303.59	128.56
303.82	128.56
304.051	119.56
304.281	118.56
304.511	133.56
304.741	128.56
304.971	103.56
305.201	133.56
305.431	136.56
305.661	122.56
305.891	135.56
306.121	142.56
306.352	129.56
306.582	121.56
306.812	122.56
307.042	126.56
307.272	125.56
307.502	136.56
307.731	126.56
307.961	117.56
308.191	116.56
308.421	119.56
308.651	129.56
308.881	127.56
309.111	123.56
309.341	119.56
309.571	134.56
309.8	126.56
310.03	129.56
310.26	130.56
310.49	118.56
310.72	125.56
310.949	124.56
311.179	121.56
311.409	132.56
311.639	137.56
311.868	129.56
312.098	131.56
312.328	129.56
312.557	135.56
312.787	134.56
313.017	123.56
313.246	133.56
313.476	123.56
313.706	144.56
313.935	140.56
314.165	132.56
314.394	130.56
314.624	130.56
314.853	137.56
315.083	128.56
315.312	111.56
315.542	118.56
315.771	133.56
316.001	127.56
316.23	126.56
316.46	136.56
316.689	126.56
316.919	138.56
317.148	127.56
317.377	134.56
317.607	135.56
317.836	125.56
318.065	138.56
318.295	133.56
318.524	131.56
318.753	122.56
318.983	124.56
319.212	137.56
319.441	127.56
319.67	117.56
319.9	138.56
320.129	126.56
320.358	119.56
320.587	125.56
320.816	124.56
321.046	124.56
321.275	149.56
321.504	125.56
321.733	121.56
321.962	125.56
322.191	130.56
322.42	119.56
322.649	145.56
322.878	144.56
323.108	122.56
323.337	145.56
323.566	147.56
323.795	137.56
324.024	142.56
324.253	144.56
324.482	133.56
324.71	142.56
324.939	133.56
325.168	122.56
325.397	140.56
325.626	145.56
325.855	118.56
326.084	134.56
326.313	139.56
326.542	152.56
326.77	143.56
326.999	118.56
327.228	125.56
327.457	126.56
327.686	145.56
327.914	150.56
328.143	153.56
328.372	130.56
328.6	134.56
328.829	132.56
329.058	137.56
329.287	137.56
329.515	125.56
329.744	141.56
329.972	152.56
330.201	149.56
330.43	144.56
330.658	147.56
330.887	136.56
331.115	149.56
331.344	141.56
331.572	157.56
331.801	140.56
332.03	139.56
332.258	158.56
332.486	154.56
332.715	152.56
332.943	156.56
333.172	155.56
333.4	149.56
333.629	171.56
333.857	160.56
334.085	181.56
334.314	167.56
334.542	158.56
334.771	150.56
334.999	161.56
335.227	155.56
335.455	151.56
335.684	153.56
335.912	159.56
336.14	159.56
336.369	150.56
336.597	148.56
336.825	141.56
337.053	149.56
337.281	159.56
337.51	151.56
337.738	165.56
337.966	127.56
338.194	143.56
338.422	140.56
338.65	155.56
338.878	158.56
339.106	134.56
339.334	153.56
339.562	157.56
339.79	155.56
340.018	141.56
340.246	132.56
340.474	140.56
340.702	148.56
340.93	157.56
341.158	138.56
341.386	144.56
341.614	128.56
341.842	132.56
342.07	147.56
342.298	138.56
342.526	127.56
342.754	123.56
342.981	153.56
343.209	145.56
343.437	182.56
343.665	157.56
343.893	161.56
344.12	166.56
344.348	152.56
344.576	147.56
344.804	149.56
345.031	146.56
345.259	133.56
345.487	139.56
345.714	139.56
345.942	145.56
346.17	140.56
346.397	157.56
346.625	134.56
346.853	132.56
347.08	148.56
347.308	151.56
347.535	134.56
347.763	138.56
347.99	142.56
348.218	126.56
348.445	154.56
348.673	147.56
348.9	153.56
349.128	150.56
349.355	127.56
349.583	136.56
349.81	127.56
350.037	125.56
350.265	148.56
350.492	135.56
350.72	139.56
350.947	131.56
351.174	135.56
351.402	122.56
351.629	124.56
351.856	137.56
352.083	128.56
352.311	135.56
352.538	139.56
352.765	148.56
352.992	142.56
353.22	139.56
353.447	133.56
353.674	134.56
353.901	147.56
354.128	138.56
354.355	128.56
354.583	129.56
354.81	131.56
355.037	131.56
355.264	129.56
355.491	147.56
355.718	150.56
355.945	138.56
356.172	151.56
356.399	125.56
356.626	131.56
356.853	138.56
357.08	150.56
357.307	135.56
357.534	126.56
357.761	158.56
357.988	146.56
358.215	127.56
358.441	136.56
358.668	120.56
358.895	144.56
359.122	126.56
359.349	120.56
359.576	123.56
359.802	136.56
360.029	133.56
360.256	134.56
360.483	151.56
360.709	143.56
360.936	141.56
361.163	137.56
361.39	137.56
361.616	119.56
361.843	126.56
362.07	134.56
362.296	150.56
362.523	128.56
362.749	128.56
362.976	132.56
363.203	139.56
363.429	142.56
363.656	130.56
363.882	132.56
364.109	146.56
364.335	135.56
364.562	148.56
364.788	145.56
365.015	130.56
365.241	147.56
365.468	137.56
365.694	142.56
365.92	152.56
366.147	140.56
366.373	143.56
366.599	125.56
366.826	126.56
367.052	135.56
367.278	151.56
367.505	150.56
367.731	149.56
367.957	149.56
368.184	136.56
368.41	139.56
368.636	146.56
368.862	141.56
369.089	147.56
369.315	139.56
369.541	143.56
369.767	143.56
369.993	159.56
370.219	156.56
370.445	140.56
370.672	144.56
370.898	151.56
371.124	151.56
371.35	146.56
371.576	149.56
371.802	133.56
372.028	153.56
372.254	134.56
372.48	148.56
372.706	141.56
372.932	156.56
373.158	147.56
373.384	151.56
373.61	149.56
373.835	140.56
374.061	138.56
374.287	140.56
374.513	144.56
374.739	147.56
374.965	157.56
375.191	151.56
375.416	152.56
375.642	166.56
375.868	171.56
376.094	160.56
376.319	162.56
376.545	140.56
376.771	131.56
376.997	153.56
377.222	151.56
377.448	148.56
377.674	159.56
377.899	150.56
378.125	150.56
378.35	139.56
378.576	151.56
378.802	144.56
379.027	153.56
379.253	149.56
379.478	147.56
379.704	148.56
379.929	160.56
380.155	147.56
380.38	128.56
380.606	144.56
380.831	154.56
381.057	181.56
381.282	148.56
381.507	167.56
381.733	165.56
381.958	135.56
382.184	155.56
382.409	160.56
382.634	152.56
382.86	159.56
383.085	142.56
383.31	152.56
383.535	180.56
383.761	157.56
383.986	156.56
384.211	168.56
384.436	165.56
384.662	158.56
384.887	171.56
385.112	181.56
385.337	171.56
385.562	159.56
385.787	176.56
386.013	171.56
386.238	155.56
386.463	175.56
386.688	184.56
386.913	182.56
387.138	183.56
387.363	170.56
387.588	168.56
387.813	169.56
388.038	174.56
388.263	182.56
388.488	166.56
388.713	172.56
388.938	166.56
389.163	186.56
389.387	166.56
389.612	165.56
389.837	176.56
390.062	171.56
390.287	169.56
390.512	173.56
390.736	175.56
390.961	183.56
391.186	186.56
391.411	192.56
391.636	205.56
391.86	174.56
392.085	180.56
392.31	192.56
392.534	178.56
392.759	198.56
392.984	203.56
393.208	194.56
393.433	202.56
393.658	182.56
393.882	181.56
394.107	198.56
394.331	197.56
394.556	188.56
394.78	202.56
395.005	181.56
395.229	201.56
395.454	215.56
395.678	208.56
395.903	202.56
396.127	190.56
396.352	184.56
396.576	206.56
396.801	184.56
397.025	201.56
397.249	209.56
397.474	219.56
397.698	190.56
397.922	212.56
398.147	208.56
398.371	200.56
398.595	218.56
398.82	217.56
399.044	234.56
399.268	285.56
399.492	275.56
399.717	312.56
399.941	287.56
400.165	265.56
400.389	255.56
400.613	263.56
400.837	233.56
401.062	248.56
401.286	244.56
401.51	252.56
401.734	226.56
401.958	236.56
402.182	256.56
402.406	263.56
402.63	256.56
402.854	263.56
403.078	263.56
403.302	273.56
403.526	285.56
403.75	276.56
403.974	261.56
404.198	279.56
404.422	285.56
404.645	254.56
404.869	279.56
405.093	276.56
405.317	271.56
405.541	259.56
405.765	263.56
405.988	271.56
406.212	281.56
406.436	278.56
406.66	281.56
406.883	284.56
407.107	305.56
407.331	312.56
407.555	325.56
407.778	318.56
408.002	284.56
408.226	287.56
408.449	277.56
408.673	281.56
408.896	280.56
409.12	276.56
409.344	289.56
409.567	288.56
409.791	291.56
410.014	308.56
410.238	294.56
410.461	298.56
410.685	279.56
410.908	291.56
411.132	297.56
411.355	280.56
411.578	283.56
411.802	281.56
412.025	275.56
412.249	277.56
412.472	272.56
412.695	276.56
412.919	261.56
413.142	285.56
413.365	271.56
413.589	296.56
413.812	283.56
414.035	277.56
414.258	277.56
414.482	267.56
414.705	276.56
414.928	279.56
415.151	290.56
415.374	273.56
415.597	284.56
415.821	295.56
416.044	261.56
416.267	271.56
416.49	279.56
416.713	283.56
416.936	284.56
417.159	276.56
417.382	276.56
417.605	302.56
417.828	282.56
418.051	269.56
418.274	293.56
418.497	299.56
418.72	311.56
418.943	282.56
419.166	299.56
419.389	313.56
419.611	300.56
419.834	295.56
420.057	293.56
420.28	288.56
420.503	285.56
420.726	300.56
420.948	267.56
421.171	298.56
421.394	297.56
421.617	304.56
421.839	296.56
422.062	325.56
422.285	299.56
422.507	269.56
422.73	288.56
422.953	278.56
423.175	311.56
423.398	298.56
423.621	295.56
423.843	309.56
424.066	310.56
424.288	314.56
424.511	302.56
424.733	309.56
424.956	293.56
425.178	288.56
425.401	290.56
425.623	296.56
425.846	273.56
426.068	284.56
426.291	268.56
426.513	270.56
426.735	264.56
426.958	271.56
427.18	264.56
427.402	264.56
427.625	253.56
427.847	275.56
428.069	267.56
428.292	271.56
428.514	275.56
428.736	267.56
428.958	269.56
429.181	256.56
429.403	267.56
429.625	279.56
429.847	261.56
430.069	281.56
430.292	290.56
430.514	261.56
430.736	284.56
430.958	275.56
431.18	267.56
431.402	255.56
431.624	243.56
431.846	226.56
432.068	224.56
432.29	241.56
432.512	262.56
432.734	249.56
432.956	271.56
433.178	299.56
433.4	283.56
433.622	281.56
433.844	288.56
434.066	249.56
434.287	254.56
434.509	241.56
434.731	263.56
434.953	254.56
435.175	275.56
435.397	281.56
435.618	237.56
435.84	261.56
436.062	238.56
436.284	266.56
436.505	277.56
436.727	269.56
436.949	271.56
437.17	269.56
437.392	248.56
437.614	263.56
437.835	228.56
438.057	241.56
438.278	237.56
438.5	257.56
438.721	276.56
438.943	277.56
439.165	285.56
439.386	288.56
439.608	286.56
439.829	293.56
440.05	289.56
440.272	288.56
440.493	291.56
440.715	299.56
440.936	292.56
441.158	296.56
441.379	307.56
441.6	297.56
441.822	315.56
442.043	288.56
442.264	299.56
442.486	310.56
442.707	312.56
442.928	293.56
443.149	299.56
443.371	307.56
443.592	307.56
443.813	305.56
444.034	278.56
444.255	331.56
444.476	327.56
444.698	350.56
444.919	345.56
445.14	504.56
445.361	421.56
445.582	312.56
445.803	305.56
446.024	290.56
446.245	307.56
446.466	305.56
446.687	296.56
446.908	299.56
447.129	315.56
447.35	295.56
447.571	280.56
447.792	281.56
448.013	270.56
448.234	288.56
448.455	271.56
448.675	265.56
448.896	266.56
449.117	275.56
449.338	247.56
449.559	253.56
449.779	258.56
450	279.56
450.221	279.56
450.442	264.56
450.662	265.56
450.883	249.56
451.104	262.56
451.324	263.56
451.545	269.56
451.766	259.56
451.986	256.56
452.207	250.56
452.428	249.56
452.648	255.56
452.869	240.56
453.089	231.56
453.31	231.56
453.53	243.56
453.751	225.56
453.971	225.56
454.192	235.56
454.412	235.56
454.633	238.56
454.853	226.56
455.073	235.56
455.294	228.56
455.514	252.56
455.734	240.56
455.955	233.56
456.175	223.56
456.395	221.56
456.616	222.56
456.836	229.56
457.056	219.56
457.276	206.56
457.497	224.56
457.717	229.56
457.937	221.56
458.157	224.56
458.377	192.56
458.598	215.56
458.818	211.56
459.038	220.56
459.258	202.56
459.478	225.56
459.698	232.56
459.918	238.56
460.138	260.56
460.358	263.56
460.578	256.56
460.798	282.56
461.018	277.56
461.238	275.56
461.458	296.56
461.678	275.56
461.898	268.56
462.118	279.56
462.338	294.56
462.558	293.56
462.777	298.56
462.997	301.56
463.217	321.56
463.437	313.56
463.657	309.56
463.876	300.56
464.096	278.56
464.316	310.56
464.536	299.56
464.755	297.56
464.975	277.56
465.195	277.56
465.414	255.56
465.634	255.56
465.854	249.56
466.073	259.56
466.293	254.56
466.512	242.56
466.732	242.56
466.951	267.56
467.171	271.56
467.391	283.56
467.61	265.56
467.829	270.56
468.049	264.56
468.268	241.56
468.488	248.56
468.707	262.56
468.927	276.56
469.146	249.56
469.365	271.56
469.585	265.56
469.804	278.56
470.023	283.56
470.243	282.56
470.462	264.56
470.681	277.56
470.901	275.56
471.12	282.56
471.339	287.56
471.558	281.56
471.777	269.56
471.997	259.56
472.216	253.56
472.435	230.56
472.654	228.56
472.873	236.56
473.092	249.56
473.311	249.56
473.53	246.56
473.749	238.56
473.968	254.56
474.187	233.56
474.406	236.56
474.625	235.56
474.844	260.56
475.063	249.56
475.282	255.56
475.501	247.56
475.72	243.56
475.939	229.56
476.158	256.56
476.377	249.56
476.596	248.56
476.814	221.56
477.033	222.56
477.252	224.56
477.471	247.56
477.69	274.56
477.908	289.56
478.127	300.56
478.346	284.56
478.564	304.56
478.783	299.56
479.002	305.56
479.22	282.56
479.439	275.56
479.658	265.56
479.876	268.56
480.095	256.56
480.313	271.56
480.532	296.56
480.751	269.56
480.969	251.56
481.188	247.56
481.406	220.56
481.624	213.56
481.843	207.56
482.061	217.56
482.28	263.56
482.498	243.56
482.717	241.56
482.935	265.56
483.153	276.56
483.372	292.56
483.59	283.56
483.808	263.56
484.027	284.56
484.245	267.56
484.463	275.56
484.681	300.56
484.9	289.56
485.118	291.56
485.336	268.56
485.554	251.56
485.772	260.56
485.99	240.56
486.209	255.56
486.427	271.56
486.645	261.56
486.863	289.56
487.081	281.56
487.299	272.56
487.517	280.56
487.735	328.56
487.953	352.56
488.171	326.56
488.389	319.56
488.607	275.56
488.825	285.56
489.043	268.56
489.261	269.56
489.479	276.56
489.696	284.56
489.914	288.56
490.132	301.56
490.35	300.56
490.568	315.56
490.786	329.56
491.003	311.56
491.221	341.56
491.439	353.56
491.657	358.56
491.874	367.56
492.092	392.56
492.31	413.56
492.527	385.56
492.745	386.56
492.963	363.56
493.18	359.56
493.398	358.56
493.615	350.56
493.833	355.56
494.05	341.56
494.268	340.56
494.485	342.56
494.703	342.56
494.92	337.56
495.138	348.56
495.355	352.56
495.573	345.56
495.79	342.56
496.008	333.56
496.225	342.56
496.442	349.56
496.66	343.56
496.877	318.56
497.094	333.56
497.312	331.56
497.529	340.56
497.746	352.56
497.963	333.56
498.181	343.56
498.398	338.56
498.615	347.56
498.832	348.56
499.049	378.56
499.267	427.56
499.484	439.56
499.701	464.56
499.918	531.56
500.135	579.56
500.352	641.56
500.569	652.56
500.786	630.56
501.003	615.56
501.22	536.56
501.437	506.56
501.654	445.56
501.871	418.56
502.088	384.56
502.305	387.56
502.522	357.56
502.739	368.56
502.956	327.56
503.172	318.56
503.389	290.56
503.606	308.56
503.823	304.56
504.04	307.56
504.256	301.56
504.473	306.56
504.69	317.56
