Data from SampA_HRD10591_00054.txt Node
Date: Mon Jan 19 11:27:05 EST 2026
User: Yrep
Spectrometer: HR+D1059
Trigger mode: 0
Integration Time (sec): 3.443000E-1
Scans to average: 1
Electric dark correction enabled: true
Nonlinearity correction enabled: false
Boxcar width: 0
XAxis mode: Wavelengths
Number of Pixels in Spectrum: 2048
>>>>>Begin Spectral Data<<<<<
223.165	-16.19
223.4	-16.19
223.635	-16.19
223.869	-14.19
224.104	-24.19
224.338	-17.19
224.573	-16.19
224.808	-7.19
225.042	-3.19
225.277	3.81
225.511	-7.19
225.746	10.81
225.98	9.81
226.215	8.81
226.449	7.81
226.683	13.81
226.918	26.81
227.152	23.81
227.387	44.81
227.621	45.81
227.856	43.81
228.09	54.81
228.324	61.81
228.559	62.81
228.793	59.81
229.027	54.81
229.262	74.81
229.496	71.81
229.73	77.81
229.964	80.81
230.199	66.81
230.433	68.81
230.667	81.81
230.901	82.81
231.136	87.81
231.37	87.81
231.604	74.81
231.838	86.81
232.072	78.81
232.306	78.81
232.541	90.81
232.775	79.81
233.009	75.81
233.243	77.81
233.477	75.81
233.711	83.81
233.945	80.81
234.179	69.81
234.413	96.81
234.647	80.81
234.881	74.81
235.115	83.81
235.349	77.81
235.583	92.81
235.817	71.81
236.051	83.81
236.285	80.81
236.519	89.81
236.753	79.81
236.987	69.81
237.221	91.81
237.455	79.81
237.689	79.81
237.922	73.81
238.156	84.81
238.39	59.81
238.624	85.81
238.858	79.81
239.091	69.81
239.325	83.81
239.559	84.81
239.793	68.81
240.027	81.81
240.26	96.81
240.494	81.81
240.728	90.81
240.961	87.81
241.195	92.81
241.429	91.81
241.662	79.81
241.896	71.81
242.13	85.81
242.363	84.81
242.597	88.81
242.83	106.81
243.064	68.81
243.298	67.81
243.531	78.81
243.765	59.81
243.998	83.81
244.232	80.81
244.465	99.81
244.699	81.81
244.932	74.81
245.166	82.81
245.399	87.81
245.633	75.81
245.866	84.81
246.099	70.81
246.333	84.81
246.566	74.81
246.8	77.81
247.033	78.81
247.266	80.81
247.5	75.81
247.733	84.81
247.966	84.81
248.2	94.81
248.433	87.81
248.666	70.81
248.899	80.81
249.133	83.81
249.366	89.81
249.599	91.81
249.832	97.81
250.066	105.81
250.299	82.81
250.532	86.81
250.765	93.81
250.998	84.81
251.231	86.81
251.465	75.81
251.698	98.81
251.931	84.81
252.164	94.81
252.397	77.81
252.63	99.81
252.863	76.81
253.096	88.81
253.329	76.81
253.562	84.81
253.795	86.81
254.028	87.81
254.261	96.81
254.494	80.81
254.727	104.81
254.96	96.81
255.193	91.81
255.426	86.81
255.659	92.81
255.892	89.81
256.124	98.81
256.357	87.81
256.59	82.81
256.823	91.81
257.056	84.81
257.289	74.81
257.521	79.81
257.754	90.81
257.987	72.81
258.22	98.81
258.452	96.81
258.685	85.81
258.918	92.81
259.151	80.81
259.383	108.81
259.616	86.81
259.849	94.81
260.081	86.81
260.314	88.81
260.547	93.81
260.779	82.81
261.012	93.81
261.244	87.81
261.477	92.81
261.71	100.81
261.942	90.81
262.175	82.81
262.407	102.81
262.64	77.81
262.872	100.81
263.105	97.81
263.337	92.81
263.57	94.81
263.802	94.81
264.035	85.81
264.267	90.81
264.499	89.81
264.732	98.81
264.964	89.81
265.197	80.81
265.429	96.81
265.661	82.81
265.894	87.81
266.126	95.81
266.358	95.81
266.591	100.81
266.823	87.81
267.055	95.81
267.287	90.81
267.52	90.81
267.752	93.81
267.984	99.81
268.216	90.81
268.448	86.81
268.681	88.81
268.913	102.81
269.145	98.81
269.377	101.81
269.609	79.81
269.841	90.81
270.073	77.81
270.306	79.81
270.538	85.81
270.77	99.81
271.002	85.81
271.234	97.81
271.466	90.81
271.698	89.81
271.93	85.81
272.162	85.81
272.394	93.81
272.626	96.81
272.858	104.81
273.09	95.81
273.322	108.81
273.553	96.81
273.785	78.81
274.017	87.81
274.249	99.81
274.481	92.81
274.713	99.81
274.945	123.81
275.176	100.81
275.408	103.81
275.64	96.81
275.872	79.81
276.104	105.81
276.335	93.81
276.567	80.81
276.799	96.81
277.031	99.81
277.262	88.81
277.494	104.81
277.726	96.81
277.957	76.81
278.189	88.81
278.421	93.81
278.652	107.81
278.884	106.81
279.115	102.81
279.347	95.81
279.579	100.81
279.81	91.81
280.042	80.81
280.273	93.81
280.505	95.81
280.736	109.81
280.968	102.81
281.199	94.81
281.431	85.81
281.662	78.81
281.894	94.81
282.125	96.81
282.356	93.81
282.588	90.81
282.819	80.81
283.051	95.81
283.282	98.81
283.513	106.81
283.745	109.81
283.976	102.81
284.207	94.81
284.439	101.81
284.67	115.81
284.901	102.81
285.132	92.81
285.364	94.81
285.595	106.81
285.826	100.81
286.057	102.81
286.288	97.81
286.52	100.81
286.751	99.81
286.982	94.81
287.213	93.81
287.444	105.81
287.675	93.81
287.906	95.81
288.138	104.81
288.369	95.81
288.6	116.81
288.831	102.81
289.062	104.81
289.293	105.81
289.524	106.81
289.755	102.81
289.986	114.81
290.217	92.81
290.448	82.81
290.679	122.81
290.91	105.81
291.141	85.81
291.371	108.81
291.602	93.81
291.833	101.81
292.064	104.81
292.295	106.81
292.526	102.81
292.757	106.81
292.987	104.81
293.218	123.81
293.449	82.81
293.68	107.81
293.91	97.81
294.141	97.81
294.372	99.81
294.603	94.81
294.833	106.81
295.064	93.81
295.295	96.81
295.525	103.81
295.756	96.81
295.987	108.81
296.217	74.81
296.448	86.81
296.679	122.81
296.909	109.81
297.14	110.81
297.37	112.81
297.601	109.81
297.831	102.81
298.062	109.81
298.292	105.81
298.523	120.81
298.753	101.81
298.984	102.81
299.214	102.81
299.445	92.81
299.675	94.81
299.905	107.81
300.136	114.81
300.366	98.81
300.597	115.81
300.827	107.81
301.057	117.81
301.288	106.81
301.518	105.81
301.748	91.81
301.979	136.81
302.209	102.81
302.439	102.81
302.669	91.81
302.9	103.81
303.13	101.81
303.36	121.81
303.59	113.81
303.82	109.81
304.051	115.81
304.281	111.81
304.511	110.81
304.741	94.81
304.971	123.81
305.201	119.81
305.431	105.81
305.661	111.81
305.891	103.81
306.121	109.81
306.352	110.81
306.582	91.81
306.812	106.81
307.042	110.81
307.272	96.81
307.502	96.81
307.731	115.81
307.961	105.81
308.191	93.81
308.421	102.81
308.651	112.81
308.881	94.81
309.111	105.81
309.341	101.81
309.571	105.81
309.8	100.81
310.03	101.81
310.26	109.81
310.49	93.81
310.72	98.81
310.949	98.81
311.179	108.81
311.409	110.81
311.639	113.81
311.868	113.81
312.098	110.81
312.328	98.81
312.557	122.81
312.787	85.81
313.017	133.81
313.246	120.81
313.476	104.81
313.706	105.81
313.935	102.81
314.165	100.81
314.394	107.81
314.624	103.81
314.853	110.81
315.083	117.81
315.312	101.81
315.542	114.81
315.771	109.81
316.001	103.81
316.23	107.81
316.46	108.81
316.689	98.81
316.919	95.81
317.148	100.81
317.377	119.81
317.607	101.81
317.836	110.81
318.065	100.81
318.295	110.81
318.524	96.81
318.753	108.81
318.983	109.81
319.212	111.81
319.441	102.81
319.67	104.81
319.9	108.81
320.129	107.81
320.358	106.81
320.587	100.81
320.816	96.81
321.046	89.81
321.275	103.81
321.504	119.81
321.733	103.81
321.962	101.81
322.191	101.81
322.42	117.81
322.649	109.81
322.878	121.81
323.108	110.81
323.337	98.81
323.566	108.81
323.795	126.81
324.024	109.81
324.253	115.81
324.482	103.81
324.71	101.81
324.939	108.81
325.168	121.81
325.397	115.81
325.626	110.81
325.855	111.81
326.084	115.81
326.313	94.81
326.542	114.81
326.77	111.81
326.999	101.81
327.228	103.81
327.457	111.81
327.686	98.81
327.914	115.81
328.143	122.81
328.372	133.81
328.6	111.81
328.829	107.81
329.058	107.81
329.287	95.81
329.515	101.81
329.744	110.81
329.972	94.81
330.201	106.81
330.43	116.81
330.658	102.81
330.887	104.81
331.115	100.81
331.344	118.81
331.572	113.81
331.801	108.81
332.03	110.81
332.258	108.81
332.486	117.81
332.715	124.81
332.943	114.81
333.172	132.81
333.4	115.81
333.629	122.81
333.857	114.81
334.085	125.81
334.314	117.81
334.542	115.81
334.771	107.81
334.999	133.81
335.227	112.81
335.455	121.81
335.684	118.81
335.912	120.81
336.14	105.81
336.369	121.81
336.597	117.81
336.825	140.81
337.053	115.81
337.281	110.81
337.51	105.81
337.738	110.81
337.966	115.81
338.194	106.81
338.422	108.81
338.65	122.81
338.878	123.81
339.106	120.81
339.334	123.81
339.562	107.81
339.79	107.81
340.018	106.81
340.246	117.81
340.474	114.81
340.702	106.81
340.93	102.81
341.158	93.81
341.386	107.81
341.614	117.81
341.842	118.81
342.07	94.81
342.298	103.81
342.526	102.81
342.754	112.81
342.981	114.81
343.209	107.81
343.437	134.81
343.665	126.81
343.893	117.81
344.12	123.81
344.348	93.81
344.576	104.81
344.804	112.81
345.031	111.81
345.259	113.81
345.487	99.81
345.714	109.81
345.942	113.81
346.17	110.81
346.397	106.81
346.625	109.81
346.853	110.81
347.08	100.81
347.308	107.81
347.535	113.81
347.763	120.81
347.99	118.81
348.218	131.81
348.445	98.81
348.673	104.81
348.9	100.81
349.128	126.81
349.355	103.81
349.583	113.81
349.81	91.81
350.037	106.81
350.265	111.81
350.492	118.81
350.72	111.81
350.947	93.81
351.174	96.81
351.402	98.81
351.629	93.81
351.856	109.81
352.083	112.81
352.311	109.81
352.538	107.81
352.765	99.81
352.992	120.81
353.22	126.81
353.447	123.81
353.674	104.81
353.901	107.81
354.128	100.81
354.355	116.81
354.583	99.81
354.81	101.81
355.037	111.81
355.264	111.81
355.491	101.81
355.718	115.81
355.945	111.81
356.172	110.81
356.399	108.81
356.626	115.81
356.853	114.81
357.08	130.81
357.307	118.81
357.534	109.81
357.761	118.81
357.988	117.81
358.215	111.81
358.441	100.81
358.668	105.81
358.895	107.81
359.122	96.81
359.349	108.81
359.576	99.81
359.802	125.81
360.029	101.81
360.256	105.81
360.483	108.81
360.709	102.81
360.936	117.81
361.163	114.81
361.39	119.81
361.616	95.81
361.843	99.81
362.07	112.81
362.296	105.81
362.523	108.81
362.749	111.81
362.976	104.81
363.203	112.81
363.429	110.81
363.656	114.81
363.882	115.81
364.109	105.81
364.335	118.81
364.562	110.81
364.788	105.81
365.015	108.81
365.241	107.81
365.468	107.81
365.694	116.81
365.92	116.81
366.147	112.81
366.373	99.81
366.599	106.81
366.826	110.81
367.052	115.81
367.278	112.81
367.505	108.81
367.731	118.81
367.957	114.81
368.184	95.81
368.41	104.81
368.636	107.81
368.862	109.81
369.089	113.81
369.315	107.81
369.541	110.81
369.767	122.81
369.993	102.81
370.219	119.81
370.445	101.81
370.672	110.81
370.898	118.81
371.124	104.81
371.35	108.81
371.576	117.81
371.802	92.81
372.028	114.81
372.254	112.81
372.48	123.81
372.706	123.81
372.932	100.81
373.158	123.81
373.384	125.81
373.61	133.81
373.835	119.81
374.061	112.81
374.287	116.81
374.513	111.81
374.739	116.81
374.965	115.81
375.191	119.81
375.416	120.81
375.642	129.81
375.868	114.81
376.094	116.81
376.319	103.81
376.545	105.81
376.771	118.81
376.997	123.81
377.222	121.81
377.448	115.81
377.674	115.81
377.899	116.81
378.125	113.81
378.35	109.81
378.576	111.81
378.802	122.81
379.027	105.81
379.253	120.81
379.478	109.81
379.704	111.81
379.929	105.81
380.155	118.81
380.38	108.81
380.606	117.81
380.831	115.81
381.057	124.81
381.282	118.81
381.507	114.81
381.733	108.81
381.958	117.81
382.184	116.81
382.409	119.81
382.634	134.81
382.86	112.81
383.085	119.81
383.31	117.81
383.535	128.81
383.761	116.81
383.986	125.81
384.211	118.81
384.436	97.81
384.662	117.81
384.887	123.81
385.112	104.81
385.337	115.81
385.562	108.81
385.787	122.81
386.013	117.81
386.238	107.81
386.463	122.81
386.688	171.81
386.913	134.81
387.138	114.81
387.363	117.81
387.588	130.81
387.813	117.81
388.038	128.81
388.263	125.81
388.488	121.81
388.713	107.81
388.938	132.81
389.163	123.81
389.387	112.81
389.612	131.81
389.837	121.81
390.062	134.81
390.287	108.81
390.512	124.81
390.736	121.81
390.961	117.81
391.186	134.81
391.411	132.81
391.636	139.81
391.86	141.81
392.085	137.81
392.31	138.81
392.534	133.81
392.759	142.81
392.984	131.81
393.208	130.81
393.433	130.81
393.658	130.81
393.882	118.81
394.107	128.81
394.331	115.81
394.556	130.81
394.78	125.81
395.005	127.81
395.229	140.81
395.454	146.81
395.678	136.81
395.903	147.81
396.127	153.81
396.352	141.81
396.576	128.81
396.801	137.81
397.025	118.81
397.249	148.81
397.474	159.81
397.698	144.81
397.922	150.81
398.147	126.81
398.371	152.81
398.595	145.81
398.82	165.81
399.044	171.81
399.268	158.81
399.492	183.81
399.717	194.81
399.941	178.81
400.165	174.81
400.389	136.81
400.613	152.81
400.837	159.81
401.062	154.81
401.286	152.81
401.51	143.81
401.734	165.81
401.958	150.81
402.182	161.81
402.406	168.81
402.63	158.81
402.854	157.81
403.078	177.81
403.302	168.81
403.526	159.81
403.75	168.81
403.974	178.81
404.198	171.81
404.422	178.81
404.645	168.81
404.869	160.81
405.093	203.81
405.317	178.81
405.541	153.81
405.765	167.81
405.988	186.81
406.212	182.81
406.436	170.81
406.66	199.81
406.883	171.81
407.107	172.81
407.331	178.81
407.555	197.81
407.778	184.81
408.002	178.81
408.226	170.81
408.449	173.81
408.673	194.81
408.896	163.81
409.12	180.81
409.344	182.81
409.567	182.81
409.791	170.81
410.014	172.81
410.238	174.81
410.461	183.81
410.685	185.81
410.908	164.81
411.132	180.81
411.355	170.81
411.578	173.81
411.802	153.81
412.025	181.81
412.249	170.81
412.472	166.81
412.695	190.81
412.919	178.81
413.142	180.81
413.365	181.81
413.589	165.81
413.812	160.81
414.035	146.81
414.258	168.81
414.482	171.81
414.705	174.81
414.928	184.81
415.151	173.81
415.374	179.81
415.597	172.81
415.821	171.81
416.044	167.81
416.267	165.81
416.49	173.81
416.713	182.81
416.936	170.81
417.159	159.81
417.382	168.81
417.605	170.81
417.828	178.81
418.051	172.81
418.274	182.81
418.497	187.81
418.72	177.81
418.943	192.81
419.166	190.81
419.389	207.81
419.611	197.81
419.834	170.81
420.057	170.81
420.28	167.81
420.503	185.81
420.726	169.81
420.948	155.81
421.171	164.81
421.394	171.81
421.617	175.81
421.839	187.81
422.062	182.81
422.285	180.81
422.507	189.81
422.73	195.81
422.953	189.81
423.175	156.81
423.398	192.81
423.621	190.81
423.843	174.81
424.066	180.81
424.288	174.81
424.511	190.81
424.733	187.81
424.956	183.81
425.178	178.81
425.401	189.81
425.623	175.81
425.846	169.81
426.068	164.81
426.291	157.81
426.513	187.81
426.735	173.81
426.958	173.81
427.18	170.81
427.402	186.81
427.625	169.81
427.847	164.81
428.069	173.81
428.292	180.81
428.514	174.81
428.736	152.81
428.958	160.81
429.181	165.81
429.403	163.81
429.625	157.81
429.847	151.81
430.069	166.81
430.292	186.81
430.514	155.81
430.736	174.81
430.958	159.81
431.18	152.81
431.402	158.81
431.624	153.81
431.846	186.81
432.068	159.81
432.29	168.81
432.512	163.81
432.734	156.81
432.956	171.81
433.178	172.81
433.4	187.81
433.622	195.81
433.844	147.81
434.066	157.81
434.287	146.81
434.509	166.81
434.731	159.81
434.953	168.81
435.175	168.81
435.397	162.81
435.618	150.81
435.84	162.81
436.062	161.81
436.284	167.81
436.505	158.81
436.727	170.81
436.949	179.81
437.17	168.81
437.392	178.81
437.614	166.81
437.835	156.81
438.057	158.81
438.278	167.81
438.5	180.81
438.721	174.81
438.943	169.81
439.165	156.81
439.386	174.81
439.608	179.81
439.829	166.81
440.05	158.81
440.272	173.81
440.493	168.81
440.715	166.81
440.936	170.81
441.158	179.81
441.379	172.81
441.6	200.81
441.822	187.81
442.043	183.81
442.264	170.81
442.486	188.81
442.707	191.81
442.928	164.81
443.149	180.81
443.371	187.81
443.592	172.81
443.813	193.81
444.034	194.81
444.255	195.81
444.476	190.81
444.698	196.81
444.919	197.81
445.14	374.81
445.361	274.81
445.582	200.81
445.803	189.81
446.024	179.81
446.245	187.81
446.466	188.81
446.687	191.81
446.908	171.81
447.129	175.81
447.35	182.81
447.571	174.81
447.792	168.81
448.013	174.81
448.234	176.81
448.455	165.81
448.675	177.81
448.896	181.81
449.117	146.81
449.338	157.81
449.559	177.81
449.779	170.81
450	168.81
450.221	167.81
450.442	183.81
450.662	160.81
450.883	155.81
451.104	169.81
451.324	166.81
451.545	147.81
451.766	158.81
451.986	146.81
452.207	161.81
452.428	158.81
452.648	166.81
452.869	145.81
453.089	153.81
453.31	149.81
453.53	151.81
453.751	172.81
453.971	139.81
454.192	131.81
454.412	145.81
454.633	144.81
454.853	153.81
455.073	158.81
455.294	153.81
455.514	170.81
455.734	167.81
455.955	132.81
456.175	145.81
456.395	150.81
456.616	136.81
456.836	152.81
457.056	132.81
457.276	163.81
457.497	149.81
457.717	147.81
457.937	132.81
458.157	147.81
458.377	154.81
458.598	161.81
458.818	156.81
459.038	144.81
459.258	145.81
459.478	151.81
459.698	158.81
459.918	154.81
460.138	149.81
460.358	147.81
460.578	169.81
460.798	178.81
461.018	177.81
461.238	197.81
461.458	175.81
461.678	183.81
461.898	179.81
462.118	180.81
462.338	190.81
462.558	185.81
462.777	172.81
462.997	192.81
463.217	195.81
463.437	191.81
463.657	178.81
463.876	174.81
464.096	196.81
464.316	179.81
464.536	178.81
464.755	189.81
464.975	184.81
465.195	178.81
465.414	166.81
465.634	145.81
465.854	152.81
466.073	175.81
466.293	168.81
466.512	156.81
466.732	170.81
466.951	151.81
467.171	170.81
467.391	167.81
467.61	161.81
467.829	145.81
468.049	171.81
468.268	166.81
468.488	155.81
468.707	155.81
468.927	159.81
469.146	163.81
469.365	172.81
469.585	174.81
469.804	176.81
470.023	181.81
470.243	180.81
470.462	182.81
470.681	155.81
470.901	155.81
471.12	155.81
471.339	170.81
471.558	178.81
471.777	159.81
471.997	158.81
472.216	158.81
472.435	154.81
472.654	133.81
472.873	132.81
473.092	155.81
473.311	158.81
473.53	151.81
473.749	156.81
473.968	167.81
474.187	157.81
474.406	155.81
474.625	175.81
474.844	168.81
475.063	153.81
475.282	151.81
475.501	156.81
475.72	163.81
475.939	159.81
476.158	150.81
476.377	168.81
476.596	160.81
476.814	164.81
477.033	167.81
477.252	158.81
477.471	165.81
477.69	174.81
477.908	178.81
478.127	181.81
478.346	175.81
478.564	165.81
478.783	169.81
479.002	181.81
479.22	195.81
479.439	172.81
479.658	182.81
479.876	174.81
480.095	152.81
480.313	184.81
480.532	170.81
480.751	173.81
480.969	156.81
481.188	155.81
481.406	165.81
481.624	161.81
481.843	154.81
482.061	159.81
482.28	150.81
482.498	146.81
482.717	172.81
482.935	174.81
483.153	183.81
483.372	167.81
483.59	175.81
483.808	180.81
484.027	164.81
484.245	159.81
484.463	176.81
484.681	198.81
484.9	160.81
485.118	168.81
485.336	174.81
485.554	156.81
485.772	161.81
485.99	164.81
486.209	159.81
486.427	178.81
486.645	186.81
486.863	184.81
487.081	169.81
487.299	180.81
487.517	189.81
487.735	198.81
487.953	205.81
488.171	201.81
488.389	199.81
488.607	178.81
488.825	181.81
489.043	183.81
489.261	179.81
489.479	170.81
489.696	179.81
489.914	188.81
490.132	172.81
490.35	188.81
490.568	189.81
490.786	182.81
491.003	188.81
491.221	194.81
491.439	208.81
491.657	215.81
491.874	221.81
492.092	212.81
492.31	230.81
492.527	208.81
492.745	218.81
492.963	212.81
493.18	207.81
493.398	208.81
493.615	208.81
493.833	195.81
494.05	183.81
494.268	199.81
494.485	207.81
494.703	185.81
494.92	194.81
495.138	200.81
495.355	215.81
495.573	205.81
495.79	198.81
496.008	191.81
496.225	209.81
496.442	194.81
496.66	214.81
496.877	216.81
497.094	214.81
497.312	209.81
497.529	206.81
497.746	198.81
497.963	202.81
498.181	194.81
498.398	195.81
498.615	210.81
498.832	207.81
499.049	212.81
499.267	231.81
499.484	242.81
499.701	263.81
499.918	304.81
500.135	313.81
500.352	347.81
500.569	358.81
500.786	375.81
501.003	327.81
501.22	300.81
501.437	277.81
501.654	252.81
501.871	234.81
502.088	231.81
502.305	223.81
502.522	215.81
502.739	219.81
502.956	197.81
503.172	191.81
503.389	194.81
503.606	190.81
503.823	196.81
504.04	204.81
504.256	200.81
504.473	192.81
504.69	188.81
504.907	206.81
505.123	184.81
505.34	170.81
505.557	165.81
505.773	176.81
505.99	157.81
506.207	159.81
506.423	168.81
506.64	156.81
