Data from SampA_HRD10591_00076.txt Node
Date: Mon Jan 19 11:27:12 EST 2026
User: Yrep
Spectrometer: HR+D1059
Trigger mode: 0
Integration Time (sec): 3.443000E-1
Scans to average: 1
Electric dark correction enabled: true
Nonlinearity correction enabled: false
Boxcar width: 0
XAxis mode: Wavelengths
Number of Pixels in Spectrum: 2048
>>>>>Begin Spectral Data<<<<<
223.165	-20.81
223.4	-20.81
223.635	-20.81
223.869	-6.81
224.104	-17.81
224.338	-10.81
224.573	-23.81
224.808	-15.81
225.042	-9.81
225.277	-4.81
225.511	-13.81
225.746	6.19
225.98	10.19
226.215	22.19
226.449	26.19
226.683	11.19
226.918	22.19
227.152	26.19
227.387	34.19
227.621	54.19
227.856	48.19
228.09	45.19
228.324	50.19
228.559	54.19
228.793	70.19
229.027	81.19
229.262	67.19
229.496	70.19
229.73	78.19
229.964	92.19
230.199	68.19
230.433	66.19
230.667	98.19
230.901	84.19
231.136	82.19
231.37	82.19
231.604	80.19
231.838	82.19
232.072	80.19
232.306	81.19
232.541	81.19
232.775	91.19
233.009	77.19
233.243	86.19
233.477	75.19
233.711	98.19
233.945	85.19
234.179	91.19
234.413	74.19
234.647	91.19
234.881	71.19
235.115	83.19
235.349	78.19
235.583	79.19
235.817	89.19
236.051	105.19
236.285	82.19
236.519	92.19
236.753	76.19
236.987	75.19
237.221	85.19
237.455	89.19
237.689	82.19
237.922	89.19
238.156	79.19
238.39	81.19
238.624	72.19
238.858	84.19
239.091	65.19
239.325	74.19
239.559	77.19
239.793	94.19
240.027	94.19
240.26	96.19
240.494	88.19
240.728	83.19
240.961	67.19
241.195	90.19
241.429	78.19
241.662	89.19
241.896	80.19
242.13	94.19
242.363	74.19
242.597	83.19
242.83	88.19
243.064	86.19
243.298	89.19
243.531	73.19
243.765	83.19
243.998	94.19
244.232	95.19
244.465	87.19
244.699	81.19
244.932	71.19
245.166	81.19
245.399	75.19
245.633	86.19
245.866	83.19
246.099	86.19
246.333	80.19
246.566	109.19
246.8	86.19
247.033	90.19
247.266	88.19
247.5	81.19
247.733	83.19
247.966	91.19
248.2	76.19
248.433	87.19
248.666	90.19
248.899	90.19
249.133	84.19
249.366	89.19
249.599	73.19
249.832	97.19
250.066	107.19
250.299	104.19
250.532	84.19
250.765	79.19
250.998	78.19
251.231	80.19
251.465	94.19
251.698	79.19
251.931	99.19
252.164	76.19
252.397	78.19
252.63	84.19
252.863	90.19
253.096	87.19
253.329	83.19
253.562	100.19
253.795	83.19
254.028	86.19
254.261	102.19
254.494	93.19
254.727	104.19
254.96	84.19
255.193	80.19
255.426	75.19
255.659	90.19
255.892	103.19
256.124	86.19
256.357	84.19
256.59	87.19
256.823	96.19
257.056	97.19
257.289	93.19
257.521	83.19
257.754	81.19
257.987	89.19
258.22	91.19
258.452	105.19
258.685	98.19
258.918	94.19
259.151	88.19
259.383	93.19
259.616	90.19
259.849	104.19
260.081	86.19
260.314	79.19
260.547	87.19
260.779	90.19
261.012	94.19
261.244	88.19
261.477	102.19
261.71	100.19
261.942	99.19
262.175	100.19
262.407	95.19
262.64	93.19
262.872	100.19
263.105	107.19
263.337	97.19
263.57	98.19
263.802	96.19
264.035	84.19
264.267	88.19
264.499	81.19
264.732	82.19
264.964	88.19
265.197	94.19
265.429	97.19
265.661	95.19
265.894	95.19
266.126	92.19
266.358	89.19
266.591	92.19
266.823	99.19
267.055	86.19
267.287	106.19
267.52	96.19
267.752	95.19
267.984	108.19
268.216	112.19
268.448	100.19
268.681	89.19
268.913	99.19
269.145	91.19
269.377	84.19
269.609	92.19
269.841	94.19
270.073	104.19
270.306	102.19
270.538	89.19
270.77	89.19
271.002	90.19
271.234	103.19
271.466	95.19
271.698	106.19
271.93	99.19
272.162	86.19
272.394	105.19
272.626	104.19
272.858	114.19
273.09	101.19
273.322	91.19
273.553	100.19
273.785	96.19
274.017	91.19
274.249	84.19
274.481	106.19
274.713	99.19
274.945	94.19
275.176	107.19
275.408	106.19
275.64	97.19
275.872	99.19
276.104	106.19
276.335	92.19
276.567	97.19
276.799	86.19
277.031	80.19
277.262	96.19
277.494	90.19
277.726	91.19
277.957	105.19
278.189	100.19
278.421	102.19
278.652	103.19
278.884	94.19
279.115	103.19
279.347	90.19
279.579	98.19
279.81	105.19
280.042	92.19
280.273	92.19
280.505	82.19
280.736	99.19
280.968	98.19
281.199	117.19
281.431	120.19
281.662	100.19
281.894	97.19
282.125	83.19
282.356	103.19
282.588	110.19
282.819	94.19
283.051	91.19
283.282	105.19
283.513	100.19
283.745	109.19
283.976	102.19
284.207	93.19
284.439	101.19
284.67	109.19
284.901	102.19
285.132	106.19
285.364	106.19
285.595	108.19
285.826	116.19
286.057	108.19
286.288	100.19
286.52	87.19
286.751	106.19
286.982	109.19
287.213	120.19
287.444	110.19
287.675	108.19
287.906	103.19
288.138	104.19
288.369	110.19
288.6	95.19
288.831	113.19
289.062	115.19
289.293	101.19
289.524	102.19
289.755	96.19
289.986	110.19
290.217	101.19
290.448	89.19
290.679	121.19
290.91	122.19
291.141	103.19
291.371	104.19
291.602	104.19
291.833	95.19
292.064	107.19
292.295	95.19
292.526	105.19
292.757	105.19
292.987	106.19
293.218	113.19
293.449	99.19
293.68	111.19
293.91	105.19
294.141	98.19
294.372	99.19
294.603	94.19
294.833	93.19
295.064	104.19
295.295	106.19
295.525	97.19
295.756	108.19
295.987	90.19
296.217	114.19
296.448	111.19
296.679	100.19
296.909	102.19
297.14	95.19
297.37	107.19
297.601	110.19
297.831	98.19
298.062	101.19
298.292	99.19
298.523	101.19
298.753	102.19
298.984	103.19
299.214	117.19
299.445	105.19
299.675	108.19
299.905	110.19
300.136	96.19
300.366	102.19
300.597	103.19
300.827	100.19
301.057	108.19
301.288	110.19
301.518	105.19
301.748	107.19
301.979	139.19
302.209	101.19
302.439	105.19
302.669	99.19
302.9	104.19
303.13	105.19
303.36	112.19
303.59	114.19
303.82	121.19
304.051	116.19
304.281	106.19
304.511	130.19
304.741	116.19
304.971	98.19
305.201	125.19
305.431	102.19
305.661	105.19
305.891	112.19
306.121	120.19
306.352	109.19
306.582	98.19
306.812	124.19
307.042	108.19
307.272	95.19
307.502	94.19
307.731	99.19
307.961	109.19
308.191	111.19
308.421	104.19
308.651	105.19
308.881	115.19
309.111	107.19
309.341	116.19
309.571	112.19
309.8	107.19
310.03	112.19
310.26	105.19
310.49	102.19
310.72	106.19
310.949	96.19
311.179	111.19
311.409	115.19
311.639	105.19
311.868	111.19
312.098	110.19
312.328	111.19
312.557	116.19
312.787	95.19
313.017	113.19
313.246	121.19
313.476	112.19
313.706	110.19
313.935	99.19
314.165	105.19
314.394	105.19
314.624	103.19
314.853	104.19
315.083	110.19
315.312	118.19
315.542	106.19
315.771	109.19
316.001	100.19
316.23	118.19
316.46	95.19
316.689	108.19
316.919	99.19
317.148	99.19
317.377	122.19
317.607	117.19
317.836	107.19
318.065	99.19
318.295	98.19
318.524	104.19
318.753	106.19
318.983	93.19
319.212	107.19
319.441	120.19
319.67	125.19
319.9	110.19
320.129	119.19
320.358	114.19
320.587	105.19
320.816	102.19
321.046	111.19
321.275	122.19
321.504	111.19
321.733	100.19
321.962	108.19
322.191	100.19
322.42	112.19
322.649	110.19
322.878	123.19
323.108	97.19
323.337	117.19
323.566	120.19
323.795	105.19
324.024	119.19
324.253	110.19
324.482	111.19
324.71	105.19
324.939	115.19
325.168	104.19
325.397	126.19
325.626	112.19
325.855	111.19
326.084	123.19
326.313	122.19
326.542	114.19
326.77	114.19
326.999	108.19
327.228	135.19
327.457	109.19
327.686	109.19
327.914	120.19
328.143	107.19
328.372	115.19
328.6	108.19
328.829	122.19
329.058	120.19
329.287	110.19
329.515	102.19
329.744	117.19
329.972	114.19
330.201	112.19
330.43	108.19
330.658	94.19
330.887	119.19
331.115	92.19
331.344	103.19
331.572	122.19
331.801	125.19
332.03	115.19
332.258	109.19
332.486	123.19
332.715	100.19
332.943	114.19
333.172	124.19
333.4	134.19
333.629	121.19
333.857	113.19
334.085	127.19
334.314	134.19
334.542	134.19
334.771	109.19
334.999	118.19
335.227	137.19
335.455	122.19
335.684	127.19
335.912	127.19
336.14	121.19
336.369	94.19
336.597	118.19
336.825	121.19
337.053	130.19
337.281	123.19
337.51	110.19
337.738	128.19
337.966	113.19
338.194	111.19
338.422	84.19
338.65	120.19
338.878	133.19
339.106	125.19
339.334	120.19
339.562	117.19
339.79	122.19
340.018	117.19
340.246	119.19
340.474	114.19
340.702	112.19
340.93	117.19
341.158	125.19
341.386	98.19
341.614	124.19
341.842	118.19
342.07	106.19
342.298	128.19
342.526	103.19
342.754	120.19
342.981	124.19
343.209	123.19
343.437	144.19
343.665	119.19
343.893	136.19
344.12	132.19
344.348	126.19
344.576	114.19
344.804	101.19
345.031	102.19
345.259	112.19
345.487	104.19
345.714	107.19
345.942	101.19
346.17	105.19
346.397	102.19
346.625	100.19
346.853	121.19
347.08	106.19
347.308	120.19
347.535	112.19
347.763	123.19
347.99	124.19
348.218	115.19
348.445	111.19
348.673	116.19
348.9	107.19
349.128	112.19
349.355	115.19
349.583	122.19
349.81	110.19
350.037	111.19
350.265	113.19
350.492	105.19
350.72	110.19
350.947	111.19
351.174	109.19
351.402	120.19
351.629	100.19
351.856	121.19
352.083	98.19
352.311	97.19
352.538	103.19
352.765	117.19
352.992	128.19
353.22	107.19
353.447	113.19
353.674	105.19
353.901	131.19
354.128	111.19
354.355	99.19
354.583	102.19
354.81	119.19
355.037	119.19
355.264	111.19
355.491	110.19
355.718	115.19
355.945	123.19
356.172	116.19
356.399	119.19
356.626	104.19
356.853	119.19
357.08	116.19
357.307	109.19
357.534	121.19
357.761	121.19
357.988	118.19
358.215	118.19
358.441	117.19
358.668	122.19
358.895	118.19
359.122	116.19
359.349	113.19
359.576	113.19
359.802	115.19
360.029	107.19
360.256	116.19
360.483	114.19
360.709	102.19
360.936	136.19
361.163	105.19
361.39	96.19
361.616	119.19
361.843	108.19
362.07	106.19
362.296	129.19
362.523	108.19
362.749	106.19
362.976	114.19
363.203	132.19
363.429	113.19
363.656	125.19
363.882	121.19
364.109	107.19
364.335	139.19
364.562	102.19
364.788	111.19
365.015	121.19
365.241	108.19
365.468	99.19
365.694	115.19
365.92	134.19
366.147	117.19
366.373	100.19
366.599	119.19
366.826	113.19
367.052	111.19
367.278	107.19
367.505	115.19
367.731	147.19
367.957	128.19
368.184	90.19
368.41	96.19
368.636	116.19
368.862	130.19
369.089	118.19
369.315	110.19
369.541	106.19
369.767	108.19
369.993	117.19
370.219	115.19
370.445	100.19
370.672	116.19
370.898	104.19
371.124	119.19
371.35	118.19
371.576	125.19
371.802	116.19
372.028	112.19
372.254	117.19
372.48	118.19
372.706	119.19
372.932	106.19
373.158	119.19
373.384	107.19
373.61	112.19
373.835	115.19
374.061	97.19
374.287	104.19
374.513	106.19
374.739	106.19
374.965	114.19
375.191	127.19
375.416	120.19
375.642	119.19
375.868	134.19
376.094	104.19
376.319	124.19
376.545	112.19
376.771	125.19
376.997	110.19
377.222	119.19
377.448	111.19
377.674	112.19
377.899	117.19
378.125	96.19
378.35	109.19
378.576	124.19
378.802	115.19
379.027	123.19
379.253	104.19
379.478	116.19
379.704	124.19
379.929	124.19
380.155	103.19
380.38	115.19
380.606	105.19
380.831	110.19
381.057	119.19
381.282	114.19
381.507	106.19
381.733	125.19
381.958	128.19
382.184	106.19
382.409	122.19
382.634	116.19
382.86	127.19
383.085	115.19
383.31	120.19
383.535	119.19
383.761	123.19
383.986	123.19
384.211	117.19
384.436	128.19
384.662	123.19
384.887	103.19
385.112	134.19
385.337	115.19
385.562	127.19
385.787	127.19
386.013	130.19
386.238	118.19
386.463	122.19
386.688	154.19
386.913	117.19
387.138	115.19
387.363	108.19
387.588	135.19
387.813	127.19
388.038	112.19
388.263	141.19
388.488	123.19
388.713	114.19
388.938	131.19
389.163	123.19
389.387	117.19
389.612	138.19
389.837	131.19
390.062	129.19
390.287	122.19
390.512	110.19
390.736	134.19
390.961	148.19
391.186	127.19
391.411	129.19
391.636	124.19
391.86	135.19
392.085	134.19
392.31	135.19
392.534	139.19
392.759	134.19
392.984	136.19
393.208	135.19
393.433	139.19
393.658	134.19
393.882	127.19
394.107	138.19
394.331	121.19
394.556	139.19
394.78	150.19
395.005	135.19
395.229	140.19
395.454	152.19
395.678	140.19
395.903	138.19
396.127	135.19
396.352	145.19
396.576	142.19
396.801	136.19
397.025	138.19
397.249	139.19
397.474	138.19
397.698	138.19
397.922	152.19
398.147	130.19
398.371	134.19
398.595	154.19
398.82	154.19
399.044	176.19
399.268	158.19
399.492	184.19
399.717	191.19
399.941	191.19
400.165	176.19
400.389	170.19
400.613	167.19
400.837	156.19
401.062	165.19
401.286	154.19
401.51	164.19
401.734	140.19
401.958	167.19
402.182	145.19
402.406	158.19
402.63	160.19
402.854	171.19
403.078	191.19
403.302	176.19
403.526	171.19
403.75	172.19
403.974	172.19
404.198	185.19
404.422	179.19
404.645	171.19
404.869	164.19
405.093	169.19
405.317	168.19
405.541	187.19
405.765	176.19
405.988	168.19
406.212	187.19
406.436	177.19
406.66	187.19
406.883	163.19
407.107	163.19
407.331	199.19
407.555	186.19
407.778	181.19
408.002	189.19
408.226	180.19
408.449	183.19
408.673	175.19
408.896	186.19
409.12	160.19
409.344	184.19
409.567	190.19
409.791	171.19
410.014	188.19
410.238	177.19
410.461	186.19
410.685	192.19
410.908	169.19
411.132	189.19
411.355	183.19
411.578	186.19
411.802	173.19
412.025	161.19
412.249	181.19
412.472	181.19
412.695	179.19
412.919	160.19
413.142	187.19
413.365	156.19
413.589	169.19
413.812	177.19
414.035	173.19
414.258	174.19
414.482	164.19
414.705	183.19
414.928	184.19
415.151	176.19
415.374	165.19
415.597	158.19
415.821	186.19
416.044	174.19
416.267	171.19
416.49	176.19
416.713	168.19
416.936	194.19
417.159	178.19
417.382	168.19
417.605	176.19
417.828	190.19
418.051	162.19
418.274	182.19
418.497	160.19
418.72	178.19
418.943	182.19
419.166	192.19
419.389	185.19
419.611	193.19
419.834	189.19
420.057	171.19
420.28	163.19
420.503	162.19
420.726	172.19
420.948	178.19
421.171	190.19
421.394	181.19
421.617	175.19
421.839	195.19
422.062	186.19
422.285	193.19
422.507	178.19
422.73	182.19
422.953	169.19
423.175	172.19
423.398	179.19
423.621	204.19
423.843	195.19
424.066	188.19
424.288	184.19
424.511	190.19
424.733	192.19
424.956	179.19
425.178	187.19
425.401	187.19
425.623	179.19
425.846	186.19
426.068	182.19
426.291	167.19
426.513	174.19
426.735	168.19
426.958	178.19
427.18	177.19
427.402	163.19
427.625	174.19
427.847	160.19
428.069	169.19
428.292	156.19
428.514	179.19
428.736	178.19
428.958	171.19
429.181	168.19
429.403	171.19
429.625	160.19
429.847	166.19
430.069	179.19
430.292	169.19
430.514	143.19
430.736	177.19
430.958	164.19
431.18	159.19
431.402	172.19
431.624	177.19
431.846	159.19
432.068	162.19
432.29	172.19
432.512	164.19
432.734	160.19
432.956	160.19
433.178	189.19
433.4	178.19
433.622	168.19
433.844	183.19
434.066	168.19
434.287	142.19
434.509	142.19
434.731	163.19
434.953	175.19
435.175	174.19
435.397	170.19
435.618	175.19
435.84	180.19
436.062	179.19
436.284	167.19
436.505	147.19
436.727	172.19
436.949	171.19
437.17	153.19
437.392	168.19
437.614	162.19
437.835	152.19
438.057	174.19
438.278	157.19
438.5	156.19
438.721	164.19
438.943	163.19
439.165	185.19
439.386	186.19
439.608	186.19
439.829	192.19
440.05	170.19
440.272	180.19
440.493	165.19
440.715	182.19
440.936	202.19
441.158	175.19
441.379	177.19
441.6	188.19
441.822	188.19
442.043	200.19
442.264	182.19
442.486	170.19
442.707	180.19
442.928	181.19
443.149	166.19
443.371	196.19
443.592	187.19
443.813	200.19
444.034	192.19
444.255	187.19
444.476	183.19
444.698	191.19
444.919	204.19
445.14	436.19
445.361	285.19
445.582	196.19
445.803	180.19
446.024	175.19
446.245	190.19
446.466	179.19
446.687	179.19
446.908	198.19
447.129	186.19
447.35	184.19
447.571	190.19
447.792	171.19
448.013	166.19
448.234	167.19
448.455	159.19
448.675	152.19
448.896	166.19
449.117	161.19
449.338	176.19
449.559	170.19
449.779	165.19
450	168.19
450.221	157.19
450.442	158.19
450.662	175.19
450.883	170.19
451.104	164.19
451.324	163.19
451.545	180.19
451.766	151.19
451.986	168.19
452.207	173.19
452.428	166.19
452.648	165.19
452.869	172.19
453.089	139.19
453.31	145.19
453.53	150.19
453.751	148.19
453.971	139.19
454.192	152.19
454.412	148.19
454.633	147.19
454.853	138.19
455.073	154.19
455.294	157.19
455.514	158.19
455.734	167.19
455.955	163.19
456.175	147.19
456.395	142.19
456.616	150.19
456.836	137.19
457.056	169.19
457.276	138.19
457.497	137.19
457.717	150.19
457.937	140.19
458.157	154.19
458.377	150.19
458.598	152.19
458.818	144.19
459.038	131.19
459.258	142.19
459.478	143.19
459.698	139.19
459.918	165.19
460.138	182.19
460.358	163.19
460.578	168.19
460.798	170.19
461.018	168.19
461.238	190.19
461.458	185.19
461.678	173.19
461.898	176.19
462.118	181.19
462.338	169.19
462.558	171.19
462.777	195.19
462.997	200.19
463.217	185.19
463.437	187.19
463.657	192.19
463.876	184.19
464.096	181.19
464.316	185.19
464.536	193.19
464.755	189.19
464.975	195.19
465.195	188.19
465.414	175.19
465.634	160.19
465.854	164.19
466.073	166.19
466.293	167.19
466.512	170.19
466.732	162.19
466.951	158.19
467.171	170.19
467.391	159.19
467.61	162.19
467.829	168.19
468.049	172.19
468.268	170.19
468.488	171.19
468.707	162.19
468.927	157.19
469.146	147.19
469.365	157.19
469.585	161.19
469.804	170.19
470.023	164.19
470.243	172.19
470.462	184.19
470.681	172.19
470.901	186.19
471.12	155.19
471.339	147.19
471.558	160.19
471.777	155.19
471.997	165.19
472.216	164.19
472.435	152.19
472.654	147.19
472.873	152.19
473.092	153.19
473.311	166.19
473.53	153.19
473.749	158.19
473.968	157.19
474.187	155.19
474.406	153.19
474.625	158.19
474.844	154.19
475.063	145.19
475.282	164.19
475.501	147.19
475.72	167.19
475.939	152.19
476.158	156.19
476.377	163.19
476.596	156.19
476.814	142.19
477.033	158.19
477.252	164.19
477.471	169.19
477.69	190.19
477.908	168.19
478.127	182.19
478.346	183.19
478.564	181.19
478.783	159.19
479.002	188.19
479.22	195.19
479.439	175.19
479.658	182.19
479.876	152.19
480.095	173.19
480.313	178.19
480.532	176.19
480.751	168.19
480.969	158.19
481.188	158.19
481.406	153.19
481.624	147.19
481.843	154.19
482.061	163.19
482.28	169.19
482.498	155.19
482.717	165.19
482.935	163.19
483.153	175.19
483.372	186.19
483.59	178.19
483.808	173.19
484.027	175.19
484.245	169.19
484.463	172.19
484.681	189.19
484.9	172.19
485.118	159.19
485.336	162.19
485.554	164.19
485.772	154.19
485.99	146.19
486.209	171.19
486.427	164.19
486.645	164.19
486.863	180.19
487.081	174.19
487.299	161.19
487.517	171.19
487.735	173.19
487.953	198.19
488.171	198.19
488.389	192.19
488.607	171.19
488.825	167.19
489.043	182.19
489.261	178.19
489.479	172.19
489.696	183.19
489.914	155.19
490.132	179.19
490.35	204.19
490.568	167.19
490.786	200.19
491.003	202.19
491.221	207.19
491.439	202.19
491.657	199.19
491.874	217.19
492.092	216.19
492.31	239.19
492.527	210.19
492.745	211.19
492.963	200.19
493.18	222.19
493.398	201.19
493.615	219.19
493.833	206.19
494.05	208.19
494.268	210.19
494.485	185.19
494.703	200.19
494.92	205.19
495.138	199.19
495.355	193.19
495.573	226.19
495.79	214.19
496.008	211.19
496.225	209.19
496.442	177.19
496.66	201.19
496.877	202.19
497.094	212.19
497.312	199.19
497.529	214.19
497.746	206.19
497.963	184.19
498.181	202.19
498.398	188.19
498.615	204.19
498.832	208.19
499.049	220.19
499.267	240.19
499.484	244.19
499.701	263.19
499.918	276.19
500.135	304.19
500.352	342.19
500.569	350.19
500.786	344.19
501.003	327.19
501.22	291.19
501.437	267.19
501.654	247.19
501.871	218.19
502.088	228.19
502.305	217.19
502.522	203.19
502.739	208.19
502.956	194.19
503.172	192.19
503.389	192.19
503.606	182.19
503.823	196.19
504.04	185.19
504.256	210.19
504.473	197.19
504.69	194.19
504.907	204.19
505.123	172.19
505.34	174.19
505.557	179.19
505.773	173.19
505.99	159.19
