Data from SampA_HRD10591_00099.txt Node
Date: Mon Jan 19 11:27:20 EST 2026
User: Yrep
Spectrometer: HR+D1059
Trigger mode: 0
Integration Time (sec): 3.443000E-1
Scans to average: 1
Electric dark correction enabled: true
Nonlinearity correction enabled: false
Boxcar width: 0
XAxis mode: Wavelengths
Number of Pixels in Spectrum: 2048
>>>>>Begin Spectral Data<<<<<
223.165	-14.31
223.4	-14.31
223.635	-14.31
223.869	-14.31
224.104	-41.31
224.338	-14.31
224.573	-17.31
224.808	-13.31
225.042	-2.31
225.277	-6.31
225.511	-10.31
225.746	7.69
225.98	15.69
226.215	12.69
226.449	15.69
226.683	23.69
226.918	27.69
227.152	30.69
227.387	42.69
227.621	27.69
227.856	44.69
228.09	44.69
228.324	47.69
228.559	60.69
228.793	54.69
229.027	68.69
229.262	58.69
229.496	58.69
229.73	76.69
229.964	85.69
230.199	68.69
230.433	85.69
230.667	88.69
230.901	88.69
231.136	87.69
231.37	84.69
231.604	98.69
231.838	88.69
232.072	83.69
232.306	97.69
232.541	86.69
232.775	91.69
233.009	80.69
233.243	83.69
233.477	99.69
233.711	89.69
233.945	86.69
234.179	83.69
234.413	86.69
234.647	81.69
234.881	76.69
235.115	92.69
235.349	81.69
235.583	87.69
235.817	88.69
236.051	84.69
236.285	93.69
236.519	90.69
236.753	87.69
236.987	77.69
237.221	81.69
237.455	98.69
237.689	76.69
237.922	91.69
238.156	87.69
238.39	90.69
238.624	85.69
238.858	88.69
239.091	78.69
239.325	79.69
239.559	88.69
239.793	73.69
240.027	107.69
240.26	98.69
240.494	95.69
240.728	97.69
240.961	86.69
241.195	100.69
241.429	91.69
241.662	99.69
241.896	90.69
242.13	97.69
242.363	79.69
242.597	79.69
242.83	75.69
243.064	82.69
243.298	81.69
243.531	78.69
243.765	86.69
243.998	96.69
244.232	103.69
244.465	92.69
244.699	86.69
244.932	88.69
245.166	87.69
245.399	88.69
245.633	86.69
245.866	77.69
246.099	100.69
246.333	87.69
246.566	88.69
246.8	91.69
247.033	90.69
247.266	101.69
247.5	92.69
247.733	79.69
247.966	104.69
248.2	97.69
248.433	96.69
248.666	85.69
248.899	101.69
249.133	95.69
249.366	100.69
249.599	95.69
249.832	95.69
250.066	105.69
250.299	113.69
250.532	107.69
250.765	86.69
250.998	93.69
251.231	96.69
251.465	80.69
251.698	101.69
251.931	84.69
252.164	107.69
252.397	103.69
252.63	109.69
252.863	103.69
253.096	95.69
253.329	100.69
253.562	94.69
253.795	110.69
254.028	100.69
254.261	92.69
254.494	98.69
254.727	101.69
254.96	93.69
255.193	95.69
255.426	94.69
255.659	85.69
255.892	110.69
256.124	99.69
256.357	93.69
256.59	95.69
256.823	102.69
257.056	91.69
257.289	96.69
257.521	103.69
257.754	94.69
257.987	79.69
258.22	95.69
258.452	91.69
258.685	92.69
258.918	105.69
259.151	101.69
259.383	108.69
259.616	107.69
259.849	98.69
260.081	95.69
260.314	115.69
260.547	109.69
260.779	93.69
261.012	93.69
261.244	90.69
261.477	120.69
261.71	91.69
261.942	108.69
262.175	117.69
262.407	101.69
262.64	100.69
262.872	97.69
263.105	100.69
263.337	107.69
263.57	100.69
263.802	116.69
264.035	105.69
264.267	113.69
264.499	118.69
264.732	106.69
264.964	112.69
265.197	104.69
265.429	102.69
265.661	124.69
265.894	103.69
266.126	97.69
266.358	103.69
266.591	101.69
266.823	105.69
267.055	99.69
267.287	108.69
267.52	93.69
267.752	95.69
267.984	99.69
268.216	104.69
268.448	109.69
268.681	126.69
268.913	121.69
269.145	120.69
269.377	119.69
269.609	103.69
269.841	89.69
270.073	89.69
270.306	116.69
270.538	102.69
270.77	119.69
271.002	106.69
271.234	109.69
271.466	111.69
271.698	111.69
271.93	102.69
272.162	118.69
272.394	113.69
272.626	105.69
272.858	116.69
273.09	107.69
273.322	120.69
273.553	102.69
273.785	106.69
274.017	103.69
274.249	103.69
274.481	105.69
274.713	104.69
274.945	115.69
275.176	119.69
275.408	97.69
275.64	110.69
275.872	118.69
276.104	106.69
276.335	109.69
276.567	127.69
276.799	107.69
277.031	101.69
277.262	127.69
277.494	116.69
277.726	120.69
277.957	120.69
278.189	103.69
278.421	104.69
278.652	106.69
278.884	109.69
279.115	102.69
279.347	97.69
279.579	83.69
279.81	122.69
280.042	108.69
280.273	106.69
280.505	120.69
280.736	126.69
280.968	107.69
281.199	104.69
281.431	116.69
281.662	119.69
281.894	123.69
282.125	124.69
282.356	111.69
282.588	117.69
282.819	122.69
283.051	121.69
283.282	117.69
283.513	135.69
283.745	114.69
283.976	132.69
284.207	116.69
284.439	118.69
284.67	127.69
284.901	131.69
285.132	115.69
285.364	125.69
285.595	125.69
285.826	113.69
286.057	111.69
286.288	115.69
286.52	121.69
286.751	124.69
286.982	126.69
287.213	107.69
287.444	135.69
287.675	122.69
287.906	116.69
288.138	124.69
288.369	121.69
288.6	131.69
288.831	115.69
289.062	143.69
289.293	123.69
289.524	125.69
289.755	116.69
289.986	107.69
290.217	134.69
290.448	123.69
290.679	126.69
290.91	137.69
291.141	120.69
291.371	126.69
291.602	129.69
291.833	132.69
292.064	123.69
292.295	120.69
292.526	111.69
292.757	136.69
292.987	135.69
293.218	145.69
293.449	126.69
293.68	118.69
293.91	119.69
294.141	127.69
294.372	132.69
294.603	126.69
294.833	125.69
295.064	121.69
295.295	135.69
295.525	147.69
295.756	126.69
295.987	140.69
296.217	133.69
296.448	126.69
296.679	122.69
296.909	142.69
297.14	136.69
297.37	133.69
297.601	139.69
297.831	119.69
298.062	115.69
298.292	112.69
298.523	151.69
298.753	123.69
298.984	142.69
299.214	124.69
299.445	117.69
299.675	132.69
299.905	124.69
300.136	131.69
300.366	147.69
300.597	126.69
300.827	115.69
301.057	125.69
301.288	132.69
301.518	131.69
301.748	133.69
301.979	174.69
302.209	134.69
302.439	142.69
302.669	134.69
302.9	138.69
303.13	128.69
303.36	133.69
303.59	135.69
303.82	126.69
304.051	127.69
304.281	117.69
304.511	138.69
304.741	144.69
304.971	128.69
305.201	134.69
305.431	120.69
305.661	147.69
305.891	134.69
306.121	137.69
306.352	144.69
306.582	139.69
306.812	127.69
307.042	141.69
307.272	128.69
307.502	138.69
307.731	144.69
307.961	137.69
308.191	131.69
308.421	135.69
308.651	126.69
308.881	135.69
309.111	120.69
309.341	135.69
309.571	145.69
309.8	128.69
310.03	133.69
310.26	147.69
310.49	144.69
310.72	130.69
310.949	128.69
311.179	133.69
311.409	139.69
311.639	126.69
311.868	147.69
312.098	127.69
312.328	135.69
312.557	152.69
312.787	140.69
313.017	129.69
313.246	132.69
313.476	125.69
313.706	128.69
313.935	151.69
314.165	134.69
314.394	147.69
314.624	132.69
314.853	133.69
315.083	131.69
315.312	143.69
315.542	126.69
315.771	132.69
316.001	119.69
316.23	139.69
316.46	151.69
316.689	151.69
316.919	160.69
317.148	132.69
317.377	137.69
317.607	136.69
317.836	134.69
318.065	129.69
318.295	125.69
318.524	122.69
318.753	152.69
318.983	132.69
319.212	142.69
319.441	131.69
319.67	128.69
319.9	146.69
320.129	148.69
320.358	156.69
320.587	140.69
320.816	144.69
321.046	125.69
321.275	128.69
321.504	133.69
321.733	136.69
321.962	136.69
322.191	152.69
322.42	137.69
322.649	151.69
322.878	157.69
323.108	124.69
323.337	145.69
323.566	140.69
323.795	132.69
324.024	155.69
324.253	149.69
324.482	129.69
324.71	152.69
324.939	146.69
325.168	147.69
325.397	117.69
325.626	141.69
325.855	133.69
326.084	145.69
326.313	145.69
326.542	155.69
326.77	160.69
326.999	154.69
327.228	161.69
327.457	147.69
327.686	165.69
327.914	133.69
328.143	148.69
328.372	157.69
328.6	141.69
328.829	139.69
329.058	152.69
329.287	147.69
329.515	133.69
329.744	151.69
329.972	142.69
330.201	148.69
330.43	129.69
330.658	132.69
330.887	136.69
331.115	154.69
331.344	157.69
331.572	160.69
331.801	152.69
332.03	160.69
332.258	156.69
332.486	152.69
332.715	156.69
332.943	168.69
333.172	161.69
333.4	179.69
333.629	176.69
333.857	171.69
334.085	167.69
334.314	169.69
334.542	180.69
334.771	169.69
334.999	175.69
335.227	159.69
335.455	156.69
335.684	149.69
335.912	161.69
336.14	149.69
336.369	139.69
336.597	146.69
336.825	151.69
337.053	171.69
337.281	166.69
337.51	167.69
337.738	151.69
337.966	159.69
338.194	149.69
338.422	155.69
338.65	148.69
338.878	158.69
339.106	149.69
339.334	159.69
339.562	147.69
339.79	140.69
340.018	139.69
340.246	144.69
340.474	137.69
340.702	138.69
340.93	153.69
341.158	148.69
341.386	140.69
341.614	144.69
341.842	155.69
342.07	142.69
342.298	145.69
342.526	131.69
342.754	159.69
342.981	132.69
343.209	164.69
343.437	179.69
343.665	161.69
343.893	164.69
344.12	179.69
344.348	160.69
344.576	158.69
344.804	151.69
345.031	146.69
345.259	142.69
345.487	156.69
345.714	127.69
345.942	146.69
346.17	161.69
346.397	148.69
346.625	158.69
346.853	140.69
347.08	136.69
347.308	142.69
347.535	134.69
347.763	130.69
347.99	157.69
348.218	152.69
348.445	142.69
348.673	142.69
348.9	158.69
349.128	164.69
349.355	137.69
349.583	159.69
349.81	153.69
350.037	137.69
350.265	157.69
350.492	148.69
350.72	136.69
350.947	150.69
351.174	145.69
351.402	144.69
351.629	141.69
351.856	134.69
352.083	149.69
352.311	138.69
352.538	133.69
352.765	140.69
352.992	161.69
353.22	168.69
353.447	127.69
353.674	154.69
353.901	138.69
354.128	137.69
354.355	138.69
354.583	139.69
354.81	123.69
355.037	120.69
355.264	151.69
355.491	144.69
355.718	143.69
355.945	128.69
356.172	149.69
356.399	161.69
356.626	144.69
356.853	137.69
357.08	145.69
357.307	144.69
357.534	142.69
357.761	148.69
357.988	169.69
358.215	146.69
358.441	132.69
358.668	138.69
358.895	140.69
359.122	144.69
359.349	138.69
359.576	142.69
359.802	153.69
360.029	138.69
360.256	144.69
360.483	132.69
360.709	149.69
360.936	159.69
361.163	145.69
361.39	144.69
361.616	138.69
361.843	135.69
362.07	139.69
362.296	144.69
362.523	125.69
362.749	144.69
362.976	142.69
363.203	149.69
363.429	131.69
363.656	147.69
363.882	156.69
364.109	143.69
364.335	159.69
364.562	150.69
364.788	133.69
365.015	151.69
365.241	156.69
365.468	151.69
365.694	157.69
365.92	125.69
366.147	140.69
366.373	135.69
366.599	130.69
366.826	154.69
367.052	142.69
367.278	147.69
367.505	149.69
367.731	157.69
367.957	142.69
368.184	155.69
368.41	151.69
368.636	143.69
368.862	150.69
369.089	155.69
369.315	154.69
369.541	150.69
369.767	154.69
369.993	147.69
370.219	154.69
370.445	158.69
370.672	149.69
370.898	152.69
371.124	148.69
371.35	153.69
371.576	145.69
371.802	155.69
372.028	157.69
372.254	162.69
372.48	152.69
372.706	158.69
372.932	165.69
373.158	164.69
373.384	164.69
373.61	156.69
373.835	148.69
374.061	163.69
374.287	167.69
374.513	170.69
374.739	168.69
374.965	163.69
375.191	179.69
375.416	164.69
375.642	162.69
375.868	173.69
376.094	161.69
376.319	160.69
376.545	160.69
376.771	145.69
376.997	138.69
377.222	159.69
377.448	160.69
377.674	159.69
377.899	164.69
378.125	133.69
378.35	156.69
378.576	147.69
378.802	150.69
379.027	148.69
379.253	159.69
379.478	153.69
379.704	158.69
379.929	173.69
380.155	165.69
380.38	160.69
380.606	150.69
380.831	154.69
381.057	173.69
381.282	166.69
381.507	162.69
381.733	162.69
381.958	159.69
382.184	162.69
382.409	153.69
382.634	163.69
382.86	172.69
383.085	159.69
383.31	156.69
383.535	182.69
383.761	182.69
383.986	180.69
384.211	169.69
384.436	171.69
384.662	174.69
384.887	172.69
385.112	170.69
385.337	178.69
385.562	167.69
385.787	165.69
386.013	175.69
386.238	189.69
386.463	182.69
386.688	203.69
386.913	171.69
387.138	173.69
387.363	164.69
387.588	186.69
387.813	181.69
388.038	177.69
388.263	180.69
388.488	176.69
388.713	179.69
388.938	196.69
389.163	195.69
389.387	171.69
389.612	175.69
389.837	181.69
390.062	182.69
390.287	183.69
390.512	184.69
390.736	185.69
390.961	179.69
391.186	193.69
391.411	178.69
391.636	202.69
391.86	212.69
392.085	195.69
392.31	195.69
392.534	193.69
392.759	204.69
392.984	195.69
393.208	191.69
393.433	179.69
393.658	203.69
393.882	184.69
394.107	202.69
394.331	207.69
394.556	208.69
394.78	219.69
395.005	213.69
395.229	228.69
395.454	221.69
395.678	207.69
395.903	212.69
396.127	204.69
396.352	218.69
396.576	206.69
396.801	199.69
397.025	208.69
397.249	204.69
397.474	216.69
397.698	199.69
397.922	229.69
398.147	225.69
398.371	229.69
398.595	228.69
398.82	220.69
399.044	248.69
399.268	281.69
399.492	315.69
399.717	324.69
399.941	297.69
400.165	268.69
400.389	255.69
400.613	257.69
400.837	251.69
401.062	229.69
401.286	241.69
401.51	258.69
401.734	253.69
401.958	259.69
402.182	247.69
402.406	263.69
402.63	271.69
402.854	276.69
403.078	275.69
403.302	264.69
403.526	270.69
403.75	273.69
403.974	293.69
404.198	300.69
404.422	292.69
404.645	305.69
404.869	285.69
405.093	279.69
405.317	277.69
405.541	294.69
405.765	277.69
405.988	298.69
406.212	286.69
406.436	276.69
406.66	309.69
406.883	290.69
407.107	300.69
407.331	345.69
407.555	321.69
407.778	295.69
408.002	315.69
408.226	304.69
408.449	295.69
408.673	302.69
408.896	302.69
409.12	300.69
409.344	304.69
409.567	286.69
409.791	283.69
410.014	308.69
410.238	314.69
410.461	304.69
410.685	299.69
410.908	283.69
411.132	277.69
411.355	299.69
411.578	302.69
411.802	286.69
412.025	290.69
412.249	297.69
412.472	297.69
412.695	291.69
412.919	277.69
413.142	299.69
413.365	293.69
413.589	297.69
413.812	294.69
414.035	290.69
414.258	289.69
414.482	297.69
414.705	309.69
414.928	308.69
415.151	271.69
415.374	273.69
415.597	291.69
415.821	303.69
416.044	276.69
416.267	301.69
416.49	298.69
416.713	297.69
416.936	284.69
417.159	284.69
417.382	288.69
417.605	296.69
417.828	334.69
418.051	294.69
418.274	302.69
418.497	304.69
418.72	310.69
418.943	293.69
419.166	315.69
419.389	333.69
419.611	340.69
419.834	294.69
420.057	293.69
420.28	288.69
420.503	308.69
420.726	292.69
420.948	301.69
421.171	287.69
421.394	312.69
421.617	302.69
421.839	302.69
422.062	312.69
422.285	303.69
422.507	313.69
422.73	297.69
422.953	309.69
423.175	299.69
423.398	302.69
423.621	301.69
423.843	320.69
424.066	326.69
424.288	320.69
424.511	336.69
424.733	315.69
424.956	317.69
425.178	309.69
425.401	299.69
425.623	303.69
425.846	289.69
426.068	281.69
426.291	292.69
426.513	284.69
426.735	292.69
426.958	290.69
427.18	273.69
427.402	269.69
427.625	276.69
427.847	272.69
428.069	279.69
428.292	287.69
428.514	285.69
428.736	278.69
428.958	282.69
429.181	271.69
429.403	264.69
429.625	288.69
429.847	285.69
430.069	285.69
430.292	275.69
430.514	272.69
430.736	265.69
430.958	271.69
431.18	251.69
431.402	273.69
431.624	259.69
431.846	252.69
432.068	231.69
432.29	231.69
432.512	267.69
432.734	259.69
432.956	272.69
433.178	288.69
433.4	282.69
433.622	283.69
433.844	288.69
434.066	262.69
434.287	260.69
434.509	215.69
434.731	241.69
434.953	276.69
435.175	274.69
435.397	298.69
435.618	252.69
435.84	251.69
436.062	246.69
436.284	282.69
436.505	272.69
436.727	260.69
436.949	273.69
437.17	250.69
437.392	269.69
437.614	257.69
437.835	237.69
438.057	236.69
438.278	260.69
438.5	263.69
438.721	268.69
438.943	295.69
439.165	302.69
439.386	289.69
439.608	303.69
439.829	283.69
440.05	292.69
440.272	299.69
440.493	301.69
440.715	292.69
440.936	314.69
441.158	312.69
441.379	301.69
441.6	309.69
441.822	332.69
442.043	323.69
442.264	307.69
442.486	316.69
442.707	290.69
442.928	308.69
443.149	309.69
443.371	307.69
443.592	305.69
443.813	304.69
444.034	315.69
444.255	319.69
444.476	326.69
444.698	348.69
444.919	371.69
445.14	528.69
445.361	403.69
445.582	336.69
445.803	312.69
446.024	300.69
446.245	315.69
446.466	312.69
446.687	315.69
446.908	297.69
447.129	290.69
447.35	283.69
447.571	297.69
447.792	298.69
448.013	290.69
448.234	279.69
448.455	296.69
448.675	281.69
448.896	271.69
449.117	280.69
449.338	275.69
449.559	287.69
449.779	276.69
450	296.69
450.221	262.69
450.442	287.69
450.662	281.69
450.883	280.69
451.104	279.69
451.324	269.69
451.545	258.69
451.766	280.69
451.986	256.69
452.207	281.69
452.428	265.69
452.648	277.69
452.869	245.69
453.089	240.69
453.31	233.69
453.53	253.69
453.751	229.69
453.971	227.69
454.192	236.69
454.412	234.69
454.633	248.69
454.853	240.69
455.073	249.69
455.294	258.69
455.514	263.69
455.734	255.69
455.955	239.69
456.175	241.69
456.395	231.69
456.616	241.69
456.836	239.69
457.056	243.69
457.276	235.69
457.497	203.69
457.717	222.69
457.937	209.69
458.157	222.69
458.377	223.69
458.598	223.69
458.818	205.69
459.038	212.69
459.258	217.69
459.478	232.69
459.698	219.69
459.918	259.69
460.138	261.69
460.358	266.69
460.578	289.69
460.798	277.69
461.018	273.69
461.238	276.69
461.458	289.69
461.678	284.69
461.898	293.69
462.118	296.69
462.338	294.69
462.558	306.69
462.777	310.69
462.997	318.69
463.217	342.69
463.437	329.69
463.657	303.69
463.876	320.69
464.096	297.69
464.316	301.69
464.536	323.69
464.755	297.69
464.975	298.69
465.195	281.69
465.414	277.69
465.634	251.69
465.854	259.69
466.073	251.69
466.293	255.69
466.512	277.69
466.732	279.69
466.951	266.69
467.171	278.69
467.391	290.69
467.61	268.69
467.829	266.69
468.049	273.69
468.268	264.69
468.488	277.69
468.707	275.69
468.927	258.69
469.146	270.69
469.365	283.69
469.585	271.69
469.804	304.69
470.023	304.69
470.243	301.69
470.462	305.69
470.681	301.69
470.901	304.69
471.12	279.69
471.339	295.69
471.558	270.69
471.777	271.69
471.997	272.69
472.216	268.69
472.435	233.69
472.654	225.69
472.873	238.69
473.092	240.69
473.311	269.69
473.53	270.69
473.749	236.69
473.968	266.69
474.187	251.69
474.406	250.69
474.625	243.69
474.844	267.69
475.063	259.69
475.282	236.69
475.501	256.69
475.72	251.69
475.939	255.69
476.158	260.69
476.377	269.69
476.596	252.69
476.814	246.69
477.033	219.69
477.252	241.69
477.471	272.69
477.69	274.69
477.908	290.69
478.127	311.69
478.346	279.69
478.564	285.69
478.783	293.69
479.002	314.69
479.22	304.69
479.439	280.69
479.658	279.69
479.876	269.69
480.095	251.69
480.313	292.69
480.532	283.69
480.751	285.69
480.969	247.69
481.188	244.69
481.406	234.69
481.624	241.69
481.843	234.69
482.061	240.69
482.28	248.69
482.498	252.69
482.717	253.69
482.935	265.69
483.153	285.69
483.372	314.69
483.59	311.69
483.808	272.69
484.027	271.69
484.245	266.69
484.463	290.69
484.681	303.69
484.9	272.69
485.118	285.69
485.336	273.69
485.554	266.69
485.772	250.69
485.99	256.69
486.209	260.69
486.427	271.69
486.645	280.69
486.863	302.69
487.081	289.69
487.299	271.69
487.517	302.69
487.735	339.69
487.953	353.69
488.171	367.69
488.389	313.69
488.607	288.69
488.825	305.69
489.043	278.69
489.261	293.69
489.479	309.69
489.696	312.69
489.914	287.69
490.132	301.69
490.35	311.69
490.568	316.69
490.786	328.69
491.003	357.69
491.221	362.69
491.439	363.69
491.657	357.69
491.874	397.69
492.092	395.69
492.31	424.69
492.527	416.69
492.745	389.69
492.963	390.69
493.18	377.69
493.398	356.69
493.615	368.69
493.833	364.69
494.05	336.69
494.268	352.69
494.485	356.69
494.703	363.69
494.92	349.69
495.138	359.69
495.355	358.69
495.573	341.69
495.79	355.69
496.008	367.69
496.225	344.69
496.442	346.69
496.66	373.69
496.877	353.69
497.094	356.69
497.312	350.69
497.529	347.69
497.746	347.69
497.963	343.69
498.181	334.69
498.398	342.69
498.615	352.69
498.832	367.69
499.049	395.69
499.267	409.69
499.484	428.69
499.701	494.69
499.918	553.69
500.135	609.69
500.352	674.69
500.569	673.69
500.786	661.69
501.003	629.69
501.22	572.69
501.437	522.69
501.654	465.69
501.871	451.69
502.088	392.69
502.305	384.69
502.522	391.69
502.739	365.69
502.956	336.69
503.172	326.69
503.389	328.69
503.606	322.69
503.823	323.69
504.04	305.69
504.256	325.69
