Data from SampA_HRD10591_00096.txt Node
Date: Mon Jan 19 11:27:19 EST 2026
User: Yrep
Spectrometer: HR+D1059
Trigger mode: 0
Integration Time (sec): 3.443000E-1
Scans to average: 1
Electric dark correction enabled: true
Nonlinearity correction enabled: false
Boxcar width: 0
XAxis mode: Wavelengths
Number of Pixels in Spectrum: 2048
>>>>>Begin Spectral Data<<<<<
223.165	-13.19
223.4	-13.19
223.635	-13.19
223.869	-20.19
224.104	-27.19
224.338	-20.19
224.573	-23.19
224.808	-23.19
225.042	-4.19
225.277	-3.19
225.511	-3.19
225.746	18.81
225.98	15.81
226.215	29.81
226.449	17.81
226.683	17.81
226.918	22.81
227.152	14.81
227.387	42.81
227.621	47.81
227.856	39.81
228.09	33.81
228.324	44.81
228.559	57.81
228.793	46.81
229.027	46.81
229.262	61.81
229.496	53.81
229.73	80.81
229.964	86.81
230.199	77.81
230.433	70.81
230.667	90.81
230.901	77.81
231.136	78.81
231.37	81.81
231.604	83.81
231.838	86.81
232.072	93.81
232.306	96.81
232.541	85.81
232.775	73.81
233.009	87.81
233.243	83.81
233.477	82.81
233.711	84.81
233.945	68.81
234.179	86.81
234.413	90.81
234.647	90.81
234.881	77.81
235.115	79.81
235.349	79.81
235.583	76.81
235.817	89.81
236.051	75.81
236.285	87.81
236.519	92.81
236.753	75.81
236.987	95.81
237.221	75.81
237.455	84.81
237.689	70.81
237.922	76.81
238.156	86.81
238.39	83.81
238.624	86.81
238.858	81.81
239.091	65.81
239.325	91.81
239.559	74.81
239.793	82.81
240.027	93.81
240.26	78.81
240.494	85.81
240.728	78.81
240.961	86.81
241.195	92.81
241.429	82.81
241.662	71.81
241.896	89.81
242.13	93.81
242.363	81.81
242.597	70.81
242.83	79.81
243.064	75.81
243.298	79.81
243.531	88.81
243.765	76.81
243.998	91.81
244.232	107.81
244.465	85.81
244.699	83.81
244.932	89.81
245.166	85.81
245.399	84.81
245.633	91.81
245.866	91.81
246.099	92.81
246.333	77.81
246.566	80.81
246.8	91.81
247.033	85.81
247.266	90.81
247.5	72.81
247.733	89.81
247.966	100.81
248.2	93.81
248.433	83.81
248.666	90.81
248.899	105.81
249.133	94.81
249.366	97.81
249.599	102.81
249.832	79.81
250.066	103.81
250.299	96.81
250.532	82.81
250.765	95.81
250.998	92.81
251.231	95.81
251.465	91.81
251.698	82.81
251.931	77.81
252.164	78.81
252.397	95.81
252.63	100.81
252.863	84.81
253.096	98.81
253.329	91.81
253.562	91.81
253.795	113.81
254.028	101.81
254.261	94.81
254.494	95.81
254.727	100.81
254.96	94.81
255.193	92.81
255.426	90.81
255.659	95.81
255.892	95.81
256.124	87.81
256.357	101.81
256.59	93.81
256.823	98.81
257.056	97.81
257.289	84.81
257.521	88.81
257.754	119.81
257.987	79.81
258.22	100.81
258.452	98.81
258.685	108.81
258.918	98.81
259.151	87.81
259.383	101.81
259.616	101.81
259.849	98.81
260.081	94.81
260.314	97.81
260.547	90.81
260.779	91.81
261.012	105.81
261.244	98.81
261.477	105.81
261.71	100.81
261.942	95.81
262.175	94.81
262.407	105.81
262.64	84.81
262.872	105.81
263.105	85.81
263.337	103.81
263.57	103.81
263.802	86.81
264.035	109.81
264.267	89.81
264.499	90.81
264.732	99.81
264.964	100.81
265.197	105.81
265.429	110.81
265.661	103.81
265.894	87.81
266.126	109.81
266.358	107.81
266.591	108.81
266.823	94.81
267.055	103.81
267.287	92.81
267.52	105.81
267.752	102.81
267.984	93.81
268.216	98.81
268.448	109.81
268.681	101.81
268.913	100.81
269.145	94.81
269.377	113.81
269.609	95.81
269.841	106.81
270.073	115.81
270.306	113.81
270.538	101.81
270.77	103.81
271.002	116.81
271.234	121.81
271.466	104.81
271.698	98.81
271.93	100.81
272.162	109.81
272.394	114.81
272.626	115.81
272.858	109.81
273.09	94.81
273.322	121.81
273.553	114.81
273.785	104.81
274.017	115.81
274.249	102.81
274.481	108.81
274.713	104.81
274.945	110.81
275.176	104.81
275.408	125.81
275.64	117.81
275.872	116.81
276.104	105.81
276.335	104.81
276.567	102.81
276.799	101.81
277.031	120.81
277.262	108.81
277.494	115.81
277.726	110.81
277.957	117.81
278.189	106.81
278.421	114.81
278.652	98.81
278.884	105.81
279.115	120.81
279.347	98.81
279.579	108.81
279.81	112.81
280.042	112.81
280.273	116.81
280.505	108.81
280.736	117.81
280.968	107.81
281.199	114.81
281.431	103.81
281.662	102.81
281.894	110.81
282.125	110.81
282.356	119.81
282.588	116.81
282.819	113.81
283.051	126.81
283.282	114.81
283.513	113.81
283.745	95.81
283.976	117.81
284.207	101.81
284.439	108.81
284.67	103.81
284.901	119.81
285.132	109.81
285.364	135.81
285.595	106.81
285.826	113.81
286.057	101.81
286.288	105.81
286.52	110.81
286.751	123.81
286.982	126.81
287.213	107.81
287.444	124.81
287.675	129.81
287.906	114.81
288.138	118.81
288.369	116.81
288.6	114.81
288.831	126.81
289.062	134.81
289.293	127.81
289.524	106.81
289.755	112.81
289.986	127.81
290.217	122.81
290.448	117.81
290.679	115.81
290.91	136.81
291.141	111.81
291.371	121.81
291.602	108.81
291.833	121.81
292.064	122.81
292.295	117.81
292.526	111.81
292.757	106.81
292.987	113.81
293.218	111.81
293.449	98.81
293.68	129.81
293.91	127.81
294.141	120.81
294.372	118.81
294.603	125.81
294.833	118.81
295.064	113.81
295.295	113.81
295.525	110.81
295.756	122.81
295.987	130.81
296.217	121.81
296.448	121.81
296.679	113.81
296.909	142.81
297.14	147.81
297.37	134.81
297.601	118.81
297.831	108.81
298.062	126.81
298.292	118.81
298.523	116.81
298.753	122.81
298.984	106.81
299.214	130.81
299.445	123.81
299.675	128.81
299.905	129.81
300.136	115.81
300.366	125.81
300.597	113.81
300.827	113.81
301.057	119.81
301.288	131.81
301.518	121.81
301.748	126.81
301.979	169.81
302.209	121.81
302.439	116.81
302.669	117.81
302.9	124.81
303.13	114.81
303.36	118.81
303.59	121.81
303.82	125.81
304.051	125.81
304.281	140.81
304.511	147.81
304.741	113.81
304.971	129.81
305.201	129.81
305.431	132.81
305.661	114.81
305.891	132.81
306.121	122.81
306.352	125.81
306.582	130.81
306.812	141.81
307.042	120.81
307.272	129.81
307.502	146.81
307.731	135.81
307.961	135.81
308.191	117.81
308.421	127.81
308.651	121.81
308.881	138.81
309.111	125.81
309.341	124.81
309.571	138.81
309.8	137.81
310.03	126.81
310.26	121.81
310.49	119.81
310.72	138.81
310.949	121.81
311.179	147.81
311.409	133.81
311.639	125.81
311.868	117.81
312.098	129.81
312.328	137.81
312.557	145.81
312.787	129.81
313.017	134.81
313.246	140.81
313.476	114.81
313.706	130.81
313.935	122.81
314.165	124.81
314.394	141.81
314.624	144.81
314.853	131.81
315.083	119.81
315.312	142.81
315.542	133.81
315.771	136.81
316.001	138.81
316.23	132.81
316.46	129.81
316.689	153.81
316.919	112.81
317.148	133.81
317.377	147.81
317.607	124.81
317.836	123.81
318.065	121.81
318.295	124.81
318.524	126.81
318.753	132.81
318.983	137.81
319.212	125.81
319.441	129.81
319.67	128.81
319.9	133.81
320.129	134.81
320.358	131.81
320.587	137.81
320.816	137.81
321.046	135.81
321.275	149.81
321.504	126.81
321.733	142.81
321.962	130.81
322.191	130.81
322.42	121.81
322.649	122.81
322.878	133.81
323.108	143.81
323.337	145.81
323.566	135.81
323.795	152.81
324.024	143.81
324.253	124.81
324.482	143.81
324.71	139.81
324.939	131.81
325.168	139.81
325.397	135.81
325.626	148.81
325.855	147.81
326.084	151.81
326.313	149.81
326.542	133.81
326.77	135.81
326.999	136.81
327.228	123.81
327.457	125.81
327.686	129.81
327.914	149.81
328.143	155.81
328.372	143.81
328.6	120.81
328.829	125.81
329.058	134.81
329.287	136.81
329.515	122.81
329.744	142.81
329.972	125.81
330.201	119.81
330.43	134.81
330.658	134.81
330.887	146.81
331.115	150.81
331.344	149.81
331.572	146.81
331.801	118.81
332.03	142.81
332.258	151.81
332.486	154.81
332.715	157.81
332.943	158.81
333.172	153.81
333.4	164.81
333.629	176.81
333.857	163.81
334.085	158.81
334.314	168.81
334.542	154.81
334.771	151.81
334.999	163.81
335.227	165.81
335.455	158.81
335.684	150.81
335.912	146.81
336.14	149.81
336.369	160.81
336.597	152.81
336.825	140.81
337.053	138.81
337.281	157.81
337.51	151.81
337.738	153.81
337.966	147.81
338.194	151.81
338.422	145.81
338.65	149.81
338.878	149.81
339.106	151.81
339.334	135.81
339.562	147.81
339.79	153.81
340.018	149.81
340.246	149.81
340.474	141.81
340.702	136.81
340.93	146.81
341.158	138.81
341.386	149.81
341.614	138.81
341.842	152.81
342.07	137.81
342.298	151.81
342.526	121.81
342.754	152.81
342.981	138.81
343.209	152.81
343.437	189.81
343.665	149.81
343.893	147.81
344.12	169.81
344.348	134.81
344.576	135.81
344.804	137.81
345.031	148.81
345.259	130.81
345.487	163.81
345.714	130.81
345.942	141.81
346.17	150.81
346.397	146.81
346.625	146.81
346.853	143.81
347.08	132.81
347.308	140.81
347.535	125.81
347.763	147.81
347.99	142.81
348.218	145.81
348.445	136.81
348.673	135.81
348.9	139.81
349.128	124.81
349.355	119.81
349.583	133.81
349.81	146.81
350.037	140.81
350.265	139.81
350.492	136.81
350.72	137.81
350.947	131.81
351.174	132.81
351.402	137.81
351.629	133.81
351.856	133.81
352.083	124.81
352.311	129.81
352.538	124.81
352.765	149.81
352.992	151.81
353.22	150.81
353.447	137.81
353.674	147.81
353.901	122.81
354.128	140.81
354.355	135.81
354.583	136.81
354.81	151.81
355.037	145.81
355.264	141.81
355.491	129.81
355.718	128.81
355.945	148.81
356.172	141.81
356.399	135.81
356.626	129.81
356.853	128.81
357.08	140.81
357.307	146.81
357.534	129.81
357.761	149.81
357.988	140.81
358.215	128.81
358.441	125.81
358.668	138.81
358.895	135.81
359.122	138.81
359.349	130.81
359.576	130.81
359.802	122.81
360.029	143.81
360.256	131.81
360.483	123.81
360.709	119.81
360.936	154.81
361.163	145.81
361.39	148.81
361.616	131.81
361.843	138.81
362.07	133.81
362.296	136.81
362.523	120.81
362.749	121.81
362.976	137.81
363.203	151.81
363.429	127.81
363.656	133.81
363.882	137.81
364.109	147.81
364.335	145.81
364.562	145.81
364.788	123.81
365.015	141.81
365.241	138.81
365.468	145.81
365.694	134.81
365.92	144.81
366.147	137.81
366.373	135.81
366.599	142.81
366.826	138.81
367.052	125.81
367.278	147.81
367.505	129.81
367.731	143.81
367.957	141.81
368.184	122.81
368.41	137.81
368.636	138.81
368.862	148.81
369.089	135.81
369.315	131.81
369.541	144.81
369.767	125.81
369.993	145.81
370.219	137.81
370.445	151.81
370.672	157.81
370.898	141.81
371.124	153.81
371.35	138.81
371.576	148.81
371.802	141.81
372.028	133.81
372.254	150.81
372.48	140.81
372.706	139.81
372.932	150.81
373.158	149.81
373.384	155.81
373.61	154.81
373.835	153.81
374.061	129.81
374.287	147.81
374.513	140.81
374.739	148.81
374.965	148.81
375.191	136.81
375.416	153.81
375.642	148.81
375.868	134.81
376.094	146.81
376.319	159.81
376.545	150.81
376.771	158.81
376.997	141.81
377.222	136.81
377.448	164.81
377.674	134.81
377.899	145.81
378.125	145.81
378.35	153.81
378.576	126.81
378.802	131.81
379.027	139.81
379.253	150.81
379.478	157.81
379.704	148.81
379.929	158.81
380.155	132.81
380.38	137.81
380.606	145.81
380.831	151.81
381.057	158.81
381.282	153.81
381.507	162.81
381.733	149.81
381.958	165.81
382.184	144.81
382.409	151.81
382.634	165.81
382.86	154.81
383.085	166.81
383.31	145.81
383.535	165.81
383.761	171.81
383.986	179.81
384.211	168.81
384.436	164.81
384.662	153.81
384.887	175.81
385.112	157.81
385.337	173.81
385.562	174.81
385.787	164.81
386.013	160.81
386.238	165.81
386.463	168.81
386.688	191.81
386.913	160.81
387.138	179.81
387.363	162.81
387.588	179.81
387.813	171.81
388.038	168.81
388.263	167.81
388.488	181.81
388.713	164.81
388.938	170.81
389.163	182.81
389.387	177.81
389.612	177.81
389.837	188.81
390.062	178.81
390.287	173.81
390.512	157.81
390.736	174.81
390.961	169.81
391.186	195.81
391.411	178.81
391.636	194.81
391.86	203.81
392.085	196.81
392.31	201.81
392.534	171.81
392.759	197.81
392.984	206.81
393.208	194.81
393.433	183.81
393.658	179.81
393.882	186.81
394.107	193.81
394.331	198.81
394.556	203.81
394.78	206.81
395.005	181.81
395.229	195.81
395.454	205.81
395.678	199.81
395.903	192.81
396.127	205.81
396.352	212.81
396.576	199.81
396.801	195.81
397.025	204.81
397.249	228.81
397.474	206.81
397.698	202.81
397.922	201.81
398.147	200.81
398.371	212.81
398.595	234.81
398.82	229.81
399.044	257.81
399.268	261.81
399.492	299.81
399.717	297.81
399.941	275.81
400.165	270.81
400.389	252.81
400.613	229.81
400.837	241.81
401.062	245.81
401.286	243.81
401.51	238.81
401.734	237.81
401.958	213.81
402.182	247.81
402.406	242.81
402.63	264.81
402.854	270.81
403.078	266.81
403.302	271.81
403.526	279.81
403.75	274.81
403.974	274.81
404.198	276.81
404.422	263.81
404.645	254.81
404.869	275.81
405.093	285.81
405.317	273.81
405.541	270.81
405.765	263.81
405.988	267.81
406.212	250.81
406.436	289.81
406.66	291.81
406.883	289.81
407.107	300.81
407.331	293.81
407.555	295.81
407.778	325.81
408.002	316.81
408.226	287.81
408.449	297.81
408.673	281.81
408.896	295.81
409.12	301.81
409.344	296.81
409.567	277.81
409.791	281.81
410.014	286.81
410.238	313.81
410.461	291.81
410.685	291.81
410.908	288.81
411.132	298.81
411.355	270.81
411.578	273.81
411.802	269.81
412.025	290.81
412.249	282.81
412.472	286.81
412.695	284.81
412.919	260.81
413.142	281.81
413.365	274.81
413.589	268.81
413.812	271.81
414.035	294.81
414.258	280.81
414.482	279.81
414.705	284.81
414.928	285.81
415.151	302.81
415.374	293.81
415.597	285.81
415.821	269.81
416.044	297.81
416.267	287.81
416.49	279.81
416.713	290.81
416.936	282.81
417.159	279.81
417.382	283.81
417.605	281.81
417.828	276.81
418.051	285.81
418.274	287.81
418.497	287.81
418.72	313.81
418.943	313.81
419.166	311.81
419.389	295.81
419.611	312.81
419.834	303.81
420.057	315.81
420.28	294.81
420.503	293.81
420.726	294.81
420.948	299.81
421.171	282.81
421.394	282.81
421.617	301.81
421.839	300.81
422.062	318.81
422.285	280.81
422.507	287.81
422.73	299.81
422.953	295.81
423.175	274.81
423.398	305.81
423.621	310.81
423.843	308.81
424.066	311.81
424.288	312.81
424.511	319.81
424.733	302.81
424.956	285.81
425.178	309.81
425.401	305.81
425.623	308.81
425.846	280.81
426.068	294.81
426.291	259.81
426.513	274.81
426.735	286.81
426.958	273.81
427.18	275.81
427.402	277.81
427.625	273.81
427.847	274.81
428.069	265.81
428.292	265.81
428.514	254.81
428.736	270.81
428.958	265.81
429.181	266.81
429.403	280.81
429.625	257.81
429.847	266.81
430.069	279.81
430.292	278.81
430.514	286.81
430.736	276.81
430.958	280.81
431.18	268.81
431.402	271.81
431.624	249.81
431.846	245.81
432.068	236.81
432.29	251.81
432.512	263.81
432.734	271.81
432.956	272.81
433.178	286.81
433.4	291.81
433.622	287.81
433.844	275.81
434.066	260.81
434.287	234.81
434.509	225.81
434.731	250.81
434.953	283.81
435.175	279.81
435.397	281.81
435.618	265.81
435.84	258.81
436.062	240.81
436.284	256.81
436.505	271.81
436.727	259.81
436.949	285.81
437.17	253.81
437.392	252.81
437.614	247.81
437.835	231.81
438.057	235.81
438.278	244.81
438.5	244.81
438.721	267.81
438.943	291.81
439.165	267.81
439.386	291.81
439.608	293.81
439.829	311.81
440.05	291.81
440.272	295.81
440.493	287.81
440.715	291.81
440.936	294.81
441.158	298.81
441.379	292.81
441.6	307.81
441.822	322.81
442.043	295.81
442.264	305.81
442.486	276.81
442.707	298.81
442.928	292.81
443.149	290.81
443.371	291.81
443.592	302.81
443.813	288.81
444.034	298.81
444.255	328.81
444.476	334.81
444.698	332.81
444.919	345.81
445.14	497.81
445.361	399.81
445.582	315.81
445.803	307.81
446.024	310.81
446.245	311.81
446.466	308.81
446.687	289.81
446.908	313.81
447.129	282.81
447.35	291.81
447.571	281.81
447.792	284.81
448.013	282.81
448.234	273.81
448.455	277.81
448.675	265.81
448.896	269.81
449.117	256.81
449.338	242.81
449.559	285.81
449.779	275.81
450	263.81
450.221	282.81
450.442	268.81
450.662	252.81
450.883	263.81
451.104	252.81
451.324	257.81
451.545	273.81
451.766	250.81
451.986	261.81
452.207	270.81
452.428	268.81
452.648	262.81
452.869	239.81
453.089	233.81
453.31	237.81
453.53	227.81
453.751	230.81
453.971	230.81
454.192	214.81
454.412	225.81
454.633	238.81
454.853	251.81
455.073	248.81
455.294	248.81
455.514	245.81
455.734	246.81
455.955	219.81
456.175	246.81
456.395	199.81
456.616	227.81
456.836	229.81
457.056	221.81
457.276	209.81
457.497	226.81
457.717	222.81
457.937	227.81
458.157	210.81
458.377	214.81
458.598	222.81
458.818	212.81
459.038	192.81
459.258	210.81
459.478	216.81
459.698	226.81
459.918	238.81
460.138	238.81
460.358	251.81
460.578	267.81
460.798	277.81
461.018	273.81
461.238	273.81
461.458	270.81
461.678	265.81
461.898	268.81
462.118	274.81
462.338	296.81
462.558	281.81
462.777	307.81
462.997	322.81
463.217	326.81
463.437	325.81
463.657	298.81
463.876	299.81
464.096	294.81
464.316	311.81
464.536	296.81
464.755	305.81
464.975	287.81
465.195	277.81
465.414	266.81
465.634	264.81
465.854	267.81
466.073	252.81
466.293	261.81
466.512	279.81
466.732	253.81
466.951	267.81
467.171	268.81
467.391	275.81
467.61	261.81
467.829	278.81
468.049	265.81
468.268	244.81
468.488	252.81
468.707	279.81
468.927	259.81
469.146	265.81
469.365	275.81
469.585	265.81
469.804	276.81
470.023	275.81
470.243	284.81
470.462	291.81
470.681	267.81
470.901	281.81
471.12	291.81
471.339	286.81
471.558	267.81
471.777	275.81
471.997	262.81
472.216	260.81
472.435	238.81
472.654	222.81
472.873	235.81
473.092	236.81
473.311	250.81
473.53	234.81
473.749	260.81
473.968	239.81
474.187	235.81
474.406	232.81
474.625	250.81
474.844	265.81
475.063	253.81
475.282	235.81
475.501	227.81
475.72	252.81
475.939	228.81
476.158	230.81
476.377	262.81
476.596	231.81
476.814	230.81
477.033	239.81
477.252	245.81
477.471	247.81
477.69	254.81
477.908	259.81
478.127	287.81
478.346	282.81
478.564	287.81
478.783	277.81
479.002	310.81
479.22	294.81
479.439	275.81
479.658	252.81
479.876	264.81
480.095	263.81
480.313	268.81
480.532	301.81
480.751	284.81
480.969	237.81
481.188	235.81
481.406	235.81
481.624	224.81
481.843	230.81
482.061	244.81
482.28	251.81
482.498	253.81
482.717	253.81
482.935	265.81
483.153	295.81
483.372	285.81
483.59	287.81
483.808	292.81
484.027	266.81
484.245	271.81
484.463	270.81
484.681	301.81
484.9	288.81
485.118	273.81
485.336	260.81
485.554	263.81
485.772	227.81
485.99	243.81
486.209	257.81
486.427	278.81
486.645	279.81
486.863	295.81
487.081	296.81
487.299	277.81
487.517	284.81
487.735	322.81
487.953	337.81
488.171	331.81
488.389	342.81
488.607	296.81
488.825	297.81
489.043	262.81
489.261	277.81
489.479	297.81
489.696	292.81
489.914	292.81
490.132	310.81
490.35	315.81
490.568	324.81
490.786	334.81
491.003	349.81
491.221	355.81
491.439	345.81
491.657	360.81
491.874	376.81
492.092	406.81
492.31	421.81
492.527	373.81
492.745	386.81
492.963	356.81
493.18	355.81
493.398	340.81
493.615	369.81
493.833	374.81
494.05	326.81
494.268	335.81
494.485	356.81
494.703	337.81
494.92	341.81
495.138	341.81
495.355	364.81
495.573	352.81
495.79	328.81
496.008	346.81
496.225	339.81
496.442	324.81
496.66	356.81
496.877	349.81
497.094	359.81
497.312	335.81
497.529	335.81
497.746	317.81
497.963	315.81
498.181	329.81
498.398	322.81
498.615	329.81
498.832	344.81
499.049	375.81
499.267	440.81
499.484	437.81
499.701	481.81
499.918	532.81
500.135	602.81
500.352	648.81
500.569	672.81
500.786	668.81
501.003	604.81
501.22	542.81
501.437	476.81
501.654	446.81
501.871	412.81
502.088	383.81
502.305	380.81
502.522	369.81
502.739	370.81
502.956	326.81
503.172	320.81
503.389	310.81
503.606	313.81
503.823	323.81
504.04	299.81
504.256	297.81
504.473	315.81
504.69	306.81
