Data from SampA_HRD10591_00072.txt Node
Date: Mon Jan 19 11:27:11 EST 2026
User: Yrep
Spectrometer: HR+D1059
Trigger mode: 0
Integration Time (sec): 3.443000E-1
Scans to average: 1
Electric dark correction enabled: true
Nonlinearity correction enabled: false
Boxcar width: 0
XAxis mode: Wavelengths
Number of Pixels in Spectrum: 2048
>>>>>Begin Spectral Data<<<<<
223.165	-14.5
223.4	-14.5
223.635	-14.5
223.869	-13.5
224.104	-35.5
224.338	-13.5
224.573	-9.5
224.808	-25.5
225.042	-1.5
225.277	0.5
225.511	3.5
225.746	6.5
225.98	3.5
226.215	-1.5
226.449	8.5
226.683	24.5
226.918	36.5
227.152	31.5
227.387	25.5
227.621	47.5
227.856	54.5
228.09	44.5
228.324	54.5
228.559	66.5
228.793	74.5
229.027	44.5
229.262	71.5
229.496	61.5
229.73	69.5
229.964	66.5
230.199	83.5
230.433	80.5
230.667	78.5
230.901	70.5
231.136	68.5
231.37	92.5
231.604	87.5
231.838	78.5
232.072	87.5
232.306	81.5
232.541	85.5
232.775	99.5
233.009	87.5
233.243	79.5
233.477	76.5
233.711	83.5
233.945	85.5
234.179	76.5
234.413	93.5
234.647	77.5
234.881	77.5
235.115	84.5
235.349	86.5
235.583	86.5
235.817	90.5
236.051	87.5
236.285	76.5
236.519	75.5
236.753	81.5
236.987	78.5
237.221	76.5
237.455	89.5
237.689	93.5
237.922	103.5
238.156	78.5
238.39	71.5
238.624	69.5
238.858	86.5
239.091	79.5
239.325	86.5
239.559	71.5
239.793	85.5
240.027	81.5
240.26	68.5
240.494	78.5
240.728	77.5
240.961	77.5
241.195	102.5
241.429	76.5
241.662	80.5
241.896	88.5
242.13	70.5
242.363	86.5
242.597	78.5
242.83	86.5
243.064	77.5
243.298	72.5
243.531	76.5
243.765	84.5
243.998	79.5
244.232	103.5
244.465	80.5
244.699	79.5
244.932	84.5
245.166	88.5
245.399	100.5
245.633	89.5
245.866	81.5
246.099	87.5
246.333	74.5
246.566	66.5
246.8	99.5
247.033	79.5
247.266	86.5
247.5	68.5
247.733	83.5
247.966	90.5
248.2	78.5
248.433	86.5
248.666	96.5
248.899	85.5
249.133	89.5
249.366	86.5
249.599	81.5
249.832	76.5
250.066	90.5
250.299	81.5
250.532	100.5
250.765	97.5
250.998	81.5
251.231	88.5
251.465	86.5
251.698	78.5
251.931	91.5
252.164	94.5
252.397	94.5
252.63	82.5
252.863	90.5
253.096	87.5
253.329	100.5
253.562	88.5
253.795	91.5
254.028	93.5
254.261	96.5
254.494	80.5
254.727	75.5
254.96	78.5
255.193	88.5
255.426	78.5
255.659	89.5
255.892	94.5
256.124	83.5
256.357	88.5
256.59	89.5
256.823	86.5
257.056	88.5
257.289	83.5
257.521	81.5
257.754	88.5
257.987	87.5
258.22	85.5
258.452	82.5
258.685	77.5
258.918	86.5
259.151	94.5
259.383	102.5
259.616	83.5
259.849	95.5
260.081	87.5
260.314	94.5
260.547	87.5
260.779	91.5
261.012	86.5
261.244	78.5
261.477	89.5
261.71	68.5
261.942	80.5
262.175	95.5
262.407	89.5
262.64	85.5
262.872	83.5
263.105	91.5
263.337	94.5
263.57	95.5
263.802	83.5
264.035	103.5
264.267	92.5
264.499	89.5
264.732	110.5
264.964	88.5
265.197	101.5
265.429	95.5
265.661	80.5
265.894	96.5
266.126	101.5
266.358	93.5
266.591	84.5
266.823	91.5
267.055	95.5
267.287	96.5
267.52	95.5
267.752	89.5
267.984	88.5
268.216	106.5
268.448	95.5
268.681	91.5
268.913	86.5
269.145	103.5
269.377	93.5
269.609	89.5
269.841	88.5
270.073	87.5
270.306	99.5
270.538	88.5
270.77	90.5
271.002	98.5
271.234	96.5
271.466	92.5
271.698	100.5
271.93	104.5
272.162	96.5
272.394	101.5
272.626	96.5
272.858	68.5
273.09	102.5
273.322	92.5
273.553	99.5
273.785	96.5
274.017	101.5
274.249	91.5
274.481	90.5
274.713	78.5
274.945	94.5
275.176	94.5
275.408	92.5
275.64	97.5
275.872	85.5
276.104	93.5
276.335	105.5
276.567	90.5
276.799	82.5
277.031	82.5
277.262	101.5
277.494	107.5
277.726	95.5
277.957	102.5
278.189	91.5
278.421	99.5
278.652	96.5
278.884	101.5
279.115	86.5
279.347	102.5
279.579	86.5
279.81	100.5
280.042	85.5
280.273	87.5
280.505	95.5
280.736	86.5
280.968	108.5
281.199	96.5
281.431	95.5
281.662	104.5
281.894	88.5
282.125	102.5
282.356	93.5
282.588	101.5
282.819	94.5
283.051	101.5
283.282	93.5
283.513	103.5
283.745	97.5
283.976	102.5
284.207	101.5
284.439	112.5
284.67	114.5
284.901	110.5
285.132	104.5
285.364	112.5
285.595	100.5
285.826	91.5
286.057	97.5
286.288	96.5
286.52	98.5
286.751	89.5
286.982	88.5
287.213	95.5
287.444	92.5
287.675	91.5
287.906	109.5
288.138	108.5
288.369	95.5
288.6	87.5
288.831	105.5
289.062	95.5
289.293	89.5
289.524	107.5
289.755	100.5
289.986	116.5
290.217	109.5
290.448	103.5
290.679	111.5
290.91	106.5
291.141	98.5
291.371	106.5
291.602	93.5
291.833	99.5
292.064	88.5
292.295	90.5
292.526	89.5
292.757	99.5
292.987	84.5
293.218	96.5
293.449	104.5
293.68	106.5
293.91	99.5
294.141	111.5
294.372	107.5
294.603	98.5
294.833	103.5
295.064	104.5
295.295	94.5
295.525	76.5
295.756	107.5
295.987	99.5
296.217	104.5
296.448	107.5
296.679	104.5
296.909	110.5
297.14	105.5
297.37	105.5
297.601	110.5
297.831	89.5
298.062	103.5
298.292	96.5
298.523	110.5
298.753	106.5
298.984	101.5
299.214	120.5
299.445	95.5
299.675	102.5
299.905	106.5
300.136	111.5
300.366	97.5
300.597	104.5
300.827	94.5
301.057	113.5
301.288	89.5
301.518	101.5
301.748	106.5
301.979	150.5
302.209	105.5
302.439	78.5
302.669	109.5
302.9	110.5
303.13	94.5
303.36	99.5
303.59	108.5
303.82	99.5
304.051	112.5
304.281	117.5
304.511	119.5
304.741	95.5
304.971	87.5
305.201	100.5
305.431	118.5
305.661	111.5
305.891	90.5
306.121	102.5
306.352	100.5
306.582	95.5
306.812	102.5
307.042	108.5
307.272	107.5
307.502	108.5
307.731	104.5
307.961	93.5
308.191	106.5
308.421	112.5
308.651	115.5
308.881	101.5
309.111	84.5
309.341	89.5
309.571	96.5
309.8	100.5
310.03	102.5
310.26	88.5
310.49	109.5
310.72	98.5
310.949	88.5
311.179	111.5
311.409	103.5
311.639	110.5
311.868	106.5
312.098	105.5
312.328	108.5
312.557	118.5
312.787	108.5
313.017	107.5
313.246	114.5
313.476	90.5
313.706	99.5
313.935	100.5
314.165	118.5
314.394	102.5
314.624	97.5
314.853	101.5
315.083	94.5
315.312	102.5
315.542	103.5
315.771	100.5
316.001	90.5
316.23	97.5
316.46	97.5
316.689	100.5
316.919	96.5
317.148	85.5
317.377	111.5
317.607	116.5
317.836	106.5
318.065	115.5
318.295	111.5
318.524	108.5
318.753	100.5
318.983	114.5
319.212	104.5
319.441	120.5
319.67	103.5
319.9	100.5
320.129	111.5
320.358	121.5
320.587	118.5
320.816	119.5
321.046	93.5
321.275	104.5
321.504	101.5
321.733	126.5
321.962	93.5
322.191	101.5
322.42	113.5
322.649	111.5
322.878	112.5
323.108	112.5
323.337	97.5
323.566	100.5
323.795	113.5
324.024	103.5
324.253	105.5
324.482	94.5
324.71	103.5
324.939	106.5
325.168	111.5
325.397	109.5
325.626	105.5
325.855	118.5
326.084	118.5
326.313	110.5
326.542	92.5
326.77	121.5
326.999	103.5
327.228	108.5
327.457	95.5
327.686	102.5
327.914	127.5
328.143	115.5
328.372	109.5
328.6	102.5
328.829	117.5
329.058	114.5
329.287	104.5
329.515	122.5
329.744	115.5
329.972	113.5
330.201	105.5
330.43	97.5
330.658	115.5
330.887	121.5
331.115	102.5
331.344	105.5
331.572	109.5
331.801	101.5
332.03	115.5
332.258	132.5
332.486	110.5
332.715	109.5
332.943	111.5
333.172	118.5
333.4	118.5
333.629	122.5
333.857	119.5
334.085	103.5
334.314	122.5
334.542	112.5
334.771	110.5
334.999	117.5
335.227	108.5
335.455	103.5
335.684	117.5
335.912	118.5
336.14	125.5
336.369	111.5
336.597	114.5
336.825	127.5
337.053	101.5
337.281	123.5
337.51	109.5
337.738	103.5
337.966	98.5
338.194	101.5
338.422	111.5
338.65	123.5
338.878	116.5
339.106	115.5
339.334	118.5
339.562	123.5
339.79	111.5
340.018	104.5
340.246	109.5
340.474	110.5
340.702	100.5
340.93	106.5
341.158	112.5
341.386	89.5
341.614	112.5
341.842	112.5
342.07	105.5
342.298	91.5
342.526	113.5
342.754	101.5
342.981	118.5
343.209	114.5
343.437	130.5
343.665	118.5
343.893	109.5
344.12	124.5
344.348	115.5
344.576	116.5
344.804	115.5
345.031	116.5
345.259	112.5
345.487	112.5
345.714	104.5
345.942	105.5
346.17	112.5
346.397	105.5
346.625	118.5
346.853	130.5
347.08	104.5
347.308	108.5
347.535	112.5
347.763	102.5
347.99	111.5
348.218	108.5
348.445	104.5
348.673	92.5
348.9	103.5
349.128	108.5
349.355	109.5
349.583	107.5
349.81	111.5
350.037	103.5
350.265	126.5
350.492	114.5
350.72	100.5
350.947	106.5
351.174	106.5
351.402	94.5
351.629	96.5
351.856	112.5
352.083	102.5
352.311	100.5
352.538	111.5
352.765	98.5
352.992	107.5
353.22	112.5
353.447	114.5
353.674	110.5
353.901	111.5
354.128	123.5
354.355	122.5
354.583	98.5
354.81	107.5
355.037	114.5
355.264	108.5
355.491	116.5
355.718	101.5
355.945	114.5
356.172	115.5
356.399	106.5
356.626	106.5
356.853	103.5
357.08	108.5
357.307	95.5
357.534	112.5
357.761	108.5
357.988	111.5
358.215	107.5
358.441	109.5
358.668	114.5
358.895	99.5
359.122	117.5
359.349	95.5
359.576	111.5
359.802	80.5
360.029	91.5
360.256	96.5
360.483	100.5
360.709	112.5
360.936	111.5
361.163	124.5
361.39	111.5
361.616	106.5
361.843	87.5
362.07	103.5
362.296	98.5
362.523	104.5
362.749	97.5
362.976	97.5
363.203	119.5
363.429	99.5
363.656	113.5
363.882	103.5
364.109	102.5
364.335	109.5
364.562	119.5
364.788	124.5
365.015	91.5
365.241	107.5
365.468	115.5
365.694	105.5
365.92	120.5
366.147	113.5
366.373	111.5
366.599	109.5
366.826	119.5
367.052	110.5
367.278	108.5
367.505	92.5
367.731	122.5
367.957	103.5
368.184	109.5
368.41	106.5
368.636	97.5
368.862	111.5
369.089	93.5
369.315	108.5
369.541	116.5
369.767	109.5
369.993	99.5
370.219	105.5
370.445	108.5
370.672	101.5
370.898	115.5
371.124	111.5
371.35	106.5
371.576	113.5
371.802	110.5
372.028	99.5
372.254	108.5
372.48	121.5
372.706	111.5
372.932	107.5
373.158	106.5
373.384	120.5
373.61	109.5
373.835	118.5
374.061	115.5
374.287	117.5
374.513	111.5
374.739	112.5
374.965	118.5
375.191	101.5
375.416	108.5
375.642	121.5
375.868	123.5
376.094	106.5
376.319	127.5
376.545	118.5
376.771	129.5
376.997	103.5
377.222	91.5
377.448	111.5
377.674	104.5
377.899	110.5
378.125	125.5
378.35	106.5
378.576	101.5
378.802	111.5
379.027	108.5
379.253	110.5
379.478	110.5
379.704	114.5
379.929	108.5
380.155	106.5
380.38	120.5
380.606	115.5
380.831	113.5
381.057	113.5
381.282	114.5
381.507	117.5
381.733	115.5
381.958	96.5
382.184	116.5
382.409	110.5
382.634	121.5
382.86	114.5
383.085	111.5
383.31	110.5
383.535	112.5
383.761	120.5
383.986	121.5
384.211	119.5
384.436	118.5
384.662	113.5
384.887	103.5
385.112	116.5
385.337	133.5
385.562	104.5
385.787	116.5
386.013	118.5
386.238	124.5
386.463	127.5
386.688	144.5
386.913	132.5
387.138	125.5
387.363	124.5
387.588	127.5
387.813	132.5
388.038	133.5
388.263	126.5
388.488	125.5
388.713	131.5
388.938	103.5
389.163	113.5
389.387	123.5
389.612	119.5
389.837	129.5
390.062	146.5
390.287	123.5
390.512	137.5
390.736	123.5
390.961	136.5
391.186	115.5
391.411	135.5
391.636	136.5
391.86	130.5
392.085	130.5
392.31	138.5
392.534	131.5
392.759	141.5
392.984	139.5
393.208	123.5
393.433	128.5
393.658	132.5
393.882	114.5
394.107	116.5
394.331	140.5
394.556	135.5
394.78	138.5
395.005	123.5
395.229	144.5
395.454	138.5
395.678	114.5
395.903	125.5
396.127	145.5
396.352	125.5
396.576	135.5
396.801	146.5
397.025	136.5
397.249	134.5
397.474	136.5
397.698	132.5
397.922	156.5
398.147	132.5
398.371	134.5
398.595	147.5
398.82	143.5
399.044	142.5
399.268	166.5
399.492	191.5
399.717	190.5
399.941	181.5
400.165	173.5
400.389	153.5
400.613	170.5
400.837	152.5
401.062	140.5
401.286	155.5
401.51	158.5
401.734	154.5
401.958	148.5
402.182	167.5
402.406	158.5
402.63	150.5
402.854	158.5
403.078	155.5
403.302	169.5
403.526	171.5
403.75	173.5
403.974	153.5
404.198	164.5
404.422	170.5
404.645	163.5
404.869	171.5
405.093	175.5
405.317	166.5
405.541	172.5
405.765	174.5
405.988	166.5
406.212	161.5
406.436	167.5
406.66	173.5
406.883	183.5
407.107	183.5
407.331	165.5
407.555	191.5
407.778	178.5
408.002	187.5
408.226	172.5
408.449	179.5
408.673	176.5
408.896	175.5
409.12	186.5
409.344	183.5
409.567	183.5
409.791	183.5
410.014	177.5
410.238	189.5
410.461	160.5
410.685	169.5
410.908	170.5
411.132	178.5
411.355	159.5
411.578	178.5
411.802	163.5
412.025	179.5
412.249	161.5
412.472	171.5
412.695	163.5
412.919	164.5
413.142	182.5
413.365	171.5
413.589	157.5
413.812	169.5
414.035	162.5
414.258	167.5
414.482	173.5
414.705	170.5
414.928	170.5
415.151	186.5
415.374	174.5
415.597	160.5
415.821	172.5
416.044	163.5
416.267	158.5
416.49	152.5
416.713	183.5
416.936	170.5
417.159	182.5
417.382	159.5
417.605	165.5
417.828	180.5
418.051	176.5
418.274	171.5
418.497	176.5
418.72	176.5
418.943	168.5
419.166	187.5
419.389	188.5
419.611	176.5
419.834	164.5
420.057	187.5
420.28	172.5
420.503	170.5
420.726	158.5
420.948	170.5
421.171	179.5
421.394	174.5
421.617	182.5
421.839	178.5
422.062	187.5
422.285	180.5
422.507	157.5
422.73	170.5
422.953	169.5
423.175	176.5
423.398	177.5
423.621	185.5
423.843	188.5
424.066	171.5
424.288	177.5
424.511	184.5
424.733	182.5
424.956	186.5
425.178	174.5
425.401	183.5
425.623	175.5
425.846	179.5
426.068	158.5
426.291	160.5
426.513	158.5
426.735	174.5
426.958	173.5
427.18	174.5
427.402	175.5
427.625	154.5
427.847	160.5
428.069	164.5
428.292	151.5
428.514	163.5
428.736	139.5
428.958	165.5
429.181	163.5
429.403	165.5
429.625	166.5
429.847	179.5
430.069	179.5
430.292	167.5
430.514	158.5
430.736	155.5
430.958	176.5
431.18	164.5
431.402	171.5
431.624	160.5
431.846	132.5
432.068	146.5
432.29	159.5
432.512	179.5
432.734	145.5
432.956	168.5
433.178	179.5
433.4	160.5
433.622	176.5
433.844	170.5
434.066	169.5
434.287	151.5
434.509	157.5
434.731	160.5
434.953	180.5
435.175	170.5
435.397	181.5
435.618	145.5
435.84	157.5
436.062	172.5
436.284	156.5
436.505	184.5
436.727	178.5
436.949	174.5
437.17	164.5
437.392	172.5
437.614	155.5
437.835	148.5
438.057	152.5
438.278	138.5
438.5	169.5
438.721	175.5
438.943	173.5
439.165	158.5
439.386	173.5
439.608	175.5
439.829	147.5
440.05	181.5
440.272	169.5
440.493	169.5
440.715	185.5
440.936	179.5
441.158	170.5
441.379	174.5
441.6	172.5
441.822	183.5
442.043	188.5
442.264	199.5
442.486	183.5
442.707	180.5
442.928	188.5
443.149	166.5
443.371	189.5
443.592	173.5
443.813	171.5
444.034	155.5
444.255	179.5
444.476	202.5
444.698	187.5
444.919	195.5
445.14	413.5
445.361	270.5
445.582	183.5
445.803	172.5
446.024	181.5
446.245	174.5
446.466	190.5
446.687	171.5
446.908	178.5
447.129	175.5
447.35	170.5
447.571	194.5
447.792	170.5
448.013	159.5
448.234	167.5
448.455	165.5
448.675	158.5
448.896	143.5
449.117	171.5
449.338	147.5
449.559	150.5
449.779	163.5
450	150.5
450.221	167.5
450.442	156.5
450.662	171.5
450.883	149.5
451.104	164.5
451.324	160.5
451.545	160.5
451.766	178.5
451.986	142.5
452.207	158.5
452.428	155.5
452.648	156.5
452.869	141.5
453.089	141.5
453.31	150.5
453.53	143.5
453.751	137.5
453.971	143.5
454.192	144.5
454.412	139.5
454.633	144.5
454.853	144.5
455.073	134.5
455.294	140.5
455.514	165.5
455.734	151.5
455.955	149.5
456.175	137.5
456.395	127.5
456.616	133.5
456.836	122.5
457.056	140.5
457.276	140.5
457.497	152.5
457.717	132.5
457.937	142.5
458.157	133.5
458.377	154.5
458.598	147.5
458.818	127.5
459.038	122.5
459.258	133.5
459.478	166.5
459.698	145.5
459.918	157.5
460.138	140.5
460.358	168.5
460.578	176.5
460.798	179.5
461.018	160.5
461.238	159.5
461.458	152.5
461.678	185.5
461.898	175.5
462.118	172.5
462.338	202.5
462.558	178.5
462.777	177.5
462.997	194.5
463.217	195.5
463.437	201.5
463.657	184.5
463.876	186.5
464.096	198.5
464.316	183.5
464.536	184.5
464.755	187.5
464.975	166.5
465.195	168.5
465.414	161.5
465.634	147.5
465.854	156.5
466.073	180.5
466.293	155.5
466.512	138.5
466.732	167.5
466.951	170.5
467.171	162.5
467.391	174.5
467.61	168.5
467.829	171.5
468.049	156.5
468.268	153.5
468.488	148.5
468.707	155.5
468.927	166.5
469.146	161.5
469.365	178.5
469.585	159.5
469.804	174.5
470.023	161.5
470.243	169.5
470.462	168.5
470.681	167.5
470.901	165.5
471.12	169.5
471.339	166.5
471.558	167.5
471.777	174.5
471.997	149.5
472.216	151.5
472.435	152.5
472.654	142.5
472.873	154.5
473.092	146.5
473.311	152.5
473.53	163.5
473.749	156.5
473.968	162.5
474.187	151.5
474.406	147.5
474.625	138.5
474.844	155.5
475.063	163.5
475.282	160.5
475.501	164.5
475.72	170.5
475.939	159.5
476.158	159.5
476.377	151.5
476.596	146.5
476.814	135.5
477.033	137.5
477.252	152.5
477.471	159.5
477.69	179.5
477.908	171.5
478.127	178.5
478.346	176.5
478.564	155.5
478.783	174.5
479.002	178.5
479.22	174.5
479.439	181.5
479.658	161.5
479.876	147.5
480.095	175.5
480.313	170.5
480.532	174.5
480.751	171.5
480.969	156.5
481.188	160.5
481.406	159.5
481.624	157.5
481.843	154.5
482.061	171.5
482.28	137.5
482.498	156.5
482.717	157.5
482.935	162.5
483.153	173.5
483.372	172.5
483.59	187.5
483.808	156.5
484.027	166.5
484.245	159.5
484.463	162.5
484.681	173.5
484.9	172.5
485.118	174.5
485.336	169.5
485.554	154.5
485.772	139.5
485.99	157.5
486.209	168.5
486.427	152.5
486.645	158.5
486.863	174.5
487.081	176.5
487.299	178.5
487.517	195.5
487.735	172.5
487.953	188.5
488.171	178.5
488.389	182.5
488.607	174.5
488.825	166.5
489.043	157.5
489.261	171.5
489.479	171.5
489.696	180.5
489.914	169.5
490.132	179.5
490.35	186.5
490.568	174.5
490.786	197.5
491.003	188.5
491.221	199.5
491.439	195.5
491.657	203.5
491.874	187.5
492.092	207.5
492.31	230.5
492.527	211.5
492.745	210.5
492.963	211.5
493.18	199.5
493.398	208.5
493.615	194.5
493.833	186.5
494.05	192.5
494.268	186.5
494.485	184.5
494.703	206.5
494.92	184.5
495.138	198.5
495.355	184.5
495.573	201.5
495.79	196.5
496.008	188.5
496.225	202.5
496.442	184.5
496.66	218.5
496.877	211.5
497.094	204.5
497.312	199.5
497.529	188.5
497.746	188.5
497.963	175.5
498.181	181.5
498.398	187.5
498.615	207.5
498.832	217.5
499.049	220.5
499.267	238.5
499.484	253.5
499.701	244.5
499.918	305.5
500.135	331.5
500.352	360.5
500.569	358.5
500.786	343.5
501.003	340.5
501.22	272.5
501.437	263.5
501.654	230.5
501.871	221.5
502.088	215.5
502.305	198.5
502.522	215.5
502.739	220.5
502.956	195.5
503.172	191.5
503.389	185.5
503.606	178.5
503.823	190.5
504.04	192.5
504.256	182.5
504.473	194.5
504.69	197.5
504.907	196.5
505.123	184.5
505.34	170.5
505.557	168.5
505.773	170.5
505.99	152.5
506.207	163.5
506.423	160.5
506.64	178.5
506.856	172.5
507.073	155.5
507.289	180.5
507.506	173.5
507.722	149.5
507.939	171.5
508.155	164.5
508.372	158.5
508.588	158.5
508.805	154.5
509.021	142.5
509.238	164.5
509.454	148.5
509.67	149.5
509.887	153.5
510.103	145.5
510.319	137.5
510.536	159.5
510.752	150.5
510.968	135.5
511.184	143.5
511.401	141.5
511.617	147.5
511.833	132.5
512.049	148.5
512.265	147.5
512.481	140.5
512.698	150.5
512.914	148.5
513.13	142.5
513.346	132.5
513.562	138.5
513.778	153.5
513.994	141.5
514.21	133.5
514.426	152.5
514.642	150.5
514.858	137.5
515.074	159.5
515.29	137.5
515.506	145.5
515.721	154.5
515.937	148.5
516.153	156.5
516.369	151.5
516.585	150.5
516.801	141.5
517.016	153.5
517.232	166.5
517.448	152.5
517.664	175.5
517.879	170.5
518.095	171.5
518.311	166.5
518.527	160.5
518.742	166.5
518.958	151.5
519.173	156.5
519.389	143.5
519.605	156.5
519.82	152.5
520.036	163.5
520.251	148.5
520.467	159.5
520.682	148.5
520.898	134.5
521.113	141.5
521.329	131.5
521.544	147.5
521.76	141.5
521.975	139.5
522.19	137.5
522.406	146.5
522.621	141.5
522.836	136.5
523.052	159.5
523.267	148.5
523.482	147.5
523.698	145.5
523.913	165.5
524.128	149.5
524.343	147.5
524.559	155.5
524.774	143.5
524.989	160.5
