Data from SampA_HRD10591_00082.txt Node
Date: Mon Jan 19 11:27:14 EST 2026
User: Yrep
Spectrometer: HR+D1059
Trigger mode: 0
Integration Time (sec): 3.443000E-1
Scans to average: 1
Electric dark correction enabled: true
Nonlinearity correction enabled: false
Boxcar width: 0
XAxis mode: Wavelengths
Number of Pixels in Spectrum: 2048
>>>>>Begin Spectral Data<<<<<
223.165	-14.19
223.4	-14.19
223.635	-14.19
223.869	-24.19
224.104	-29.19
224.338	-8.19
224.573	-17.19
224.808	-16.19
225.042	-6.19
225.277	-0.19
225.511	-5.19
225.746	8.81
225.98	19.81
226.215	19.81
226.449	19.81
226.683	10.81
226.918	14.81
227.152	26.81
227.387	29.81
227.621	29.81
227.856	42.81
228.09	57.81
228.324	44.81
228.559	51.81
228.793	66.81
229.027	57.81
229.262	76.81
229.496	74.81
229.73	78.81
229.964	75.81
230.199	79.81
230.433	70.81
230.667	88.81
230.901	85.81
231.136	79.81
231.37	89.81
231.604	83.81
231.838	83.81
232.072	73.81
232.306	84.81
232.541	84.81
232.775	79.81
233.009	83.81
233.243	77.81
233.477	77.81
233.711	86.81
233.945	76.81
234.179	67.81
234.413	90.81
234.647	81.81
234.881	91.81
235.115	87.81
235.349	77.81
235.583	90.81
235.817	77.81
236.051	82.81
236.285	79.81
236.519	88.81
236.753	79.81
236.987	81.81
237.221	79.81
237.455	89.81
237.689	71.81
237.922	86.81
238.156	87.81
238.39	83.81
238.624	79.81
238.858	73.81
239.091	72.81
239.325	81.81
239.559	92.81
239.793	83.81
240.027	73.81
240.26	72.81
240.494	87.81
240.728	81.81
240.961	89.81
241.195	83.81
241.429	91.81
241.662	91.81
241.896	92.81
242.13	61.81
242.363	81.81
242.597	73.81
242.83	85.81
243.064	81.81
243.298	87.81
243.531	72.81
243.765	96.81
243.998	89.81
244.232	102.81
244.465	106.81
244.699	75.81
244.932	90.81
245.166	90.81
245.399	88.81
245.633	95.81
245.866	67.81
246.099	85.81
246.333	83.81
246.566	75.81
246.8	85.81
247.033	79.81
247.266	67.81
247.5	83.81
247.733	90.81
247.966	94.81
248.2	83.81
248.433	94.81
248.666	91.81
248.899	99.81
249.133	91.81
249.366	93.81
249.599	95.81
249.832	94.81
250.066	103.81
250.299	90.81
250.532	89.81
250.765	78.81
250.998	80.81
251.231	88.81
251.465	93.81
251.698	92.81
251.931	84.81
252.164	70.81
252.397	86.81
252.63	95.81
252.863	82.81
253.096	85.81
253.329	93.81
253.562	76.81
253.795	93.81
254.028	96.81
254.261	84.81
254.494	91.81
254.727	93.81
254.96	102.81
255.193	84.81
255.426	79.81
255.659	94.81
255.892	90.81
256.124	101.81
256.357	110.81
256.59	96.81
256.823	89.81
257.056	82.81
257.289	99.81
257.521	94.81
257.754	102.81
257.987	81.81
258.22	92.81
258.452	90.81
258.685	86.81
258.918	98.81
259.151	98.81
259.383	110.81
259.616	92.81
259.849	98.81
260.081	89.81
260.314	105.81
260.547	90.81
260.779	110.81
261.012	91.81
261.244	99.81
261.477	98.81
261.71	81.81
261.942	103.81
262.175	98.81
262.407	106.81
262.64	92.81
262.872	109.81
263.105	88.81
263.337	113.81
263.57	97.81
263.802	100.81
264.035	89.81
264.267	97.81
264.499	108.81
264.732	107.81
264.964	98.81
265.197	96.81
265.429	89.81
265.661	103.81
265.894	93.81
266.126	118.81
266.358	100.81
266.591	111.81
266.823	104.81
267.055	112.81
267.287	105.81
267.52	79.81
267.752	91.81
267.984	100.81
268.216	95.81
268.448	113.81
268.681	122.81
268.913	110.81
269.145	109.81
269.377	97.81
269.609	101.81
269.841	91.81
270.073	111.81
270.306	106.81
270.538	95.81
270.77	89.81
271.002	104.81
271.234	93.81
271.466	92.81
271.698	96.81
271.93	96.81
272.162	99.81
272.394	104.81
272.626	111.81
272.858	108.81
273.09	110.81
273.322	111.81
273.553	105.81
273.785	98.81
274.017	101.81
274.249	107.81
274.481	112.81
274.713	97.81
274.945	94.81
275.176	99.81
275.408	110.81
275.64	113.81
275.872	109.81
276.104	111.81
276.335	113.81
276.567	97.81
276.799	108.81
277.031	111.81
277.262	115.81
277.494	126.81
277.726	116.81
277.957	108.81
278.189	105.81
278.421	102.81
278.652	105.81
278.884	117.81
279.115	97.81
279.347	103.81
279.579	99.81
279.81	105.81
280.042	104.81
280.273	103.81
280.505	103.81
280.736	107.81
280.968	106.81
281.199	116.81
281.431	123.81
281.662	121.81
281.894	113.81
282.125	117.81
282.356	116.81
282.588	94.81
282.819	96.81
283.051	124.81
283.282	120.81
283.513	119.81
283.745	112.81
283.976	113.81
284.207	106.81
284.439	114.81
284.67	140.81
284.901	100.81
285.132	109.81
285.364	118.81
285.595	123.81
285.826	105.81
286.057	119.81
286.288	124.81
286.52	121.81
286.751	116.81
286.982	117.81
287.213	114.81
287.444	113.81
287.675	109.81
287.906	101.81
288.138	107.81
288.369	102.81
288.6	110.81
288.831	114.81
289.062	126.81
289.293	121.81
289.524	114.81
289.755	107.81
289.986	116.81
290.217	123.81
290.448	116.81
290.679	136.81
290.91	133.81
291.141	120.81
291.371	124.81
291.602	113.81
291.833	116.81
292.064	107.81
292.295	127.81
292.526	117.81
292.757	127.81
292.987	137.81
293.218	116.81
293.449	105.81
293.68	122.81
293.91	122.81
294.141	115.81
294.372	115.81
294.603	118.81
294.833	115.81
295.064	103.81
295.295	105.81
295.525	123.81
295.756	127.81
295.987	107.81
296.217	112.81
296.448	103.81
296.679	138.81
296.909	117.81
297.14	128.81
297.37	125.81
297.601	112.81
297.831	125.81
298.062	133.81
298.292	131.81
298.523	113.81
298.753	131.81
298.984	135.81
299.214	122.81
299.445	119.81
299.675	125.81
299.905	133.81
300.136	121.81
300.366	125.81
300.597	127.81
300.827	117.81
301.057	106.81
301.288	133.81
301.518	130.81
301.748	108.81
301.979	159.81
302.209	129.81
302.439	111.81
302.669	126.81
302.9	124.81
303.13	129.81
303.36	117.81
303.59	135.81
303.82	125.81
304.051	145.81
304.281	140.81
304.511	120.81
304.741	105.81
304.971	135.81
305.201	133.81
305.431	115.81
305.661	118.81
305.891	131.81
306.121	105.81
306.352	155.81
306.582	115.81
306.812	114.81
307.042	127.81
307.272	138.81
307.502	121.81
307.731	140.81
307.961	149.81
308.191	141.81
308.421	127.81
308.651	124.81
308.881	125.81
309.111	123.81
309.341	136.81
309.571	122.81
309.8	125.81
310.03	113.81
310.26	113.81
310.49	118.81
310.72	134.81
310.949	117.81
311.179	138.81
311.409	133.81
311.639	130.81
311.868	135.81
312.098	124.81
312.328	139.81
312.557	140.81
312.787	122.81
313.017	126.81
313.246	149.81
313.476	137.81
313.706	126.81
313.935	115.81
314.165	124.81
314.394	102.81
314.624	135.81
314.853	136.81
315.083	110.81
315.312	137.81
315.542	126.81
315.771	131.81
316.001	139.81
316.23	143.81
316.46	125.81
316.689	131.81
316.919	133.81
317.148	130.81
317.377	141.81
317.607	133.81
317.836	137.81
318.065	123.81
318.295	122.81
318.524	124.81
318.753	126.81
318.983	114.81
319.212	135.81
319.441	145.81
319.67	121.81
319.9	128.81
320.129	127.81
320.358	138.81
320.587	115.81
320.816	135.81
321.046	135.81
321.275	134.81
321.504	126.81
321.733	121.81
321.962	141.81
322.191	133.81
322.42	130.81
322.649	129.81
322.878	128.81
323.108	134.81
323.337	134.81
323.566	146.81
323.795	115.81
324.024	128.81
324.253	119.81
324.482	133.81
324.71	129.81
324.939	134.81
325.168	133.81
325.397	137.81
325.626	129.81
325.855	133.81
326.084	139.81
326.313	143.81
326.542	131.81
326.77	145.81
326.999	133.81
327.228	133.81
327.457	134.81
327.686	150.81
327.914	146.81
328.143	120.81
328.372	132.81
328.6	142.81
328.829	132.81
329.058	137.81
329.287	131.81
329.515	129.81
329.744	151.81
329.972	140.81
330.201	135.81
330.43	132.81
330.658	134.81
330.887	138.81
331.115	140.81
331.344	139.81
331.572	141.81
331.801	157.81
332.03	153.81
332.258	144.81
332.486	134.81
332.715	149.81
332.943	136.81
333.172	171.81
333.4	182.81
333.629	163.81
333.857	170.81
334.085	175.81
334.314	161.81
334.542	145.81
334.771	153.81
334.999	157.81
335.227	134.81
335.455	148.81
335.684	167.81
335.912	167.81
336.14	150.81
336.369	148.81
336.597	153.81
336.825	147.81
337.053	150.81
337.281	163.81
337.51	138.81
337.738	157.81
337.966	133.81
338.194	135.81
338.422	143.81
338.65	143.81
338.878	151.81
339.106	147.81
339.334	145.81
339.562	151.81
339.79	139.81
340.018	137.81
340.246	120.81
340.474	133.81
340.702	135.81
340.93	133.81
341.158	140.81
341.386	120.81
341.614	132.81
341.842	149.81
342.07	148.81
342.298	137.81
342.526	132.81
342.754	129.81
342.981	133.81
343.209	136.81
343.437	182.81
343.665	148.81
343.893	166.81
344.12	160.81
344.348	139.81
344.576	149.81
344.804	151.81
345.031	152.81
345.259	150.81
345.487	152.81
345.714	136.81
345.942	151.81
346.17	139.81
346.397	137.81
346.625	133.81
346.853	123.81
347.08	129.81
347.308	148.81
347.535	148.81
347.763	118.81
347.99	131.81
348.218	133.81
348.445	143.81
348.673	132.81
348.9	144.81
349.128	140.81
349.355	141.81
349.583	126.81
349.81	153.81
350.037	135.81
350.265	145.81
350.492	135.81
350.72	126.81
350.947	134.81
351.174	142.81
351.402	150.81
351.629	125.81
351.856	137.81
352.083	118.81
352.311	138.81
352.538	131.81
352.765	135.81
352.992	153.81
353.22	138.81
353.447	139.81
353.674	153.81
353.901	144.81
354.128	145.81
354.355	126.81
354.583	127.81
354.81	130.81
355.037	137.81
355.264	136.81
355.491	138.81
355.718	118.81
355.945	132.81
356.172	133.81
356.399	140.81
356.626	136.81
356.853	133.81
357.08	132.81
357.307	131.81
357.534	131.81
357.761	141.81
357.988	154.81
358.215	143.81
358.441	126.81
358.668	144.81
358.895	143.81
359.122	161.81
359.349	137.81
359.576	126.81
359.802	132.81
360.029	133.81
360.256	143.81
360.483	134.81
360.709	116.81
360.936	155.81
361.163	139.81
361.39	134.81
361.616	141.81
361.843	144.81
362.07	146.81
362.296	130.81
362.523	133.81
362.749	140.81
362.976	123.81
363.203	137.81
363.429	133.81
363.656	140.81
363.882	140.81
364.109	146.81
364.335	130.81
364.562	143.81
364.788	126.81
365.015	151.81
365.241	150.81
365.468	136.81
365.694	148.81
365.92	139.81
366.147	138.81
366.373	148.81
366.599	124.81
366.826	129.81
367.052	137.81
367.278	146.81
367.505	148.81
367.731	153.81
367.957	140.81
368.184	147.81
368.41	134.81
368.636	133.81
368.862	131.81
369.089	143.81
369.315	136.81
369.541	157.81
369.767	132.81
369.993	133.81
370.219	150.81
370.445	137.81
370.672	134.81
370.898	147.81
371.124	142.81
371.35	136.81
371.576	130.81
371.802	138.81
372.028	153.81
372.254	146.81
372.48	156.81
372.706	154.81
372.932	156.81
373.158	161.81
373.384	151.81
373.61	157.81
373.835	144.81
374.061	146.81
374.287	137.81
374.513	138.81
374.739	151.81
374.965	158.81
375.191	153.81
375.416	147.81
375.642	141.81
375.868	161.81
376.094	145.81
376.319	157.81
376.545	143.81
376.771	146.81
376.997	139.81
377.222	149.81
377.448	173.81
377.674	149.81
377.899	150.81
378.125	139.81
378.35	146.81
378.576	131.81
378.802	145.81
379.027	159.81
379.253	163.81
379.478	134.81
379.704	156.81
379.929	137.81
380.155	149.81
380.38	156.81
380.606	158.81
380.831	150.81
381.057	161.81
381.282	146.81
381.507	155.81
381.733	154.81
381.958	148.81
382.184	151.81
382.409	157.81
382.634	177.81
382.86	149.81
383.085	163.81
383.31	158.81
383.535	164.81
383.761	161.81
383.986	169.81
384.211	155.81
384.436	167.81
384.662	154.81
384.887	146.81
385.112	161.81
385.337	164.81
385.562	153.81
385.787	164.81
386.013	179.81
386.238	170.81
386.463	158.81
386.688	198.81
386.913	166.81
387.138	163.81
387.363	159.81
387.588	173.81
387.813	156.81
388.038	165.81
388.263	175.81
388.488	162.81
388.713	159.81
388.938	179.81
389.163	175.81
389.387	171.81
389.612	165.81
389.837	173.81
390.062	163.81
390.287	173.81
390.512	175.81
390.736	186.81
390.961	195.81
391.186	193.81
391.411	193.81
391.636	196.81
391.86	172.81
392.085	186.81
392.31	193.81
392.534	183.81
392.759	193.81
392.984	188.81
393.208	191.81
393.433	192.81
393.658	182.81
393.882	196.81
394.107	203.81
394.331	184.81
394.556	195.81
394.78	218.81
395.005	199.81
395.229	193.81
395.454	178.81
395.678	187.81
395.903	179.81
396.127	198.81
396.352	197.81
396.576	184.81
396.801	190.81
397.025	201.81
397.249	206.81
397.474	203.81
397.698	196.81
397.922	212.81
398.147	204.81
398.371	211.81
398.595	225.81
398.82	236.81
399.044	244.81
399.268	257.81
399.492	285.81
399.717	303.81
399.941	286.81
400.165	276.81
400.389	247.81
400.613	229.81
400.837	233.81
401.062	229.81
401.286	239.81
401.51	234.81
401.734	245.81
401.958	221.81
402.182	239.81
402.406	250.81
402.63	234.81
402.854	258.81
403.078	267.81
403.302	265.81
403.526	268.81
403.75	265.81
403.974	245.81
404.198	284.81
404.422	285.81
404.645	279.81
404.869	267.81
405.093	280.81
405.317	269.81
405.541	283.81
405.765	275.81
405.988	267.81
406.212	274.81
406.436	269.81
406.66	278.81
406.883	291.81
407.107	296.81
407.331	289.81
407.555	309.81
407.778	326.81
408.002	298.81
408.226	285.81
408.449	301.81
408.673	291.81
408.896	275.81
409.12	276.81
409.344	279.81
409.567	267.81
409.791	286.81
410.014	286.81
410.238	295.81
410.461	293.81
410.685	270.81
410.908	277.81
411.132	281.81
411.355	267.81
411.578	279.81
411.802	265.81
412.025	260.81
412.249	270.81
412.472	252.81
412.695	283.81
412.919	267.81
413.142	277.81
413.365	252.81
413.589	250.81
413.812	263.81
414.035	281.81
414.258	275.81
414.482	290.81
414.705	278.81
414.928	266.81
415.151	286.81
415.374	275.81
415.597	271.81
415.821	266.81
416.044	266.81
416.267	271.81
416.49	277.81
416.713	294.81
416.936	258.81
417.159	269.81
417.382	270.81
417.605	271.81
417.828	281.81
418.051	279.81
418.274	269.81
418.497	278.81
418.72	273.81
418.943	285.81
419.166	289.81
419.389	310.81
419.611	298.81
419.834	287.81
420.057	292.81
420.28	279.81
420.503	271.81
420.726	271.81
420.948	285.81
421.171	283.81
421.394	298.81
421.617	290.81
421.839	283.81
422.062	277.81
422.285	297.81
422.507	303.81
422.73	281.81
422.953	295.81
423.175	306.81
423.398	303.81
423.621	307.81
423.843	311.81
424.066	313.81
424.288	299.81
424.511	309.81
424.733	295.81
424.956	310.81
425.178	303.81
425.401	315.81
425.623	275.81
425.846	273.81
426.068	267.81
426.291	283.81
426.513	278.81
426.735	290.81
426.958	271.81
427.18	254.81
427.402	283.81
427.625	269.81
427.847	259.81
428.069	274.81
428.292	286.81
428.514	261.81
428.736	253.81
428.958	250.81
429.181	266.81
429.403	276.81
429.625	284.81
429.847	254.81
430.069	250.81
430.292	261.81
430.514	265.81
430.736	267.81
430.958	270.81
431.18	236.81
431.402	257.81
431.624	261.81
431.846	228.81
432.068	230.81
432.29	234.81
432.512	248.81
432.734	238.81
432.956	261.81
433.178	269.81
433.4	263.81
433.622	279.81
433.844	257.81
434.066	252.81
434.287	238.81
434.509	228.81
434.731	250.81
434.953	269.81
435.175	257.81
435.397	276.81
435.618	246.81
435.84	251.81
436.062	244.81
436.284	261.81
436.505	247.81
436.727	271.81
436.949	247.81
437.17	241.81
437.392	245.81
437.614	241.81
437.835	219.81
438.057	232.81
438.278	244.81
438.5	242.81
438.721	237.81
438.943	267.81
439.165	265.81
439.386	263.81
439.608	279.81
439.829	281.81
440.05	285.81
440.272	281.81
440.493	276.81
440.715	285.81
440.936	273.81
441.158	309.81
441.379	282.81
441.6	301.81
441.822	329.81
442.043	297.81
442.264	285.81
442.486	293.81
442.707	296.81
442.928	297.81
443.149	287.81
443.371	289.81
443.592	307.81
443.813	310.81
444.034	316.81
444.255	297.81
444.476	313.81
444.698	314.81
444.919	320.81
445.14	501.81
445.361	404.81
445.582	322.81
445.803	294.81
446.024	294.81
446.245	294.81
446.466	290.81
446.687	282.81
446.908	275.81
447.129	285.81
447.35	288.81
447.571	275.81
447.792	258.81
448.013	282.81
448.234	251.81
448.455	253.81
448.675	244.81
448.896	281.81
449.117	255.81
449.338	251.81
449.559	257.81
449.779	263.81
450	245.81
450.221	250.81
450.442	247.81
450.662	241.81
450.883	254.81
451.104	263.81
451.324	257.81
451.545	264.81
451.766	246.81
451.986	242.81
452.207	236.81
452.428	237.81
452.648	243.81
452.869	239.81
453.089	236.81
453.31	235.81
453.53	234.81
453.751	226.81
453.971	204.81
454.192	196.81
454.412	224.81
454.633	225.81
454.853	238.81
455.073	242.81
455.294	234.81
455.514	260.81
455.734	238.81
455.955	232.81
456.175	232.81
456.395	217.81
456.616	215.81
456.836	215.81
457.056	228.81
457.276	197.81
457.497	226.81
457.717	209.81
457.937	227.81
458.157	198.81
458.377	197.81
458.598	213.81
458.818	195.81
459.038	210.81
459.258	211.81
459.478	209.81
459.698	234.81
459.918	236.81
460.138	243.81
460.358	275.81
460.578	271.81
460.798	271.81
461.018	269.81
461.238	275.81
461.458	275.81
461.678	268.81
461.898	271.81
462.118	270.81
462.338	275.81
462.558	281.81
462.777	290.81
462.997	300.81
463.217	329.81
463.437	322.81
463.657	289.81
463.876	282.81
464.096	298.81
464.316	292.81
464.536	298.81
464.755	295.81
464.975	298.81
465.195	280.81
465.414	276.81
465.634	252.81
465.854	250.81
466.073	259.81
466.293	267.81
466.512	249.81
466.732	249.81
466.951	265.81
467.171	266.81
467.391	262.81
467.61	246.81
467.829	253.81
468.049	264.81
468.268	247.81
468.488	245.81
468.707	230.81
468.927	243.81
469.146	261.81
469.365	273.81
469.585	252.81
469.804	275.81
470.023	281.81
470.243	271.81
470.462	269.81
470.681	297.81
470.901	271.81
471.12	262.81
471.339	254.81
471.558	251.81
471.777	246.81
471.997	255.81
472.216	260.81
472.435	229.81
472.654	214.81
472.873	211.81
473.092	236.81
473.311	229.81
473.53	226.81
473.749	233.81
473.968	234.81
474.187	221.81
474.406	231.81
474.625	246.81
474.844	254.81
475.063	241.81
475.282	238.81
475.501	234.81
475.72	257.81
475.939	222.81
476.158	251.81
476.377	238.81
476.596	247.81
476.814	225.81
477.033	235.81
477.252	223.81
477.471	232.81
477.69	267.81
477.908	281.81
478.127	293.81
478.346	260.81
478.564	261.81
478.783	286.81
479.002	295.81
479.22	292.81
479.439	292.81
479.658	262.81
479.876	258.81
480.095	258.81
480.313	267.81
480.532	277.81
480.751	265.81
480.969	262.81
481.188	226.81
481.406	229.81
481.624	232.81
481.843	244.81
482.061	226.81
482.28	238.81
482.498	238.81
482.717	227.81
482.935	263.81
483.153	283.81
483.372	274.81
483.59	283.81
483.808	252.81
484.027	252.81
484.245	249.81
484.463	278.81
484.681	283.81
484.9	269.81
485.118	258.81
485.336	273.81
485.554	254.81
485.772	227.81
485.99	227.81
486.209	253.81
486.427	222.81
486.645	249.81
486.863	269.81
487.081	281.81
487.299	284.81
487.517	275.81
487.735	307.81
487.953	324.81
488.171	324.81
488.389	305.81
488.607	280.81
488.825	276.81
489.043	260.81
489.261	279.81
489.479	287.81
489.696	284.81
489.914	291.81
490.132	269.81
490.35	297.81
490.568	315.81
490.786	338.81
491.003	324.81
491.221	346.81
491.439	342.81
491.657	349.81
491.874	356.81
492.092	383.81
492.31	420.81
492.527	367.81
492.745	351.81
492.963	355.81
493.18	355.81
493.398	358.81
493.615	349.81
493.833	350.81
494.05	331.81
494.268	334.81
494.485	330.81
494.703	319.81
494.92	315.81
495.138	315.81
495.355	334.81
495.573	324.81
495.79	326.81
496.008	347.81
496.225	344.81
496.442	342.81
496.66	326.81
496.877	327.81
497.094	333.81
497.312	323.81
497.529	318.81
497.746	335.81
497.963	302.81
498.181	343.81
498.398	338.81
498.615	330.81
498.832	342.81
499.049	366.81
499.267	411.81
499.484	438.81
499.701	483.81
499.918	529.81
500.135	593.81
500.352	663.81
500.569	643.81
500.786	671.81
501.003	591.81
501.22	526.81
501.437	471.81
501.654	440.81
501.871	413.81
502.088	396.81
502.305	363.81
502.522	344.81
502.739	346.81
502.956	324.81
503.172	298.81
503.389	318.81
503.606	295.81
503.823	295.81
504.04	301.81
504.256	324.81
504.473	289.81
504.69	294.81
504.907	316.81
