Data from SampA_HRD10591_00055.txt Node
Date: Mon Jan 19 11:27:05 EST 2026
User: Yrep
Spectrometer: HR+D1059
Trigger mode: 0
Integration Time (sec): 3.443000E-1
Scans to average: 1
Electric dark correction enabled: true
Nonlinearity correction enabled: false
Boxcar width: 0
XAxis mode: Wavelengths
Number of Pixels in Spectrum: 2048
>>>>>Begin Spectral Data<<<<<
223.165	-16.19
223.4	-16.19
223.635	-16.19
223.869	-14.19
224.104	-37.19
224.338	-10.19
224.573	-15.19
224.808	-21.19
225.042	-0.19
225.277	7.81
225.511	-3.19
225.746	17.81
225.98	8.81
226.215	4.81
226.449	17.81
226.683	14.81
226.918	14.81
227.152	30.81
227.387	40.81
227.621	46.81
227.856	48.81
228.09	42.81
228.324	57.81
228.559	65.81
228.793	66.81
229.027	64.81
229.262	68.81
229.496	64.81
229.73	86.81
229.964	66.81
230.199	77.81
230.433	81.81
230.667	100.81
230.901	78.81
231.136	75.81
231.37	76.81
231.604	96.81
231.838	87.81
232.072	80.81
232.306	77.81
232.541	92.81
232.775	84.81
233.009	78.81
233.243	84.81
233.477	91.81
233.711	88.81
233.945	90.81
234.179	93.81
234.413	101.81
234.647	74.81
234.881	78.81
235.115	77.81
235.349	86.81
235.583	95.81
235.817	83.81
236.051	78.81
236.285	87.81
236.519	88.81
236.753	95.81
236.987	100.81
237.221	80.81
237.455	86.81
237.689	89.81
237.922	81.81
238.156	83.81
238.39	81.81
238.624	83.81
238.858	73.81
239.091	72.81
239.325	83.81
239.559	84.81
239.793	90.81
240.027	93.81
240.26	93.81
240.494	88.81
240.728	75.81
240.961	78.81
241.195	89.81
241.429	95.81
241.662	81.81
241.896	85.81
242.13	94.81
242.363	97.81
242.597	89.81
242.83	84.81
243.064	88.81
243.298	77.81
243.531	76.81
243.765	84.81
243.998	95.81
244.232	93.81
244.465	75.81
244.699	102.81
244.932	82.81
245.166	100.81
245.399	88.81
245.633	92.81
245.866	91.81
246.099	96.81
246.333	84.81
246.566	80.81
246.8	84.81
247.033	87.81
247.266	86.81
247.5	90.81
247.733	95.81
247.966	76.81
248.2	79.81
248.433	92.81
248.666	74.81
248.899	98.81
249.133	103.81
249.366	86.81
249.599	70.81
249.832	90.81
250.066	83.81
250.299	78.81
250.532	90.81
250.765	83.81
250.998	94.81
251.231	95.81
251.465	105.81
251.698	98.81
251.931	79.81
252.164	77.81
252.397	87.81
252.63	86.81
252.863	93.81
253.096	98.81
253.329	105.81
253.562	91.81
253.795	102.81
254.028	107.81
254.261	89.81
254.494	86.81
254.727	94.81
254.96	94.81
255.193	96.81
255.426	82.81
255.659	88.81
255.892	114.81
256.124	101.81
256.357	87.81
256.59	97.81
256.823	100.81
257.056	96.81
257.289	105.81
257.521	101.81
257.754	97.81
257.987	115.81
258.22	113.81
258.452	95.81
258.685	92.81
258.918	93.81
259.151	112.81
259.383	113.81
259.616	105.81
259.849	105.81
260.081	104.81
260.314	111.81
260.547	98.81
260.779	96.81
261.012	89.81
261.244	93.81
261.477	114.81
261.71	105.81
261.942	86.81
262.175	103.81
262.407	104.81
262.64	89.81
262.872	96.81
263.105	105.81
263.337	102.81
263.57	118.81
263.802	104.81
264.035	82.81
264.267	100.81
264.499	96.81
264.732	103.81
264.964	102.81
265.197	95.81
265.429	95.81
265.661	88.81
265.894	121.81
266.126	107.81
266.358	107.81
266.591	99.81
266.823	98.81
267.055	96.81
267.287	91.81
267.52	97.81
267.752	100.81
267.984	99.81
268.216	82.81
268.448	109.81
268.681	109.81
268.913	92.81
269.145	107.81
269.377	119.81
269.609	90.81
269.841	107.81
270.073	84.81
270.306	108.81
270.538	103.81
270.77	102.81
271.002	89.81
271.234	104.81
271.466	117.81
271.698	119.81
271.93	108.81
272.162	102.81
272.394	118.81
272.626	106.81
272.858	120.81
273.09	105.81
273.322	108.81
273.553	105.81
273.785	94.81
274.017	108.81
274.249	125.81
274.481	112.81
274.713	98.81
274.945	124.81
275.176	105.81
275.408	101.81
275.64	110.81
275.872	111.81
276.104	117.81
276.335	93.81
276.567	126.81
276.799	111.81
277.031	102.81
277.262	109.81
277.494	114.81
277.726	113.81
277.957	114.81
278.189	116.81
278.421	112.81
278.652	109.81
278.884	117.81
279.115	100.81
279.347	123.81
279.579	104.81
279.81	108.81
280.042	117.81
280.273	115.81
280.505	106.81
280.736	117.81
280.968	117.81
281.199	119.81
281.431	122.81
281.662	100.81
281.894	113.81
282.125	127.81
282.356	104.81
282.588	115.81
282.819	117.81
283.051	110.81
283.282	106.81
283.513	128.81
283.745	113.81
283.976	120.81
284.207	133.81
284.439	116.81
284.67	108.81
284.901	127.81
285.132	124.81
285.364	114.81
285.595	128.81
285.826	122.81
286.057	128.81
286.288	117.81
286.52	123.81
286.751	112.81
286.982	114.81
287.213	92.81
287.444	121.81
287.675	109.81
287.906	112.81
288.138	104.81
288.369	111.81
288.6	126.81
288.831	123.81
289.062	122.81
289.293	121.81
289.524	118.81
289.755	126.81
289.986	108.81
290.217	132.81
290.448	118.81
290.679	117.81
290.91	133.81
291.141	110.81
291.371	108.81
291.602	125.81
291.833	116.81
292.064	119.81
292.295	110.81
292.526	126.81
292.757	116.81
292.987	130.81
293.218	123.81
293.449	128.81
293.68	116.81
293.91	125.81
294.141	133.81
294.372	118.81
294.603	113.81
294.833	144.81
295.064	118.81
295.295	120.81
295.525	108.81
295.756	125.81
295.987	134.81
296.217	128.81
296.448	124.81
296.679	124.81
296.909	126.81
297.14	131.81
297.37	121.81
297.601	127.81
297.831	115.81
298.062	132.81
298.292	127.81
298.523	128.81
298.753	121.81
298.984	129.81
299.214	120.81
299.445	120.81
299.675	133.81
299.905	126.81
300.136	113.81
300.366	104.81
300.597	136.81
300.827	114.81
301.057	120.81
301.288	119.81
301.518	130.81
301.748	126.81
301.979	169.81
302.209	148.81
302.439	128.81
302.669	126.81
302.9	118.81
303.13	130.81
303.36	144.81
303.59	116.81
303.82	125.81
304.051	129.81
304.281	144.81
304.511	130.81
304.741	116.81
304.971	125.81
305.201	139.81
305.431	121.81
305.661	127.81
305.891	138.81
306.121	108.81
306.352	121.81
306.582	128.81
306.812	109.81
307.042	121.81
307.272	113.81
307.502	122.81
307.731	127.81
307.961	133.81
308.191	126.81
308.421	124.81
308.651	130.81
308.881	116.81
309.111	140.81
309.341	122.81
309.571	127.81
309.8	129.81
310.03	129.81
310.26	130.81
310.49	121.81
310.72	141.81
310.949	140.81
311.179	114.81
311.409	139.81
311.639	119.81
311.868	132.81
312.098	118.81
312.328	128.81
312.557	130.81
312.787	142.81
313.017	136.81
313.246	122.81
313.476	118.81
313.706	124.81
313.935	124.81
314.165	139.81
314.394	136.81
314.624	138.81
314.853	139.81
315.083	127.81
315.312	122.81
315.542	124.81
315.771	125.81
316.001	118.81
316.23	117.81
316.46	119.81
316.689	146.81
316.919	136.81
317.148	133.81
317.377	126.81
317.607	150.81
317.836	135.81
318.065	125.81
318.295	137.81
318.524	143.81
318.753	124.81
318.983	135.81
319.212	146.81
319.441	132.81
319.67	120.81
319.9	137.81
320.129	125.81
320.358	135.81
320.587	126.81
320.816	134.81
321.046	117.81
321.275	126.81
321.504	130.81
321.733	127.81
321.962	121.81
322.191	132.81
322.42	121.81
322.649	128.81
322.878	131.81
323.108	121.81
323.337	130.81
323.566	130.81
323.795	125.81
324.024	123.81
324.253	122.81
324.482	139.81
324.71	141.81
324.939	137.81
325.168	137.81
325.397	138.81
325.626	148.81
325.855	136.81
326.084	130.81
326.313	138.81
326.542	136.81
326.77	145.81
326.999	146.81
327.228	134.81
327.457	140.81
327.686	131.81
327.914	129.81
328.143	134.81
328.372	141.81
328.6	132.81
328.829	144.81
329.058	133.81
329.287	142.81
329.515	114.81
329.744	128.81
329.972	149.81
330.201	137.81
330.43	148.81
330.658	129.81
330.887	148.81
331.115	132.81
331.344	112.81
331.572	145.81
331.801	144.81
332.03	169.81
332.258	157.81
332.486	158.81
332.715	161.81
332.943	165.81
333.172	172.81
333.4	165.81
333.629	148.81
333.857	156.81
334.085	168.81
334.314	160.81
334.542	165.81
334.771	165.81
334.999	169.81
335.227	150.81
335.455	142.81
335.684	166.81
335.912	158.81
336.14	148.81
336.369	137.81
336.597	157.81
336.825	149.81
337.053	139.81
337.281	140.81
337.51	149.81
337.738	124.81
337.966	140.81
338.194	146.81
338.422	153.81
338.65	156.81
338.878	142.81
339.106	143.81
339.334	145.81
339.562	133.81
339.79	137.81
340.018	133.81
340.246	134.81
340.474	145.81
340.702	131.81
340.93	132.81
341.158	134.81
341.386	144.81
341.614	124.81
341.842	132.81
342.07	128.81
342.298	122.81
342.526	138.81
342.754	136.81
342.981	158.81
343.209	158.81
343.437	167.81
343.665	152.81
343.893	166.81
344.12	154.81
344.348	166.81
344.576	156.81
344.804	148.81
345.031	133.81
345.259	139.81
345.487	126.81
345.714	143.81
345.942	150.81
346.17	137.81
346.397	134.81
346.625	137.81
346.853	138.81
347.08	130.81
347.308	121.81
347.535	139.81
347.763	152.81
347.99	140.81
348.218	147.81
348.445	142.81
348.673	141.81
348.9	145.81
349.128	154.81
349.355	142.81
349.583	128.81
349.81	138.81
350.037	123.81
350.265	120.81
350.492	129.81
350.72	134.81
350.947	132.81
351.174	139.81
351.402	136.81
351.629	138.81
351.856	124.81
352.083	132.81
352.311	136.81
352.538	145.81
352.765	155.81
352.992	150.81
353.22	134.81
353.447	133.81
353.674	135.81
353.901	141.81
354.128	129.81
354.355	129.81
354.583	137.81
354.81	143.81
355.037	135.81
355.264	133.81
355.491	153.81
355.718	139.81
355.945	137.81
356.172	130.81
356.399	139.81
356.626	143.81
356.853	151.81
357.08	139.81
357.307	136.81
357.534	145.81
357.761	138.81
357.988	137.81
358.215	152.81
358.441	132.81
358.668	149.81
358.895	138.81
359.122	154.81
359.349	142.81
359.576	127.81
359.802	140.81
360.029	127.81
360.256	136.81
360.483	143.81
360.709	129.81
360.936	142.81
361.163	156.81
361.39	140.81
361.616	141.81
361.843	143.81
362.07	115.81
362.296	152.81
362.523	142.81
362.749	135.81
362.976	147.81
363.203	164.81
363.429	140.81
363.656	140.81
363.882	133.81
364.109	143.81
364.335	146.81
364.562	122.81
364.788	125.81
365.015	134.81
365.241	134.81
365.468	145.81
365.694	130.81
365.92	133.81
366.147	135.81
366.373	132.81
366.599	128.81
366.826	131.81
367.052	129.81
367.278	135.81
367.505	141.81
367.731	156.81
367.957	127.81
368.184	141.81
368.41	142.81
368.636	141.81
368.862	148.81
369.089	141.81
369.315	131.81
369.541	150.81
369.767	149.81
369.993	143.81
370.219	120.81
370.445	138.81
370.672	125.81
370.898	134.81
371.124	152.81
371.35	136.81
371.576	129.81
371.802	134.81
372.028	140.81
372.254	149.81
372.48	148.81
372.706	149.81
372.932	139.81
373.158	153.81
373.384	160.81
373.61	129.81
373.835	143.81
374.061	149.81
374.287	151.81
374.513	133.81
374.739	157.81
374.965	154.81
375.191	164.81
375.416	157.81
375.642	150.81
375.868	151.81
376.094	150.81
376.319	153.81
376.545	139.81
376.771	151.81
376.997	139.81
377.222	157.81
377.448	153.81
377.674	145.81
377.899	152.81
378.125	139.81
378.35	150.81
378.576	148.81
378.802	138.81
379.027	145.81
379.253	159.81
379.478	150.81
379.704	143.81
379.929	156.81
380.155	157.81
380.38	150.81
380.606	134.81
380.831	139.81
381.057	156.81
381.282	152.81
381.507	159.81
381.733	136.81
381.958	157.81
382.184	154.81
382.409	149.81
382.634	163.81
382.86	158.81
383.085	169.81
383.31	148.81
383.535	160.81
383.761	148.81
383.986	159.81
384.211	173.81
384.436	152.81
384.662	161.81
384.887	164.81
385.112	170.81
385.337	155.81
385.562	168.81
385.787	164.81
386.013	165.81
386.238	171.81
386.463	174.81
386.688	185.81
386.913	162.81
387.138	175.81
387.363	147.81
387.588	175.81
387.813	165.81
388.038	169.81
388.263	176.81
388.488	167.81
388.713	156.81
388.938	153.81
389.163	172.81
389.387	169.81
389.612	170.81
389.837	176.81
390.062	171.81
390.287	176.81
390.512	153.81
390.736	167.81
390.961	148.81
391.186	172.81
391.411	178.81
391.636	192.81
391.86	193.81
392.085	164.81
392.31	173.81
392.534	189.81
392.759	196.81
392.984	194.81
393.208	172.81
393.433	182.81
393.658	201.81
393.882	172.81
394.107	186.81
394.331	185.81
394.556	200.81
394.78	192.81
395.005	183.81
395.229	205.81
395.454	194.81
395.678	181.81
395.903	203.81
396.127	186.81
396.352	201.81
396.576	194.81
396.801	191.81
397.025	182.81
397.249	188.81
397.474	204.81
397.698	191.81
397.922	201.81
398.147	177.81
398.371	189.81
398.595	210.81
398.82	233.81
399.044	224.81
399.268	267.81
399.492	284.81
399.717	289.81
399.941	290.81
400.165	269.81
400.389	234.81
400.613	233.81
400.837	225.81
401.062	224.81
401.286	230.81
401.51	214.81
401.734	221.81
401.958	238.81
402.182	231.81
402.406	227.81
402.63	220.81
402.854	241.81
403.078	258.81
403.302	241.81
403.526	277.81
403.75	264.81
403.974	256.81
404.198	265.81
404.422	250.81
404.645	248.81
404.869	265.81
405.093	256.81
405.317	262.81
405.541	249.81
405.765	260.81
405.988	260.81
406.212	247.81
406.436	246.81
406.66	261.81
406.883	276.81
407.107	272.81
407.331	280.81
407.555	280.81
407.778	290.81
408.002	279.81
408.226	280.81
408.449	276.81
408.673	266.81
408.896	269.81
409.12	282.81
409.344	288.81
409.567	256.81
409.791	278.81
410.014	272.81
410.238	254.81
410.461	259.81
410.685	272.81
410.908	265.81
411.132	266.81
411.355	263.81
411.578	269.81
411.802	248.81
412.025	245.81
412.249	276.81
412.472	268.81
412.695	270.81
412.919	261.81
413.142	268.81
413.365	268.81
413.589	263.81
413.812	259.81
414.035	266.81
414.258	269.81
414.482	256.81
414.705	260.81
414.928	263.81
415.151	258.81
415.374	260.81
415.597	277.81
415.821	269.81
416.044	262.81
416.267	254.81
416.49	256.81
416.713	273.81
416.936	265.81
417.159	252.81
417.382	270.81
417.605	244.81
417.828	264.81
418.051	266.81
418.274	276.81
418.497	278.81
418.72	277.81
418.943	300.81
419.166	263.81
419.389	298.81
419.611	289.81
419.834	285.81
420.057	276.81
420.28	295.81
420.503	257.81
420.726	277.81
420.948	270.81
421.171	286.81
421.394	265.81
421.617	281.81
421.839	272.81
422.062	266.81
422.285	261.81
422.507	285.81
422.73	265.81
422.953	270.81
423.175	278.81
423.398	270.81
423.621	271.81
423.843	284.81
424.066	291.81
424.288	275.81
424.511	291.81
424.733	284.81
424.956	271.81
425.178	271.81
425.401	290.81
425.623	273.81
425.846	254.81
426.068	270.81
426.291	255.81
426.513	256.81
426.735	249.81
426.958	254.81
427.18	254.81
427.402	267.81
427.625	229.81
427.847	245.81
428.069	257.81
428.292	250.81
428.514	240.81
428.736	246.81
428.958	252.81
429.181	224.81
429.403	241.81
429.625	244.81
429.847	263.81
430.069	266.81
430.292	271.81
430.514	251.81
430.736	230.81
430.958	248.81
431.18	267.81
431.402	246.81
431.624	232.81
431.846	231.81
432.068	208.81
432.29	212.81
432.512	253.81
432.734	241.81
432.956	251.81
433.178	249.81
433.4	263.81
433.622	245.81
433.844	260.81
434.066	239.81
434.287	227.81
434.509	203.81
434.731	255.81
434.953	262.81
435.175	257.81
435.397	248.81
435.618	242.81
435.84	229.81
436.062	237.81
436.284	242.81
436.505	263.81
436.727	235.81
436.949	247.81
437.17	253.81
437.392	231.81
437.614	245.81
437.835	222.81
438.057	229.81
438.278	216.81
438.5	232.81
438.721	248.81
438.943	257.81
439.165	251.81
439.386	266.81
439.608	268.81
439.829	285.81
440.05	272.81
440.272	266.81
440.493	283.81
440.715	250.81
440.936	276.81
441.158	290.81
441.379	287.81
441.6	286.81
441.822	279.81
442.043	290.81
442.264	274.81
442.486	270.81
442.707	281.81
442.928	287.81
443.149	281.81
443.371	288.81
443.592	279.81
443.813	265.81
444.034	270.81
444.255	281.81
444.476	295.81
444.698	304.81
444.919	310.81
445.14	503.81
445.361	378.81
445.582	289.81
445.803	268.81
446.024	267.81
446.245	268.81
446.466	269.81
446.687	267.81
446.908	273.81
447.129	264.81
447.35	269.81
447.571	268.81
447.792	246.81
448.013	255.81
448.234	252.81
448.455	252.81
448.675	255.81
448.896	234.81
449.117	247.81
449.338	257.81
449.559	241.81
449.779	258.81
450	238.81
450.221	237.81
450.442	254.81
450.662	250.81
450.883	241.81
451.104	255.81
451.324	247.81
451.545	250.81
451.766	242.81
451.986	237.81
452.207	239.81
452.428	226.81
452.648	223.81
452.869	227.81
453.089	225.81
453.31	211.81
453.53	225.81
453.751	227.81
453.971	202.81
454.192	196.81
454.412	213.81
454.633	199.81
454.853	223.81
455.073	220.81
455.294	229.81
455.514	225.81
455.734	216.81
455.955	218.81
456.175	215.81
456.395	206.81
456.616	210.81
456.836	213.81
457.056	206.81
457.276	201.81
457.497	212.81
457.717	210.81
457.937	212.81
458.157	199.81
458.377	205.81
458.598	216.81
458.818	191.81
459.038	187.81
459.258	192.81
459.478	200.81
459.698	191.81
459.918	233.81
460.138	238.81
460.358	249.81
460.578	253.81
460.798	256.81
461.018	268.81
461.238	254.81
461.458	256.81
461.678	263.81
461.898	270.81
462.118	258.81
462.338	258.81
462.558	276.81
462.777	280.81
462.997	308.81
463.217	321.81
463.437	308.81
463.657	293.81
463.876	270.81
464.096	281.81
464.316	287.81
464.536	272.81
464.755	261.81
464.975	276.81
465.195	261.81
465.414	266.81
465.634	255.81
465.854	227.81
466.073	231.81
466.293	248.81
466.512	226.81
466.732	237.81
466.951	255.81
467.171	237.81
467.391	239.81
467.61	234.81
467.829	250.81
468.049	261.81
468.268	252.81
468.488	244.81
468.707	236.81
468.927	244.81
469.146	244.81
469.365	238.81
469.585	238.81
469.804	248.81
470.023	268.81
470.243	255.81
470.462	266.81
470.681	265.81
470.901	251.81
471.12	242.81
471.339	256.81
471.558	215.81
471.777	250.81
471.997	248.81
472.216	249.81
472.435	228.81
472.654	218.81
472.873	234.81
473.092	224.81
473.311	229.81
473.53	237.81
473.749	229.81
473.968	230.81
474.187	221.81
474.406	224.81
474.625	252.81
474.844	252.81
475.063	222.81
475.282	221.81
475.501	202.81
475.72	238.81
475.939	222.81
476.158	208.81
476.377	244.81
476.596	234.81
476.814	232.81
477.033	210.81
477.252	230.81
477.471	241.81
477.69	245.81
477.908	268.81
478.127	268.81
478.346	277.81
478.564	276.81
478.783	266.81
479.002	288.81
479.22	271.81
479.439	274.81
479.658	268.81
479.876	244.81
480.095	266.81
480.313	252.81
480.532	262.81
480.751	252.81
480.969	242.81
481.188	213.81
481.406	232.81
481.624	222.81
481.843	215.81
482.061	226.81
482.28	231.81
482.498	224.81
482.717	245.81
482.935	254.81
483.153	271.81
483.372	268.81
483.59	264.81
483.808	263.81
484.027	238.81
484.245	264.81
484.463	248.81
484.681	291.81
484.9	267.81
485.118	258.81
485.336	256.81
485.554	246.81
485.772	240.81
485.99	239.81
486.209	234.81
486.427	257.81
486.645	257.81
486.863	280.81
487.081	270.81
487.299	250.81
487.517	268.81
487.735	289.81
487.953	310.81
488.171	289.81
488.389	285.81
488.607	282.81
488.825	269.81
489.043	254.81
489.261	266.81
489.479	270.81
489.696	279.81
489.914	282.81
490.132	284.81
490.35	279.81
490.568	292.81
490.786	309.81
491.003	306.81
491.221	316.81
491.439	307.81
491.657	317.81
491.874	341.81
492.092	344.81
492.31	354.81
492.527	352.81
492.745	316.81
492.963	324.81
493.18	321.81
493.398	324.81
493.615	313.81
493.833	324.81
494.05	330.81
494.268	317.81
494.485	300.81
494.703	292.81
494.92	319.81
495.138	327.81
495.355	322.81
495.573	316.81
495.79	297.81
496.008	326.81
496.225	299.81
496.442	309.81
496.66	312.81
496.877	320.81
497.094	319.81
497.312	302.81
497.529	303.81
497.746	287.81
497.963	298.81
498.181	295.81
498.398	291.81
498.615	317.81
498.832	337.81
499.049	359.81
499.267	385.81
499.484	405.81
499.701	450.81
499.918	492.81
500.135	565.81
500.352	604.81
500.569	593.81
500.786	599.81
501.003	541.81
501.22	501.81
501.437	466.81
501.654	413.81
501.871	389.81
502.088	364.81
502.305	373.81
502.522	320.81
502.739	324.81
502.956	309.81
503.172	296.81
503.389	291.81
503.606	278.81
503.823	288.81
504.04	300.81
504.256	299.81
504.473	289.81
504.69	298.81
