Data from SampA_HRD10591_00059.txt Node
Date: Mon Jan 19 11:27:06 EST 2026
User: Yrep
Spectrometer: HR+D1059
Trigger mode: 0
Integration Time (sec): 3.443000E-1
Scans to average: 1
Electric dark correction enabled: true
Nonlinearity correction enabled: false
Boxcar width: 0
XAxis mode: Wavelengths
Number of Pixels in Spectrum: 2048
>>>>>Begin Spectral Data<<<<<
223.165	-32.88
223.4	-32.88
223.635	-32.88
223.869	-24.88
224.104	-27.88
224.338	-9.88
224.573	-31.88
224.808	-4.88
225.042	8.12
225.277	-7.88
225.511	-5.88
225.746	6.12
225.98	9.12
226.215	16.12
226.449	13.12
226.683	26.12
226.918	22.12
227.152	45.12
227.387	25.12
227.621	44.12
227.856	51.12
228.09	45.12
228.324	56.12
228.559	74.12
228.793	72.12
229.027	52.12
229.262	63.12
229.496	74.12
229.73	59.12
229.964	65.12
230.199	79.12
230.433	79.12
230.667	79.12
230.901	72.12
231.136	68.12
231.37	90.12
231.604	87.12
231.838	83.12
232.072	83.12
232.306	88.12
232.541	85.12
232.775	80.12
233.009	88.12
233.243	78.12
233.477	88.12
233.711	95.12
233.945	80.12
234.179	75.12
234.413	95.12
234.647	100.12
234.881	84.12
235.115	87.12
235.349	81.12
235.583	96.12
235.817	77.12
236.051	77.12
236.285	102.12
236.519	79.12
236.753	79.12
236.987	86.12
237.221	76.12
237.455	80.12
237.689	78.12
237.922	87.12
238.156	75.12
238.39	77.12
238.624	71.12
238.858	79.12
239.091	82.12
239.325	84.12
239.559	93.12
239.793	80.12
240.027	91.12
240.26	72.12
240.494	85.12
240.728	74.12
240.961	79.12
241.195	93.12
241.429	93.12
241.662	74.12
241.896	85.12
242.13	80.12
242.363	85.12
242.597	76.12
242.83	96.12
243.064	82.12
243.298	94.12
243.531	83.12
243.765	78.12
243.998	94.12
244.232	96.12
244.465	85.12
244.699	82.12
244.932	82.12
245.166	91.12
245.399	103.12
245.633	85.12
245.866	82.12
246.099	89.12
246.333	80.12
246.566	91.12
246.8	98.12
247.033	91.12
247.266	87.12
247.5	76.12
247.733	80.12
247.966	86.12
248.2	79.12
248.433	93.12
248.666	75.12
248.899	91.12
249.133	83.12
249.366	103.12
249.599	84.12
249.832	100.12
250.066	99.12
250.299	93.12
250.532	109.12
250.765	88.12
250.998	96.12
251.231	83.12
251.465	100.12
251.698	83.12
251.931	90.12
252.164	86.12
252.397	86.12
252.63	86.12
252.863	105.12
253.096	94.12
253.329	95.12
253.562	85.12
253.795	99.12
254.028	85.12
254.261	103.12
254.494	76.12
254.727	89.12
254.96	95.12
255.193	93.12
255.426	94.12
255.659	90.12
255.892	93.12
256.124	104.12
256.357	111.12
256.59	86.12
256.823	104.12
257.056	89.12
257.289	96.12
257.521	91.12
257.754	89.12
257.987	89.12
258.22	100.12
258.452	89.12
258.685	82.12
258.918	105.12
259.151	106.12
259.383	96.12
259.616	96.12
259.849	100.12
260.081	89.12
260.314	98.12
260.547	99.12
260.779	105.12
261.012	108.12
261.244	95.12
261.477	108.12
261.71	89.12
261.942	96.12
262.175	97.12
262.407	103.12
262.64	96.12
262.872	90.12
263.105	96.12
263.337	104.12
263.57	100.12
263.802	88.12
264.035	95.12
264.267	96.12
264.499	103.12
264.732	101.12
264.964	103.12
265.197	91.12
265.429	93.12
265.661	103.12
265.894	100.12
266.126	95.12
266.358	87.12
266.591	110.12
266.823	107.12
267.055	104.12
267.287	90.12
267.52	95.12
267.752	117.12
267.984	106.12
268.216	103.12
268.448	110.12
268.681	99.12
268.913	96.12
269.145	113.12
269.377	105.12
269.609	110.12
269.841	107.12
270.073	102.12
270.306	114.12
270.538	110.12
270.77	93.12
271.002	101.12
271.234	116.12
271.466	96.12
271.698	102.12
271.93	99.12
272.162	102.12
272.394	112.12
272.626	111.12
272.858	105.12
273.09	117.12
273.322	101.12
273.553	106.12
273.785	117.12
274.017	100.12
274.249	99.12
274.481	96.12
274.713	102.12
274.945	111.12
275.176	92.12
275.408	113.12
275.64	93.12
275.872	102.12
276.104	108.12
276.335	100.12
276.567	116.12
276.799	91.12
277.031	105.12
277.262	116.12
277.494	112.12
277.726	113.12
277.957	110.12
278.189	104.12
278.421	107.12
278.652	113.12
278.884	115.12
279.115	110.12
279.347	100.12
279.579	101.12
279.81	99.12
280.042	110.12
280.273	126.12
280.505	107.12
280.736	110.12
280.968	106.12
281.199	111.12
281.431	114.12
281.662	117.12
281.894	114.12
282.125	109.12
282.356	127.12
282.588	125.12
282.819	103.12
283.051	111.12
283.282	115.12
283.513	115.12
283.745	127.12
283.976	116.12
284.207	109.12
284.439	115.12
284.67	112.12
284.901	104.12
285.132	99.12
285.364	107.12
285.595	118.12
285.826	97.12
286.057	115.12
286.288	110.12
286.52	114.12
286.751	122.12
286.982	112.12
287.213	116.12
287.444	114.12
287.675	118.12
287.906	142.12
288.138	109.12
288.369	133.12
288.6	129.12
288.831	113.12
289.062	127.12
289.293	120.12
289.524	127.12
289.755	110.12
289.986	116.12
290.217	127.12
290.448	122.12
290.679	126.12
290.91	136.12
291.141	126.12
291.371	126.12
291.602	122.12
291.833	121.12
292.064	132.12
292.295	110.12
292.526	119.12
292.757	128.12
292.987	123.12
293.218	105.12
293.449	130.12
293.68	131.12
293.91	123.12
294.141	118.12
294.372	106.12
294.603	116.12
294.833	122.12
295.064	119.12
295.295	97.12
295.525	112.12
295.756	129.12
295.987	110.12
296.217	119.12
296.448	119.12
296.679	120.12
296.909	120.12
297.14	127.12
297.37	128.12
297.601	136.12
297.831	116.12
298.062	115.12
298.292	127.12
298.523	122.12
298.753	116.12
298.984	118.12
299.214	109.12
299.445	133.12
299.675	125.12
299.905	137.12
300.136	128.12
300.366	127.12
300.597	136.12
300.827	136.12
301.057	136.12
301.288	137.12
301.518	114.12
301.748	128.12
301.979	172.12
302.209	130.12
302.439	115.12
302.669	122.12
302.9	115.12
303.13	119.12
303.36	117.12
303.59	110.12
303.82	116.12
304.051	120.12
304.281	124.12
304.511	128.12
304.741	133.12
304.971	116.12
305.201	138.12
305.431	118.12
305.661	119.12
305.891	138.12
306.121	143.12
306.352	134.12
306.582	122.12
306.812	120.12
307.042	125.12
307.272	116.12
307.502	117.12
307.731	119.12
307.961	143.12
308.191	130.12
308.421	112.12
308.651	134.12
308.881	136.12
309.111	116.12
309.341	135.12
309.571	107.12
309.8	130.12
310.03	135.12
310.26	119.12
310.49	133.12
310.72	136.12
310.949	126.12
311.179	133.12
311.409	121.12
311.639	119.12
311.868	142.12
312.098	127.12
312.328	143.12
312.557	137.12
312.787	135.12
313.017	142.12
313.246	128.12
313.476	116.12
313.706	127.12
313.935	145.12
314.165	140.12
314.394	144.12
314.624	129.12
314.853	142.12
315.083	123.12
315.312	125.12
315.542	135.12
315.771	135.12
316.001	124.12
316.23	136.12
316.46	138.12
316.689	128.12
316.919	135.12
317.148	126.12
317.377	129.12
317.607	130.12
317.836	122.12
318.065	119.12
318.295	131.12
318.524	116.12
318.753	134.12
318.983	127.12
319.212	134.12
319.441	122.12
319.67	116.12
319.9	114.12
320.129	121.12
320.358	139.12
320.587	132.12
320.816	127.12
321.046	130.12
321.275	140.12
321.504	107.12
321.733	130.12
321.962	134.12
322.191	120.12
322.42	135.12
322.649	138.12
322.878	135.12
323.108	148.12
323.337	128.12
323.566	138.12
323.795	130.12
324.024	133.12
324.253	135.12
324.482	132.12
324.71	122.12
324.939	139.12
325.168	136.12
325.397	139.12
325.626	134.12
325.855	119.12
326.084	138.12
326.313	137.12
326.542	130.12
326.77	150.12
326.999	144.12
327.228	126.12
327.457	134.12
327.686	143.12
327.914	140.12
328.143	141.12
328.372	125.12
328.6	136.12
328.829	131.12
329.058	135.12
329.287	135.12
329.515	131.12
329.744	151.12
329.972	137.12
330.201	135.12
330.43	138.12
330.658	126.12
330.887	143.12
331.115	125.12
331.344	130.12
331.572	126.12
331.801	148.12
332.03	145.12
332.258	146.12
332.486	135.12
332.715	153.12
332.943	152.12
333.172	159.12
333.4	157.12
333.629	161.12
333.857	166.12
334.085	160.12
334.314	144.12
334.542	163.12
334.771	151.12
334.999	150.12
335.227	150.12
335.455	150.12
335.684	153.12
335.912	135.12
336.14	159.12
336.369	151.12
336.597	138.12
336.825	158.12
337.053	154.12
337.281	147.12
337.51	155.12
337.738	152.12
337.966	143.12
338.194	126.12
338.422	141.12
338.65	127.12
338.878	148.12
339.106	140.12
339.334	162.12
339.562	119.12
339.79	139.12
340.018	125.12
340.246	127.12
340.474	134.12
340.702	139.12
340.93	127.12
341.158	142.12
341.386	139.12
341.614	134.12
341.842	151.12
342.07	138.12
342.298	150.12
342.526	128.12
342.754	128.12
342.981	161.12
343.209	131.12
343.437	172.12
343.665	146.12
343.893	144.12
344.12	160.12
344.348	144.12
344.576	152.12
344.804	141.12
345.031	155.12
345.259	133.12
345.487	138.12
345.714	122.12
345.942	123.12
346.17	127.12
346.397	136.12
346.625	135.12
346.853	131.12
347.08	127.12
347.308	130.12
347.535	144.12
347.763	132.12
347.99	132.12
348.218	118.12
348.445	126.12
348.673	147.12
348.9	136.12
349.128	150.12
349.355	131.12
349.583	126.12
349.81	139.12
350.037	140.12
350.265	139.12
350.492	139.12
350.72	134.12
350.947	128.12
351.174	133.12
351.402	133.12
351.629	131.12
351.856	135.12
352.083	127.12
352.311	137.12
352.538	132.12
352.765	145.12
352.992	160.12
353.22	152.12
353.447	137.12
353.674	132.12
353.901	139.12
354.128	145.12
354.355	131.12
354.583	121.12
354.81	136.12
355.037	129.12
355.264	138.12
355.491	132.12
355.718	115.12
355.945	123.12
356.172	134.12
356.399	146.12
356.626	131.12
356.853	126.12
357.08	131.12
357.307	142.12
357.534	117.12
357.761	118.12
357.988	135.12
358.215	136.12
358.441	136.12
358.668	122.12
358.895	148.12
359.122	143.12
359.349	112.12
359.576	127.12
359.802	147.12
360.029	121.12
360.256	142.12
360.483	121.12
360.709	130.12
360.936	138.12
361.163	135.12
361.39	136.12
361.616	134.12
361.843	133.12
362.07	143.12
362.296	137.12
362.523	120.12
362.749	144.12
362.976	122.12
363.203	148.12
363.429	135.12
363.656	119.12
363.882	132.12
364.109	142.12
364.335	159.12
364.562	135.12
364.788	140.12
365.015	149.12
365.241	126.12
365.468	130.12
365.694	138.12
365.92	133.12
366.147	136.12
366.373	142.12
366.599	138.12
366.826	148.12
367.052	131.12
367.278	153.12
367.505	125.12
367.731	163.12
367.957	137.12
368.184	131.12
368.41	138.12
368.636	143.12
368.862	155.12
369.089	132.12
369.315	146.12
369.541	123.12
369.767	141.12
369.993	143.12
370.219	139.12
370.445	134.12
370.672	158.12
370.898	147.12
371.124	129.12
371.35	154.12
371.576	145.12
371.802	133.12
372.028	128.12
372.254	160.12
372.48	151.12
372.706	140.12
372.932	149.12
373.158	152.12
373.384	164.12
373.61	143.12
373.835	150.12
374.061	139.12
374.287	142.12
374.513	146.12
374.739	160.12
374.965	156.12
375.191	142.12
375.416	147.12
375.642	158.12
375.868	155.12
376.094	155.12
376.319	140.12
376.545	132.12
376.771	141.12
376.997	138.12
377.222	126.12
377.448	124.12
377.674	153.12
377.899	154.12
378.125	149.12
378.35	151.12
378.576	158.12
378.802	150.12
379.027	156.12
379.253	165.12
379.478	140.12
379.704	128.12
379.929	135.12
380.155	153.12
380.38	132.12
380.606	150.12
380.831	153.12
381.057	159.12
381.282	147.12
381.507	149.12
381.733	157.12
381.958	154.12
382.184	173.12
382.409	144.12
382.634	143.12
382.86	139.12
383.085	149.12
383.31	142.12
383.535	156.12
383.761	159.12
383.986	166.12
384.211	162.12
384.436	158.12
384.662	178.12
384.887	161.12
385.112	166.12
385.337	168.12
385.562	156.12
385.787	175.12
386.013	171.12
386.238	182.12
386.463	167.12
386.688	205.12
386.913	161.12
387.138	166.12
387.363	173.12
387.588	154.12
387.813	166.12
388.038	173.12
388.263	168.12
388.488	158.12
388.713	164.12
388.938	151.12
389.163	180.12
389.387	165.12
389.612	165.12
389.837	165.12
390.062	178.12
390.287	158.12
390.512	168.12
390.736	166.12
390.961	161.12
391.186	174.12
391.411	177.12
391.636	170.12
391.86	186.12
392.085	176.12
392.31	179.12
392.534	168.12
392.759	172.12
392.984	165.12
393.208	180.12
393.433	190.12
393.658	198.12
393.882	173.12
394.107	180.12
394.331	179.12
394.556	187.12
394.78	183.12
395.005	177.12
395.229	182.12
395.454	186.12
395.678	184.12
395.903	213.12
396.127	205.12
396.352	202.12
396.576	176.12
396.801	184.12
397.025	183.12
397.249	187.12
397.474	204.12
397.698	205.12
397.922	199.12
398.147	198.12
398.371	215.12
398.595	204.12
398.82	221.12
399.044	214.12
399.268	248.12
399.492	261.12
399.717	288.12
399.941	282.12
400.165	259.12
400.389	246.12
400.613	228.12
400.837	232.12
401.062	221.12
401.286	216.12
401.51	236.12
401.734	230.12
401.958	226.12
402.182	238.12
402.406	246.12
402.63	232.12
402.854	250.12
403.078	245.12
403.302	250.12
403.526	266.12
403.75	264.12
403.974	262.12
404.198	269.12
404.422	271.12
404.645	263.12
404.869	243.12
405.093	252.12
405.317	252.12
405.541	257.12
405.765	232.12
405.988	254.12
406.212	244.12
406.436	243.12
406.66	272.12
406.883	268.12
407.107	275.12
407.331	276.12
407.555	291.12
407.778	271.12
408.002	267.12
408.226	264.12
408.449	248.12
408.673	262.12
408.896	258.12
409.12	259.12
409.344	268.12
409.567	279.12
409.791	268.12
410.014	275.12
410.238	271.12
410.461	266.12
410.685	263.12
410.908	251.12
411.132	278.12
411.355	264.12
411.578	256.12
411.802	243.12
412.025	253.12
412.249	249.12
412.472	255.12
412.695	243.12
412.919	249.12
413.142	276.12
413.365	255.12
413.589	262.12
413.812	248.12
414.035	258.12
414.258	255.12
414.482	258.12
414.705	252.12
414.928	250.12
415.151	267.12
415.374	265.12
415.597	259.12
415.821	261.12
416.044	262.12
416.267	250.12
416.49	263.12
416.713	262.12
416.936	270.12
417.159	246.12
417.382	254.12
417.605	260.12
417.828	280.12
418.051	256.12
418.274	263.12
418.497	249.12
418.72	274.12
418.943	258.12
419.166	287.12
419.389	302.12
419.611	272.12
419.834	273.12
420.057	268.12
420.28	272.12
420.503	270.12
420.726	264.12
420.948	262.12
421.171	264.12
421.394	259.12
421.617	276.12
421.839	270.12
422.062	271.12
422.285	263.12
422.507	264.12
422.73	273.12
422.953	250.12
423.175	268.12
423.398	270.12
423.621	289.12
423.843	288.12
424.066	274.12
424.288	285.12
424.511	272.12
424.733	263.12
424.956	281.12
425.178	290.12
425.401	272.12
425.623	260.12
425.846	276.12
426.068	262.12
426.291	266.12
426.513	261.12
426.735	252.12
426.958	258.12
427.18	263.12
427.402	236.12
427.625	255.12
427.847	248.12
428.069	246.12
428.292	233.12
428.514	246.12
428.736	249.12
428.958	231.12
429.181	235.12
429.403	233.12
429.625	253.12
429.847	248.12
430.069	238.12
430.292	253.12
430.514	232.12
430.736	248.12
430.958	251.12
431.18	231.12
431.402	232.12
431.624	244.12
431.846	238.12
432.068	209.12
432.29	213.12
432.512	244.12
432.734	245.12
432.956	259.12
433.178	278.12
433.4	259.12
433.622	280.12
433.844	247.12
434.066	234.12
434.287	233.12
434.509	219.12
434.731	245.12
434.953	258.12
435.175	260.12
435.397	259.12
435.618	232.12
435.84	235.12
436.062	232.12
436.284	234.12
436.505	254.12
436.727	237.12
436.949	283.12
437.17	268.12
437.392	237.12
437.614	241.12
437.835	221.12
438.057	217.12
438.278	221.12
438.5	249.12
438.721	254.12
438.943	259.12
439.165	241.12
439.386	242.12
439.608	239.12
439.829	252.12
440.05	245.12
440.272	246.12
440.493	260.12
440.715	260.12
440.936	279.12
441.158	277.12
441.379	274.12
441.6	293.12
441.822	285.12
442.043	279.12
442.264	253.12
442.486	261.12
442.707	283.12
442.928	281.12
443.149	266.12
443.371	269.12
443.592	274.12
443.813	263.12
444.034	270.12
444.255	298.12
444.476	306.12
444.698	303.12
444.919	314.12
445.14	473.12
445.361	365.12
445.582	296.12
445.803	279.12
446.024	275.12
446.245	274.12
446.466	282.12
446.687	278.12
446.908	264.12
447.129	266.12
447.35	267.12
447.571	261.12
447.792	233.12
448.013	245.12
448.234	242.12
448.455	250.12
448.675	242.12
448.896	254.12
449.117	239.12
449.338	243.12
449.559	248.12
449.779	223.12
450	232.12
450.221	239.12
450.442	241.12
450.662	252.12
450.883	253.12
451.104	262.12
451.324	224.12
451.545	229.12
451.766	241.12
451.986	225.12
452.207	247.12
452.428	236.12
452.648	243.12
452.869	209.12
453.089	207.12
453.31	223.12
453.53	204.12
453.751	223.12
453.971	202.12
454.192	215.12
454.412	214.12
454.633	204.12
454.853	237.12
455.073	221.12
455.294	214.12
455.514	228.12
455.734	219.12
455.955	215.12
456.175	204.12
456.395	206.12
456.616	196.12
456.836	205.12
457.056	219.12
457.276	202.12
457.497	196.12
457.717	212.12
457.937	192.12
458.157	208.12
458.377	203.12
458.598	204.12
458.818	194.12
459.038	200.12
459.258	204.12
459.478	202.12
459.698	208.12
459.918	232.12
460.138	231.12
460.358	261.12
460.578	286.12
460.798	269.12
461.018	282.12
461.238	232.12
461.458	258.12
461.678	265.12
461.898	259.12
462.118	260.12
462.338	263.12
462.558	282.12
462.777	293.12
462.997	308.12
463.217	309.12
463.437	310.12
463.657	283.12
463.876	268.12
464.096	282.12
464.316	284.12
464.536	294.12
464.755	280.12
464.975	267.12
465.195	252.12
465.414	248.12
465.634	243.12
465.854	238.12
466.073	242.12
466.293	265.12
466.512	242.12
466.732	214.12
466.951	255.12
467.171	244.12
467.391	220.12
467.61	238.12
467.829	237.12
468.049	247.12
468.268	255.12
468.488	243.12
468.707	240.12
468.927	240.12
469.146	238.12
469.365	239.12
469.585	244.12
469.804	251.12
470.023	248.12
470.243	255.12
470.462	262.12
470.681	258.12
470.901	251.12
471.12	262.12
471.339	248.12
471.558	234.12
471.777	239.12
471.997	240.12
472.216	243.12
472.435	220.12
472.654	213.12
472.873	219.12
473.092	221.12
473.311	234.12
473.53	228.12
473.749	234.12
473.968	227.12
474.187	221.12
474.406	215.12
474.625	231.12
474.844	232.12
475.063	228.12
475.282	226.12
475.501	217.12
475.72	235.12
475.939	232.12
476.158	240.12
476.377	247.12
476.596	215.12
476.814	225.12
477.033	220.12
477.252	232.12
477.471	252.12
477.69	259.12
477.908	268.12
478.127	269.12
478.346	259.12
478.564	251.12
478.783	262.12
479.002	270.12
479.22	265.12
479.439	271.12
479.658	263.12
479.876	242.12
480.095	258.12
480.313	272.12
480.532	283.12
480.751	261.12
480.969	228.12
481.188	221.12
481.406	227.12
481.624	223.12
481.843	222.12
482.061	229.12
482.28	221.12
482.498	223.12
482.717	231.12
482.935	244.12
483.153	270.12
483.372	270.12
483.59	275.12
483.808	255.12
484.027	244.12
484.245	250.12
484.463	259.12
484.681	255.12
484.9	260.12
485.118	260.12
485.336	249.12
485.554	246.12
485.772	240.12
485.99	244.12
486.209	245.12
486.427	250.12
486.645	250.12
486.863	265.12
487.081	263.12
487.299	265.12
487.517	284.12
487.735	289.12
487.953	286.12
488.171	307.12
488.389	284.12
488.607	271.12
488.825	254.12
489.043	251.12
489.261	259.12
489.479	263.12
489.696	274.12
489.914	278.12
490.132	275.12
490.35	267.12
490.568	280.12
490.786	296.12
491.003	306.12
491.221	314.12
491.439	319.12
491.657	322.12
491.874	334.12
492.092	356.12
492.31	345.12
492.527	336.12
492.745	304.12
492.963	323.12
493.18	322.12
493.398	334.12
493.615	328.12
493.833	310.12
494.05	308.12
494.268	314.12
494.485	304.12
494.703	316.12
494.92	330.12
495.138	307.12
495.355	292.12
495.573	303.12
495.79	294.12
496.008	299.12
496.225	302.12
496.442	315.12
496.66	312.12
496.877	295.12
497.094	316.12
497.312	301.12
497.529	295.12
497.746	313.12
497.963	289.12
498.181	298.12
498.398	308.12
498.615	306.12
498.832	328.12
499.049	357.12
499.267	387.12
499.484	407.12
499.701	445.12
499.918	505.12
500.135	550.12
500.352	609.12
500.569	638.12
500.786	598.12
501.003	535.12
501.22	524.12
501.437	461.12
501.654	401.12
501.871	388.12
502.088	371.12
502.305	342.12
502.522	314.12
502.739	324.12
502.956	328.12
503.172	326.12
503.389	284.12
503.606	279.12
503.823	279.12
504.04	301.12
504.256	293.12
504.473	305.12
504.69	286.12
504.907	277.12
