Data from SampA_HRD10591_00089.txt Node
Date: Mon Jan 19 11:27:17 EST 2026
User: Yrep
Spectrometer: HR+D1059
Trigger mode: 0
Integration Time (sec): 3.443000E-1
Scans to average: 1
Electric dark correction enabled: true
Nonlinearity correction enabled: false
Boxcar width: 0
XAxis mode: Wavelengths
Number of Pixels in Spectrum: 2048
>>>>>Begin Spectral Data<<<<<
223.165	-24.5
223.4	-24.5
223.635	-24.5
223.869	-21.5
224.104	-30.5
224.338	-19.5
224.573	-20.5
224.808	-15.5
225.042	6.5
225.277	-8.5
225.511	5.5
225.746	17.5
225.98	17.5
226.215	6.5
226.449	9.5
226.683	22.5
226.918	14.5
227.152	40.5
227.387	44.5
227.621	40.5
227.856	59.5
228.09	42.5
228.324	52.5
228.559	59.5
228.793	57.5
229.027	76.5
229.262	68.5
229.496	65.5
229.73	76.5
229.964	88.5
230.199	88.5
230.433	83.5
230.667	81.5
230.901	64.5
231.136	82.5
231.37	80.5
231.604	93.5
231.838	93.5
232.072	84.5
232.306	93.5
232.541	84.5
232.775	91.5
233.009	92.5
233.243	95.5
233.477	91.5
233.711	88.5
233.945	93.5
234.179	86.5
234.413	96.5
234.647	89.5
234.881	76.5
235.115	85.5
235.349	81.5
235.583	95.5
235.817	98.5
236.051	93.5
236.285	71.5
236.519	85.5
236.753	78.5
236.987	87.5
237.221	76.5
237.455	81.5
237.689	90.5
237.922	84.5
238.156	78.5
238.39	82.5
238.624	88.5
238.858	79.5
239.091	77.5
239.325	86.5
239.559	97.5
239.793	85.5
240.027	98.5
240.26	83.5
240.494	94.5
240.728	85.5
240.961	88.5
241.195	82.5
241.429	88.5
241.662	88.5
241.896	95.5
242.13	81.5
242.363	89.5
242.597	83.5
242.83	93.5
243.064	104.5
243.298	100.5
243.531	99.5
243.765	86.5
243.998	95.5
244.232	95.5
244.465	85.5
244.699	82.5
244.932	102.5
245.166	91.5
245.399	94.5
245.633	96.5
245.866	90.5
246.099	95.5
246.333	91.5
246.566	84.5
246.8	82.5
247.033	80.5
247.266	90.5
247.5	74.5
247.733	95.5
247.966	90.5
248.2	92.5
248.433	91.5
248.666	101.5
248.899	83.5
249.133	90.5
249.366	109.5
249.599	99.5
249.832	98.5
250.066	93.5
250.299	93.5
250.532	97.5
250.765	90.5
250.998	85.5
251.231	86.5
251.465	117.5
251.698	93.5
251.931	98.5
252.164	88.5
252.397	103.5
252.63	99.5
252.863	96.5
253.096	96.5
253.329	120.5
253.562	104.5
253.795	94.5
254.028	105.5
254.261	106.5
254.494	112.5
254.727	109.5
254.96	109.5
255.193	98.5
255.426	98.5
255.659	105.5
255.892	112.5
256.124	105.5
256.357	88.5
256.59	95.5
256.823	100.5
257.056	94.5
257.289	112.5
257.521	119.5
257.754	100.5
257.987	109.5
258.22	104.5
258.452	114.5
258.685	111.5
258.918	106.5
259.151	98.5
259.383	99.5
259.616	100.5
259.849	96.5
260.081	109.5
260.314	111.5
260.547	98.5
260.779	93.5
261.012	108.5
261.244	93.5
261.477	109.5
261.71	121.5
261.942	82.5
262.175	112.5
262.407	103.5
262.64	115.5
262.872	108.5
263.105	94.5
263.337	121.5
263.57	98.5
263.802	93.5
264.035	116.5
264.267	111.5
264.499	112.5
264.732	109.5
264.964	107.5
265.197	126.5
265.429	108.5
265.661	110.5
265.894	108.5
266.126	112.5
266.358	112.5
266.591	112.5
266.823	103.5
267.055	107.5
267.287	93.5
267.52	115.5
267.752	104.5
267.984	110.5
268.216	100.5
268.448	121.5
268.681	118.5
268.913	119.5
269.145	112.5
269.377	104.5
269.609	105.5
269.841	109.5
270.073	108.5
270.306	104.5
270.538	109.5
270.77	102.5
271.002	119.5
271.234	116.5
271.466	109.5
271.698	116.5
271.93	104.5
272.162	98.5
272.394	137.5
272.626	121.5
272.858	110.5
273.09	112.5
273.322	120.5
273.553	97.5
273.785	108.5
274.017	110.5
274.249	111.5
274.481	127.5
274.713	117.5
274.945	121.5
275.176	122.5
275.408	126.5
275.64	123.5
275.872	117.5
276.104	119.5
276.335	129.5
276.567	108.5
276.799	113.5
277.031	119.5
277.262	124.5
277.494	134.5
277.726	112.5
277.957	116.5
278.189	124.5
278.421	118.5
278.652	122.5
278.884	122.5
279.115	127.5
279.347	125.5
279.579	124.5
279.81	138.5
280.042	117.5
280.273	125.5
280.505	112.5
280.736	114.5
280.968	127.5
281.199	122.5
281.431	121.5
281.662	119.5
281.894	117.5
282.125	108.5
282.356	110.5
282.588	114.5
282.819	116.5
283.051	131.5
283.282	121.5
283.513	135.5
283.745	124.5
283.976	123.5
284.207	121.5
284.439	127.5
284.67	135.5
284.901	132.5
285.132	148.5
285.364	133.5
285.595	135.5
285.826	123.5
286.057	117.5
286.288	112.5
286.52	107.5
286.751	114.5
286.982	137.5
287.213	124.5
287.444	134.5
287.675	128.5
287.906	136.5
288.138	134.5
288.369	132.5
288.6	134.5
288.831	133.5
289.062	141.5
289.293	122.5
289.524	123.5
289.755	120.5
289.986	136.5
290.217	134.5
290.448	140.5
290.679	132.5
290.91	137.5
291.141	121.5
291.371	135.5
291.602	120.5
291.833	136.5
292.064	139.5
292.295	138.5
292.526	136.5
292.757	123.5
292.987	128.5
293.218	129.5
293.449	131.5
293.68	120.5
293.91	141.5
294.141	138.5
294.372	126.5
294.603	142.5
294.833	136.5
295.064	126.5
295.295	127.5
295.525	125.5
295.756	136.5
295.987	132.5
296.217	121.5
296.448	123.5
296.679	146.5
296.909	145.5
297.14	148.5
297.37	134.5
297.601	133.5
297.831	141.5
298.062	142.5
298.292	125.5
298.523	138.5
298.753	135.5
298.984	135.5
299.214	152.5
299.445	123.5
299.675	148.5
299.905	130.5
300.136	144.5
300.366	132.5
300.597	143.5
300.827	148.5
301.057	129.5
301.288	152.5
301.518	138.5
301.748	152.5
301.979	178.5
302.209	134.5
302.439	141.5
302.669	140.5
302.9	140.5
303.13	139.5
303.36	142.5
303.59	132.5
303.82	140.5
304.051	131.5
304.281	152.5
304.511	139.5
304.741	129.5
304.971	132.5
305.201	152.5
305.431	150.5
305.661	143.5
305.891	134.5
306.121	151.5
306.352	140.5
306.582	143.5
306.812	148.5
307.042	135.5
307.272	139.5
307.502	144.5
307.731	156.5
307.961	136.5
308.191	152.5
308.421	145.5
308.651	150.5
308.881	125.5
309.111	152.5
309.341	132.5
309.571	143.5
309.8	145.5
310.03	138.5
310.26	146.5
310.49	153.5
310.72	124.5
310.949	136.5
311.179	152.5
311.409	147.5
311.639	151.5
311.868	145.5
312.098	135.5
312.328	148.5
312.557	165.5
312.787	150.5
313.017	164.5
313.246	148.5
313.476	150.5
313.706	155.5
313.935	159.5
314.165	152.5
314.394	154.5
314.624	133.5
314.853	155.5
315.083	130.5
315.312	138.5
315.542	135.5
315.771	138.5
316.001	154.5
316.23	167.5
316.46	137.5
316.689	135.5
316.919	158.5
317.148	157.5
317.377	163.5
317.607	152.5
317.836	147.5
318.065	143.5
318.295	134.5
318.524	145.5
318.753	139.5
318.983	149.5
319.212	152.5
319.441	137.5
319.67	150.5
319.9	143.5
320.129	146.5
320.358	141.5
320.587	157.5
320.816	150.5
321.046	128.5
321.275	142.5
321.504	141.5
321.733	151.5
321.962	132.5
322.191	133.5
322.42	150.5
322.649	148.5
322.878	160.5
323.108	167.5
323.337	138.5
323.566	152.5
323.795	152.5
324.024	153.5
324.253	155.5
324.482	153.5
324.71	145.5
324.939	156.5
325.168	148.5
325.397	143.5
325.626	148.5
325.855	164.5
326.084	168.5
326.313	158.5
326.542	154.5
326.77	168.5
326.999	159.5
327.228	151.5
327.457	167.5
327.686	154.5
327.914	157.5
328.143	164.5
328.372	152.5
328.6	149.5
328.829	148.5
329.058	153.5
329.287	152.5
329.515	134.5
329.744	158.5
329.972	152.5
330.201	160.5
330.43	161.5
330.658	154.5
330.887	159.5
331.115	152.5
331.344	154.5
331.572	167.5
331.801	161.5
332.03	175.5
332.258	170.5
332.486	181.5
332.715	166.5
332.943	165.5
333.172	170.5
333.4	194.5
333.629	192.5
333.857	183.5
334.085	177.5
334.314	192.5
334.542	179.5
334.771	196.5
334.999	174.5
335.227	177.5
335.455	189.5
335.684	173.5
335.912	168.5
336.14	155.5
336.369	176.5
336.597	180.5
336.825	170.5
337.053	162.5
337.281	175.5
337.51	154.5
337.738	164.5
337.966	153.5
338.194	162.5
338.422	167.5
338.65	173.5
338.878	159.5
339.106	150.5
339.334	163.5
339.562	160.5
339.79	171.5
340.018	163.5
340.246	162.5
340.474	150.5
340.702	169.5
340.93	156.5
341.158	162.5
341.386	162.5
341.614	166.5
341.842	152.5
342.07	161.5
342.298	164.5
342.526	151.5
342.754	162.5
342.981	170.5
343.209	153.5
343.437	208.5
343.665	173.5
343.893	179.5
344.12	184.5
344.348	163.5
344.576	159.5
344.804	175.5
345.031	162.5
345.259	143.5
345.487	170.5
345.714	164.5
345.942	149.5
346.17	159.5
346.397	161.5
346.625	166.5
346.853	162.5
347.08	143.5
347.308	159.5
347.535	170.5
347.763	154.5
347.99	164.5
348.218	161.5
348.445	161.5
348.673	163.5
348.9	160.5
349.128	157.5
349.355	143.5
349.583	160.5
349.81	161.5
350.037	161.5
350.265	144.5
350.492	157.5
350.72	154.5
350.947	153.5
351.174	145.5
351.402	155.5
351.629	163.5
351.856	170.5
352.083	165.5
352.311	158.5
352.538	148.5
352.765	148.5
352.992	168.5
353.22	158.5
353.447	150.5
353.674	165.5
353.901	159.5
354.128	156.5
354.355	161.5
354.583	157.5
354.81	160.5
355.037	171.5
355.264	162.5
355.491	143.5
355.718	115.5
355.945	151.5
356.172	157.5
356.399	172.5
356.626	143.5
356.853	154.5
357.08	148.5
357.307	169.5
357.534	167.5
357.761	170.5
357.988	162.5
358.215	162.5
358.441	151.5
358.668	159.5
358.895	159.5
359.122	155.5
359.349	139.5
359.576	148.5
359.802	147.5
360.029	152.5
360.256	164.5
360.483	156.5
360.709	148.5
360.936	171.5
361.163	157.5
361.39	162.5
361.616	154.5
361.843	158.5
362.07	161.5
362.296	149.5
362.523	139.5
362.749	150.5
362.976	166.5
363.203	170.5
363.429	165.5
363.656	143.5
363.882	166.5
364.109	175.5
364.335	166.5
364.562	148.5
364.788	151.5
365.015	167.5
365.241	143.5
365.468	167.5
365.694	138.5
365.92	160.5
366.147	151.5
366.373	156.5
366.599	169.5
366.826	165.5
367.052	153.5
367.278	162.5
367.505	158.5
367.731	188.5
367.957	160.5
368.184	152.5
368.41	161.5
368.636	165.5
368.862	166.5
369.089	150.5
369.315	161.5
369.541	149.5
369.767	160.5
369.993	175.5
370.219	148.5
370.445	162.5
370.672	164.5
370.898	172.5
371.124	152.5
371.35	168.5
371.576	158.5
371.802	177.5
372.028	166.5
372.254	164.5
372.48	167.5
372.706	186.5
372.932	176.5
373.158	177.5
373.384	169.5
373.61	165.5
373.835	173.5
374.061	164.5
374.287	166.5
374.513	170.5
374.739	169.5
374.965	187.5
375.191	171.5
375.416	190.5
375.642	183.5
375.868	170.5
376.094	159.5
376.319	174.5
376.545	171.5
376.771	177.5
376.997	169.5
377.222	157.5
377.448	181.5
377.674	162.5
377.899	184.5
378.125	152.5
378.35	170.5
378.576	170.5
378.802	173.5
379.027	160.5
379.253	178.5
379.478	172.5
379.704	166.5
379.929	156.5
380.155	152.5
380.38	172.5
380.606	177.5
380.831	172.5
381.057	171.5
381.282	178.5
381.507	170.5
381.733	182.5
381.958	175.5
382.184	171.5
382.409	171.5
382.634	183.5
382.86	168.5
383.085	190.5
383.31	180.5
383.535	191.5
383.761	197.5
383.986	190.5
384.211	183.5
384.436	193.5
384.662	171.5
384.887	189.5
385.112	201.5
385.337	185.5
385.562	187.5
385.787	205.5
386.013	184.5
386.238	187.5
386.463	198.5
386.688	215.5
386.913	197.5
387.138	183.5
387.363	198.5
387.588	217.5
387.813	205.5
388.038	194.5
388.263	206.5
388.488	182.5
388.713	184.5
388.938	185.5
389.163	208.5
389.387	199.5
389.612	194.5
389.837	191.5
390.062	211.5
390.287	202.5
390.512	187.5
390.736	204.5
390.961	191.5
391.186	221.5
391.411	208.5
391.636	226.5
391.86	235.5
392.085	226.5
392.31	204.5
392.534	207.5
392.759	236.5
392.984	205.5
393.208	225.5
393.433	219.5
393.658	212.5
393.882	215.5
394.107	220.5
394.331	226.5
394.556	228.5
394.78	221.5
395.005	212.5
395.229	213.5
395.454	229.5
395.678	208.5
395.903	236.5
396.127	244.5
396.352	223.5
396.576	230.5
396.801	207.5
397.025	234.5
397.249	248.5
397.474	254.5
397.698	216.5
397.922	224.5
398.147	236.5
398.371	249.5
398.595	261.5
398.82	272.5
399.044	280.5
399.268	305.5
399.492	336.5
399.717	343.5
399.941	342.5
400.165	303.5
400.389	274.5
400.613	272.5
400.837	273.5
401.062	264.5
401.286	269.5
401.51	244.5
401.734	245.5
401.958	284.5
402.182	267.5
402.406	275.5
402.63	279.5
402.854	278.5
403.078	301.5
403.302	284.5
403.526	288.5
403.75	298.5
403.974	284.5
404.198	308.5
404.422	285.5
404.645	324.5
404.869	298.5
405.093	304.5
405.317	290.5
405.541	288.5
405.765	291.5
405.988	315.5
406.212	291.5
406.436	315.5
406.66	327.5
406.883	316.5
407.107	329.5
407.331	346.5
407.555	359.5
407.778	340.5
408.002	334.5
408.226	319.5
408.449	332.5
408.673	318.5
408.896	308.5
409.12	312.5
409.344	332.5
409.567	328.5
409.791	322.5
410.014	322.5
410.238	328.5
410.461	342.5
410.685	328.5
410.908	306.5
411.132	321.5
411.355	303.5
411.578	315.5
411.802	317.5
412.025	305.5
412.249	297.5
412.472	301.5
412.695	308.5
412.919	296.5
413.142	303.5
413.365	311.5
413.589	299.5
413.812	288.5
414.035	296.5
414.258	301.5
414.482	305.5
414.705	298.5
414.928	316.5
415.151	311.5
415.374	305.5
415.597	320.5
415.821	312.5
416.044	301.5
416.267	308.5
416.49	309.5
416.713	313.5
416.936	300.5
417.159	324.5
417.382	300.5
417.605	309.5
417.828	310.5
418.051	311.5
418.274	327.5
418.497	329.5
418.72	320.5
418.943	337.5
419.166	342.5
419.389	333.5
419.611	336.5
419.834	303.5
420.057	314.5
420.28	316.5
420.503	317.5
420.726	308.5
420.948	311.5
421.171	329.5
421.394	331.5
421.617	338.5
421.839	327.5
422.062	319.5
422.285	314.5
422.507	327.5
422.73	316.5
422.953	306.5
423.175	330.5
423.398	317.5
423.621	341.5
423.843	340.5
424.066	335.5
424.288	344.5
424.511	348.5
424.733	341.5
424.956	325.5
425.178	332.5
425.401	337.5
425.623	313.5
425.846	304.5
426.068	295.5
426.291	301.5
426.513	313.5
426.735	291.5
426.958	309.5
427.18	289.5
427.402	321.5
427.625	294.5
427.847	301.5
428.069	285.5
428.292	285.5
428.514	286.5
428.736	296.5
428.958	290.5
429.181	286.5
429.403	277.5
429.625	282.5
429.847	284.5
430.069	300.5
430.292	303.5
430.514	274.5
430.736	305.5
430.958	291.5
431.18	299.5
431.402	285.5
431.624	267.5
431.846	269.5
432.068	268.5
432.29	263.5
432.512	279.5
432.734	308.5
432.956	288.5
433.178	312.5
433.4	301.5
433.622	294.5
433.844	308.5
434.066	288.5
434.287	276.5
434.509	255.5
434.731	278.5
434.953	278.5
435.175	303.5
435.397	317.5
435.618	290.5
435.84	282.5
436.062	280.5
436.284	273.5
436.505	300.5
436.727	272.5
436.949	308.5
437.17	278.5
437.392	271.5
437.614	271.5
437.835	270.5
438.057	260.5
438.278	264.5
438.5	285.5
438.721	276.5
438.943	304.5
439.165	278.5
439.386	297.5
439.608	327.5
439.829	308.5
440.05	321.5
440.272	317.5
440.493	307.5
440.715	307.5
440.936	319.5
441.158	320.5
441.379	334.5
441.6	337.5
441.822	332.5
442.043	345.5
442.264	338.5
442.486	334.5
442.707	348.5
442.928	326.5
443.149	330.5
443.371	334.5
443.592	337.5
443.813	334.5
444.034	326.5
444.255	342.5
444.476	335.5
444.698	367.5
444.919	373.5
445.14	550.5
445.361	436.5
445.582	346.5
445.803	317.5
446.024	314.5
446.245	332.5
446.466	331.5
446.687	317.5
446.908	318.5
447.129	344.5
447.35	304.5
447.571	329.5
447.792	300.5
448.013	299.5
448.234	297.5
448.455	309.5
448.675	304.5
448.896	314.5
449.117	297.5
449.338	294.5
449.559	291.5
449.779	278.5
450	304.5
450.221	286.5
450.442	290.5
450.662	304.5
450.883	295.5
451.104	287.5
451.324	296.5
451.545	292.5
451.766	282.5
451.986	289.5
452.207	286.5
452.428	273.5
452.648	267.5
452.869	269.5
453.089	253.5
453.31	262.5
453.53	258.5
453.751	244.5
453.971	249.5
454.192	249.5
454.412	248.5
454.633	269.5
454.853	268.5
455.073	263.5
455.294	270.5
455.514	299.5
455.734	277.5
455.955	262.5
456.175	253.5
456.395	227.5
456.616	242.5
456.836	243.5
457.056	241.5
457.276	237.5
457.497	224.5
457.717	251.5
457.937	233.5
458.157	249.5
458.377	234.5
458.598	247.5
458.818	220.5
459.038	240.5
459.258	238.5
459.478	254.5
459.698	258.5
459.918	279.5
460.138	291.5
460.358	296.5
460.578	299.5
460.798	299.5
461.018	306.5
461.238	302.5
461.458	301.5
461.678	302.5
461.898	290.5
462.118	321.5
462.338	308.5
462.558	322.5
462.777	334.5
462.997	368.5
463.217	384.5
463.437	361.5
463.657	334.5
463.876	335.5
464.096	336.5
464.316	334.5
464.536	322.5
464.755	335.5
464.975	326.5
465.195	309.5
465.414	305.5
465.634	268.5
465.854	279.5
466.073	285.5
466.293	269.5
466.512	284.5
466.732	277.5
466.951	273.5
467.171	265.5
467.391	288.5
467.61	298.5
467.829	296.5
468.049	271.5
468.268	274.5
468.488	277.5
468.707	280.5
468.927	282.5
469.146	289.5
469.365	279.5
469.585	304.5
469.804	288.5
470.023	308.5
470.243	307.5
470.462	296.5
470.681	284.5
470.901	320.5
471.12	296.5
471.339	296.5
471.558	282.5
471.777	296.5
471.997	288.5
472.216	281.5
472.435	253.5
472.654	243.5
472.873	272.5
473.092	267.5
473.311	268.5
473.53	281.5
473.749	269.5
473.968	277.5
474.187	269.5
474.406	259.5
474.625	278.5
474.844	283.5
475.063	266.5
475.282	268.5
475.501	264.5
475.72	276.5
475.939	256.5
476.158	262.5
476.377	283.5
476.596	273.5
476.814	251.5
477.033	270.5
477.252	279.5
477.471	286.5
477.69	313.5
477.908	322.5
478.127	306.5
478.346	319.5
478.564	324.5
478.783	328.5
479.002	329.5
479.22	337.5
479.439	311.5
479.658	319.5
479.876	288.5
480.095	293.5
480.313	308.5
480.532	331.5
480.751	305.5
480.969	283.5
481.188	261.5
481.406	262.5
481.624	254.5
481.843	269.5
482.061	282.5
482.28	290.5
482.498	280.5
482.717	265.5
482.935	305.5
483.153	301.5
483.372	338.5
483.59	334.5
483.808	296.5
484.027	311.5
484.245	310.5
484.463	298.5
484.681	346.5
484.9	318.5
485.118	305.5
485.336	289.5
485.554	273.5
485.772	291.5
485.99	282.5
486.209	296.5
486.427	290.5
486.645	296.5
486.863	320.5
487.081	321.5
487.299	310.5
487.517	318.5
487.735	348.5
487.953	350.5
488.171	355.5
488.389	320.5
488.607	320.5
488.825	289.5
489.043	294.5
489.261	315.5
489.479	295.5
489.696	324.5
489.914	327.5
490.132	322.5
490.35	340.5
490.568	336.5
490.786	365.5
491.003	369.5
491.221	375.5
491.439	381.5
491.657	385.5
491.874	398.5
492.092	421.5
492.31	456.5
492.527	414.5
492.745	400.5
492.963	384.5
493.18	394.5
493.398	403.5
493.615	420.5
493.833	369.5
494.05	379.5
494.268	375.5
494.485	394.5
494.703	380.5
494.92	368.5
495.138	367.5
495.355	375.5
495.573	357.5
495.79	356.5
496.008	385.5
496.225	381.5
496.442	376.5
496.66	369.5
496.877	360.5
497.094	378.5
497.312	351.5
497.529	365.5
497.746	367.5
497.963	367.5
498.181	348.5
498.398	366.5
498.615	382.5
498.832	398.5
499.049	412.5
499.267	460.5
499.484	496.5
499.701	532.5
499.918	591.5
500.135	649.5
500.352	685.5
500.569	734.5
500.786	718.5
501.003	656.5
501.22	601.5
501.437	545.5
501.654	501.5
501.871	447.5
502.088	432.5
502.305	429.5
502.522	394.5
502.739	388.5
502.956	376.5
503.172	358.5
503.389	364.5
503.606	338.5
503.823	347.5
504.04	344.5
504.256	328.5
504.473	362.5
504.69	348.5
504.907	350.5
505.123	320.5
505.34	312.5
505.557	311.5
505.773	284.5
505.99	298.5
506.207	294.5
506.423	289.5
506.64	285.5
506.856	272.5
507.073	294.5
507.289	294.5
507.506	287.5
507.722	289.5
507.939	272.5
508.155	289.5
508.372	270.5
508.588	262.5
508.805	269.5
509.021	262.5
509.238	241.5
509.454	256.5
509.67	241.5
509.887	225.5
510.103	235.5
510.319	234.5
510.536	247.5
510.752	212.5
510.968	240.5
511.184	221.5
511.401	223.5
511.617	235.5
511.833	226.5
512.049	242.5
512.265	244.5
512.481	248.5
512.698	233.5
512.914	236.5
513.13	243.5
513.346	230.5
513.562	237.5
513.778	249.5
513.994	233.5
514.21	247.5
514.426	241.5
514.642	265.5
514.858	245.5
515.074	234.5
515.29	247.5
515.506	264.5
515.721	265.5
515.937	267.5
516.153	257.5
516.369	264.5
516.585	265.5
516.801	269.5
517.016	274.5
517.232	291.5
517.448	291.5
517.664	327.5
517.879	297.5
518.095	300.5
518.311	312.5
518.527	287.5
518.742	302.5
518.958	284.5
519.173	289.5
519.389	271.5
519.605	273.5
519.82	270.5
520.036	245.5
520.251	263.5
520.467	246.5
520.682	252.5
520.898	248.5
521.113	234.5
521.329	255.5
521.544	230.5
521.76	242.5
521.975	241.5
522.19	236.5
522.406	228.5
