Data from SampA_HRD10591_00066.txt Node
Date: Mon Jan 19 11:27:09 EST 2026
User: Yrep
Spectrometer: HR+D1059
Trigger mode: 0
Integration Time (sec): 3.443000E-1
Scans to average: 1
Electric dark correction enabled: true
Nonlinearity correction enabled: false
Boxcar width: 0
XAxis mode: Wavelengths
Number of Pixels in Spectrum: 2048
>>>>>Begin Spectral Data<<<<<
223.165	-12.44
223.4	-12.44
223.635	-12.44
223.869	-31.44
224.104	-16.44
224.338	-24.44
224.573	-5.44
224.808	-18.44
225.042	1.56
225.277	-8.44
225.511	-15.44
225.746	15.56
225.98	6.56
226.215	13.56
226.449	13.56
226.683	11.56
226.918	41.56
227.152	28.56
227.387	28.56
227.621	46.56
227.856	53.56
228.09	40.56
228.324	49.56
228.559	62.56
228.793	60.56
229.027	68.56
229.262	76.56
229.496	79.56
229.73	78.56
229.964	85.56
230.199	75.56
230.433	88.56
230.667	100.56
230.901	89.56
231.136	76.56
231.37	81.56
231.604	94.56
231.838	93.56
232.072	95.56
232.306	86.56
232.541	83.56
232.775	99.56
233.009	93.56
233.243	86.56
233.477	94.56
233.711	83.56
233.945	94.56
234.179	87.56
234.413	88.56
234.647	90.56
234.881	77.56
235.115	96.56
235.349	85.56
235.583	94.56
235.817	96.56
236.051	81.56
236.285	93.56
236.519	75.56
236.753	77.56
236.987	82.56
237.221	88.56
237.455	77.56
237.689	86.56
237.922	101.56
238.156	90.56
238.39	77.56
238.624	76.56
238.858	73.56
239.091	71.56
239.325	90.56
239.559	93.56
239.793	98.56
240.027	77.56
240.26	88.56
240.494	84.56
240.728	90.56
240.961	73.56
241.195	93.56
241.429	84.56
241.662	93.56
241.896	94.56
242.13	85.56
242.363	95.56
242.597	94.56
242.83	93.56
243.064	68.56
243.298	92.56
243.531	87.56
243.765	94.56
243.998	93.56
244.232	95.56
244.465	81.56
244.699	89.56
244.932	92.56
245.166	104.56
245.399	111.56
245.633	102.56
245.866	105.56
246.099	95.56
246.333	86.56
246.566	92.56
246.8	105.56
247.033	105.56
247.266	89.56
247.5	86.56
247.733	89.56
247.966	96.56
248.2	107.56
248.433	88.56
248.666	98.56
248.899	97.56
249.133	103.56
249.366	108.56
249.599	80.56
249.832	105.56
250.066	99.56
250.299	81.56
250.532	99.56
250.765	107.56
250.998	92.56
251.231	91.56
251.465	112.56
251.698	101.56
251.931	85.56
252.164	104.56
252.397	90.56
252.63	104.56
252.863	96.56
253.096	113.56
253.329	95.56
253.562	111.56
253.795	108.56
254.028	113.56
254.261	95.56
254.494	107.56
254.727	116.56
254.96	89.56
255.193	107.56
255.426	104.56
255.659	104.56
255.892	106.56
256.124	116.56
256.357	117.56
256.59	104.56
256.823	103.56
257.056	95.56
257.289	101.56
257.521	110.56
257.754	103.56
257.987	92.56
258.22	110.56
258.452	92.56
258.685	100.56
258.918	97.56
259.151	93.56
259.383	106.56
259.616	102.56
259.849	116.56
260.081	113.56
260.314	116.56
260.547	114.56
260.779	100.56
261.012	116.56
261.244	102.56
261.477	135.56
261.71	105.56
261.942	111.56
262.175	117.56
262.407	117.56
262.64	108.56
262.872	112.56
263.105	115.56
263.337	110.56
263.57	107.56
263.802	104.56
264.035	121.56
264.267	101.56
264.499	122.56
264.732	123.56
264.964	131.56
265.197	120.56
265.429	116.56
265.661	103.56
265.894	120.56
266.126	125.56
266.358	108.56
266.591	115.56
266.823	106.56
267.055	82.56
267.287	109.56
267.52	105.56
267.752	112.56
267.984	125.56
268.216	127.56
268.448	127.56
268.681	101.56
268.913	131.56
269.145	112.56
269.377	120.56
269.609	115.56
269.841	126.56
270.073	121.56
270.306	122.56
270.538	108.56
270.77	115.56
271.002	132.56
271.234	124.56
271.466	104.56
271.698	115.56
271.93	112.56
272.162	128.56
272.394	136.56
272.626	101.56
272.858	119.56
273.09	134.56
273.322	113.56
273.553	133.56
273.785	128.56
274.017	108.56
274.249	111.56
274.481	127.56
274.713	117.56
274.945	112.56
275.176	128.56
275.408	125.56
275.64	131.56
275.872	130.56
276.104	130.56
276.335	118.56
276.567	127.56
276.799	103.56
277.031	117.56
277.262	122.56
277.494	123.56
277.726	127.56
277.957	118.56
278.189	118.56
278.421	127.56
278.652	123.56
278.884	111.56
279.115	125.56
279.347	128.56
279.579	120.56
279.81	111.56
280.042	144.56
280.273	136.56
280.505	135.56
280.736	140.56
280.968	137.56
281.199	133.56
281.431	131.56
281.662	126.56
281.894	126.56
282.125	143.56
282.356	122.56
282.588	122.56
282.819	133.56
283.051	128.56
283.282	139.56
283.513	132.56
283.745	136.56
283.976	139.56
284.207	145.56
284.439	141.56
284.67	129.56
284.901	141.56
285.132	143.56
285.364	109.56
285.595	127.56
285.826	139.56
286.057	150.56
286.288	141.56
286.52	159.56
286.751	145.56
286.982	143.56
287.213	136.56
287.444	145.56
287.675	143.56
287.906	133.56
288.138	136.56
288.369	133.56
288.6	145.56
288.831	120.56
289.062	136.56
289.293	144.56
289.524	133.56
289.755	133.56
289.986	140.56
290.217	134.56
290.448	142.56
290.679	156.56
290.91	144.56
291.141	144.56
291.371	146.56
291.602	137.56
291.833	138.56
292.064	132.56
292.295	127.56
292.526	132.56
292.757	153.56
292.987	134.56
293.218	141.56
293.449	145.56
293.68	157.56
293.91	132.56
294.141	150.56
294.372	144.56
294.603	152.56
294.833	136.56
295.064	139.56
295.295	151.56
295.525	128.56
295.756	147.56
295.987	127.56
296.217	138.56
296.448	147.56
296.679	161.56
296.909	156.56
297.14	139.56
297.37	139.56
297.601	160.56
297.831	135.56
298.062	165.56
298.292	166.56
298.523	155.56
298.753	139.56
298.984	153.56
299.214	147.56
299.445	154.56
299.675	146.56
299.905	160.56
300.136	156.56
300.366	136.56
300.597	166.56
300.827	155.56
301.057	142.56
301.288	156.56
301.518	162.56
301.748	167.56
301.979	178.56
302.209	157.56
302.439	152.56
302.669	157.56
302.9	159.56
303.13	155.56
303.36	161.56
303.59	127.56
303.82	149.56
304.051	156.56
304.281	152.56
304.511	157.56
304.741	165.56
304.971	145.56
305.201	156.56
305.431	143.56
305.661	151.56
305.891	156.56
306.121	157.56
306.352	157.56
306.582	165.56
306.812	152.56
307.042	158.56
307.272	156.56
307.502	158.56
307.731	157.56
307.961	155.56
308.191	156.56
308.421	151.56
308.651	146.56
308.881	155.56
309.111	159.56
309.341	132.56
309.571	154.56
309.8	141.56
310.03	164.56
310.26	180.56
310.49	156.56
310.72	152.56
310.949	147.56
311.179	175.56
311.409	142.56
311.639	156.56
311.868	143.56
312.098	157.56
312.328	157.56
312.557	160.56
312.787	181.56
313.017	151.56
313.246	156.56
313.476	161.56
313.706	168.56
313.935	163.56
314.165	151.56
314.394	151.56
314.624	158.56
314.853	152.56
315.083	161.56
315.312	159.56
315.542	165.56
315.771	159.56
316.001	166.56
316.23	155.56
316.46	176.56
316.689	158.56
316.919	165.56
317.148	153.56
317.377	168.56
317.607	137.56
317.836	151.56
318.065	159.56
318.295	165.56
318.524	145.56
318.753	163.56
318.983	153.56
319.212	171.56
319.441	155.56
319.67	159.56
319.9	146.56
320.129	171.56
320.358	167.56
320.587	179.56
320.816	165.56
321.046	167.56
321.275	148.56
321.504	165.56
321.733	154.56
321.962	165.56
322.191	151.56
322.42	153.56
322.649	169.56
322.878	179.56
323.108	167.56
323.337	175.56
323.566	168.56
323.795	170.56
324.024	168.56
324.253	153.56
324.482	152.56
324.71	172.56
324.939	173.56
325.168	175.56
325.397	180.56
325.626	147.56
325.855	158.56
326.084	165.56
326.313	163.56
326.542	180.56
326.77	184.56
326.999	171.56
327.228	172.56
327.457	164.56
327.686	179.56
327.914	161.56
328.143	181.56
328.372	187.56
328.6	171.56
328.829	177.56
329.058	168.56
329.287	170.56
329.515	158.56
329.744	168.56
329.972	181.56
330.201	171.56
330.43	182.56
330.658	172.56
330.887	156.56
331.115	171.56
331.344	173.56
331.572	180.56
331.801	182.56
332.03	176.56
332.258	175.56
332.486	196.56
332.715	195.56
332.943	189.56
333.172	213.56
333.4	223.56
333.629	202.56
333.857	211.56
334.085	220.56
334.314	206.56
334.542	225.56
334.771	208.56
334.999	200.56
335.227	215.56
335.455	184.56
335.684	215.56
335.912	197.56
336.14	185.56
336.369	201.56
336.597	187.56
336.825	197.56
337.053	192.56
337.281	190.56
337.51	174.56
337.738	198.56
337.966	173.56
338.194	186.56
338.422	165.56
338.65	181.56
338.878	178.56
339.106	190.56
339.334	179.56
339.562	169.56
339.79	181.56
340.018	184.56
340.246	167.56
340.474	179.56
340.702	169.56
340.93	172.56
341.158	187.56
341.386	168.56
341.614	174.56
341.842	171.56
342.07	173.56
342.298	183.56
342.526	175.56
342.754	168.56
342.981	200.56
343.209	186.56
343.437	205.56
343.665	201.56
343.893	176.56
344.12	209.56
344.348	204.56
344.576	199.56
344.804	201.56
345.031	196.56
345.259	187.56
345.487	179.56
345.714	167.56
345.942	162.56
346.17	182.56
346.397	169.56
346.625	179.56
346.853	180.56
347.08	173.56
347.308	184.56
347.535	173.56
347.763	169.56
347.99	170.56
348.218	170.56
348.445	162.56
348.673	154.56
348.9	186.56
349.128	172.56
349.355	166.56
349.583	172.56
349.81	178.56
350.037	172.56
350.265	175.56
350.492	179.56
350.72	168.56
350.947	162.56
351.174	171.56
351.402	168.56
351.629	164.56
351.856	160.56
352.083	176.56
352.311	176.56
352.538	167.56
352.765	187.56
352.992	184.56
353.22	169.56
353.447	174.56
353.674	176.56
353.901	174.56
354.128	162.56
354.355	180.56
354.583	181.56
354.81	168.56
355.037	176.56
355.264	188.56
355.491	186.56
355.718	171.56
355.945	177.56
356.172	186.56
356.399	176.56
356.626	169.56
356.853	189.56
357.08	185.56
357.307	182.56
357.534	171.56
357.761	185.56
357.988	166.56
358.215	165.56
358.441	176.56
358.668	187.56
358.895	159.56
359.122	179.56
359.349	169.56
359.576	181.56
359.802	180.56
360.029	168.56
360.256	183.56
360.483	170.56
360.709	178.56
360.936	187.56
361.163	179.56
361.39	180.56
361.616	180.56
361.843	179.56
362.07	173.56
362.296	167.56
362.523	167.56
362.749	159.56
362.976	169.56
363.203	185.56
363.429	171.56
363.656	165.56
363.882	175.56
364.109	197.56
364.335	187.56
364.562	180.56
364.788	179.56
365.015	187.56
365.241	169.56
365.468	161.56
365.694	177.56
365.92	158.56
366.147	170.56
366.373	165.56
366.599	179.56
366.826	167.56
367.052	174.56
367.278	172.56
367.505	163.56
367.731	196.56
367.957	159.56
368.184	157.56
368.41	183.56
368.636	173.56
368.862	159.56
369.089	181.56
369.315	166.56
369.541	169.56
369.767	184.56
369.993	179.56
370.219	187.56
370.445	167.56
370.672	177.56
370.898	188.56
371.124	180.56
371.35	187.56
371.576	168.56
371.802	181.56
372.028	173.56
372.254	182.56
372.48	175.56
372.706	189.56
372.932	186.56
373.158	185.56
373.384	185.56
373.61	188.56
373.835	184.56
374.061	176.56
374.287	188.56
374.513	191.56
374.739	194.56
374.965	213.56
375.191	189.56
375.416	202.56
375.642	187.56
375.868	198.56
376.094	214.56
376.319	178.56
376.545	182.56
376.771	189.56
376.997	175.56
377.222	192.56
377.448	175.56
377.674	168.56
377.899	191.56
378.125	177.56
378.35	179.56
378.576	187.56
378.802	185.56
379.027	183.56
379.253	189.56
379.478	191.56
379.704	189.56
379.929	183.56
380.155	177.56
380.38	187.56
380.606	183.56
380.831	195.56
381.057	191.56
381.282	185.56
381.507	191.56
381.733	182.56
381.958	173.56
382.184	178.56
382.409	202.56
382.634	202.56
382.86	197.56
383.085	207.56
383.31	193.56
383.535	202.56
383.761	225.56
383.986	207.56
384.211	212.56
384.436	205.56
384.662	213.56
384.887	221.56
385.112	220.56
385.337	198.56
385.562	229.56
385.787	212.56
386.013	237.56
386.238	221.56
386.463	212.56
386.688	253.56
386.913	220.56
387.138	223.56
387.363	220.56
387.588	212.56
387.813	226.56
388.038	205.56
388.263	212.56
388.488	239.56
388.713	225.56
388.938	229.56
389.163	208.56
389.387	209.56
389.612	223.56
389.837	214.56
390.062	235.56
390.287	225.56
390.512	232.56
390.736	210.56
390.961	225.56
391.186	230.56
391.411	222.56
391.636	240.56
391.86	242.56
392.085	244.56
392.31	236.56
392.534	239.56
392.759	230.56
392.984	239.56
393.208	229.56
393.433	224.56
393.658	230.56
393.882	238.56
394.107	249.56
394.331	248.56
394.556	247.56
394.78	230.56
395.005	235.56
395.229	236.56
395.454	260.56
395.678	253.56
395.903	268.56
396.127	253.56
396.352	252.56
396.576	253.56
396.801	250.56
397.025	232.56
397.249	247.56
397.474	258.56
397.698	244.56
397.922	252.56
398.147	272.56
398.371	276.56
398.595	287.56
398.82	255.56
399.044	317.56
399.268	327.56
399.492	380.56
399.717	385.56
399.941	383.56
400.165	315.56
400.389	301.56
400.613	304.56
400.837	302.56
401.062	279.56
401.286	289.56
401.51	284.56
401.734	309.56
401.958	316.56
402.182	301.56
402.406	299.56
402.63	307.56
402.854	314.56
403.078	318.56
403.302	328.56
403.526	333.56
403.75	334.56
403.974	325.56
404.198	347.56
404.422	352.56
404.645	352.56
404.869	340.56
405.093	335.56
405.317	319.56
405.541	339.56
405.765	325.56
405.988	312.56
406.212	318.56
406.436	334.56
406.66	344.56
406.883	363.56
407.107	365.56
407.331	367.56
407.555	392.56
407.778	383.56
408.002	352.56
408.226	356.56
408.449	349.56
408.673	350.56
408.896	324.56
409.12	331.56
409.344	369.56
409.567	371.56
409.791	357.56
410.014	341.56
410.238	353.56
410.461	343.56
410.685	353.56
410.908	363.56
411.132	351.56
411.355	333.56
411.578	333.56
411.802	331.56
412.025	328.56
412.249	341.56
412.472	329.56
412.695	311.56
412.919	331.56
413.142	308.56
413.365	329.56
413.589	337.56
413.812	315.56
414.035	312.56
414.258	338.56
414.482	335.56
414.705	343.56
414.928	329.56
415.151	344.56
415.374	347.56
415.597	316.56
415.821	312.56
416.044	326.56
416.267	314.56
416.49	320.56
416.713	328.56
416.936	313.56
417.159	309.56
417.382	313.56
417.605	328.56
417.828	341.56
418.051	342.56
418.274	353.56
418.497	321.56
418.72	348.56
418.943	341.56
419.166	348.56
419.389	374.56
419.611	349.56
419.834	333.56
420.057	358.56
420.28	330.56
420.503	347.56
420.726	327.56
420.948	343.56
421.171	329.56
421.394	353.56
421.617	334.56
421.839	321.56
422.062	359.56
422.285	327.56
422.507	338.56
422.73	339.56
422.953	341.56
423.175	363.56
423.398	338.56
423.621	364.56
423.843	382.56
424.066	356.56
424.288	364.56
424.511	352.56
424.733	356.56
424.956	341.56
425.178	348.56
425.401	319.56
425.623	320.56
425.846	323.56
426.068	326.56
426.291	326.56
426.513	317.56
426.735	334.56
426.958	320.56
427.18	311.56
427.402	317.56
427.625	299.56
427.847	289.56
428.069	302.56
428.292	310.56
428.514	317.56
428.736	307.56
428.958	300.56
429.181	313.56
429.403	310.56
429.625	287.56
429.847	298.56
430.069	316.56
430.292	295.56
430.514	314.56
430.736	303.56
430.958	316.56
431.18	317.56
431.402	297.56
431.624	290.56
431.846	275.56
432.068	281.56
432.29	301.56
432.512	295.56
432.734	279.56
432.956	314.56
433.178	324.56
433.4	309.56
433.622	316.56
433.844	307.56
434.066	309.56
434.287	289.56
434.509	284.56
434.731	306.56
434.953	331.56
435.175	341.56
435.397	325.56
435.618	296.56
435.84	295.56
436.062	297.56
436.284	300.56
436.505	293.56
436.727	309.56
436.949	306.56
437.17	319.56
437.392	296.56
437.614	277.56
437.835	284.56
438.057	295.56
438.278	264.56
438.5	295.56
438.721	294.56
438.943	323.56
439.165	294.56
439.386	312.56
439.608	316.56
439.829	323.56
440.05	319.56
440.272	306.56
440.493	308.56
440.715	318.56
440.936	325.56
441.158	341.56
441.379	344.56
441.6	343.56
441.822	376.56
442.043	346.56
442.264	323.56
442.486	351.56
442.707	341.56
442.928	340.56
443.149	353.56
443.371	353.56
443.592	330.56
443.813	330.56
444.034	357.56
444.255	364.56
444.476	353.56
444.698	393.56
444.919	403.56
445.14	558.56
445.361	460.56
445.582	355.56
445.803	325.56
446.024	335.56
446.245	342.56
446.466	347.56
446.687	320.56
446.908	332.56
447.129	341.56
447.35	306.56
447.571	310.56
447.792	295.56
448.013	318.56
448.234	314.56
448.455	308.56
448.675	321.56
448.896	307.56
449.117	308.56
449.338	304.56
449.559	308.56
449.779	289.56
450	300.56
450.221	286.56
450.442	283.56
450.662	308.56
450.883	296.56
451.104	312.56
451.324	288.56
451.545	287.56
451.766	286.56
451.986	282.56
452.207	283.56
452.428	282.56
452.648	277.56
452.869	272.56
453.089	276.56
453.31	281.56
453.53	262.56
453.751	245.56
453.971	248.56
454.192	245.56
454.412	267.56
454.633	269.56
454.853	264.56
455.073	268.56
455.294	277.56
455.514	291.56
455.734	270.56
455.955	269.56
456.175	274.56
456.395	252.56
456.616	260.56
456.836	256.56
457.056	253.56
457.276	242.56
457.497	254.56
457.717	259.56
457.937	267.56
458.157	264.56
458.377	258.56
458.598	247.56
458.818	251.56
459.038	255.56
459.258	262.56
459.478	276.56
459.698	274.56
459.918	291.56
460.138	304.56
460.358	317.56
460.578	327.56
460.798	330.56
461.018	323.56
461.238	336.56
461.458	348.56
461.678	323.56
461.898	323.56
462.118	337.56
462.338	361.56
462.558	371.56
462.777	361.56
462.997	408.56
463.217	397.56
463.437	401.56
463.657	359.56
463.876	357.56
464.096	368.56
464.316	341.56
464.536	370.56
464.755	364.56
464.975	336.56
465.195	336.56
465.414	319.56
465.634	304.56
465.854	323.56
466.073	315.56
466.293	294.56
466.512	297.56
466.732	299.56
466.951	282.56
467.171	318.56
467.391	310.56
467.61	299.56
467.829	294.56
468.049	298.56
468.268	282.56
468.488	292.56
468.707	292.56
468.927	299.56
469.146	290.56
469.365	312.56
469.585	292.56
469.804	319.56
470.023	311.56
470.243	305.56
470.462	317.56
470.681	325.56
470.901	294.56
471.12	317.56
471.339	309.56
471.558	312.56
471.777	288.56
471.997	294.56
472.216	293.56
472.435	279.56
472.654	267.56
472.873	261.56
473.092	264.56
473.311	269.56
473.53	277.56
473.749	295.56
473.968	300.56
474.187	265.56
474.406	264.56
474.625	269.56
474.844	288.56
475.063	275.56
475.282	274.56
475.501	281.56
475.72	293.56
475.939	278.56
476.158	302.56
476.377	302.56
476.596	270.56
476.814	293.56
477.033	271.56
477.252	284.56
477.471	312.56
477.69	319.56
477.908	317.56
478.127	337.56
478.346	320.56
478.564	331.56
478.783	346.56
479.002	355.56
479.22	331.56
479.439	319.56
479.658	312.56
479.876	308.56
480.095	332.56
480.313	331.56
480.532	308.56
480.751	321.56
480.969	278.56
481.188	298.56
481.406	307.56
481.624	267.56
481.843	263.56
482.061	268.56
482.28	285.56
482.498	272.56
482.717	284.56
482.935	297.56
483.153	309.56
483.372	332.56
483.59	328.56
483.808	312.56
484.027	315.56
484.245	316.56
484.463	341.56
484.681	346.56
484.9	327.56
485.118	316.56
485.336	318.56
485.554	294.56
485.772	303.56
485.99	292.56
486.209	297.56
486.427	298.56
486.645	308.56
486.863	316.56
487.081	336.56
487.299	321.56
487.517	346.56
487.735	343.56
487.953	362.56
488.171	362.56
488.389	335.56
488.607	327.56
488.825	324.56
489.043	303.56
489.261	336.56
489.479	331.56
489.696	319.56
489.914	316.56
490.132	328.56
490.35	338.56
490.568	353.56
490.786	371.56
491.003	366.56
491.221	353.56
491.439	379.56
491.657	382.56
491.874	395.56
492.092	398.56
492.31	415.56
492.527	409.56
492.745	396.56
492.963	388.56
493.18	378.56
493.398	414.56
493.615	411.56
493.833	395.56
494.05	377.56
494.268	379.56
494.485	392.56
494.703	360.56
494.92	360.56
495.138	379.56
495.355	396.56
495.573	390.56
495.79	353.56
496.008	366.56
496.225	372.56
496.442	379.56
496.66	395.56
496.877	384.56
497.094	383.56
497.312	389.56
497.529	413.56
497.746	376.56
497.963	376.56
498.181	367.56
498.398	392.56
498.615	403.56
498.832	428.56
499.049	455.56
499.267	535.56
499.484	532.56
499.701	598.56
499.918	668.56
500.135	737.56
500.352	791.56
500.569	852.56
500.786	806.56
501.003	759.56
501.22	665.56
501.437	630.56
501.654	555.56
501.871	503.56
502.088	479.56
502.305	468.56
502.522	431.56
502.739	448.56
502.956	411.56
503.172	391.56
503.389	367.56
503.606	343.56
503.823	349.56
504.04	358.56
