Data from SampA_HRD10591_00051.txt Node
Date: Mon Jan 19 11:27:04 EST 2026
User: Yrep
Spectrometer: HR+D1059
Trigger mode: 0
Integration Time (sec): 3.443000E-1
Scans to average: 1
Electric dark correction enabled: true
Nonlinearity correction enabled: false
Boxcar width: 0
XAxis mode: Wavelengths
Number of Pixels in Spectrum: 2048
>>>>>Begin Spectral Data<<<<<
223.165	-26.5
223.4	-26.5
223.635	-26.5
223.869	-23.5
224.104	-34.5
224.338	-4.5
224.573	-20.5
224.808	-9.5
225.042	-3.5
225.277	-4.5
225.511	4.5
225.746	7.5
225.98	-2.5
226.215	23.5
226.449	23.5
226.683	22.5
226.918	23.5
227.152	24.5
227.387	27.5
227.621	46.5
227.856	46.5
228.09	37.5
228.324	39.5
228.559	71.5
228.793	71.5
229.027	55.5
229.262	54.5
229.496	57.5
229.73	76.5
229.964	74.5
230.199	83.5
230.433	70.5
230.667	74.5
230.901	88.5
231.136	98.5
231.37	79.5
231.604	86.5
231.838	65.5
232.072	72.5
232.306	76.5
232.541	82.5
232.775	71.5
233.009	73.5
233.243	65.5
233.477	84.5
233.711	84.5
233.945	84.5
234.179	85.5
234.413	89.5
234.647	89.5
234.881	84.5
235.115	94.5
235.349	79.5
235.583	77.5
235.817	70.5
236.051	78.5
236.285	91.5
236.519	63.5
236.753	69.5
236.987	87.5
237.221	83.5
237.455	70.5
237.689	90.5
237.922	62.5
238.156	83.5
238.39	69.5
238.624	82.5
238.858	73.5
239.091	83.5
239.325	78.5
239.559	86.5
239.793	82.5
240.027	87.5
240.26	74.5
240.494	66.5
240.728	77.5
240.961	74.5
241.195	70.5
241.429	77.5
241.662	67.5
241.896	78.5
242.13	80.5
242.363	69.5
242.597	67.5
242.83	91.5
243.064	80.5
243.298	87.5
243.531	73.5
243.765	65.5
243.998	87.5
244.232	88.5
244.465	77.5
244.699	73.5
244.932	82.5
245.166	81.5
245.399	78.5
245.633	82.5
245.866	85.5
246.099	82.5
246.333	80.5
246.566	75.5
246.8	79.5
247.033	81.5
247.266	72.5
247.5	80.5
247.733	80.5
247.966	77.5
248.2	97.5
248.433	80.5
248.666	84.5
248.899	86.5
249.133	79.5
249.366	96.5
249.599	79.5
249.832	77.5
250.066	92.5
250.299	81.5
250.532	78.5
250.765	87.5
250.998	88.5
251.231	77.5
251.465	87.5
251.698	81.5
251.931	75.5
252.164	78.5
252.397	89.5
252.63	99.5
252.863	94.5
253.096	82.5
253.329	96.5
253.562	92.5
253.795	83.5
254.028	91.5
254.261	89.5
254.494	85.5
254.727	105.5
254.96	78.5
255.193	94.5
255.426	94.5
255.659	87.5
255.892	93.5
256.124	86.5
256.357	94.5
256.59	97.5
256.823	84.5
257.056	89.5
257.289	77.5
257.521	81.5
257.754	87.5
257.987	69.5
258.22	99.5
258.452	95.5
258.685	93.5
258.918	77.5
259.151	83.5
259.383	86.5
259.616	91.5
259.849	87.5
260.081	84.5
260.314	84.5
260.547	83.5
260.779	91.5
261.012	98.5
261.244	83.5
261.477	108.5
261.71	98.5
261.942	76.5
262.175	77.5
262.407	91.5
262.64	89.5
262.872	97.5
263.105	82.5
263.337	102.5
263.57	92.5
263.802	95.5
264.035	108.5
264.267	88.5
264.499	95.5
264.732	105.5
264.964	90.5
265.197	87.5
265.429	106.5
265.661	86.5
265.894	90.5
266.126	100.5
266.358	86.5
266.591	109.5
266.823	91.5
267.055	93.5
267.287	89.5
267.52	89.5
267.752	78.5
267.984	80.5
268.216	84.5
268.448	103.5
268.681	106.5
268.913	100.5
269.145	102.5
269.377	81.5
269.609	91.5
269.841	92.5
270.073	96.5
270.306	92.5
270.538	92.5
270.77	106.5
271.002	96.5
271.234	98.5
271.466	99.5
271.698	78.5
271.93	101.5
272.162	87.5
272.394	95.5
272.626	94.5
272.858	97.5
273.09	103.5
273.322	105.5
273.553	95.5
273.785	91.5
274.017	95.5
274.249	89.5
274.481	89.5
274.713	110.5
274.945	106.5
275.176	99.5
275.408	93.5
275.64	89.5
275.872	112.5
276.104	105.5
276.335	91.5
276.567	93.5
276.799	89.5
277.031	86.5
277.262	101.5
277.494	111.5
277.726	104.5
277.957	92.5
278.189	90.5
278.421	92.5
278.652	97.5
278.884	99.5
279.115	101.5
279.347	104.5
279.579	103.5
279.81	108.5
280.042	98.5
280.273	94.5
280.505	95.5
280.736	97.5
280.968	87.5
281.199	103.5
281.431	95.5
281.662	101.5
281.894	102.5
282.125	93.5
282.356	94.5
282.588	104.5
282.819	91.5
283.051	95.5
283.282	102.5
283.513	100.5
283.745	96.5
283.976	107.5
284.207	99.5
284.439	104.5
284.67	93.5
284.901	80.5
285.132	93.5
285.364	94.5
285.595	91.5
285.826	110.5
286.057	105.5
286.288	93.5
286.52	98.5
286.751	108.5
286.982	113.5
287.213	87.5
287.444	106.5
287.675	110.5
287.906	101.5
288.138	112.5
288.369	93.5
288.6	105.5
288.831	97.5
289.062	89.5
289.293	97.5
289.524	102.5
289.755	103.5
289.986	90.5
290.217	107.5
290.448	93.5
290.679	103.5
290.91	125.5
291.141	95.5
291.371	102.5
291.602	95.5
291.833	97.5
292.064	105.5
292.295	107.5
292.526	106.5
292.757	101.5
292.987	90.5
293.218	93.5
293.449	105.5
293.68	100.5
293.91	101.5
294.141	101.5
294.372	85.5
294.603	121.5
294.833	117.5
295.064	110.5
295.295	110.5
295.525	113.5
295.756	101.5
295.987	101.5
296.217	103.5
296.448	103.5
296.679	98.5
296.909	109.5
297.14	86.5
297.37	102.5
297.601	98.5
297.831	113.5
298.062	106.5
298.292	105.5
298.523	109.5
298.753	86.5
298.984	105.5
299.214	97.5
299.445	94.5
299.675	109.5
299.905	115.5
300.136	111.5
300.366	108.5
300.597	108.5
300.827	92.5
301.057	99.5
301.288	106.5
301.518	95.5
301.748	94.5
301.979	164.5
302.209	105.5
302.439	93.5
302.669	109.5
302.9	106.5
303.13	112.5
303.36	117.5
303.59	99.5
303.82	86.5
304.051	107.5
304.281	114.5
304.511	99.5
304.741	114.5
304.971	100.5
305.201	117.5
305.431	110.5
305.661	90.5
305.891	104.5
306.121	115.5
306.352	119.5
306.582	105.5
306.812	109.5
307.042	110.5
307.272	113.5
307.502	104.5
307.731	107.5
307.961	91.5
308.191	99.5
308.421	105.5
308.651	109.5
308.881	88.5
309.111	95.5
309.341	100.5
309.571	110.5
309.8	103.5
310.03	107.5
310.26	101.5
310.49	101.5
310.72	103.5
310.949	97.5
311.179	107.5
311.409	108.5
311.639	95.5
311.868	118.5
312.098	100.5
312.328	111.5
312.557	101.5
312.787	115.5
313.017	113.5
313.246	110.5
313.476	115.5
313.706	113.5
313.935	112.5
314.165	120.5
314.394	102.5
314.624	117.5
314.853	105.5
315.083	103.5
315.312	117.5
315.542	110.5
315.771	116.5
316.001	101.5
316.23	108.5
316.46	104.5
316.689	119.5
316.919	105.5
317.148	109.5
317.377	115.5
317.607	103.5
317.836	104.5
318.065	114.5
318.295	93.5
318.524	103.5
318.753	102.5
318.983	108.5
319.212	112.5
319.441	99.5
319.67	113.5
319.9	116.5
320.129	120.5
320.358	99.5
320.587	105.5
320.816	125.5
321.046	99.5
321.275	117.5
321.504	107.5
321.733	112.5
321.962	106.5
322.191	111.5
322.42	103.5
322.649	123.5
322.878	111.5
323.108	111.5
323.337	121.5
323.566	115.5
323.795	98.5
324.024	92.5
324.253	101.5
324.482	105.5
324.71	104.5
324.939	102.5
325.168	124.5
325.397	110.5
325.626	101.5
325.855	113.5
326.084	121.5
326.313	131.5
326.542	120.5
326.77	109.5
326.999	103.5
327.228	128.5
327.457	109.5
327.686	111.5
327.914	119.5
328.143	119.5
328.372	115.5
328.6	116.5
328.829	112.5
329.058	102.5
329.287	101.5
329.515	102.5
329.744	122.5
329.972	118.5
330.201	106.5
330.43	116.5
330.658	96.5
330.887	124.5
331.115	118.5
331.344	109.5
331.572	126.5
331.801	111.5
332.03	125.5
332.258	124.5
332.486	107.5
332.715	122.5
332.943	123.5
333.172	110.5
333.4	121.5
333.629	116.5
333.857	112.5
334.085	121.5
334.314	118.5
334.542	111.5
334.771	122.5
334.999	110.5
335.227	108.5
335.455	114.5
335.684	119.5
335.912	124.5
336.14	121.5
336.369	125.5
336.597	124.5
336.825	111.5
337.053	121.5
337.281	115.5
337.51	116.5
337.738	125.5
337.966	123.5
338.194	115.5
338.422	114.5
338.65	106.5
338.878	125.5
339.106	117.5
339.334	117.5
339.562	121.5
339.79	115.5
340.018	112.5
340.246	90.5
340.474	124.5
340.702	113.5
340.93	95.5
341.158	100.5
341.386	133.5
341.614	113.5
341.842	96.5
342.07	114.5
342.298	101.5
342.526	114.5
342.754	113.5
342.981	109.5
343.209	107.5
343.437	145.5
343.665	125.5
343.893	128.5
344.12	118.5
344.348	116.5
344.576	106.5
344.804	116.5
345.031	96.5
345.259	115.5
345.487	116.5
345.714	109.5
345.942	101.5
346.17	112.5
346.397	111.5
346.625	105.5
346.853	109.5
347.08	113.5
347.308	111.5
347.535	126.5
347.763	132.5
347.99	111.5
348.218	108.5
348.445	105.5
348.673	123.5
348.9	113.5
349.128	122.5
349.355	128.5
349.583	114.5
349.81	119.5
350.037	121.5
350.265	121.5
350.492	128.5
350.72	112.5
350.947	109.5
351.174	120.5
351.402	112.5
351.629	111.5
351.856	102.5
352.083	111.5
352.311	103.5
352.538	98.5
352.765	95.5
352.992	123.5
353.22	121.5
353.447	103.5
353.674	127.5
353.901	126.5
354.128	118.5
354.355	116.5
354.583	110.5
354.81	107.5
355.037	119.5
355.264	109.5
355.491	113.5
355.718	105.5
355.945	105.5
356.172	111.5
356.399	106.5
356.626	103.5
356.853	118.5
357.08	121.5
357.307	102.5
357.534	107.5
357.761	120.5
357.988	118.5
358.215	102.5
358.441	110.5
358.668	99.5
358.895	113.5
359.122	123.5
359.349	116.5
359.576	99.5
359.802	101.5
360.029	98.5
360.256	105.5
360.483	108.5
360.709	101.5
360.936	129.5
361.163	111.5
361.39	109.5
361.616	109.5
361.843	126.5
362.07	110.5
362.296	105.5
362.523	106.5
362.749	119.5
362.976	108.5
363.203	113.5
363.429	102.5
363.656	131.5
363.882	109.5
364.109	131.5
364.335	116.5
364.562	112.5
364.788	95.5
365.015	106.5
365.241	102.5
365.468	118.5
365.694	117.5
365.92	109.5
366.147	112.5
366.373	87.5
366.599	118.5
366.826	120.5
367.052	107.5
367.278	94.5
367.505	105.5
367.731	137.5
367.957	111.5
368.184	117.5
368.41	104.5
368.636	113.5
368.862	121.5
369.089	108.5
369.315	118.5
369.541	113.5
369.767	116.5
369.993	121.5
370.219	104.5
370.445	110.5
370.672	115.5
370.898	106.5
371.124	115.5
371.35	105.5
371.576	109.5
371.802	108.5
372.028	119.5
372.254	99.5
372.48	116.5
372.706	117.5
372.932	117.5
373.158	122.5
373.384	130.5
373.61	119.5
373.835	115.5
374.061	103.5
374.287	132.5
374.513	101.5
374.739	113.5
374.965	119.5
375.191	108.5
375.416	110.5
375.642	131.5
375.868	121.5
376.094	125.5
376.319	121.5
376.545	112.5
376.771	106.5
376.997	120.5
377.222	129.5
377.448	121.5
377.674	121.5
377.899	113.5
378.125	112.5
378.35	106.5
378.576	99.5
378.802	107.5
379.027	120.5
379.253	111.5
379.478	118.5
379.704	113.5
379.929	116.5
380.155	103.5
380.38	124.5
380.606	108.5
380.831	117.5
381.057	115.5
381.282	117.5
381.507	115.5
381.733	110.5
381.958	103.5
382.184	118.5
382.409	116.5
382.634	110.5
382.86	111.5
383.085	125.5
383.31	129.5
383.535	120.5
383.761	114.5
383.986	132.5
384.211	127.5
384.436	118.5
384.662	110.5
384.887	132.5
385.112	125.5
385.337	113.5
385.562	110.5
385.787	143.5
386.013	149.5
386.238	127.5
386.463	118.5
386.688	153.5
386.913	120.5
387.138	118.5
387.363	114.5
387.588	142.5
387.813	119.5
388.038	127.5
388.263	134.5
388.488	131.5
388.713	141.5
388.938	130.5
389.163	121.5
389.387	134.5
389.612	111.5
389.837	110.5
390.062	142.5
390.287	133.5
390.512	136.5
390.736	130.5
390.961	124.5
391.186	126.5
391.411	146.5
391.636	142.5
391.86	140.5
392.085	141.5
392.31	123.5
392.534	138.5
392.759	113.5
392.984	133.5
393.208	147.5
393.433	144.5
393.658	129.5
393.882	126.5
394.107	138.5
394.331	133.5
394.556	153.5
394.78	141.5
395.005	115.5
395.229	131.5
395.454	138.5
395.678	145.5
395.903	135.5
396.127	159.5
396.352	154.5
396.576	142.5
396.801	135.5
397.025	125.5
397.249	138.5
397.474	150.5
397.698	156.5
397.922	155.5
398.147	135.5
398.371	138.5
398.595	150.5
398.82	145.5
399.044	167.5
399.268	178.5
399.492	213.5
399.717	204.5
399.941	195.5
400.165	185.5
400.389	170.5
400.613	171.5
400.837	157.5
401.062	158.5
401.286	156.5
401.51	156.5
401.734	154.5
401.958	146.5
402.182	160.5
402.406	167.5
402.63	179.5
402.854	190.5
403.078	183.5
403.302	163.5
403.526	187.5
403.75	182.5
403.974	183.5
404.198	164.5
404.422	172.5
404.645	172.5
404.869	176.5
405.093	186.5
405.317	181.5
405.541	174.5
405.765	185.5
405.988	179.5
406.212	191.5
406.436	193.5
406.66	193.5
406.883	179.5
407.107	186.5
407.331	182.5
407.555	201.5
407.778	180.5
408.002	177.5
408.226	185.5
408.449	199.5
408.673	175.5
408.896	180.5
409.12	186.5
409.344	202.5
409.567	196.5
409.791	184.5
410.014	187.5
410.238	177.5
410.461	184.5
410.685	181.5
410.908	190.5
411.132	199.5
411.355	176.5
411.578	184.5
411.802	172.5
412.025	177.5
412.249	158.5
412.472	179.5
412.695	186.5
412.919	188.5
413.142	177.5
413.365	184.5
413.589	172.5
413.812	178.5
414.035	180.5
414.258	164.5
414.482	161.5
414.705	182.5
414.928	199.5
415.151	201.5
415.374	187.5
415.597	182.5
415.821	189.5
416.044	172.5
416.267	188.5
416.49	200.5
416.713	187.5
416.936	186.5
417.159	178.5
417.382	184.5
417.605	184.5
417.828	179.5
418.051	178.5
418.274	185.5
418.497	194.5
418.72	182.5
418.943	187.5
419.166	187.5
419.389	195.5
419.611	190.5
419.834	193.5
420.057	187.5
420.28	184.5
420.503	193.5
420.726	187.5
420.948	180.5
421.171	197.5
421.394	186.5
421.617	181.5
421.839	201.5
422.062	198.5
422.285	184.5
422.507	187.5
422.73	171.5
422.953	182.5
423.175	187.5
423.398	197.5
423.621	193.5
423.843	183.5
424.066	197.5
424.288	189.5
424.511	188.5
424.733	199.5
424.956	182.5
425.178	193.5
425.401	181.5
425.623	187.5
425.846	185.5
426.068	183.5
426.291	181.5
426.513	174.5
426.735	200.5
426.958	181.5
427.18	164.5
427.402	177.5
427.625	184.5
427.847	166.5
428.069	167.5
428.292	174.5
428.514	164.5
428.736	177.5
428.958	163.5
429.181	168.5
429.403	187.5
429.625	171.5
429.847	178.5
430.069	176.5
430.292	180.5
430.514	167.5
430.736	173.5
430.958	173.5
431.18	176.5
431.402	168.5
431.624	170.5
431.846	149.5
432.068	161.5
432.29	156.5
432.512	173.5
432.734	176.5
432.956	169.5
433.178	179.5
433.4	186.5
433.622	167.5
433.844	174.5
434.066	172.5
434.287	191.5
434.509	162.5
434.731	183.5
434.953	171.5
435.175	181.5
435.397	174.5
435.618	183.5
435.84	156.5
436.062	169.5
436.284	157.5
436.505	176.5
436.727	172.5
436.949	174.5
437.17	183.5
437.392	158.5
437.614	162.5
437.835	152.5
438.057	161.5
438.278	152.5
438.5	172.5
438.721	172.5
438.943	185.5
439.165	172.5
439.386	181.5
439.608	183.5
439.829	170.5
440.05	181.5
440.272	181.5
440.493	183.5
440.715	177.5
440.936	190.5
441.158	176.5
441.379	175.5
441.6	193.5
441.822	200.5
442.043	185.5
442.264	169.5
442.486	195.5
442.707	183.5
442.928	189.5
443.149	188.5
443.371	195.5
443.592	181.5
443.813	178.5
444.034	198.5
444.255	201.5
444.476	201.5
444.698	222.5
444.919	205.5
445.14	391.5
445.361	292.5
445.582	200.5
445.803	184.5
446.024	187.5
446.245	194.5
446.466	181.5
446.687	188.5
446.908	175.5
447.129	191.5
447.35	189.5
447.571	182.5
447.792	179.5
448.013	193.5
448.234	183.5
448.455	170.5
448.675	167.5
448.896	180.5
449.117	167.5
449.338	150.5
449.559	165.5
449.779	169.5
450	176.5
450.221	181.5
450.442	178.5
450.662	171.5
450.883	177.5
451.104	150.5
451.324	153.5
451.545	173.5
451.766	169.5
451.986	170.5
452.207	169.5
452.428	186.5
452.648	156.5
452.869	165.5
453.089	158.5
453.31	150.5
453.53	158.5
453.751	152.5
453.971	137.5
454.192	143.5
454.412	162.5
454.633	150.5
454.853	160.5
455.073	163.5
455.294	165.5
455.514	165.5
455.734	167.5
455.955	152.5
456.175	151.5
456.395	150.5
456.616	157.5
456.836	154.5
457.056	154.5
457.276	132.5
457.497	143.5
457.717	134.5
457.937	158.5
458.157	143.5
458.377	155.5
458.598	130.5
458.818	155.5
459.038	141.5
459.258	153.5
459.478	155.5
459.698	153.5
459.918	159.5
460.138	168.5
460.358	189.5
460.578	183.5
460.798	181.5
461.018	178.5
461.238	190.5
461.458	188.5
461.678	177.5
461.898	179.5
462.118	190.5
462.338	185.5
462.558	205.5
462.777	198.5
462.997	206.5
463.217	205.5
463.437	211.5
463.657	190.5
463.876	190.5
464.096	193.5
464.316	174.5
464.536	200.5
464.755	182.5
464.975	199.5
465.195	188.5
465.414	171.5
465.634	157.5
465.854	176.5
466.073	190.5
466.293	155.5
466.512	166.5
466.732	168.5
466.951	159.5
467.171	170.5
467.391	179.5
467.61	187.5
467.829	197.5
468.049	156.5
468.268	174.5
468.488	169.5
468.707	167.5
468.927	189.5
469.146	182.5
469.365	173.5
469.585	179.5
469.804	188.5
470.023	175.5
470.243	184.5
470.462	182.5
470.681	174.5
470.901	180.5
471.12	182.5
471.339	177.5
471.558	199.5
471.777	156.5
471.997	165.5
472.216	154.5
472.435	152.5
472.654	158.5
472.873	162.5
473.092	157.5
473.311	174.5
473.53	165.5
473.749	163.5
473.968	177.5
474.187	159.5
474.406	146.5
474.625	171.5
474.844	165.5
475.063	164.5
475.282	167.5
475.501	163.5
475.72	161.5
475.939	151.5
476.158	167.5
476.377	172.5
476.596	164.5
476.814	158.5
477.033	179.5
477.252	172.5
477.471	168.5
477.69	174.5
477.908	183.5
478.127	197.5
478.346	175.5
478.564	182.5
478.783	185.5
479.002	197.5
479.22	193.5
479.439	193.5
479.658	175.5
479.876	171.5
480.095	179.5
480.313	179.5
480.532	196.5
480.751	159.5
480.969	181.5
481.188	164.5
481.406	153.5
481.624	167.5
481.843	161.5
482.061	168.5
482.28	162.5
482.498	174.5
482.717	168.5
482.935	181.5
483.153	186.5
483.372	199.5
483.59	190.5
483.808	170.5
484.027	183.5
484.245	186.5
484.463	187.5
484.681	199.5
484.9	180.5
485.118	184.5
485.336	166.5
485.554	167.5
485.772	174.5
485.99	156.5
486.209	173.5
486.427	159.5
486.645	186.5
486.863	193.5
487.081	186.5
487.299	169.5
487.517	171.5
487.735	197.5
487.953	231.5
488.171	195.5
488.389	191.5
488.607	202.5
488.825	194.5
489.043	182.5
489.261	178.5
489.479	181.5
489.696	190.5
489.914	171.5
490.132	192.5
490.35	211.5
490.568	201.5
490.786	206.5
491.003	210.5
491.221	214.5
491.439	204.5
491.657	221.5
491.874	230.5
492.092	234.5
492.31	246.5
492.527	225.5
492.745	223.5
492.963	244.5
493.18	223.5
493.398	214.5
493.615	217.5
493.833	223.5
494.05	211.5
494.268	222.5
494.485	194.5
494.703	209.5
494.92	202.5
495.138	189.5
495.355	217.5
495.573	219.5
495.79	190.5
496.008	205.5
496.225	222.5
496.442	233.5
496.66	230.5
496.877	204.5
497.094	217.5
497.312	217.5
497.529	200.5
497.746	212.5
497.963	182.5
498.181	210.5
498.398	213.5
498.615	215.5
498.832	224.5
499.049	235.5
499.267	265.5
499.484	272.5
499.701	294.5
499.918	329.5
500.135	365.5
500.352	401.5
500.569	389.5
500.786	395.5
501.003	346.5
501.22	331.5
501.437	294.5
501.654	253.5
501.871	248.5
502.088	241.5
502.305	227.5
502.522	235.5
502.739	213.5
502.956	230.5
503.172	195.5
503.389	190.5
503.606	198.5
503.823	200.5
504.04	209.5
504.256	202.5
504.473	201.5
504.69	198.5
504.907	213.5
505.123	177.5
505.34	197.5
505.557	193.5
505.773	179.5
505.99	163.5
506.207	181.5
506.423	172.5
506.64	167.5
506.856	179.5
507.073	173.5
507.289	177.5
507.506	173.5
507.722	165.5
507.939	166.5
508.155	155.5
508.372	154.5
508.588	166.5
508.805	167.5
509.021	150.5
509.238	155.5
509.454	149.5
509.67	158.5
509.887	167.5
510.103	154.5
510.319	141.5
510.536	141.5
510.752	146.5
510.968	142.5
511.184	133.5
511.401	138.5
511.617	143.5
511.833	147.5
512.049	168.5
512.265	158.5
512.481	151.5
512.698	165.5
512.914	150.5
513.13	159.5
513.346	137.5
513.562	140.5
513.778	161.5
513.994	153.5
514.21	159.5
514.426	154.5
514.642	156.5
514.858	145.5
515.074	159.5
515.29	173.5
515.506	157.5
515.721	158.5
515.937	156.5
516.153	145.5
516.369	156.5
516.585	174.5
516.801	172.5
517.016	170.5
517.232	170.5
517.448	194.5
517.664	203.5
517.879	187.5
518.095	173.5
518.311	186.5
518.527	176.5
518.742	166.5
518.958	180.5
519.173	185.5
519.389	170.5
519.605	156.5
519.82	168.5
520.036	167.5
520.251	140.5
520.467	166.5
520.682	153.5
520.898	147.5
521.113	154.5
521.329	154.5
521.544	150.5
521.76	156.5
521.975	151.5
522.19	156.5
522.406	163.5
522.621	154.5
522.836	164.5
523.052	148.5
523.267	159.5
523.482	155.5
523.698	150.5
523.913	144.5
524.128	162.5
524.343	148.5
524.559	169.5
