Data from SampA_HRD10591_00027.txt Node
Date: Mon Jan 19 11:26:55 EST 2026
User: Yrep
Spectrometer: HR+D1059
Trigger mode: 0
Integration Time (sec): 3.443000E-1
Scans to average: 1
Electric dark correction enabled: true
Nonlinearity correction enabled: false
Boxcar width: 0
XAxis mode: Wavelengths
Number of Pixels in Spectrum: 2048
>>>>>Begin Spectral Data<<<<<
223.165	-20.69
223.4	-20.69
223.635	-20.69
223.869	-22.69
224.104	-29.69
224.338	-7.69
224.573	-19.69
224.808	-14.69
225.042	-15.69
225.277	-4.69
225.511	-13.69
225.746	4.31
225.98	20.31
226.215	27.31
226.449	25.31
226.683	14.31
226.918	28.31
227.152	29.31
227.387	41.31
227.621	30.31
227.856	42.31
228.09	54.31
228.324	68.31
228.559	66.31
228.793	56.31
229.027	61.31
229.262	56.31
229.496	69.31
229.73	80.31
229.964	81.31
230.199	87.31
230.433	78.31
230.667	82.31
230.901	90.31
231.136	76.31
231.37	86.31
231.604	88.31
231.838	96.31
232.072	97.31
232.306	82.31
232.541	79.31
232.775	85.31
233.009	76.31
233.243	80.31
233.477	85.31
233.711	72.31
233.945	94.31
234.179	77.31
234.413	69.31
234.647	96.31
234.881	88.31
235.115	84.31
235.349	88.31
235.583	95.31
235.817	88.31
236.051	85.31
236.285	88.31
236.519	71.31
236.753	96.31
236.987	92.31
237.221	77.31
237.455	94.31
237.689	94.31
237.922	98.31
238.156	89.31
238.39	74.31
238.624	87.31
238.858	73.31
239.091	90.31
239.325	95.31
239.559	78.31
239.793	87.31
240.027	77.31
240.26	82.31
240.494	103.31
240.728	72.31
240.961	73.31
241.195	98.31
241.429	86.31
241.662	68.31
241.896	88.31
242.13	92.31
242.363	86.31
242.597	95.31
242.83	93.31
243.064	97.31
243.298	101.31
243.531	90.31
243.765	95.31
243.998	84.31
244.232	95.31
244.465	81.31
244.699	88.31
244.932	87.31
245.166	96.31
245.399	96.31
245.633	90.31
245.866	110.31
246.099	82.31
246.333	86.31
246.566	89.31
246.8	91.31
247.033	98.31
247.266	76.31
247.5	80.31
247.733	94.31
247.966	83.31
248.2	86.31
248.433	82.31
248.666	93.31
248.899	102.31
249.133	104.31
249.366	112.31
249.599	100.31
249.832	99.31
250.066	93.31
250.299	85.31
250.532	92.31
250.765	72.31
250.998	95.31
251.231	93.31
251.465	98.31
251.698	101.31
251.931	82.31
252.164	80.31
252.397	97.31
252.63	89.31
252.863	98.31
253.096	103.31
253.329	88.31
253.562	94.31
253.795	95.31
254.028	104.31
254.261	98.31
254.494	100.31
254.727	99.31
254.96	80.31
255.193	96.31
255.426	92.31
255.659	85.31
255.892	105.31
256.124	88.31
256.357	99.31
256.59	101.31
256.823	104.31
257.056	104.31
257.289	103.31
257.521	92.31
257.754	85.31
257.987	115.31
258.22	109.31
258.452	92.31
258.685	92.31
258.918	96.31
259.151	96.31
259.383	79.31
259.616	80.31
259.849	105.31
260.081	86.31
260.314	98.31
260.547	88.31
260.779	92.31
261.012	91.31
261.244	78.31
261.477	117.31
261.71	93.31
261.942	102.31
262.175	108.31
262.407	91.31
262.64	110.31
262.872	110.31
263.105	108.31
263.337	117.31
263.57	104.31
263.802	109.31
264.035	97.31
264.267	92.31
264.499	113.31
264.732	104.31
264.964	95.31
265.197	105.31
265.429	101.31
265.661	116.31
265.894	95.31
266.126	108.31
266.358	116.31
266.591	109.31
266.823	95.31
267.055	93.31
267.287	110.31
267.52	118.31
267.752	111.31
267.984	106.31
268.216	104.31
268.448	108.31
268.681	102.31
268.913	87.31
269.145	93.31
269.377	107.31
269.609	90.31
269.841	101.31
270.073	101.31
270.306	110.31
270.538	102.31
270.77	101.31
271.002	103.31
271.234	106.31
271.466	110.31
271.698	100.31
271.93	89.31
272.162	107.31
272.394	108.31
272.626	107.31
272.858	106.31
273.09	101.31
273.322	108.31
273.553	116.31
273.785	109.31
274.017	113.31
274.249	117.31
274.481	106.31
274.713	101.31
274.945	111.31
275.176	113.31
275.408	102.31
275.64	104.31
275.872	112.31
276.104	112.31
276.335	112.31
276.567	109.31
276.799	116.31
277.031	102.31
277.262	107.31
277.494	122.31
277.726	108.31
277.957	108.31
278.189	112.31
278.421	113.31
278.652	110.31
278.884	105.31
279.115	111.31
279.347	112.31
279.579	99.31
279.81	109.31
280.042	113.31
280.273	119.31
280.505	110.31
280.736	114.31
280.968	122.31
281.199	106.31
281.431	129.31
281.662	132.31
281.894	116.31
282.125	129.31
282.356	107.31
282.588	109.31
282.819	120.31
283.051	102.31
283.282	111.31
283.513	125.31
283.745	105.31
283.976	112.31
284.207	110.31
284.439	102.31
284.67	112.31
284.901	113.31
285.132	114.31
285.364	101.31
285.595	127.31
285.826	105.31
286.057	116.31
286.288	127.31
286.52	117.31
286.751	113.31
286.982	117.31
287.213	108.31
287.444	107.31
287.675	122.31
287.906	109.31
288.138	121.31
288.369	126.31
288.6	138.31
288.831	118.31
289.062	134.31
289.293	127.31
289.524	116.31
289.755	129.31
289.986	121.31
290.217	125.31
290.448	128.31
290.679	126.31
290.91	120.31
291.141	128.31
291.371	115.31
291.602	112.31
291.833	102.31
292.064	108.31
292.295	110.31
292.526	116.31
292.757	116.31
292.987	93.31
293.218	118.31
293.449	131.31
293.68	121.31
293.91	108.31
294.141	132.31
294.372	109.31
294.603	113.31
294.833	115.31
295.064	119.31
295.295	119.31
295.525	110.31
295.756	102.31
295.987	128.31
296.217	119.31
296.448	141.31
296.679	122.31
296.909	127.31
297.14	128.31
297.37	121.31
297.601	125.31
297.831	113.31
298.062	118.31
298.292	125.31
298.523	118.31
298.753	133.31
298.984	137.31
299.214	114.31
299.445	126.31
299.675	127.31
299.905	132.31
300.136	133.31
300.366	114.31
300.597	142.31
300.827	119.31
301.057	125.31
301.288	133.31
301.518	142.31
301.748	132.31
301.979	163.31
302.209	119.31
302.439	135.31
302.669	136.31
302.9	120.31
303.13	122.31
303.36	133.31
303.59	124.31
303.82	121.31
304.051	136.31
304.281	132.31
304.511	132.31
304.741	136.31
304.971	112.31
305.201	135.31
305.431	125.31
305.661	108.31
305.891	118.31
306.121	122.31
306.352	137.31
306.582	125.31
306.812	117.31
307.042	118.31
307.272	125.31
307.502	123.31
307.731	121.31
307.961	131.31
308.191	144.31
308.421	112.31
308.651	113.31
308.881	115.31
309.111	125.31
309.341	123.31
309.571	134.31
309.8	119.31
310.03	127.31
310.26	125.31
310.49	116.31
310.72	134.31
310.949	142.31
311.179	122.31
311.409	129.31
311.639	118.31
311.868	133.31
312.098	136.31
312.328	113.31
312.557	134.31
312.787	133.31
313.017	136.31
313.246	122.31
313.476	129.31
313.706	137.31
313.935	127.31
314.165	125.31
314.394	136.31
314.624	121.31
314.853	118.31
315.083	135.31
315.312	125.31
315.542	114.31
315.771	129.31
316.001	125.31
316.23	126.31
316.46	130.31
316.689	139.31
316.919	119.31
317.148	130.31
317.377	127.31
317.607	141.31
317.836	152.31
318.065	129.31
318.295	126.31
318.524	138.31
318.753	136.31
318.983	124.31
319.212	138.31
319.441	128.31
319.67	117.31
319.9	134.31
320.129	140.31
320.358	127.31
320.587	138.31
320.816	140.31
321.046	134.31
321.275	154.31
321.504	133.31
321.733	114.31
321.962	113.31
322.191	129.31
322.42	140.31
322.649	140.31
322.878	128.31
323.108	126.31
323.337	119.31
323.566	126.31
323.795	128.31
324.024	126.31
324.253	119.31
324.482	129.31
324.71	138.31
324.939	132.31
325.168	137.31
325.397	134.31
325.626	128.31
325.855	137.31
326.084	123.31
326.313	133.31
326.542	140.31
326.77	148.31
326.999	120.31
327.228	132.31
327.457	138.31
327.686	150.31
327.914	139.31
328.143	129.31
328.372	129.31
328.6	151.31
328.829	145.31
329.058	143.31
329.287	108.31
329.515	145.31
329.744	144.31
329.972	130.31
330.201	149.31
330.43	149.31
330.658	144.31
330.887	140.31
331.115	143.31
331.344	146.31
331.572	139.31
331.801	140.31
332.03	146.31
332.258	162.31
332.486	154.31
332.715	147.31
332.943	150.31
333.172	172.31
333.4	163.31
333.629	162.31
333.857	148.31
334.085	171.31
334.314	159.31
334.542	167.31
334.771	138.31
334.999	142.31
335.227	128.31
335.455	160.31
335.684	153.31
335.912	148.31
336.14	144.31
336.369	170.31
336.597	140.31
336.825	150.31
337.053	140.31
337.281	144.31
337.51	149.31
337.738	143.31
337.966	135.31
338.194	152.31
338.422	137.31
338.65	152.31
338.878	139.31
339.106	143.31
339.334	155.31
339.562	141.31
339.79	125.31
340.018	126.31
340.246	140.31
340.474	153.31
340.702	142.31
340.93	141.31
341.158	128.31
341.386	128.31
341.614	136.31
341.842	141.31
342.07	128.31
342.298	135.31
342.526	141.31
342.754	138.31
342.981	144.31
343.209	148.31
343.437	171.31
343.665	150.31
343.893	151.31
344.12	170.31
344.348	156.31
344.576	138.31
344.804	134.31
345.031	149.31
345.259	133.31
345.487	144.31
345.714	136.31
345.942	138.31
346.17	132.31
346.397	134.31
346.625	137.31
346.853	137.31
347.08	127.31
347.308	138.31
347.535	129.31
347.763	132.31
347.99	139.31
348.218	132.31
348.445	145.31
348.673	148.31
348.9	148.31
349.128	132.31
349.355	132.31
349.583	115.31
349.81	127.31
350.037	148.31
350.265	149.31
350.492	135.31
350.72	124.31
350.947	131.31
351.174	136.31
351.402	127.31
351.629	136.31
351.856	138.31
352.083	129.31
352.311	125.31
352.538	138.31
352.765	140.31
352.992	159.31
353.22	158.31
353.447	146.31
353.674	150.31
353.901	127.31
354.128	134.31
354.355	136.31
354.583	119.31
354.81	145.31
355.037	126.31
355.264	147.31
355.491	152.31
355.718	126.31
355.945	126.31
356.172	130.31
356.399	134.31
356.626	135.31
356.853	148.31
357.08	152.31
357.307	137.31
357.534	133.31
357.761	137.31
357.988	136.31
358.215	148.31
358.441	118.31
358.668	152.31
358.895	141.31
359.122	145.31
359.349	136.31
359.576	122.31
359.802	150.31
360.029	138.31
360.256	138.31
360.483	124.31
360.709	135.31
360.936	144.31
361.163	143.31
361.39	127.31
361.616	144.31
361.843	144.31
362.07	130.31
362.296	144.31
362.523	124.31
362.749	137.31
362.976	134.31
363.203	137.31
363.429	144.31
363.656	141.31
363.882	126.31
364.109	131.31
364.335	142.31
364.562	148.31
364.788	145.31
365.015	138.31
365.241	138.31
365.468	135.31
365.694	128.31
365.92	148.31
366.147	137.31
366.373	143.31
366.599	143.31
366.826	138.31
367.052	135.31
367.278	137.31
367.505	129.31
367.731	170.31
367.957	138.31
368.184	148.31
368.41	138.31
368.636	134.31
368.862	152.31
369.089	147.31
369.315	138.31
369.541	135.31
369.767	152.31
369.993	150.31
370.219	140.31
370.445	139.31
370.672	141.31
370.898	141.31
371.124	143.31
371.35	148.31
371.576	153.31
371.802	138.31
372.028	136.31
372.254	136.31
372.48	149.31
372.706	136.31
372.932	144.31
373.158	151.31
373.384	141.31
373.61	153.31
373.835	157.31
374.061	156.31
374.287	149.31
374.513	152.31
374.739	142.31
374.965	157.31
375.191	142.31
375.416	145.31
375.642	152.31
375.868	164.31
376.094	157.31
376.319	162.31
376.545	141.31
376.771	155.31
376.997	150.31
377.222	141.31
377.448	162.31
377.674	150.31
377.899	145.31
378.125	152.31
378.35	153.31
378.576	123.31
378.802	145.31
379.027	134.31
379.253	134.31
379.478	147.31
379.704	149.31
379.929	149.31
380.155	138.31
380.38	146.31
380.606	142.31
380.831	149.31
381.057	169.31
381.282	150.31
381.507	157.31
381.733	148.31
381.958	144.31
382.184	154.31
382.409	171.31
382.634	166.31
382.86	161.31
383.085	156.31
383.31	154.31
383.535	169.31
383.761	159.31
383.986	174.31
384.211	164.31
384.436	162.31
384.662	165.31
384.887	159.31
385.112	160.31
385.337	168.31
385.562	162.31
385.787	172.31
386.013	169.31
386.238	174.31
386.463	165.31
386.688	194.31
386.913	153.31
387.138	147.31
387.363	168.31
387.588	170.31
387.813	173.31
388.038	154.31
388.263	176.31
388.488	157.31
388.713	153.31
388.938	160.31
389.163	155.31
389.387	169.31
389.612	174.31
389.837	162.31
390.062	166.31
390.287	177.31
390.512	184.31
390.736	154.31
390.961	172.31
391.186	181.31
391.411	187.31
391.636	184.31
391.86	190.31
392.085	186.31
392.31	177.31
392.534	181.31
392.759	195.31
392.984	170.31
393.208	184.31
393.433	195.31
393.658	180.31
393.882	180.31
394.107	205.31
394.331	184.31
394.556	184.31
394.78	184.31
395.005	176.31
395.229	189.31
395.454	191.31
395.678	188.31
395.903	198.31
396.127	184.31
396.352	185.31
396.576	184.31
396.801	188.31
397.025	193.31
397.249	188.31
397.474	203.31
397.698	204.31
397.922	194.31
398.147	211.31
398.371	209.31
398.595	218.31
398.82	220.31
399.044	222.31
399.268	227.31
399.492	253.31
399.717	284.31
399.941	266.31
400.165	263.31
400.389	253.31
400.613	230.31
400.837	213.31
401.062	203.31
401.286	231.31
401.51	220.31
401.734	219.31
401.958	232.31
402.182	234.31
402.406	230.31
402.63	235.31
402.854	242.31
403.078	239.31
403.302	234.31
403.526	237.31
403.75	249.31
403.974	270.31
404.198	270.31
404.422	269.31
404.645	248.31
404.869	241.31
405.093	247.31
405.317	261.31
405.541	261.31
405.765	272.31
405.988	271.31
406.212	262.31
406.436	244.31
406.66	274.31
406.883	262.31
407.107	285.31
407.331	277.31
407.555	279.31
407.778	284.31
408.002	281.31
408.226	272.31
408.449	287.31
408.673	263.31
408.896	280.31
409.12	267.31
409.344	253.31
409.567	265.31
409.791	274.31
410.014	282.31
410.238	272.31
410.461	261.31
410.685	256.31
410.908	272.31
411.132	270.31
411.355	250.31
411.578	269.31
411.802	268.31
412.025	268.31
412.249	265.31
412.472	270.31
412.695	260.31
412.919	254.31
413.142	261.31
413.365	259.31
413.589	257.31
413.812	241.31
414.035	264.31
414.258	256.31
414.482	268.31
414.705	263.31
414.928	268.31
415.151	265.31
415.374	264.31
415.597	256.31
415.821	251.31
416.044	243.31
416.267	255.31
416.49	262.31
416.713	250.31
416.936	263.31
417.159	257.31
417.382	253.31
417.605	264.31
417.828	272.31
418.051	265.31
418.274	272.31
418.497	272.31
418.72	271.31
418.943	271.31
419.166	275.31
419.389	300.31
419.611	282.31
419.834	275.31
420.057	248.31
420.28	257.31
420.503	261.31
420.726	262.31
420.948	278.31
421.171	268.31
421.394	258.31
421.617	287.31
421.839	292.31
422.062	292.31
422.285	277.31
422.507	263.31
422.73	263.31
422.953	260.31
423.175	265.31
423.398	268.31
423.621	281.31
423.843	282.31
424.066	285.31
424.288	295.31
424.511	291.31
424.733	293.31
424.956	296.31
425.178	283.31
425.401	285.31
425.623	256.31
425.846	268.31
426.068	261.31
426.291	254.31
426.513	254.31
426.735	253.31
426.958	264.31
427.18	258.31
427.402	255.31
427.625	252.31
427.847	259.31
428.069	254.31
428.292	254.31
428.514	255.31
428.736	247.31
428.958	253.31
429.181	250.31
429.403	254.31
429.625	235.31
429.847	243.31
430.069	266.31
430.292	255.31
430.514	241.31
430.736	248.31
430.958	250.31
431.18	248.31
431.402	244.31
431.624	240.31
431.846	230.31
432.068	226.31
432.29	198.31
432.512	228.31
432.734	224.31
432.956	249.31
433.178	270.31
433.4	266.31
433.622	257.31
433.844	248.31
434.066	239.31
434.287	226.31
434.509	239.31
434.731	244.31
434.953	255.31
435.175	256.31
435.397	263.31
435.618	263.31
435.84	245.31
436.062	228.31
436.284	234.31
436.505	249.31
436.727	237.31
436.949	236.31
437.17	255.31
437.392	233.31
437.614	227.31
437.835	222.31
438.057	230.31
438.278	218.31
438.5	246.31
438.721	250.31
438.943	246.31
439.165	242.31
439.386	263.31
439.608	260.31
439.829	271.31
440.05	291.31
440.272	276.31
440.493	241.31
440.715	268.31
440.936	278.31
441.158	272.31
441.379	289.31
441.6	288.31
441.822	281.31
442.043	277.31
442.264	281.31
442.486	258.31
442.707	280.31
442.928	294.31
443.149	288.31
443.371	284.31
443.592	283.31
443.813	268.31
444.034	275.31
444.255	262.31
444.476	296.31
444.698	310.31
444.919	312.31
445.14	542.31
445.361	405.31
445.582	297.31
445.803	280.31
446.024	271.31
446.245	264.31
446.466	273.31
446.687	282.31
446.908	281.31
447.129	268.31
447.35	265.31
447.571	269.31
447.792	260.31
448.013	250.31
448.234	248.31
448.455	251.31
448.675	245.31
448.896	254.31
449.117	236.31
449.338	229.31
449.559	262.31
449.779	216.31
450	234.31
450.221	235.31
450.442	241.31
450.662	230.31
450.883	247.31
451.104	249.31
451.324	247.31
451.545	231.31
451.766	223.31
451.986	241.31
452.207	235.31
452.428	230.31
452.648	244.31
452.869	230.31
453.089	237.31
453.31	231.31
453.53	205.31
453.751	203.31
453.971	221.31
454.192	217.31
454.412	220.31
454.633	214.31
454.853	230.31
455.073	208.31
455.294	227.31
455.514	236.31
455.734	214.31
455.955	214.31
456.175	204.31
456.395	207.31
456.616	205.31
456.836	215.31
457.056	221.31
457.276	209.31
457.497	209.31
457.717	207.31
457.937	208.31
458.157	199.31
458.377	199.31
458.598	207.31
458.818	203.31
459.038	191.31
459.258	201.31
459.478	230.31
459.698	226.31
459.918	225.31
460.138	230.31
460.358	252.31
460.578	253.31
460.798	262.31
461.018	272.31
461.238	255.31
461.458	261.31
461.678	260.31
461.898	267.31
462.118	282.31
462.338	276.31
462.558	262.31
462.777	297.31
462.997	286.31
463.217	306.31
463.437	302.31
463.657	284.31
463.876	289.31
464.096	301.31
464.316	285.31
464.536	279.31
464.755	276.31
464.975	292.31
465.195	262.31
465.414	256.31
465.634	244.31
465.854	245.31
466.073	245.31
466.293	244.31
466.512	256.31
466.732	260.31
466.951	238.31
467.171	236.31
467.391	238.31
467.61	248.31
467.829	251.31
468.049	245.31
468.268	234.31
468.488	248.31
468.707	237.31
468.927	254.31
469.146	250.31
469.365	245.31
469.585	253.31
469.804	252.31
470.023	268.31
470.243	256.31
470.462	255.31
470.681	269.31
470.901	250.31
471.12	240.31
471.339	251.31
471.558	247.31
471.777	246.31
471.997	250.31
472.216	230.31
472.435	225.31
472.654	225.31
472.873	238.31
473.092	230.31
473.311	239.31
473.53	234.31
473.749	223.31
473.968	235.31
474.187	225.31
474.406	229.31
474.625	240.31
474.844	235.31
475.063	231.31
475.282	221.31
475.501	214.31
475.72	230.31
475.939	249.31
476.158	241.31
476.377	227.31
476.596	225.31
476.814	219.31
477.033	226.31
477.252	234.31
477.471	240.31
477.69	270.31
477.908	262.31
478.127	270.31
478.346	266.31
478.564	247.31
478.783	266.31
479.002	259.31
479.22	259.31
479.439	278.31
479.658	243.31
479.876	265.31
480.095	240.31
480.313	268.31
480.532	263.31
480.751	258.31
480.969	233.31
481.188	225.31
481.406	224.31
481.624	205.31
481.843	205.31
482.061	233.31
482.28	234.31
482.498	223.31
482.717	233.31
482.935	253.31
483.153	255.31
483.372	268.31
483.59	280.31
483.808	260.31
484.027	243.31
484.245	266.31
484.463	269.31
484.681	252.31
484.9	268.31
485.118	259.31
485.336	254.31
485.554	253.31
485.772	247.31
485.99	250.31
486.209	254.31
486.427	243.31
486.645	238.31
486.863	268.31
487.081	263.31
487.299	260.31
487.517	265.31
487.735	287.31
487.953	303.31
488.171	308.31
488.389	281.31
488.607	286.31
488.825	254.31
489.043	245.31
489.261	279.31
489.479	278.31
489.696	258.31
489.914	264.31
490.132	253.31
490.35	288.31
490.568	280.31
490.786	299.31
491.003	301.31
491.221	303.31
491.439	337.31
491.657	314.31
491.874	335.31
492.092	346.31
492.31	366.31
492.527	340.31
492.745	318.31
492.963	325.31
493.18	342.31
493.398	319.31
493.615	326.31
493.833	337.31
494.05	316.31
494.268	315.31
494.485	314.31
494.703	324.31
494.92	300.31
495.138	308.31
495.355	309.31
495.573	301.31
495.79	296.31
496.008	298.31
496.225	304.31
496.442	309.31
496.66	319.31
496.877	298.31
497.094	330.31
497.312	300.31
497.529	294.31
497.746	291.31
497.963	317.31
498.181	307.31
498.398	311.31
498.615	333.31
498.832	348.31
499.049	338.31
499.267	396.31
499.484	412.31
499.701	448.31
499.918	499.31
500.135	541.31
500.352	606.31
500.569	609.31
500.786	620.31
501.003	569.31
501.22	507.31
501.437	482.31
501.654	407.31
501.871	379.31
502.088	363.31
502.305	353.31
502.522	330.31
502.739	338.31
502.956	302.31
503.172	293.31
503.389	289.31
503.606	270.31
503.823	284.31
504.04	281.31
504.256	293.31
504.473	289.31
