Data from SampA_HRD10591_00083.txt Node
Date: Mon Jan 19 11:27:15 EST 2026
User: Yrep
Spectrometer: HR+D1059
Trigger mode: 0
Integration Time (sec): 3.443000E-1
Scans to average: 1
Electric dark correction enabled: true
Nonlinearity correction enabled: false
Boxcar width: 0
XAxis mode: Wavelengths
Number of Pixels in Spectrum: 2048
>>>>>Begin Spectral Data<<<<<
223.165	-23.81
223.4	-23.81
223.635	-23.81
223.869	-29.81
224.104	-12.81
224.338	-11.81
224.573	-19.81
224.808	-1.81
225.042	7.19
225.277	-3.81
225.511	-22.81
225.746	1.19
225.98	7.19
226.215	11.19
226.449	31.19
226.683	17.19
226.918	14.19
227.152	37.19
227.387	38.19
227.621	35.19
227.856	38.19
228.09	40.19
228.324	36.19
228.559	46.19
228.793	70.19
229.027	71.19
229.262	68.19
229.496	66.19
229.73	75.19
229.964	72.19
230.199	86.19
230.433	82.19
230.667	89.19
230.901	74.19
231.136	80.19
231.37	85.19
231.604	83.19
231.838	73.19
232.072	76.19
232.306	94.19
232.541	89.19
232.775	80.19
233.009	80.19
233.243	80.19
233.477	77.19
233.711	84.19
233.945	68.19
234.179	93.19
234.413	78.19
234.647	93.19
234.881	85.19
235.115	75.19
235.349	85.19
235.583	78.19
235.817	85.19
236.051	81.19
236.285	71.19
236.519	92.19
236.753	75.19
236.987	72.19
237.221	68.19
237.455	77.19
237.689	85.19
237.922	85.19
238.156	67.19
238.39	75.19
238.624	85.19
238.858	76.19
239.091	80.19
239.325	71.19
239.559	85.19
239.793	85.19
240.027	95.19
240.26	90.19
240.494	80.19
240.728	68.19
240.961	86.19
241.195	86.19
241.429	88.19
241.662	90.19
241.896	86.19
242.13	84.19
242.363	69.19
242.597	71.19
242.83	82.19
243.064	83.19
243.298	88.19
243.531	86.19
243.765	88.19
243.998	86.19
244.232	102.19
244.465	84.19
244.699	84.19
244.932	85.19
245.166	73.19
245.399	76.19
245.633	78.19
245.866	74.19
246.099	73.19
246.333	94.19
246.566	75.19
246.8	93.19
247.033	92.19
247.266	83.19
247.5	94.19
247.733	93.19
247.966	68.19
248.2	77.19
248.433	93.19
248.666	92.19
248.899	84.19
249.133	96.19
249.366	95.19
249.599	93.19
249.832	88.19
250.066	90.19
250.299	61.19
250.532	82.19
250.765	78.19
250.998	85.19
251.231	78.19
251.465	86.19
251.698	81.19
251.931	91.19
252.164	93.19
252.397	81.19
252.63	103.19
252.863	99.19
253.096	89.19
253.329	90.19
253.562	95.19
253.795	82.19
254.028	93.19
254.261	96.19
254.494	98.19
254.727	98.19
254.96	84.19
255.193	81.19
255.426	94.19
255.659	94.19
255.892	104.19
256.124	89.19
256.357	97.19
256.59	101.19
256.823	87.19
257.056	82.19
257.289	88.19
257.521	90.19
257.754	109.19
257.987	93.19
258.22	106.19
258.452	104.19
258.685	94.19
258.918	94.19
259.151	95.19
259.383	92.19
259.616	93.19
259.849	85.19
260.081	102.19
260.314	97.19
260.547	86.19
260.779	89.19
261.012	101.19
261.244	97.19
261.477	99.19
261.71	84.19
261.942	91.19
262.175	91.19
262.407	96.19
262.64	91.19
262.872	101.19
263.105	99.19
263.337	118.19
263.57	99.19
263.802	104.19
264.035	90.19
264.267	105.19
264.499	88.19
264.732	114.19
264.964	96.19
265.197	95.19
265.429	98.19
265.661	103.19
265.894	89.19
266.126	99.19
266.358	93.19
266.591	107.19
266.823	98.19
267.055	105.19
267.287	87.19
267.52	97.19
267.752	103.19
267.984	101.19
268.216	93.19
268.448	104.19
268.681	105.19
268.913	115.19
269.145	94.19
269.377	96.19
269.609	84.19
269.841	113.19
270.073	112.19
270.306	103.19
270.538	108.19
270.77	91.19
271.002	103.19
271.234	89.19
271.466	94.19
271.698	105.19
271.93	106.19
272.162	90.19
272.394	102.19
272.626	111.19
272.858	93.19
273.09	100.19
273.322	88.19
273.553	99.19
273.785	106.19
274.017	108.19
274.249	110.19
274.481	103.19
274.713	109.19
274.945	104.19
275.176	100.19
275.408	100.19
275.64	115.19
275.872	90.19
276.104	101.19
276.335	113.19
276.567	105.19
276.799	100.19
277.031	112.19
277.262	106.19
277.494	124.19
277.726	105.19
277.957	97.19
278.189	109.19
278.421	109.19
278.652	105.19
278.884	114.19
279.115	107.19
279.347	97.19
279.579	110.19
279.81	106.19
280.042	97.19
280.273	99.19
280.505	102.19
280.736	103.19
280.968	97.19
281.199	115.19
281.431	110.19
281.662	110.19
281.894	111.19
282.125	112.19
282.356	105.19
282.588	116.19
282.819	97.19
283.051	111.19
283.282	105.19
283.513	117.19
283.745	103.19
283.976	109.19
284.207	118.19
284.439	110.19
284.67	121.19
284.901	109.19
285.132	104.19
285.364	115.19
285.595	128.19
285.826	102.19
286.057	119.19
286.288	106.19
286.52	136.19
286.751	112.19
286.982	111.19
287.213	112.19
287.444	112.19
287.675	108.19
287.906	129.19
288.138	113.19
288.369	119.19
288.6	125.19
288.831	112.19
289.062	132.19
289.293	125.19
289.524	117.19
289.755	116.19
289.986	122.19
290.217	126.19
290.448	94.19
290.679	110.19
290.91	120.19
291.141	124.19
291.371	123.19
291.602	117.19
291.833	135.19
292.064	118.19
292.295	114.19
292.526	113.19
292.757	101.19
292.987	122.19
293.218	106.19
293.449	117.19
293.68	120.19
293.91	117.19
294.141	136.19
294.372	112.19
294.603	131.19
294.833	113.19
295.064	109.19
295.295	118.19
295.525	108.19
295.756	129.19
295.987	112.19
296.217	115.19
296.448	132.19
296.679	103.19
296.909	121.19
297.14	123.19
297.37	126.19
297.601	116.19
297.831	132.19
298.062	124.19
298.292	121.19
298.523	135.19
298.753	140.19
298.984	120.19
299.214	130.19
299.445	111.19
299.675	114.19
299.905	122.19
300.136	125.19
300.366	110.19
300.597	125.19
300.827	125.19
301.057	113.19
301.288	117.19
301.518	128.19
301.748	116.19
301.979	168.19
302.209	113.19
302.439	124.19
302.669	124.19
302.9	118.19
303.13	116.19
303.36	125.19
303.59	133.19
303.82	119.19
304.051	119.19
304.281	128.19
304.511	129.19
304.741	119.19
304.971	112.19
305.201	94.19
305.431	124.19
305.661	120.19
305.891	123.19
306.121	108.19
306.352	128.19
306.582	121.19
306.812	112.19
307.042	120.19
307.272	116.19
307.502	116.19
307.731	134.19
307.961	132.19
308.191	112.19
308.421	128.19
308.651	132.19
308.881	109.19
309.111	130.19
309.341	113.19
309.571	115.19
309.8	123.19
310.03	123.19
310.26	131.19
310.49	124.19
310.72	117.19
310.949	124.19
311.179	108.19
311.409	103.19
311.639	135.19
311.868	123.19
312.098	125.19
312.328	127.19
312.557	130.19
312.787	135.19
313.017	134.19
313.246	141.19
313.476	125.19
313.706	135.19
313.935	136.19
314.165	114.19
314.394	123.19
314.624	116.19
314.853	144.19
315.083	126.19
315.312	138.19
315.542	125.19
315.771	130.19
316.001	143.19
316.23	130.19
316.46	115.19
316.689	141.19
316.919	142.19
317.148	130.19
317.377	130.19
317.607	122.19
317.836	134.19
318.065	124.19
318.295	129.19
318.524	124.19
318.753	125.19
318.983	117.19
319.212	120.19
319.441	115.19
319.67	136.19
319.9	123.19
320.129	131.19
320.358	133.19
320.587	115.19
320.816	124.19
321.046	117.19
321.275	130.19
321.504	120.19
321.733	127.19
321.962	121.19
322.191	125.19
322.42	123.19
322.649	133.19
322.878	152.19
323.108	116.19
323.337	112.19
323.566	130.19
323.795	124.19
324.024	139.19
324.253	134.19
324.482	136.19
324.71	122.19
324.939	123.19
325.168	125.19
325.397	129.19
325.626	132.19
325.855	129.19
326.084	125.19
326.313	137.19
326.542	133.19
326.77	135.19
326.999	137.19
327.228	139.19
327.457	129.19
327.686	144.19
327.914	134.19
328.143	131.19
328.372	132.19
328.6	144.19
328.829	141.19
329.058	139.19
329.287	131.19
329.515	116.19
329.744	138.19
329.972	139.19
330.201	137.19
330.43	147.19
330.658	138.19
330.887	125.19
331.115	139.19
331.344	134.19
331.572	145.19
331.801	132.19
332.03	144.19
332.258	136.19
332.486	143.19
332.715	148.19
332.943	162.19
333.172	170.19
333.4	149.19
333.629	182.19
333.857	148.19
334.085	163.19
334.314	162.19
334.542	156.19
334.771	158.19
334.999	166.19
335.227	158.19
335.455	145.19
335.684	146.19
335.912	153.19
336.14	154.19
336.369	143.19
336.597	148.19
336.825	154.19
337.053	145.19
337.281	129.19
337.51	139.19
337.738	162.19
337.966	146.19
338.194	140.19
338.422	159.19
338.65	144.19
338.878	144.19
339.106	143.19
339.334	137.19
339.562	142.19
339.79	136.19
340.018	122.19
340.246	128.19
340.474	140.19
340.702	138.19
340.93	122.19
341.158	146.19
341.386	138.19
341.614	130.19
341.842	139.19
342.07	141.19
342.298	137.19
342.526	153.19
342.754	154.19
342.981	148.19
343.209	134.19
343.437	174.19
343.665	140.19
343.893	150.19
344.12	152.19
344.348	138.19
344.576	147.19
344.804	154.19
345.031	132.19
345.259	149.19
345.487	136.19
345.714	122.19
345.942	121.19
346.17	145.19
346.397	146.19
346.625	131.19
346.853	133.19
347.08	125.19
347.308	128.19
347.535	133.19
347.763	120.19
347.99	140.19
348.218	132.19
348.445	132.19
348.673	122.19
348.9	116.19
349.128	133.19
349.355	146.19
349.583	137.19
349.81	133.19
350.037	149.19
350.265	120.19
350.492	132.19
350.72	130.19
350.947	125.19
351.174	136.19
351.402	117.19
351.629	125.19
351.856	121.19
352.083	120.19
352.311	136.19
352.538	125.19
352.765	140.19
352.992	162.19
353.22	133.19
353.447	136.19
353.674	134.19
353.901	140.19
354.128	141.19
354.355	141.19
354.583	130.19
354.81	131.19
355.037	143.19
355.264	116.19
355.491	148.19
355.718	118.19
355.945	128.19
356.172	131.19
356.399	139.19
356.626	128.19
356.853	139.19
357.08	128.19
357.307	129.19
357.534	130.19
357.761	141.19
357.988	152.19
358.215	146.19
358.441	137.19
358.668	140.19
358.895	146.19
359.122	138.19
359.349	133.19
359.576	129.19
359.802	119.19
360.029	142.19
360.256	147.19
360.483	142.19
360.709	132.19
360.936	145.19
361.163	142.19
361.39	131.19
361.616	133.19
361.843	132.19
362.07	129.19
362.296	118.19
362.523	121.19
362.749	130.19
362.976	127.19
363.203	137.19
363.429	132.19
363.656	142.19
363.882	121.19
364.109	147.19
364.335	131.19
364.562	133.19
364.788	132.19
365.015	120.19
365.241	123.19
365.468	152.19
365.694	112.19
365.92	132.19
366.147	126.19
366.373	130.19
366.599	130.19
366.826	148.19
367.052	131.19
367.278	144.19
367.505	128.19
367.731	147.19
367.957	158.19
368.184	123.19
368.41	151.19
368.636	142.19
368.862	138.19
369.089	116.19
369.315	114.19
369.541	122.19
369.767	126.19
369.993	131.19
370.219	114.19
370.445	124.19
370.672	131.19
370.898	134.19
371.124	136.19
371.35	138.19
371.576	152.19
371.802	133.19
372.028	138.19
372.254	148.19
372.48	162.19
372.706	146.19
372.932	155.19
373.158	129.19
373.384	148.19
373.61	149.19
373.835	163.19
374.061	137.19
374.287	153.19
374.513	125.19
374.739	148.19
374.965	146.19
375.191	149.19
375.416	152.19
375.642	130.19
375.868	150.19
376.094	147.19
376.319	146.19
376.545	141.19
376.771	155.19
376.997	142.19
377.222	132.19
377.448	148.19
377.674	148.19
377.899	129.19
378.125	155.19
378.35	130.19
378.576	133.19
378.802	132.19
379.027	123.19
379.253	150.19
379.478	139.19
379.704	129.19
379.929	150.19
380.155	131.19
380.38	132.19
380.606	149.19
380.831	141.19
381.057	161.19
381.282	142.19
381.507	131.19
381.733	132.19
381.958	142.19
382.184	148.19
382.409	156.19
382.634	154.19
382.86	151.19
383.085	154.19
383.31	149.19
383.535	126.19
383.761	157.19
383.986	141.19
384.211	155.19
384.436	158.19
384.662	158.19
384.887	164.19
385.112	168.19
385.337	162.19
385.562	149.19
385.787	162.19
386.013	157.19
386.238	164.19
386.463	159.19
386.688	211.19
386.913	153.19
387.138	158.19
387.363	162.19
387.588	187.19
387.813	171.19
388.038	170.19
388.263	164.19
388.488	174.19
388.713	173.19
388.938	165.19
389.163	167.19
389.387	153.19
389.612	163.19
389.837	141.19
390.062	164.19
390.287	162.19
390.512	149.19
390.736	157.19
390.961	158.19
391.186	161.19
391.411	161.19
391.636	158.19
391.86	184.19
392.085	167.19
392.31	174.19
392.534	169.19
392.759	182.19
392.984	171.19
393.208	168.19
393.433	181.19
393.658	166.19
393.882	166.19
394.107	173.19
394.331	178.19
394.556	181.19
394.78	181.19
395.005	182.19
395.229	177.19
395.454	184.19
395.678	187.19
395.903	187.19
396.127	168.19
396.352	174.19
396.576	174.19
396.801	188.19
397.025	176.19
397.249	185.19
397.474	190.19
397.698	173.19
397.922	179.19
398.147	185.19
398.371	202.19
398.595	212.19
398.82	198.19
399.044	221.19
399.268	242.19
399.492	258.19
399.717	267.19
399.941	258.19
400.165	238.19
400.389	219.19
400.613	212.19
400.837	213.19
401.062	205.19
401.286	221.19
401.51	222.19
401.734	208.19
401.958	205.19
402.182	212.19
402.406	219.19
402.63	229.19
402.854	220.19
403.078	221.19
403.302	223.19
403.526	253.19
403.75	229.19
403.974	247.19
404.198	239.19
404.422	228.19
404.645	236.19
404.869	250.19
405.093	231.19
405.317	234.19
405.541	232.19
405.765	235.19
405.988	235.19
406.212	232.19
406.436	234.19
406.66	248.19
406.883	243.19
407.107	237.19
407.331	262.19
407.555	264.19
407.778	253.19
408.002	254.19
408.226	262.19
408.449	242.19
408.673	228.19
408.896	253.19
409.12	258.19
409.344	259.19
409.567	248.19
409.791	233.19
410.014	241.19
410.238	233.19
410.461	245.19
410.685	253.19
410.908	236.19
411.132	252.19
411.355	224.19
411.578	247.19
411.802	233.19
412.025	221.19
412.249	241.19
412.472	242.19
412.695	233.19
412.919	224.19
413.142	216.19
413.365	232.19
413.589	243.19
413.812	236.19
414.035	232.19
414.258	217.19
414.482	224.19
414.705	229.19
414.928	242.19
415.151	229.19
415.374	239.19
415.597	225.19
415.821	247.19
416.044	250.19
416.267	220.19
416.49	230.19
416.713	233.19
416.936	243.19
417.159	240.19
417.382	250.19
417.605	243.19
417.828	221.19
418.051	247.19
418.274	227.19
418.497	228.19
418.72	241.19
418.943	252.19
419.166	235.19
419.389	275.19
419.611	242.19
419.834	246.19
420.057	233.19
420.28	227.19
420.503	221.19
420.726	226.19
420.948	221.19
421.171	261.19
421.394	238.19
421.617	246.19
421.839	234.19
422.062	244.19
422.285	237.19
422.507	249.19
422.73	235.19
422.953	236.19
423.175	237.19
423.398	262.19
423.621	258.19
423.843	248.19
424.066	258.19
424.288	249.19
424.511	258.19
424.733	252.19
424.956	245.19
425.178	219.19
425.401	244.19
425.623	249.19
425.846	221.19
426.068	236.19
426.291	219.19
426.513	235.19
426.735	227.19
426.958	227.19
427.18	216.19
427.402	237.19
427.625	217.19
427.847	222.19
428.069	211.19
428.292	215.19
428.514	225.19
428.736	223.19
428.958	227.19
429.181	224.19
429.403	214.19
429.625	216.19
429.847	218.19
430.069	209.19
430.292	229.19
430.514	234.19
430.736	214.19
430.958	202.19
431.18	225.19
431.402	206.19
431.624	219.19
431.846	204.19
432.068	206.19
432.29	224.19
432.512	228.19
432.734	225.19
432.956	243.19
433.178	245.19
433.4	225.19
433.622	237.19
433.844	218.19
434.066	213.19
434.287	205.19
434.509	199.19
434.731	240.19
434.953	231.19
435.175	234.19
435.397	236.19
435.618	224.19
435.84	219.19
436.062	225.19
436.284	214.19
436.505	213.19
436.727	217.19
436.949	206.19
437.17	204.19
437.392	204.19
437.614	196.19
437.835	202.19
438.057	203.19
438.278	198.19
438.5	210.19
438.721	225.19
438.943	215.19
439.165	221.19
439.386	217.19
439.608	225.19
439.829	219.19
440.05	233.19
440.272	231.19
440.493	227.19
440.715	229.19
440.936	209.19
441.158	247.19
441.379	223.19
441.6	243.19
441.822	248.19
442.043	262.19
442.264	234.19
442.486	219.19
442.707	233.19
442.928	246.19
443.149	249.19
443.371	241.19
443.592	239.19
443.813	249.19
444.034	257.19
444.255	262.19
444.476	256.19
444.698	258.19
444.919	270.19
445.14	453.19
445.361	337.19
445.582	253.19
445.803	239.19
446.024	237.19
446.245	241.19
446.466	235.19
446.687	233.19
446.908	230.19
447.129	230.19
447.35	231.19
447.571	220.19
447.792	230.19
448.013	212.19
448.234	223.19
448.455	231.19
448.675	226.19
448.896	201.19
449.117	209.19
449.338	219.19
449.559	214.19
449.779	203.19
450	209.19
450.221	216.19
450.442	209.19
450.662	237.19
450.883	217.19
451.104	231.19
451.324	218.19
451.545	213.19
451.766	205.19
451.986	216.19
452.207	200.19
452.428	228.19
452.648	214.19
452.869	193.19
453.089	200.19
453.31	187.19
453.53	167.19
453.751	184.19
453.971	189.19
454.192	170.19
454.412	182.19
454.633	199.19
454.853	200.19
455.073	208.19
455.294	198.19
455.514	201.19
455.734	194.19
455.955	196.19
456.175	196.19
456.395	183.19
456.616	189.19
456.836	183.19
457.056	203.19
457.276	188.19
457.497	184.19
457.717	178.19
457.937	189.19
458.157	189.19
458.377	183.19
458.598	194.19
458.818	172.19
459.038	200.19
459.258	185.19
459.478	192.19
459.698	208.19
459.918	220.19
460.138	222.19
460.358	231.19
460.578	239.19
460.798	230.19
461.018	236.19
461.238	235.19
461.458	248.19
461.678	224.19
461.898	217.19
462.118	241.19
462.338	246.19
462.558	244.19
462.777	251.19
462.997	276.19
463.217	282.19
463.437	283.19
463.657	248.19
463.876	244.19
464.096	269.19
464.316	278.19
464.536	264.19
464.755	248.19
464.975	238.19
465.195	238.19
465.414	219.19
465.634	231.19
465.854	229.19
466.073	218.19
466.293	222.19
466.512	213.19
466.732	200.19
466.951	219.19
467.171	194.19
467.391	222.19
467.61	214.19
467.829	213.19
468.049	209.19
468.268	213.19
468.488	220.19
468.707	215.19
468.927	206.19
469.146	218.19
469.365	228.19
469.585	223.19
469.804	221.19
470.023	206.19
470.243	228.19
470.462	230.19
470.681	228.19
470.901	226.19
471.12	204.19
471.339	211.19
471.558	216.19
471.777	216.19
471.997	216.19
472.216	203.19
472.435	199.19
472.654	189.19
472.873	200.19
473.092	193.19
473.311	208.19
473.53	211.19
473.749	211.19
473.968	222.19
474.187	214.19
474.406	187.19
474.625	216.19
474.844	202.19
475.063	216.19
475.282	198.19
475.501	211.19
475.72	208.19
475.939	222.19
476.158	207.19
476.377	189.19
476.596	186.19
476.814	204.19
477.033	192.19
477.252	197.19
477.471	206.19
477.69	226.19
477.908	251.19
478.127	232.19
478.346	237.19
478.564	228.19
478.783	241.19
479.002	250.19
479.22	244.19
479.439	248.19
479.658	230.19
479.876	224.19
480.095	239.19
480.313	250.19
480.532	230.19
480.751	229.19
480.969	217.19
481.188	208.19
481.406	214.19
481.624	200.19
481.843	203.19
482.061	212.19
482.28	210.19
482.498	211.19
482.717	217.19
482.935	228.19
483.153	230.19
483.372	244.19
483.59	243.19
483.808	227.19
484.027	231.19
484.245	227.19
484.463	236.19
484.681	230.19
484.9	219.19
485.118	221.19
485.336	238.19
485.554	224.19
485.772	225.19
485.99	218.19
486.209	219.19
486.427	225.19
486.645	217.19
486.863	233.19
487.081	242.19
487.299	218.19
487.517	234.19
487.735	253.19
487.953	267.19
488.171	258.19
488.389	248.19
488.607	232.19
488.825	238.19
489.043	230.19
489.261	235.19
489.479	241.19
489.696	242.19
489.914	220.19
490.132	233.19
490.35	256.19
490.568	251.19
490.786	259.19
491.003	266.19
491.221	272.19
491.439	264.19
491.657	262.19
491.874	286.19
492.092	269.19
492.31	296.19
492.527	293.19
492.745	266.19
492.963	279.19
493.18	293.19
493.398	286.19
493.615	268.19
493.833	264.19
494.05	264.19
494.268	254.19
494.485	266.19
494.703	262.19
494.92	253.19
495.138	251.19
495.355	268.19
495.573	275.19
495.79	259.19
496.008	266.19
496.225	256.19
496.442	264.19
496.66	284.19
496.877	273.19
497.094	268.19
497.312	252.19
497.529	264.19
497.746	264.19
497.963	257.19
498.181	256.19
498.398	270.19
498.615	286.19
498.832	292.19
499.049	316.19
499.267	340.19
499.484	360.19
499.701	414.19
499.918	452.19
500.135	502.19
500.352	526.19
500.569	558.19
500.786	547.19
501.003	506.19
501.22	420.19
501.437	402.19
501.654	363.19
501.871	358.19
502.088	327.19
502.305	315.19
502.522	304.19
502.739	304.19
502.956	277.19
503.172	287.19
503.389	265.19
503.606	241.19
503.823	266.19
504.04	264.19
504.256	268.19
504.473	271.19
504.69	259.19
504.907	267.19
505.123	250.19
