Data from SampA_HRD10591_00042.txt Node
Date: Mon Jan 19 11:27:01 EST 2026
User: Yrep
Spectrometer: HR+D1059
Trigger mode: 0
Integration Time (sec): 3.443000E-1
Scans to average: 1
Electric dark correction enabled: true
Nonlinearity correction enabled: false
Boxcar width: 0
XAxis mode: Wavelengths
Number of Pixels in Spectrum: 2048
>>>>>Begin Spectral Data<<<<<
223.165	-24.5
223.4	-24.5
223.635	-24.5
223.869	-22.5
224.104	-22.5
224.338	-3.5
224.573	-26.5
224.808	4.5
225.042	0.5
225.277	-3.5
225.511	-11.5
225.746	1.5
225.98	12.5
226.215	6.5
226.449	15.5
226.683	13.5
226.918	30.5
227.152	29.5
227.387	39.5
227.621	23.5
227.856	26.5
228.09	38.5
228.324	57.5
228.559	53.5
228.793	58.5
229.027	54.5
229.262	70.5
229.496	63.5
229.73	77.5
229.964	83.5
230.199	84.5
230.433	81.5
230.667	76.5
230.901	85.5
231.136	68.5
231.37	87.5
231.604	73.5
231.838	64.5
232.072	61.5
232.306	75.5
232.541	89.5
232.775	78.5
233.009	81.5
233.243	87.5
233.477	92.5
233.711	92.5
233.945	84.5
234.179	95.5
234.413	87.5
234.647	89.5
234.881	76.5
235.115	76.5
235.349	101.5
235.583	95.5
235.817	84.5
236.051	79.5
236.285	96.5
236.519	70.5
236.753	81.5
236.987	81.5
237.221	85.5
237.455	95.5
237.689	91.5
237.922	88.5
238.156	84.5
238.39	95.5
238.624	90.5
238.858	90.5
239.091	86.5
239.325	73.5
239.559	97.5
239.793	93.5
240.027	96.5
240.26	69.5
240.494	78.5
240.728	75.5
240.961	84.5
241.195	96.5
241.429	80.5
241.662	84.5
241.896	89.5
242.13	78.5
242.363	76.5
242.597	91.5
242.83	86.5
243.064	88.5
243.298	90.5
243.531	82.5
243.765	84.5
243.998	91.5
244.232	100.5
244.465	86.5
244.699	77.5
244.932	100.5
245.166	84.5
245.399	83.5
245.633	93.5
245.866	89.5
246.099	93.5
246.333	90.5
246.566	84.5
246.8	97.5
247.033	97.5
247.266	86.5
247.5	81.5
247.733	85.5
247.966	91.5
248.2	89.5
248.433	81.5
248.666	82.5
248.899	88.5
249.133	86.5
249.366	105.5
249.599	80.5
249.832	93.5
250.066	101.5
250.299	112.5
250.532	111.5
250.765	86.5
250.998	93.5
251.231	79.5
251.465	89.5
251.698	86.5
251.931	93.5
252.164	89.5
252.397	115.5
252.63	93.5
252.863	89.5
253.096	90.5
253.329	100.5
253.562	94.5
253.795	93.5
254.028	93.5
254.261	101.5
254.494	96.5
254.727	106.5
254.96	91.5
255.193	97.5
255.426	91.5
255.659	85.5
255.892	105.5
256.124	112.5
256.357	91.5
256.59	96.5
256.823	106.5
257.056	74.5
257.289	101.5
257.521	79.5
257.754	83.5
257.987	96.5
258.22	94.5
258.452	93.5
258.685	102.5
258.918	95.5
259.151	94.5
259.383	101.5
259.616	99.5
259.849	96.5
260.081	91.5
260.314	83.5
260.547	87.5
260.779	99.5
261.012	92.5
261.244	91.5
261.477	115.5
261.71	91.5
261.942	91.5
262.175	97.5
262.407	95.5
262.64	96.5
262.872	118.5
263.105	103.5
263.337	114.5
263.57	115.5
263.802	107.5
264.035	93.5
264.267	112.5
264.499	117.5
264.732	103.5
264.964	105.5
265.197	107.5
265.429	116.5
265.661	95.5
265.894	106.5
266.126	102.5
266.358	103.5
266.591	112.5
266.823	93.5
267.055	99.5
267.287	101.5
267.52	96.5
267.752	115.5
267.984	96.5
268.216	91.5
268.448	121.5
268.681	109.5
268.913	105.5
269.145	99.5
269.377	114.5
269.609	101.5
269.841	115.5
270.073	111.5
270.306	88.5
270.538	111.5
270.77	111.5
271.002	119.5
271.234	110.5
271.466	115.5
271.698	97.5
271.93	86.5
272.162	124.5
272.394	110.5
272.626	118.5
272.858	102.5
273.09	113.5
273.322	107.5
273.553	103.5
273.785	121.5
274.017	96.5
274.249	110.5
274.481	99.5
274.713	107.5
274.945	123.5
275.176	110.5
275.408	124.5
275.64	111.5
275.872	118.5
276.104	97.5
276.335	102.5
276.567	117.5
276.799	117.5
277.031	100.5
277.262	101.5
277.494	109.5
277.726	117.5
277.957	111.5
278.189	103.5
278.421	119.5
278.652	120.5
278.884	114.5
279.115	112.5
279.347	115.5
279.579	98.5
279.81	103.5
280.042	102.5
280.273	110.5
280.505	120.5
280.736	104.5
280.968	103.5
281.199	98.5
281.431	120.5
281.662	117.5
281.894	125.5
282.125	110.5
282.356	113.5
282.588	118.5
282.819	115.5
283.051	107.5
283.282	114.5
283.513	135.5
283.745	110.5
283.976	118.5
284.207	126.5
284.439	121.5
284.67	102.5
284.901	133.5
285.132	107.5
285.364	116.5
285.595	127.5
285.826	110.5
286.057	120.5
286.288	121.5
286.52	121.5
286.751	119.5
286.982	115.5
287.213	116.5
287.444	129.5
287.675	128.5
287.906	134.5
288.138	127.5
288.369	114.5
288.6	111.5
288.831	114.5
289.062	121.5
289.293	131.5
289.524	97.5
289.755	112.5
289.986	118.5
290.217	100.5
290.448	102.5
290.679	123.5
290.91	123.5
291.141	113.5
291.371	120.5
291.602	121.5
291.833	116.5
292.064	122.5
292.295	120.5
292.526	122.5
292.757	127.5
292.987	111.5
293.218	115.5
293.449	141.5
293.68	122.5
293.91	121.5
294.141	135.5
294.372	120.5
294.603	126.5
294.833	132.5
295.064	112.5
295.295	145.5
295.525	105.5
295.756	136.5
295.987	119.5
296.217	133.5
296.448	119.5
296.679	121.5
296.909	125.5
297.14	114.5
297.37	132.5
297.601	121.5
297.831	125.5
298.062	120.5
298.292	129.5
298.523	112.5
298.753	121.5
298.984	126.5
299.214	111.5
299.445	123.5
299.675	132.5
299.905	123.5
300.136	126.5
300.366	136.5
300.597	148.5
300.827	131.5
301.057	125.5
301.288	125.5
301.518	132.5
301.748	115.5
301.979	147.5
302.209	131.5
302.439	124.5
302.669	132.5
302.9	121.5
303.13	126.5
303.36	121.5
303.59	139.5
303.82	131.5
304.051	109.5
304.281	121.5
304.511	120.5
304.741	126.5
304.971	132.5
305.201	135.5
305.431	134.5
305.661	137.5
305.891	131.5
306.121	133.5
306.352	126.5
306.582	136.5
306.812	142.5
307.042	129.5
307.272	119.5
307.502	121.5
307.731	119.5
307.961	111.5
308.191	137.5
308.421	129.5
308.651	132.5
308.881	132.5
309.111	114.5
309.341	128.5
309.571	142.5
309.8	118.5
310.03	132.5
310.26	118.5
310.49	123.5
310.72	133.5
310.949	137.5
311.179	119.5
311.409	115.5
311.639	140.5
311.868	133.5
312.098	140.5
312.328	127.5
312.557	121.5
312.787	125.5
313.017	135.5
313.246	128.5
313.476	131.5
313.706	150.5
313.935	144.5
314.165	116.5
314.394	134.5
314.624	132.5
314.853	137.5
315.083	119.5
315.312	119.5
315.542	128.5
315.771	159.5
316.001	143.5
316.23	115.5
316.46	140.5
316.689	133.5
316.919	144.5
317.148	155.5
317.377	131.5
317.607	132.5
317.836	125.5
318.065	125.5
318.295	134.5
318.524	137.5
318.753	136.5
318.983	135.5
319.212	124.5
319.441	134.5
319.67	127.5
319.9	134.5
320.129	134.5
320.358	133.5
320.587	134.5
320.816	145.5
321.046	132.5
321.275	138.5
321.504	131.5
321.733	127.5
321.962	132.5
322.191	131.5
322.42	128.5
322.649	121.5
322.878	149.5
323.108	136.5
323.337	113.5
323.566	130.5
323.795	128.5
324.024	142.5
324.253	139.5
324.482	124.5
324.71	126.5
324.939	144.5
325.168	133.5
325.397	131.5
325.626	139.5
325.855	121.5
326.084	140.5
326.313	137.5
326.542	149.5
326.77	125.5
326.999	120.5
327.228	127.5
327.457	131.5
327.686	118.5
327.914	135.5
328.143	136.5
328.372	131.5
328.6	116.5
328.829	127.5
329.058	124.5
329.287	144.5
329.515	131.5
329.744	138.5
329.972	124.5
330.201	135.5
330.43	143.5
330.658	125.5
330.887	145.5
331.115	144.5
331.344	139.5
331.572	140.5
331.801	145.5
332.03	149.5
332.258	145.5
332.486	170.5
332.715	152.5
332.943	153.5
333.172	138.5
333.4	151.5
333.629	176.5
333.857	159.5
334.085	157.5
334.314	147.5
334.542	153.5
334.771	159.5
334.999	142.5
335.227	167.5
335.455	164.5
335.684	167.5
335.912	161.5
336.14	149.5
336.369	151.5
336.597	135.5
336.825	148.5
337.053	155.5
337.281	155.5
337.51	155.5
337.738	143.5
337.966	142.5
338.194	137.5
338.422	136.5
338.65	126.5
338.878	147.5
339.106	145.5
339.334	153.5
339.562	150.5
339.79	136.5
340.018	137.5
340.246	137.5
340.474	125.5
340.702	139.5
340.93	134.5
341.158	150.5
341.386	131.5
341.614	136.5
341.842	140.5
342.07	127.5
342.298	133.5
342.526	147.5
342.754	155.5
342.981	155.5
343.209	132.5
343.437	185.5
343.665	154.5
343.893	168.5
344.12	146.5
344.348	153.5
344.576	148.5
344.804	147.5
345.031	151.5
345.259	123.5
345.487	142.5
345.714	131.5
345.942	132.5
346.17	145.5
346.397	129.5
346.625	141.5
346.853	143.5
347.08	123.5
347.308	143.5
347.535	147.5
347.763	135.5
347.99	138.5
348.218	140.5
348.445	135.5
348.673	120.5
348.9	131.5
349.128	152.5
349.355	128.5
349.583	137.5
349.81	139.5
350.037	140.5
350.265	137.5
350.492	144.5
350.72	132.5
350.947	134.5
351.174	138.5
351.402	136.5
351.629	136.5
351.856	144.5
352.083	146.5
352.311	142.5
352.538	122.5
352.765	157.5
352.992	145.5
353.22	139.5
353.447	139.5
353.674	145.5
353.901	148.5
354.128	140.5
354.355	116.5
354.583	128.5
354.81	150.5
355.037	141.5
355.264	136.5
355.491	144.5
355.718	147.5
355.945	126.5
356.172	128.5
356.399	125.5
356.626	140.5
356.853	139.5
357.08	142.5
357.307	124.5
357.534	132.5
357.761	136.5
357.988	160.5
358.215	149.5
358.441	144.5
358.668	126.5
358.895	133.5
359.122	147.5
359.349	142.5
359.576	147.5
359.802	125.5
360.029	140.5
360.256	140.5
360.483	142.5
360.709	136.5
360.936	145.5
361.163	126.5
361.39	132.5
361.616	146.5
361.843	133.5
362.07	132.5
362.296	137.5
362.523	127.5
362.749	143.5
362.976	139.5
363.203	122.5
363.429	135.5
363.656	153.5
363.882	142.5
364.109	134.5
364.335	134.5
364.562	139.5
364.788	140.5
365.015	135.5
365.241	125.5
365.468	132.5
365.694	135.5
365.92	134.5
366.147	142.5
366.373	131.5
366.599	144.5
366.826	145.5
367.052	146.5
367.278	147.5
367.505	136.5
367.731	157.5
367.957	142.5
368.184	133.5
368.41	132.5
368.636	129.5
368.862	133.5
369.089	145.5
369.315	141.5
369.541	151.5
369.767	153.5
369.993	129.5
370.219	144.5
370.445	147.5
370.672	151.5
370.898	145.5
371.124	137.5
371.35	149.5
371.576	152.5
371.802	144.5
372.028	141.5
372.254	153.5
372.48	160.5
372.706	151.5
372.932	149.5
373.158	141.5
373.384	150.5
373.61	136.5
373.835	147.5
374.061	141.5
374.287	151.5
374.513	153.5
374.739	149.5
374.965	159.5
375.191	153.5
375.416	152.5
375.642	162.5
375.868	150.5
376.094	161.5
376.319	149.5
376.545	146.5
376.771	153.5
376.997	150.5
377.222	153.5
377.448	149.5
377.674	145.5
377.899	138.5
378.125	150.5
378.35	157.5
378.576	139.5
378.802	150.5
379.027	142.5
379.253	158.5
379.478	153.5
379.704	160.5
379.929	137.5
380.155	140.5
380.38	138.5
380.606	149.5
380.831	166.5
381.057	157.5
381.282	158.5
381.507	149.5
381.733	150.5
381.958	144.5
382.184	149.5
382.409	136.5
382.634	144.5
382.86	151.5
383.085	165.5
383.31	153.5
383.535	175.5
383.761	166.5
383.986	171.5
384.211	162.5
384.436	166.5
384.662	152.5
384.887	166.5
385.112	170.5
385.337	164.5
385.562	151.5
385.787	160.5
386.013	151.5
386.238	169.5
386.463	156.5
386.688	202.5
386.913	174.5
387.138	154.5
387.363	156.5
387.588	170.5
387.813	169.5
388.038	180.5
388.263	183.5
388.488	164.5
388.713	176.5
388.938	159.5
389.163	167.5
389.387	162.5
389.612	171.5
389.837	174.5
390.062	164.5
390.287	173.5
390.512	156.5
390.736	165.5
390.961	161.5
391.186	187.5
391.411	189.5
391.636	186.5
391.86	186.5
392.085	192.5
392.31	183.5
392.534	194.5
392.759	190.5
392.984	175.5
393.208	198.5
393.433	188.5
393.658	188.5
393.882	181.5
394.107	183.5
394.331	208.5
394.556	175.5
394.78	190.5
395.005	191.5
395.229	198.5
395.454	207.5
395.678	177.5
395.903	207.5
396.127	190.5
396.352	178.5
396.576	185.5
396.801	187.5
397.025	186.5
397.249	201.5
397.474	215.5
397.698	191.5
397.922	205.5
398.147	207.5
398.371	209.5
398.595	204.5
398.82	213.5
399.044	227.5
399.268	247.5
399.492	287.5
399.717	280.5
399.941	274.5
400.165	268.5
400.389	236.5
400.613	230.5
400.837	224.5
401.062	211.5
401.286	219.5
401.51	225.5
401.734	224.5
401.958	240.5
402.182	232.5
402.406	224.5
402.63	243.5
402.854	240.5
403.078	247.5
403.302	261.5
403.526	259.5
403.75	265.5
403.974	258.5
404.198	275.5
404.422	265.5
404.645	255.5
404.869	271.5
405.093	264.5
405.317	269.5
405.541	268.5
405.765	249.5
405.988	264.5
406.212	271.5
406.436	253.5
406.66	285.5
406.883	273.5
407.107	270.5
407.331	294.5
407.555	298.5
407.778	291.5
408.002	289.5
408.226	283.5
408.449	280.5
408.673	281.5
408.896	269.5
409.12	271.5
409.344	264.5
409.567	268.5
409.791	274.5
410.014	276.5
410.238	271.5
410.461	273.5
410.685	287.5
410.908	266.5
411.132	281.5
411.355	257.5
411.578	267.5
411.802	278.5
412.025	269.5
412.249	271.5
412.472	273.5
412.695	260.5
412.919	251.5
413.142	257.5
413.365	255.5
413.589	259.5
413.812	252.5
414.035	281.5
414.258	268.5
414.482	258.5
414.705	277.5
414.928	269.5
415.151	255.5
415.374	271.5
415.597	266.5
415.821	263.5
416.044	252.5
416.267	270.5
416.49	255.5
416.713	275.5
416.936	268.5
417.159	277.5
417.382	270.5
417.605	284.5
417.828	253.5
418.051	252.5
418.274	287.5
418.497	263.5
418.72	269.5
418.943	287.5
419.166	285.5
419.389	289.5
419.611	290.5
419.834	281.5
420.057	271.5
420.28	267.5
420.503	284.5
420.726	287.5
420.948	255.5
421.171	279.5
421.394	263.5
421.617	276.5
421.839	279.5
422.062	264.5
422.285	286.5
422.507	275.5
422.73	258.5
422.953	284.5
423.175	294.5
423.398	273.5
423.621	280.5
423.843	313.5
424.066	269.5
424.288	281.5
424.511	296.5
424.733	266.5
424.956	275.5
425.178	279.5
425.401	280.5
425.623	260.5
425.846	265.5
426.068	272.5
426.291	273.5
426.513	263.5
426.735	252.5
426.958	255.5
427.18	247.5
427.402	268.5
427.625	243.5
427.847	256.5
428.069	255.5
428.292	270.5
428.514	248.5
428.736	252.5
428.958	249.5
429.181	263.5
429.403	239.5
429.625	240.5
429.847	243.5
430.069	269.5
430.292	262.5
430.514	252.5
430.736	234.5
430.958	247.5
431.18	238.5
431.402	243.5
431.624	238.5
431.846	234.5
432.068	232.5
432.29	216.5
432.512	235.5
432.734	236.5
432.956	264.5
433.178	269.5
433.4	262.5
433.622	263.5
433.844	275.5
434.066	244.5
434.287	212.5
434.509	235.5
434.731	238.5
434.953	255.5
435.175	261.5
435.397	250.5
435.618	237.5
435.84	237.5
436.062	245.5
436.284	253.5
436.505	253.5
436.727	256.5
436.949	241.5
437.17	242.5
437.392	245.5
437.614	242.5
437.835	208.5
438.057	221.5
438.278	228.5
438.5	231.5
438.721	259.5
438.943	233.5
439.165	267.5
439.386	257.5
439.608	260.5
439.829	271.5
440.05	264.5
440.272	266.5
440.493	255.5
440.715	252.5
440.936	268.5
441.158	276.5
441.379	279.5
441.6	286.5
441.822	294.5
442.043	280.5
442.264	280.5
442.486	255.5
442.707	261.5
442.928	282.5
443.149	265.5
443.371	281.5
443.592	268.5
443.813	281.5
444.034	280.5
444.255	299.5
444.476	286.5
444.698	301.5
444.919	309.5
445.14	547.5
445.361	411.5
445.582	291.5
445.803	271.5
446.024	268.5
446.245	283.5
446.466	287.5
446.687	261.5
446.908	281.5
447.129	268.5
447.35	262.5
447.571	257.5
447.792	265.5
448.013	271.5
448.234	273.5
448.455	254.5
448.675	248.5
448.896	248.5
449.117	233.5
449.338	230.5
449.559	243.5
449.779	246.5
450	240.5
450.221	246.5
450.442	248.5
450.662	244.5
450.883	239.5
451.104	259.5
451.324	240.5
451.545	230.5
451.766	256.5
451.986	231.5
452.207	243.5
452.428	214.5
452.648	234.5
452.869	235.5
453.089	230.5
453.31	222.5
453.53	210.5
453.751	209.5
453.971	217.5
454.192	223.5
454.412	209.5
454.633	213.5
454.853	224.5
455.073	203.5
455.294	231.5
455.514	226.5
455.734	236.5
455.955	223.5
456.175	206.5
456.395	205.5
456.616	212.5
456.836	216.5
457.056	206.5
457.276	198.5
457.497	213.5
457.717	212.5
457.937	195.5
458.157	196.5
458.377	200.5
458.598	201.5
458.818	214.5
459.038	207.5
459.258	206.5
459.478	218.5
459.698	215.5
459.918	238.5
460.138	243.5
460.358	261.5
460.578	271.5
460.798	244.5
461.018	271.5
461.238	279.5
461.458	266.5
461.678	256.5
461.898	254.5
462.118	270.5
462.338	270.5
462.558	281.5
462.777	296.5
462.997	302.5
463.217	326.5
463.437	311.5
463.657	295.5
463.876	268.5
464.096	290.5
464.316	279.5
464.536	288.5
464.755	274.5
464.975	278.5
465.195	257.5
465.414	275.5
465.634	229.5
465.854	243.5
466.073	246.5
466.293	233.5
466.512	242.5
466.732	249.5
466.951	257.5
467.171	232.5
467.391	256.5
467.61	229.5
467.829	239.5
468.049	252.5
468.268	248.5
468.488	235.5
468.707	228.5
468.927	258.5
469.146	243.5
469.365	251.5
469.585	246.5
469.804	242.5
470.023	255.5
470.243	263.5
470.462	246.5
470.681	277.5
470.901	261.5
471.12	255.5
471.339	266.5
471.558	251.5
471.777	239.5
471.997	262.5
472.216	239.5
472.435	227.5
472.654	204.5
472.873	232.5
473.092	215.5
473.311	230.5
473.53	224.5
473.749	211.5
473.968	248.5
474.187	228.5
474.406	210.5
474.625	231.5
474.844	243.5
475.063	234.5
475.282	236.5
475.501	204.5
475.72	249.5
475.939	228.5
476.158	243.5
476.377	244.5
476.596	216.5
476.814	234.5
477.033	222.5
477.252	242.5
477.471	244.5
477.69	246.5
477.908	285.5
478.127	252.5
478.346	256.5
478.564	264.5
478.783	279.5
479.002	283.5
479.22	264.5
479.439	275.5
479.658	245.5
479.876	261.5
480.095	240.5
480.313	259.5
480.532	271.5
480.751	269.5
480.969	233.5
481.188	233.5
481.406	222.5
481.624	203.5
481.843	208.5
482.061	223.5
482.28	238.5
482.498	238.5
482.717	224.5
482.935	247.5
483.153	270.5
483.372	267.5
483.59	268.5
483.808	262.5
484.027	240.5
484.245	263.5
484.463	251.5
484.681	295.5
484.9	285.5
485.118	255.5
485.336	226.5
485.554	234.5
485.772	225.5
485.99	237.5
486.209	246.5
486.427	239.5
486.645	271.5
486.863	268.5
487.081	256.5
487.299	277.5
487.517	261.5
487.735	299.5
487.953	317.5
488.171	307.5
488.389	286.5
488.607	281.5
488.825	270.5
489.043	253.5
489.261	254.5
489.479	273.5
489.696	281.5
489.914	265.5
490.132	278.5
490.35	280.5
490.568	313.5
490.786	299.5
491.003	291.5
491.221	306.5
491.439	315.5
491.657	317.5
491.874	343.5
492.092	352.5
492.31	365.5
492.527	343.5
492.745	341.5
492.963	326.5
493.18	320.5
493.398	345.5
493.615	326.5
493.833	310.5
494.05	306.5
494.268	312.5
494.485	317.5
494.703	299.5
494.92	315.5
495.138	309.5
495.355	298.5
495.573	295.5
495.79	306.5
496.008	326.5
496.225	303.5
496.442	320.5
496.66	322.5
496.877	302.5
497.094	307.5
497.312	311.5
497.529	327.5
497.746	303.5
497.963	302.5
498.181	313.5
498.398	310.5
498.615	307.5
498.832	351.5
499.049	361.5
499.267	400.5
499.484	413.5
499.701	465.5
499.918	509.5
500.135	569.5
500.352	626.5
500.569	642.5
500.786	608.5
501.003	581.5
501.22	521.5
501.437	473.5
501.654	435.5
501.871	407.5
502.088	357.5
502.305	354.5
502.522	347.5
502.739	325.5
502.956	319.5
503.172	304.5
503.389	295.5
503.606	298.5
503.823	284.5
504.04	285.5
504.256	275.5
504.473	289.5
504.69	329.5
504.907	313.5
505.123	277.5
505.34	256.5
505.557	263.5
505.773	259.5
505.99	249.5
506.207	255.5
506.423	240.5
506.64	247.5
506.856	251.5
507.073	239.5
507.289	259.5
507.506	249.5
507.722	234.5
507.939	264.5
508.155	238.5
508.372	220.5
508.588	220.5
508.805	234.5
509.021	236.5
509.238	215.5
509.454	204.5
509.67	223.5
509.887	196.5
510.103	210.5
510.319	207.5
510.536	204.5
510.752	186.5
510.968	188.5
511.184	185.5
511.401	203.5
511.617	199.5
511.833	199.5
512.049	199.5
512.265	213.5
512.481	218.5
512.698	218.5
512.914	220.5
513.13	204.5
513.346	193.5
513.562	204.5
513.778	203.5
513.994	217.5
514.21	216.5
514.426	206.5
514.642	222.5
514.858	220.5
515.074	213.5
515.29	220.5
515.506	212.5
515.721	216.5
515.937	214.5
516.153	216.5
516.369	233.5
516.585	227.5
516.801	230.5
517.016	248.5
517.232	276.5
517.448	254.5
517.664	293.5
517.879	275.5
518.095	269.5
518.311	248.5
518.527	259.5
518.742	241.5
518.958	244.5
519.173	249.5
519.389	224.5
519.605	234.5
519.82	229.5
520.036	250.5
520.251	219.5
520.467	225.5
520.682	218.5
520.898	215.5
521.113	218.5
521.329	213.5
521.544	196.5
521.76	209.5
521.975	201.5
522.19	210.5
522.406	214.5
522.621	186.5
522.836	213.5
