Data from SampA_HRD10591_00053.txt Node
Date: Mon Jan 19 11:27:04 EST 2026
User: Yrep
Spectrometer: HR+D1059
Trigger mode: 0
Integration Time (sec): 3.443000E-1
Scans to average: 1
Electric dark correction enabled: true
Nonlinearity correction enabled: false
Boxcar width: 0
XAxis mode: Wavelengths
Number of Pixels in Spectrum: 2048
>>>>>Begin Spectral Data<<<<<
223.165	-22.56
223.4	-22.56
223.635	-22.56
223.869	-12.56
224.104	-21.56
224.338	-4.56
224.573	-8.56
224.808	-31.56
225.042	2.44
225.277	-2.56
225.511	-6.56
225.746	20.44
225.98	4.44
226.215	6.44
226.449	12.44
226.683	9.44
226.918	18.44
227.152	36.44
227.387	27.44
227.621	41.44
227.856	51.44
228.09	33.44
228.324	45.44
228.559	53.44
228.793	51.44
229.027	66.44
229.262	72.44
229.496	70.44
229.73	69.44
229.964	80.44
230.199	88.44
230.433	83.44
230.667	76.44
230.901	63.44
231.136	61.44
231.37	79.44
231.604	84.44
231.838	75.44
232.072	77.44
232.306	98.44
232.541	98.44
232.775	73.44
233.009	83.44
233.243	93.44
233.477	85.44
233.711	77.44
233.945	102.44
234.179	84.44
234.413	95.44
234.647	81.44
234.881	84.44
235.115	90.44
235.349	100.44
235.583	90.44
235.817	77.44
236.051	78.44
236.285	80.44
236.519	76.44
236.753	86.44
236.987	91.44
237.221	87.44
237.455	85.44
237.689	96.44
237.922	89.44
238.156	90.44
238.39	94.44
238.624	91.44
238.858	91.44
239.091	97.44
239.325	70.44
239.559	96.44
239.793	83.44
240.027	100.44
240.26	83.44
240.494	87.44
240.728	95.44
240.961	93.44
241.195	99.44
241.429	101.44
241.662	82.44
241.896	95.44
242.13	78.44
242.363	98.44
242.597	107.44
242.83	87.44
243.064	72.44
243.298	93.44
243.531	84.44
243.765	81.44
243.998	94.44
244.232	78.44
244.465	77.44
244.699	90.44
244.932	75.44
245.166	74.44
245.399	97.44
245.633	93.44
245.866	85.44
246.099	86.44
246.333	91.44
246.566	86.44
246.8	96.44
247.033	91.44
247.266	82.44
247.5	78.44
247.733	99.44
247.966	95.44
248.2	77.44
248.433	87.44
248.666	82.44
248.899	91.44
249.133	86.44
249.366	101.44
249.599	91.44
249.832	93.44
250.066	97.44
250.299	94.44
250.532	110.44
250.765	102.44
250.998	116.44
251.231	97.44
251.465	116.44
251.698	92.44
251.931	102.44
252.164	108.44
252.397	97.44
252.63	107.44
252.863	105.44
253.096	92.44
253.329	94.44
253.562	94.44
253.795	110.44
254.028	93.44
254.261	88.44
254.494	78.44
254.727	102.44
254.96	94.44
255.193	89.44
255.426	100.44
255.659	112.44
255.892	102.44
256.124	93.44
256.357	88.44
256.59	101.44
256.823	94.44
257.056	108.44
257.289	87.44
257.521	112.44
257.754	96.44
257.987	96.44
258.22	102.44
258.452	106.44
258.685	116.44
258.918	90.44
259.151	102.44
259.383	125.44
259.616	99.44
259.849	103.44
260.081	100.44
260.314	111.44
260.547	99.44
260.779	114.44
261.012	99.44
261.244	99.44
261.477	122.44
261.71	113.44
261.942	107.44
262.175	119.44
262.407	97.44
262.64	110.44
262.872	112.44
263.105	100.44
263.337	111.44
263.57	114.44
263.802	107.44
264.035	114.44
264.267	105.44
264.499	102.44
264.732	106.44
264.964	95.44
265.197	106.44
265.429	128.44
265.661	97.44
265.894	105.44
266.126	110.44
266.358	111.44
266.591	97.44
266.823	107.44
267.055	103.44
267.287	111.44
267.52	125.44
267.752	127.44
267.984	116.44
268.216	117.44
268.448	115.44
268.681	107.44
268.913	115.44
269.145	109.44
269.377	118.44
269.609	109.44
269.841	106.44
270.073	119.44
270.306	132.44
270.538	134.44
270.77	103.44
271.002	115.44
271.234	128.44
271.466	118.44
271.698	102.44
271.93	109.44
272.162	118.44
272.394	102.44
272.626	135.44
272.858	118.44
273.09	123.44
273.322	108.44
273.553	124.44
273.785	116.44
274.017	122.44
274.249	135.44
274.481	130.44
274.713	123.44
274.945	118.44
275.176	115.44
275.408	117.44
275.64	118.44
275.872	125.44
276.104	131.44
276.335	123.44
276.567	122.44
276.799	111.44
277.031	110.44
277.262	118.44
277.494	135.44
277.726	135.44
277.957	114.44
278.189	126.44
278.421	120.44
278.652	119.44
278.884	116.44
279.115	127.44
279.347	124.44
279.579	119.44
279.81	129.44
280.042	122.44
280.273	126.44
280.505	130.44
280.736	122.44
280.968	138.44
281.199	126.44
281.431	120.44
281.662	116.44
281.894	120.44
282.125	123.44
282.356	132.44
282.588	131.44
282.819	135.44
283.051	115.44
283.282	124.44
283.513	141.44
283.745	123.44
283.976	103.44
284.207	126.44
284.439	124.44
284.67	120.44
284.901	136.44
285.132	135.44
285.364	103.44
285.595	136.44
285.826	138.44
286.057	149.44
286.288	124.44
286.52	137.44
286.751	138.44
286.982	131.44
287.213	134.44
287.444	133.44
287.675	146.44
287.906	144.44
288.138	136.44
288.369	127.44
288.6	131.44
288.831	119.44
289.062	134.44
289.293	127.44
289.524	114.44
289.755	135.44
289.986	124.44
290.217	148.44
290.448	114.44
290.679	134.44
290.91	146.44
291.141	137.44
291.371	145.44
291.602	126.44
291.833	139.44
292.064	143.44
292.295	149.44
292.526	133.44
292.757	147.44
292.987	142.44
293.218	127.44
293.449	126.44
293.68	159.44
293.91	138.44
294.141	130.44
294.372	149.44
294.603	143.44
294.833	157.44
295.064	146.44
295.295	148.44
295.525	121.44
295.756	146.44
295.987	130.44
296.217	150.44
296.448	133.44
296.679	139.44
296.909	143.44
297.14	142.44
297.37	147.44
297.601	133.44
297.831	132.44
298.062	151.44
298.292	151.44
298.523	161.44
298.753	143.44
298.984	134.44
299.214	145.44
299.445	131.44
299.675	140.44
299.905	144.44
300.136	132.44
300.366	152.44
300.597	135.44
300.827	130.44
301.057	146.44
301.288	148.44
301.518	151.44
301.748	149.44
301.979	173.44
302.209	135.44
302.439	133.44
302.669	147.44
302.9	163.44
303.13	141.44
303.36	141.44
303.59	142.44
303.82	134.44
304.051	146.44
304.281	155.44
304.511	131.44
304.741	142.44
304.971	149.44
305.201	144.44
305.431	156.44
305.661	153.44
305.891	142.44
306.121	140.44
306.352	135.44
306.582	141.44
306.812	158.44
307.042	149.44
307.272	142.44
307.502	148.44
307.731	154.44
307.961	136.44
308.191	136.44
308.421	151.44
308.651	139.44
308.881	146.44
309.111	151.44
309.341	146.44
309.571	150.44
309.8	147.44
310.03	158.44
310.26	137.44
310.49	121.44
310.72	134.44
310.949	146.44
311.179	136.44
311.409	143.44
311.639	152.44
311.868	152.44
312.098	122.44
312.328	151.44
312.557	145.44
312.787	150.44
313.017	154.44
313.246	155.44
313.476	153.44
313.706	141.44
313.935	146.44
314.165	153.44
314.394	139.44
314.624	151.44
314.853	146.44
315.083	150.44
315.312	156.44
315.542	149.44
315.771	152.44
316.001	170.44
316.23	148.44
316.46	152.44
316.689	154.44
316.919	127.44
317.148	152.44
317.377	148.44
317.607	168.44
317.836	141.44
318.065	146.44
318.295	143.44
318.524	148.44
318.753	160.44
318.983	164.44
319.212	163.44
319.441	132.44
319.67	148.44
319.9	133.44
320.129	161.44
320.358	160.44
320.587	144.44
320.816	157.44
321.046	136.44
321.275	150.44
321.504	149.44
321.733	153.44
321.962	145.44
322.191	152.44
322.42	148.44
322.649	154.44
322.878	151.44
323.108	146.44
323.337	150.44
323.566	168.44
323.795	149.44
324.024	150.44
324.253	135.44
324.482	151.44
324.71	149.44
324.939	160.44
325.168	149.44
325.397	149.44
325.626	140.44
325.855	148.44
326.084	140.44
326.313	158.44
326.542	150.44
326.77	150.44
326.999	146.44
327.228	157.44
327.457	152.44
327.686	144.44
327.914	160.44
328.143	172.44
328.372	158.44
328.6	168.44
328.829	173.44
329.058	165.44
329.287	157.44
329.515	158.44
329.744	157.44
329.972	167.44
330.201	159.44
330.43	159.44
330.658	161.44
330.887	169.44
331.115	160.44
331.344	160.44
331.572	165.44
331.801	167.44
332.03	172.44
332.258	151.44
332.486	175.44
332.715	189.44
332.943	178.44
333.172	191.44
333.4	180.44
333.629	185.44
333.857	194.44
334.085	186.44
334.314	205.44
334.542	205.44
334.771	189.44
334.999	187.44
335.227	164.44
335.455	168.44
335.684	187.44
335.912	190.44
336.14	179.44
336.369	178.44
336.597	174.44
336.825	180.44
337.053	165.44
337.281	161.44
337.51	167.44
337.738	159.44
337.966	164.44
338.194	167.44
338.422	170.44
338.65	174.44
338.878	170.44
339.106	171.44
339.334	185.44
339.562	166.44
339.79	174.44
340.018	150.44
340.246	162.44
340.474	153.44
340.702	159.44
340.93	173.44
341.158	163.44
341.386	170.44
341.614	175.44
341.842	156.44
342.07	160.44
342.298	147.44
342.526	153.44
342.754	161.44
342.981	157.44
343.209	183.44
343.437	196.44
343.665	178.44
343.893	189.44
344.12	180.44
344.348	180.44
344.576	163.44
344.804	176.44
345.031	167.44
345.259	170.44
345.487	172.44
345.714	144.44
345.942	154.44
346.17	163.44
346.397	164.44
346.625	157.44
346.853	159.44
347.08	154.44
347.308	159.44
347.535	168.44
347.763	171.44
347.99	166.44
348.218	181.44
348.445	171.44
348.673	153.44
348.9	165.44
349.128	166.44
349.355	153.44
349.583	167.44
349.81	174.44
350.037	174.44
350.265	164.44
350.492	162.44
350.72	154.44
350.947	136.44
351.174	155.44
351.402	146.44
351.629	147.44
351.856	156.44
352.083	156.44
352.311	170.44
352.538	147.44
352.765	149.44
352.992	161.44
353.22	157.44
353.447	162.44
353.674	152.44
353.901	173.44
354.128	161.44
354.355	147.44
354.583	163.44
354.81	161.44
355.037	158.44
355.264	150.44
355.491	157.44
355.718	158.44
355.945	172.44
356.172	155.44
356.399	168.44
356.626	155.44
356.853	154.44
357.08	167.44
357.307	166.44
357.534	158.44
357.761	158.44
357.988	163.44
358.215	155.44
358.441	160.44
358.668	165.44
358.895	175.44
359.122	161.44
359.349	160.44
359.576	142.44
359.802	160.44
360.029	162.44
360.256	156.44
360.483	164.44
360.709	160.44
360.936	180.44
361.163	162.44
361.39	166.44
361.616	166.44
361.843	156.44
362.07	163.44
362.296	156.44
362.523	159.44
362.749	164.44
362.976	168.44
363.203	172.44
363.429	166.44
363.656	176.44
363.882	173.44
364.109	178.44
364.335	157.44
364.562	155.44
364.788	165.44
365.015	164.44
365.241	151.44
365.468	156.44
365.694	160.44
365.92	174.44
366.147	164.44
366.373	147.44
366.599	165.44
366.826	163.44
367.052	161.44
367.278	168.44
367.505	158.44
367.731	169.44
367.957	149.44
368.184	169.44
368.41	171.44
368.636	164.44
368.862	165.44
369.089	141.44
369.315	155.44
369.541	169.44
369.767	167.44
369.993	148.44
370.219	175.44
370.445	161.44
370.672	142.44
370.898	163.44
371.124	166.44
371.35	173.44
371.576	146.44
371.802	159.44
372.028	172.44
372.254	174.44
372.48	165.44
372.706	172.44
372.932	163.44
373.158	158.44
373.384	180.44
373.61	178.44
373.835	176.44
374.061	161.44
374.287	173.44
374.513	187.44
374.739	184.44
374.965	174.44
375.191	173.44
375.416	176.44
375.642	158.44
375.868	176.44
376.094	175.44
376.319	176.44
376.545	178.44
376.771	173.44
376.997	171.44
377.222	177.44
377.448	168.44
377.674	172.44
377.899	178.44
378.125	174.44
378.35	174.44
378.576	170.44
378.802	172.44
379.027	182.44
379.253	184.44
379.478	156.44
379.704	175.44
379.929	173.44
380.155	179.44
380.38	183.44
380.606	179.44
380.831	171.44
381.057	200.44
381.282	174.44
381.507	186.44
381.733	198.44
381.958	176.44
382.184	184.44
382.409	193.44
382.634	187.44
382.86	187.44
383.085	185.44
383.31	186.44
383.535	199.44
383.761	200.44
383.986	192.44
384.211	197.44
384.436	196.44
384.662	196.44
384.887	192.44
385.112	194.44
385.337	204.44
385.562	195.44
385.787	208.44
386.013	220.44
386.238	200.44
386.463	206.44
386.688	224.44
386.913	210.44
387.138	209.44
387.363	199.44
387.588	228.44
387.813	231.44
388.038	201.44
388.263	199.44
388.488	220.44
388.713	208.44
388.938	198.44
389.163	214.44
389.387	207.44
389.612	213.44
389.837	204.44
390.062	218.44
390.287	208.44
390.512	212.44
390.736	201.44
390.961	196.44
391.186	204.44
391.411	212.44
391.636	222.44
391.86	243.44
392.085	234.44
392.31	251.44
392.534	219.44
392.759	213.44
392.984	208.44
393.208	216.44
393.433	247.44
393.658	217.44
393.882	231.44
394.107	242.44
394.331	242.44
394.556	220.44
394.78	233.44
395.005	237.44
395.229	237.44
395.454	220.44
395.678	229.44
395.903	246.44
396.127	225.44
396.352	232.44
396.576	214.44
396.801	232.44
397.025	232.44
397.249	242.44
397.474	253.44
397.698	247.44
397.922	240.44
398.147	249.44
398.371	264.44
398.595	262.44
398.82	284.44
399.044	301.44
399.268	324.44
399.492	350.44
399.717	387.44
399.941	357.44
400.165	333.44
400.389	314.44
400.613	278.44
400.837	296.44
401.062	294.44
401.286	292.44
401.51	284.44
401.734	286.44
401.958	314.44
402.182	290.44
402.406	309.44
402.63	293.44
402.854	302.44
403.078	302.44
403.302	309.44
403.526	322.44
403.75	319.44
403.974	320.44
404.198	326.44
404.422	324.44
404.645	333.44
404.869	337.44
405.093	334.44
405.317	316.44
405.541	316.44
405.765	344.44
405.988	336.44
406.212	352.44
406.436	311.44
406.66	333.44
406.883	336.44
407.107	355.44
407.331	359.44
407.555	379.44
407.778	366.44
408.002	360.44
408.226	353.44
408.449	342.44
408.673	352.44
408.896	311.44
409.12	336.44
409.344	350.44
409.567	362.44
409.791	339.44
410.014	325.44
410.238	344.44
410.461	331.44
410.685	342.44
410.908	322.44
411.132	344.44
411.355	331.44
411.578	324.44
411.802	335.44
412.025	331.44
412.249	327.44
412.472	317.44
412.695	315.44
412.919	327.44
413.142	345.44
413.365	319.44
413.589	319.44
413.812	343.44
414.035	309.44
414.258	318.44
414.482	307.44
414.705	324.44
414.928	335.44
415.151	336.44
415.374	344.44
415.597	309.44
415.821	322.44
416.044	334.44
416.267	318.44
416.49	316.44
416.713	310.44
416.936	324.44
417.159	308.44
417.382	323.44
417.605	315.44
417.828	319.44
418.051	319.44
418.274	320.44
418.497	319.44
418.72	314.44
418.943	340.44
419.166	357.44
419.389	373.44
419.611	359.44
419.834	333.44
420.057	350.44
420.28	333.44
420.503	334.44
420.726	312.44
420.948	323.44
421.171	344.44
421.394	346.44
421.617	360.44
421.839	337.44
422.062	328.44
422.285	327.44
422.507	343.44
422.73	330.44
422.953	337.44
423.175	335.44
423.398	346.44
423.621	339.44
423.843	354.44
424.066	343.44
424.288	335.44
424.511	349.44
424.733	359.44
424.956	353.44
425.178	352.44
425.401	340.44
425.623	341.44
425.846	327.44
426.068	320.44
426.291	307.44
426.513	299.44
426.735	306.44
426.958	329.44
427.18	302.44
427.402	306.44
427.625	329.44
427.847	300.44
428.069	301.44
428.292	315.44
428.514	294.44
428.736	327.44
428.958	289.44
429.181	299.44
429.403	309.44
429.625	287.44
429.847	303.44
430.069	308.44
430.292	304.44
430.514	284.44
430.736	303.44
430.958	299.44
431.18	295.44
431.402	318.44
431.624	314.44
431.846	283.44
432.068	278.44
432.29	295.44
432.512	286.44
432.734	306.44
432.956	314.44
433.178	311.44
433.4	310.44
433.622	332.44
433.844	316.44
434.066	296.44
434.287	296.44
434.509	285.44
434.731	306.44
434.953	317.44
435.175	326.44
435.397	313.44
435.618	286.44
435.84	291.44
436.062	294.44
436.284	291.44
436.505	294.44
436.727	326.44
436.949	313.44
437.17	303.44
437.392	301.44
437.614	300.44
437.835	275.44
438.057	264.44
438.278	275.44
438.5	286.44
438.721	301.44
438.943	331.44
439.165	314.44
439.386	311.44
439.608	319.44
439.829	310.44
440.05	336.44
440.272	316.44
440.493	308.44
440.715	334.44
440.936	333.44
441.158	326.44
441.379	337.44
441.6	364.44
441.822	338.44
442.043	347.44
442.264	323.44
442.486	351.44
442.707	330.44
442.928	332.44
443.149	347.44
443.371	340.44
443.592	342.44
443.813	336.44
444.034	331.44
444.255	363.44
444.476	382.44
444.698	396.44
444.919	392.44
445.14	575.44
445.361	460.44
445.582	345.44
445.803	343.44
446.024	337.44
446.245	364.44
446.466	334.44
446.687	318.44
446.908	331.44
447.129	307.44
447.35	326.44
447.571	333.44
447.792	321.44
448.013	289.44
448.234	309.44
448.455	294.44
448.675	314.44
448.896	301.44
449.117	291.44
449.338	269.44
449.559	286.44
449.779	293.44
450	286.44
450.221	298.44
450.442	297.44
450.662	287.44
450.883	301.44
451.104	302.44
451.324	306.44
451.545	292.44
451.766	295.44
451.986	287.44
452.207	279.44
452.428	306.44
452.648	292.44
452.869	258.44
453.089	255.44
453.31	264.44
453.53	264.44
453.751	253.44
453.971	268.44
454.192	255.44
454.412	256.44
454.633	269.44
454.853	246.44
455.073	270.44
455.294	270.44
455.514	277.44
455.734	271.44
455.955	260.44
456.175	244.44
456.395	252.44
456.616	245.44
456.836	274.44
457.056	260.44
457.276	236.44
457.497	263.44
457.717	262.44
457.937	264.44
458.157	259.44
458.377	238.44
458.598	258.44
458.818	254.44
459.038	262.44
459.258	263.44
459.478	266.44
459.698	290.44
459.918	288.44
460.138	294.44
460.358	318.44
460.578	322.44
460.798	308.44
461.018	316.44
461.238	323.44
461.458	330.44
461.678	332.44
461.898	327.44
462.118	335.44
462.338	342.44
462.558	360.44
462.777	338.44
462.997	393.44
463.217	428.44
463.437	398.44
463.657	360.44
463.876	352.44
464.096	341.44
464.316	346.44
464.536	371.44
464.755	346.44
464.975	347.44
465.195	328.44
465.414	324.44
465.634	291.44
465.854	313.44
466.073	296.44
466.293	281.44
466.512	286.44
466.732	282.44
466.951	288.44
467.171	312.44
467.391	296.44
467.61	281.44
467.829	312.44
468.049	295.44
468.268	306.44
468.488	294.44
468.707	308.44
468.927	297.44
469.146	309.44
469.365	275.44
469.585	294.44
469.804	311.44
470.023	315.44
470.243	329.44
470.462	329.44
470.681	310.44
470.901	332.44
471.12	314.44
471.339	316.44
471.558	301.44
471.777	284.44
471.997	292.44
472.216	286.44
472.435	269.44
472.654	267.44
472.873	278.44
473.092	258.44
473.311	275.44
473.53	258.44
473.749	272.44
473.968	280.44
474.187	261.44
474.406	274.44
474.625	292.44
474.844	284.44
475.063	287.44
475.282	286.44
475.501	271.44
475.72	290.44
475.939	270.44
476.158	282.44
476.377	290.44
476.596	266.44
476.814	283.44
477.033	287.44
477.252	272.44
477.471	294.44
477.69	328.44
477.908	312.44
478.127	329.44
478.346	330.44
478.564	340.44
478.783	342.44
479.002	344.44
479.22	342.44
479.439	327.44
479.658	338.44
479.876	318.44
480.095	303.44
480.313	329.44
480.532	345.44
480.751	325.44
480.969	319.44
481.188	292.44
481.406	296.44
481.624	279.44
481.843	280.44
482.061	282.44
482.28	309.44
482.498	278.44
482.717	288.44
482.935	294.44
483.153	310.44
483.372	343.44
483.59	312.44
483.808	302.44
484.027	299.44
484.245	302.44
484.463	319.44
484.681	339.44
484.9	327.44
485.118	343.44
485.336	315.44
485.554	294.44
485.772	284.44
485.99	282.44
486.209	302.44
486.427	299.44
486.645	304.44
486.863	336.44
487.081	334.44
487.299	336.44
487.517	325.44
487.735	377.44
487.953	368.44
488.171	357.44
488.389	348.44
488.607	332.44
488.825	313.44
489.043	315.44
489.261	322.44
489.479	313.44
489.696	311.44
489.914	320.44
490.132	317.44
490.35	355.44
490.568	338.44
490.786	362.44
491.003	359.44
491.221	371.44
491.439	355.44
491.657	388.44
491.874	409.44
492.092	425.44
492.31	428.44
492.527	417.44
492.745	390.44
492.963	378.44
493.18	392.44
493.398	374.44
493.615	384.44
493.833	373.44
494.05	367.44
494.268	385.44
494.485	400.44
494.703	365.44
494.92	384.44
495.138	386.44
495.355	363.44
495.573	384.44
495.79	361.44
496.008	405.44
496.225	375.44
496.442	361.44
496.66	367.44
496.877	375.44
497.094	403.44
497.312	360.44
497.529	371.44
497.746	401.44
497.963	379.44
498.181	397.44
498.398	386.44
498.615	415.44
498.832	438.44
499.049	468.44
499.267	474.44
499.484	538.44
499.701	593.44
499.918	632.44
500.135	738.44
500.352	809.44
500.569	830.44
500.786	801.44
501.003	732.44
501.22	652.44
501.437	612.44
501.654	560.44
501.871	514.44
502.088	460.44
502.305	480.44
502.522	445.44
502.739	434.44
502.956	388.44
503.172	383.44
503.389	374.44
503.606	352.44
503.823	362.44
504.04	367.44
504.256	382.44
