Data from SampA_HRD10591_00047.txt Node
Date: Mon Jan 19 11:27:02 EST 2026
User: Yrep
Spectrometer: HR+D1059
Trigger mode: 0
Integration Time (sec): 3.443000E-1
Scans to average: 1
Electric dark correction enabled: true
Nonlinearity correction enabled: false
Boxcar width: 0
XAxis mode: Wavelengths
Number of Pixels in Spectrum: 2048
>>>>>Begin Spectral Data<<<<<
223.165	-23.75
223.4	-23.75
223.635	-23.75
223.869	-42.75
224.104	-30.75
224.338	1.25
224.573	-12.75
224.808	-14.75
225.042	4.25
225.277	-10.75
225.511	-12.75
225.746	16.25
225.98	5.25
226.215	8.25
226.449	19.25
226.683	27.25
226.918	32.25
227.152	34.25
227.387	28.25
227.621	30.25
227.856	52.25
228.09	38.25
228.324	52.25
228.559	75.25
228.793	69.25
229.027	73.25
229.262	42.25
229.496	63.25
229.73	70.25
229.964	68.25
230.199	74.25
230.433	86.25
230.667	81.25
230.901	73.25
231.136	79.25
231.37	77.25
231.604	82.25
231.838	89.25
232.072	82.25
232.306	73.25
232.541	81.25
232.775	68.25
233.009	74.25
233.243	74.25
233.477	91.25
233.711	88.25
233.945	73.25
234.179	85.25
234.413	81.25
234.647	87.25
234.881	89.25
235.115	91.25
235.349	80.25
235.583	87.25
235.817	77.25
236.051	82.25
236.285	69.25
236.519	84.25
236.753	90.25
236.987	86.25
237.221	78.25
237.455	68.25
237.689	82.25
237.922	76.25
238.156	66.25
238.39	71.25
238.624	81.25
238.858	68.25
239.091	71.25
239.325	79.25
239.559	71.25
239.793	76.25
240.027	85.25
240.26	68.25
240.494	75.25
240.728	72.25
240.961	71.25
241.195	79.25
241.429	77.25
241.662	81.25
241.896	89.25
242.13	87.25
242.363	80.25
242.597	91.25
242.83	90.25
243.064	83.25
243.298	91.25
243.531	80.25
243.765	77.25
243.998	76.25
244.232	93.25
244.465	99.25
244.699	82.25
244.932	79.25
245.166	79.25
245.399	80.25
245.633	82.25
245.866	90.25
246.099	76.25
246.333	73.25
246.566	77.25
246.8	76.25
247.033	92.25
247.266	88.25
247.5	79.25
247.733	96.25
247.966	75.25
248.2	79.25
248.433	76.25
248.666	70.25
248.899	81.25
249.133	71.25
249.366	92.25
249.599	74.25
249.832	90.25
250.066	100.25
250.299	76.25
250.532	86.25
250.765	95.25
250.998	83.25
251.231	97.25
251.465	90.25
251.698	87.25
251.931	76.25
252.164	91.25
252.397	64.25
252.63	99.25
252.863	79.25
253.096	80.25
253.329	107.25
253.562	75.25
253.795	95.25
254.028	96.25
254.261	87.25
254.494	98.25
254.727	102.25
254.96	79.25
255.193	98.25
255.426	84.25
255.659	72.25
255.892	91.25
256.124	92.25
256.357	95.25
256.59	92.25
256.823	87.25
257.056	87.25
257.289	96.25
257.521	95.25
257.754	97.25
257.987	80.25
258.22	98.25
258.452	105.25
258.685	88.25
258.918	100.25
259.151	95.25
259.383	80.25
259.616	93.25
259.849	104.25
260.081	105.25
260.314	98.25
260.547	84.25
260.779	94.25
261.012	92.25
261.244	100.25
261.477	105.25
261.71	96.25
261.942	90.25
262.175	92.25
262.407	80.25
262.64	106.25
262.872	100.25
263.105	77.25
263.337	98.25
263.57	97.25
263.802	93.25
264.035	93.25
264.267	94.25
264.499	88.25
264.732	95.25
264.964	99.25
265.197	97.25
265.429	104.25
265.661	103.25
265.894	100.25
266.126	99.25
266.358	84.25
266.591	84.25
266.823	81.25
267.055	89.25
267.287	99.25
267.52	104.25
267.752	100.25
267.984	106.25
268.216	105.25
268.448	95.25
268.681	93.25
268.913	108.25
269.145	97.25
269.377	91.25
269.609	83.25
269.841	104.25
270.073	90.25
270.306	95.25
270.538	104.25
270.77	101.25
271.002	101.25
271.234	111.25
271.466	106.25
271.698	101.25
271.93	107.25
272.162	84.25
272.394	99.25
272.626	97.25
272.858	105.25
273.09	99.25
273.322	104.25
273.553	94.25
273.785	113.25
274.017	86.25
274.249	97.25
274.481	99.25
274.713	88.25
274.945	118.25
275.176	92.25
275.408	114.25
275.64	128.25
275.872	113.25
276.104	106.25
276.335	101.25
276.567	105.25
276.799	97.25
277.031	110.25
277.262	104.25
277.494	101.25
277.726	105.25
277.957	111.25
278.189	108.25
278.421	92.25
278.652	100.25
278.884	104.25
279.115	112.25
279.347	101.25
279.579	119.25
279.81	113.25
280.042	107.25
280.273	105.25
280.505	108.25
280.736	93.25
280.968	108.25
281.199	108.25
281.431	108.25
281.662	105.25
281.894	96.25
282.125	99.25
282.356	93.25
282.588	103.25
282.819	105.25
283.051	104.25
283.282	108.25
283.513	108.25
283.745	97.25
283.976	115.25
284.207	99.25
284.439	106.25
284.67	121.25
284.901	112.25
285.132	119.25
285.364	112.25
285.595	105.25
285.826	108.25
286.057	112.25
286.288	104.25
286.52	106.25
286.751	111.25
286.982	120.25
287.213	104.25
287.444	110.25
287.675	123.25
287.906	122.25
288.138	108.25
288.369	100.25
288.6	117.25
288.831	113.25
289.062	100.25
289.293	104.25
289.524	114.25
289.755	93.25
289.986	109.25
290.217	121.25
290.448	105.25
290.679	110.25
290.91	128.25
291.141	116.25
291.371	114.25
291.602	122.25
291.833	114.25
292.064	115.25
292.295	111.25
292.526	128.25
292.757	122.25
292.987	108.25
293.218	112.25
293.449	104.25
293.68	112.25
293.91	107.25
294.141	107.25
294.372	114.25
294.603	112.25
294.833	116.25
295.064	113.25
295.295	120.25
295.525	113.25
295.756	129.25
295.987	113.25
296.217	106.25
296.448	115.25
296.679	116.25
296.909	110.25
297.14	110.25
297.37	124.25
297.601	113.25
297.831	113.25
298.062	121.25
298.292	113.25
298.523	127.25
298.753	118.25
298.984	118.25
299.214	112.25
299.445	115.25
299.675	115.25
299.905	107.25
300.136	115.25
300.366	105.25
300.597	115.25
300.827	114.25
301.057	107.25
301.288	122.25
301.518	130.25
301.748	131.25
301.979	148.25
302.209	113.25
302.439	116.25
302.669	127.25
302.9	108.25
303.13	127.25
303.36	117.25
303.59	114.25
303.82	128.25
304.051	108.25
304.281	120.25
304.511	124.25
304.741	119.25
304.971	104.25
305.201	114.25
305.431	123.25
305.661	123.25
305.891	115.25
306.121	115.25
306.352	114.25
306.582	122.25
306.812	121.25
307.042	119.25
307.272	121.25
307.502	107.25
307.731	138.25
307.961	129.25
308.191	144.25
308.421	113.25
308.651	121.25
308.881	113.25
309.111	114.25
309.341	117.25
309.571	105.25
309.8	116.25
310.03	113.25
310.26	119.25
310.49	127.25
310.72	115.25
310.949	109.25
311.179	115.25
311.409	113.25
311.639	106.25
311.868	118.25
312.098	118.25
312.328	130.25
312.557	149.25
312.787	131.25
313.017	123.25
313.246	124.25
313.476	114.25
313.706	119.25
313.935	124.25
314.165	116.25
314.394	106.25
314.624	118.25
314.853	112.25
315.083	124.25
315.312	124.25
315.542	121.25
315.771	122.25
316.001	123.25
316.23	127.25
316.46	106.25
316.689	125.25
316.919	143.25
317.148	131.25
317.377	127.25
317.607	134.25
317.836	120.25
318.065	112.25
318.295	118.25
318.524	121.25
318.753	124.25
318.983	115.25
319.212	143.25
319.441	128.25
319.67	131.25
319.9	127.25
320.129	125.25
320.358	125.25
320.587	117.25
320.816	120.25
321.046	119.25
321.275	121.25
321.504	120.25
321.733	122.25
321.962	111.25
322.191	123.25
322.42	130.25
322.649	120.25
322.878	134.25
323.108	106.25
323.337	132.25
323.566	128.25
323.795	152.25
324.024	124.25
324.253	114.25
324.482	127.25
324.71	131.25
324.939	134.25
325.168	110.25
325.397	132.25
325.626	131.25
325.855	137.25
326.084	116.25
326.313	121.25
326.542	124.25
326.77	127.25
326.999	124.25
327.228	130.25
327.457	127.25
327.686	124.25
327.914	125.25
328.143	132.25
328.372	111.25
328.6	120.25
328.829	139.25
329.058	124.25
329.287	120.25
329.515	116.25
329.744	137.25
329.972	118.25
330.201	127.25
330.43	129.25
330.658	135.25
330.887	130.25
331.115	117.25
331.344	130.25
331.572	145.25
331.801	121.25
332.03	135.25
332.258	148.25
332.486	129.25
332.715	137.25
332.943	146.25
333.172	151.25
333.4	158.25
333.629	158.25
333.857	153.25
334.085	153.25
334.314	142.25
334.542	129.25
334.771	123.25
334.999	145.25
335.227	130.25
335.455	123.25
335.684	169.25
335.912	136.25
336.14	148.25
336.369	155.25
336.597	132.25
336.825	134.25
337.053	141.25
337.281	138.25
337.51	138.25
337.738	117.25
337.966	127.25
338.194	121.25
338.422	120.25
338.65	139.25
338.878	129.25
339.106	124.25
339.334	145.25
339.562	146.25
339.79	129.25
340.018	136.25
340.246	122.25
340.474	135.25
340.702	126.25
340.93	131.25
341.158	131.25
341.386	119.25
341.614	124.25
341.842	131.25
342.07	122.25
342.298	134.25
342.526	121.25
342.754	121.25
342.981	142.25
343.209	126.25
343.437	160.25
343.665	143.25
343.893	141.25
344.12	165.25
344.348	130.25
344.576	123.25
344.804	120.25
345.031	128.25
345.259	121.25
345.487	128.25
345.714	114.25
345.942	126.25
346.17	127.25
346.397	138.25
346.625	113.25
346.853	120.25
347.08	106.25
347.308	123.25
347.535	123.25
347.763	129.25
347.99	112.25
348.218	135.25
348.445	121.25
348.673	134.25
348.9	118.25
349.128	127.25
349.355	116.25
349.583	128.25
349.81	127.25
350.037	123.25
350.265	116.25
350.492	130.25
350.72	116.25
350.947	132.25
351.174	126.25
351.402	123.25
351.629	116.25
351.856	116.25
352.083	119.25
352.311	145.25
352.538	130.25
352.765	135.25
352.992	147.25
353.22	123.25
353.447	107.25
353.674	122.25
353.901	133.25
354.128	131.25
354.355	123.25
354.583	116.25
354.81	128.25
355.037	130.25
355.264	128.25
355.491	139.25
355.718	126.25
355.945	124.25
356.172	119.25
356.399	130.25
356.626	122.25
356.853	125.25
357.08	129.25
357.307	114.25
357.534	131.25
357.761	131.25
357.988	148.25
358.215	114.25
358.441	130.25
358.668	127.25
358.895	123.25
359.122	121.25
359.349	121.25
359.576	122.25
359.802	113.25
360.029	116.25
360.256	124.25
360.483	121.25
360.709	107.25
360.936	131.25
361.163	129.25
361.39	144.25
361.616	136.25
361.843	115.25
362.07	139.25
362.296	115.25
362.523	132.25
362.749	114.25
362.976	121.25
363.203	147.25
363.429	122.25
363.656	121.25
363.882	130.25
364.109	149.25
364.335	130.25
364.562	127.25
364.788	129.25
365.015	116.25
365.241	131.25
365.468	138.25
365.694	124.25
365.92	107.25
366.147	129.25
366.373	121.25
366.599	125.25
366.826	135.25
367.052	108.25
367.278	127.25
367.505	129.25
367.731	129.25
367.957	119.25
368.184	133.25
368.41	147.25
368.636	131.25
368.862	132.25
369.089	120.25
369.315	126.25
369.541	118.25
369.767	116.25
369.993	123.25
370.219	133.25
370.445	119.25
370.672	121.25
370.898	137.25
371.124	124.25
371.35	116.25
371.576	128.25
371.802	125.25
372.028	123.25
372.254	125.25
372.48	129.25
372.706	142.25
372.932	135.25
373.158	132.25
373.384	139.25
373.61	132.25
373.835	123.25
374.061	134.25
374.287	137.25
374.513	143.25
374.739	145.25
374.965	137.25
375.191	132.25
375.416	146.25
375.642	143.25
375.868	143.25
376.094	134.25
376.319	126.25
376.545	117.25
376.771	130.25
376.997	143.25
377.222	148.25
377.448	139.25
377.674	127.25
377.899	136.25
378.125	123.25
378.35	137.25
378.576	127.25
378.802	118.25
379.027	161.25
379.253	134.25
379.478	133.25
379.704	148.25
379.929	128.25
380.155	126.25
380.38	125.25
380.606	127.25
380.831	135.25
381.057	139.25
381.282	128.25
381.507	136.25
381.733	139.25
381.958	139.25
382.184	131.25
382.409	138.25
382.634	140.25
382.86	154.25
383.085	156.25
383.31	143.25
383.535	143.25
383.761	135.25
383.986	151.25
384.211	152.25
384.436	152.25
384.662	150.25
384.887	145.25
385.112	147.25
385.337	154.25
385.562	165.25
385.787	138.25
386.013	167.25
386.238	151.25
386.463	146.25
386.688	176.25
386.913	157.25
387.138	153.25
387.363	155.25
387.588	143.25
387.813	133.25
388.038	158.25
388.263	175.25
388.488	143.25
388.713	142.25
388.938	153.25
389.163	158.25
389.387	145.25
389.612	124.25
389.837	151.25
390.062	137.25
390.287	137.25
390.512	139.25
390.736	156.25
390.961	168.25
391.186	176.25
391.411	151.25
391.636	162.25
391.86	171.25
392.085	180.25
392.31	160.25
392.534	167.25
392.759	175.25
392.984	178.25
393.208	160.25
393.433	165.25
393.658	164.25
393.882	164.25
394.107	157.25
394.331	151.25
394.556	151.25
394.78	192.25
395.005	172.25
395.229	171.25
395.454	168.25
395.678	168.25
395.903	149.25
396.127	173.25
396.352	169.25
396.576	165.25
396.801	167.25
397.025	166.25
397.249	168.25
397.474	198.25
397.698	173.25
397.922	171.25
398.147	165.25
398.371	192.25
398.595	175.25
398.82	184.25
399.044	198.25
399.268	210.25
399.492	241.25
399.717	257.25
399.941	232.25
400.165	233.25
400.389	219.25
400.613	219.25
400.837	206.25
401.062	205.25
401.286	183.25
401.51	195.25
401.734	192.25
401.958	209.25
402.182	191.25
402.406	209.25
402.63	190.25
402.854	184.25
403.078	206.25
403.302	205.25
403.526	226.25
403.75	209.25
403.974	218.25
404.198	197.25
404.422	225.25
404.645	215.25
404.869	216.25
405.093	212.25
405.317	233.25
405.541	214.25
405.765	202.25
405.988	203.25
406.212	217.25
406.436	205.25
406.66	214.25
406.883	215.25
407.107	223.25
407.331	233.25
407.555	211.25
407.778	239.25
408.002	221.25
408.226	241.25
408.449	216.25
408.673	219.25
408.896	207.25
409.12	226.25
409.344	231.25
409.567	228.25
409.791	207.25
410.014	219.25
410.238	219.25
410.461	221.25
410.685	224.25
410.908	196.25
411.132	214.25
411.355	206.25
411.578	213.25
411.802	206.25
412.025	206.25
412.249	225.25
412.472	200.25
412.695	211.25
412.919	200.25
413.142	205.25
413.365	212.25
413.589	198.25
413.812	216.25
414.035	216.25
414.258	197.25
414.482	201.25
414.705	205.25
414.928	222.25
415.151	223.25
415.374	220.25
415.597	193.25
415.821	197.25
416.044	196.25
416.267	196.25
416.49	201.25
416.713	217.25
416.936	211.25
417.159	200.25
417.382	195.25
417.605	198.25
417.828	228.25
418.051	203.25
418.274	210.25
418.497	209.25
418.72	210.25
418.943	193.25
419.166	217.25
419.389	222.25
419.611	215.25
419.834	224.25
420.057	221.25
420.28	216.25
420.503	187.25
420.726	207.25
420.948	196.25
421.171	201.25
421.394	227.25
421.617	210.25
421.839	210.25
422.062	214.25
422.285	200.25
422.507	216.25
422.73	219.25
422.953	199.25
423.175	229.25
423.398	228.25
423.621	231.25
423.843	233.25
424.066	231.25
424.288	208.25
424.511	202.25
424.733	210.25
424.956	204.25
425.178	225.25
425.401	215.25
425.623	209.25
425.846	202.25
426.068	209.25
426.291	203.25
426.513	210.25
426.735	195.25
426.958	208.25
427.18	184.25
427.402	195.25
427.625	207.25
427.847	200.25
428.069	185.25
428.292	201.25
428.514	186.25
428.736	199.25
428.958	198.25
429.181	183.25
429.403	199.25
429.625	182.25
429.847	182.25
430.069	181.25
430.292	185.25
430.514	176.25
430.736	201.25
430.958	203.25
431.18	191.25
431.402	197.25
431.624	181.25
431.846	191.25
432.068	187.25
432.29	187.25
432.512	174.25
432.734	176.25
432.956	208.25
433.178	204.25
433.4	197.25
433.622	196.25
433.844	186.25
434.066	192.25
434.287	183.25
434.509	185.25
434.731	199.25
434.953	212.25
435.175	193.25
435.397	214.25
435.618	175.25
435.84	180.25
436.062	175.25
436.284	194.25
436.505	192.25
436.727	188.25
436.949	199.25
437.17	185.25
437.392	189.25
437.614	180.25
437.835	178.25
438.057	180.25
438.278	171.25
438.5	191.25
438.721	192.25
438.943	186.25
439.165	189.25
439.386	200.25
439.608	207.25
439.829	201.25
440.05	197.25
440.272	220.25
440.493	201.25
440.715	186.25
440.936	226.25
441.158	213.25
441.379	219.25
441.6	207.25
441.822	219.25
442.043	221.25
442.264	212.25
442.486	207.25
442.707	209.25
442.928	207.25
443.149	207.25
443.371	221.25
443.592	206.25
443.813	212.25
444.034	220.25
444.255	217.25
444.476	221.25
444.698	224.25
444.919	240.25
445.14	494.25
445.361	321.25
445.582	225.25
445.803	187.25
446.024	205.25
446.245	213.25
446.466	189.25
446.687	192.25
446.908	191.25
447.129	201.25
447.35	205.25
447.571	193.25
447.792	204.25
448.013	189.25
448.234	197.25
448.455	203.25
448.675	197.25
448.896	183.25
449.117	196.25
449.338	173.25
449.559	176.25
449.779	192.25
450	186.25
450.221	183.25
450.442	178.25
450.662	187.25
450.883	185.25
451.104	200.25
451.324	182.25
451.545	184.25
451.766	202.25
451.986	184.25
452.207	187.25
452.428	173.25
452.648	169.25
452.869	189.25
453.089	177.25
453.31	167.25
453.53	168.25
453.751	177.25
453.971	180.25
454.192	149.25
454.412	160.25
454.633	162.25
454.853	178.25
455.073	187.25
455.294	168.25
455.514	172.25
455.734	165.25
455.955	174.25
456.175	163.25
456.395	178.25
456.616	168.25
456.836	161.25
457.056	157.25
457.276	152.25
457.497	166.25
457.717	178.25
457.937	157.25
458.157	163.25
458.377	171.25
458.598	168.25
458.818	166.25
459.038	184.25
459.258	180.25
459.478	192.25
459.698	188.25
459.918	196.25
460.138	195.25
460.358	196.25
460.578	224.25
460.798	199.25
461.018	192.25
461.238	200.25
461.458	200.25
461.678	204.25
461.898	208.25
462.118	217.25
462.338	218.25
462.558	215.25
462.777	229.25
462.997	264.25
463.217	267.25
463.437	235.25
463.657	225.25
463.876	229.25
464.096	245.25
464.316	222.25
464.536	235.25
464.755	214.25
464.975	209.25
465.195	195.25
465.414	203.25
465.634	187.25
465.854	200.25
466.073	191.25
466.293	185.25
466.512	169.25
466.732	194.25
466.951	183.25
467.171	204.25
467.391	196.25
467.61	201.25
467.829	181.25
468.049	203.25
468.268	197.25
468.488	189.25
468.707	196.25
468.927	187.25
469.146	172.25
469.365	181.25
469.585	179.25
469.804	206.25
470.023	209.25
470.243	199.25
470.462	195.25
470.681	198.25
470.901	198.25
471.12	192.25
471.339	196.25
471.558	190.25
471.777	201.25
471.997	170.25
472.216	198.25
472.435	175.25
472.654	177.25
472.873	171.25
473.092	194.25
473.311	184.25
473.53	167.25
473.749	184.25
473.968	187.25
474.187	168.25
474.406	170.25
474.625	179.25
474.844	180.25
475.063	178.25
475.282	188.25
475.501	167.25
475.72	199.25
475.939	187.25
476.158	194.25
476.377	193.25
476.596	171.25
476.814	182.25
477.033	184.25
477.252	187.25
477.471	181.25
477.69	195.25
477.908	220.25
478.127	216.25
478.346	195.25
478.564	217.25
478.783	209.25
479.002	210.25
479.22	203.25
479.439	209.25
479.658	205.25
479.876	201.25
480.095	203.25
480.313	230.25
480.532	218.25
480.751	215.25
480.969	212.25
481.188	180.25
481.406	187.25
481.624	178.25
481.843	173.25
482.061	183.25
482.28	187.25
482.498	186.25
482.717	185.25
482.935	183.25
483.153	191.25
483.372	191.25
483.59	193.25
483.808	206.25
484.027	211.25
484.245	204.25
484.463	210.25
484.681	203.25
484.9	212.25
485.118	197.25
485.336	192.25
485.554	191.25
485.772	193.25
485.99	201.25
486.209	211.25
486.427	198.25
486.645	197.25
486.863	201.25
487.081	204.25
487.299	205.25
487.517	213.25
487.735	226.25
487.953	214.25
488.171	238.25
488.389	198.25
488.607	197.25
488.825	195.25
489.043	201.25
489.261	185.25
489.479	205.25
489.696	207.25
489.914	205.25
490.132	216.25
490.35	221.25
490.568	212.25
490.786	199.25
491.003	223.25
491.221	219.25
491.439	230.25
491.657	227.25
491.874	248.25
492.092	239.25
492.31	265.25
492.527	228.25
492.745	244.25
492.963	241.25
493.18	248.25
493.398	230.25
493.615	234.25
493.833	238.25
494.05	221.25
494.268	231.25
494.485	239.25
494.703	247.25
494.92	225.25
495.138	221.25
495.355	222.25
495.573	235.25
495.79	226.25
496.008	235.25
496.225	228.25
496.442	245.25
496.66	230.25
496.877	235.25
497.094	259.25
497.312	229.25
497.529	243.25
497.746	237.25
497.963	220.25
498.181	235.25
498.398	242.25
498.615	257.25
498.832	267.25
499.049	289.25
499.267	310.25
499.484	330.25
499.701	370.25
499.918	408.25
500.135	437.25
500.352	489.25
500.569	475.25
500.786	484.25
501.003	445.25
501.22	410.25
501.437	363.25
501.654	332.25
501.871	295.25
502.088	280.25
502.305	266.25
502.522	259.25
502.739	248.25
502.956	248.25
503.172	235.25
503.389	224.25
503.606	223.25
503.823	220.25
504.04	227.25
504.256	221.25
504.473	211.25
504.69	244.25
504.907	256.25
505.123	219.25
