Data from SampA_HRD10591_00100.txt Node
Date: Mon Jan 19 11:27:21 EST 2026
User: Yrep
Spectrometer: HR+D1059
Trigger mode: 0
Integration Time (sec): 3.443000E-1
Scans to average: 1
Electric dark correction enabled: true
Nonlinearity correction enabled: false
Boxcar width: 0
XAxis mode: Wavelengths
Number of Pixels in Spectrum: 2048
>>>>>Begin Spectral Data<<<<<
223.165	-25.88
223.4	-25.88
223.635	-25.88
223.869	-10.88
224.104	-34.88
224.338	-20.88
224.573	-10.88
224.808	-11.88
225.042	0.12
225.277	3.12
225.511	0.12
225.746	-6.88
225.98	11.12
226.215	11.12
226.449	22.12
226.683	13.12
226.918	25.12
227.152	36.12
227.387	25.12
227.621	33.12
227.856	50.12
228.09	57.12
228.324	51.12
228.559	68.12
228.793	73.12
229.027	58.12
229.262	63.12
229.496	58.12
229.73	72.12
229.964	88.12
230.199	66.12
230.433	59.12
230.667	74.12
230.901	86.12
231.136	68.12
231.37	83.12
231.604	82.12
231.838	81.12
232.072	84.12
232.306	90.12
232.541	82.12
232.775	80.12
233.009	74.12
233.243	99.12
233.477	80.12
233.711	77.12
233.945	75.12
234.179	95.12
234.413	101.12
234.647	91.12
234.881	80.12
235.115	89.12
235.349	86.12
235.583	78.12
235.817	77.12
236.051	71.12
236.285	78.12
236.519	79.12
236.753	92.12
236.987	97.12
237.221	77.12
237.455	94.12
237.689	84.12
237.922	79.12
238.156	80.12
238.39	87.12
238.624	79.12
238.858	90.12
239.091	82.12
239.325	81.12
239.559	84.12
239.793	89.12
240.027	78.12
240.26	78.12
240.494	72.12
240.728	82.12
240.961	84.12
241.195	101.12
241.429	97.12
241.662	97.12
241.896	80.12
242.13	81.12
242.363	96.12
242.597	95.12
242.83	83.12
243.064	78.12
243.298	102.12
243.531	84.12
243.765	87.12
243.998	99.12
244.232	86.12
244.465	78.12
244.699	88.12
244.932	80.12
245.166	91.12
245.399	96.12
245.633	85.12
245.866	86.12
246.099	86.12
246.333	84.12
246.566	87.12
246.8	92.12
247.033	79.12
247.266	97.12
247.5	85.12
247.733	77.12
247.966	87.12
248.2	89.12
248.433	90.12
248.666	88.12
248.899	103.12
249.133	87.12
249.366	97.12
249.599	96.12
249.832	82.12
250.066	91.12
250.299	87.12
250.532	87.12
250.765	88.12
250.998	94.12
251.231	92.12
251.465	95.12
251.698	84.12
251.931	87.12
252.164	102.12
252.397	96.12
252.63	102.12
252.863	83.12
253.096	86.12
253.329	104.12
253.562	90.12
253.795	83.12
254.028	87.12
254.261	95.12
254.494	94.12
254.727	87.12
254.96	90.12
255.193	92.12
255.426	80.12
255.659	108.12
255.892	89.12
256.124	78.12
256.357	78.12
256.59	109.12
256.823	91.12
257.056	86.12
257.289	85.12
257.521	93.12
257.754	95.12
257.987	102.12
258.22	112.12
258.452	84.12
258.685	95.12
258.918	106.12
259.151	93.12
259.383	102.12
259.616	92.12
259.849	94.12
260.081	99.12
260.314	102.12
260.547	94.12
260.779	84.12
261.012	96.12
261.244	102.12
261.477	93.12
261.71	92.12
261.942	95.12
262.175	94.12
262.407	106.12
262.64	102.12
262.872	108.12
263.105	110.12
263.337	89.12
263.57	106.12
263.802	112.12
264.035	109.12
264.267	100.12
264.499	92.12
264.732	109.12
264.964	94.12
265.197	103.12
265.429	94.12
265.661	96.12
265.894	111.12
266.126	123.12
266.358	106.12
266.591	103.12
266.823	99.12
267.055	96.12
267.287	101.12
267.52	113.12
267.752	100.12
267.984	101.12
268.216	94.12
268.448	95.12
268.681	104.12
268.913	94.12
269.145	108.12
269.377	88.12
269.609	111.12
269.841	103.12
270.073	103.12
270.306	104.12
270.538	109.12
270.77	109.12
271.002	104.12
271.234	106.12
271.466	117.12
271.698	96.12
271.93	110.12
272.162	105.12
272.394	113.12
272.626	93.12
272.858	108.12
273.09	111.12
273.322	111.12
273.553	109.12
273.785	119.12
274.017	103.12
274.249	111.12
274.481	100.12
274.713	91.12
274.945	104.12
275.176	98.12
275.408	115.12
275.64	99.12
275.872	102.12
276.104	109.12
276.335	104.12
276.567	112.12
276.799	106.12
277.031	110.12
277.262	105.12
277.494	114.12
277.726	107.12
277.957	100.12
278.189	102.12
278.421	98.12
278.652	94.12
278.884	111.12
279.115	119.12
279.347	106.12
279.579	120.12
279.81	102.12
280.042	105.12
280.273	117.12
280.505	104.12
280.736	95.12
280.968	107.12
281.199	109.12
281.431	125.12
281.662	120.12
281.894	127.12
282.125	121.12
282.356	115.12
282.588	104.12
282.819	109.12
283.051	103.12
283.282	118.12
283.513	121.12
283.745	115.12
283.976	93.12
284.207	123.12
284.439	123.12
284.67	123.12
284.901	102.12
285.132	112.12
285.364	102.12
285.595	106.12
285.826	134.12
286.057	124.12
286.288	108.12
286.52	118.12
286.751	110.12
286.982	118.12
287.213	110.12
287.444	119.12
287.675	113.12
287.906	122.12
288.138	109.12
288.369	117.12
288.6	135.12
288.831	100.12
289.062	122.12
289.293	117.12
289.524	118.12
289.755	125.12
289.986	123.12
290.217	103.12
290.448	106.12
290.679	108.12
290.91	110.12
291.141	121.12
291.371	116.12
291.602	119.12
291.833	127.12
292.064	127.12
292.295	117.12
292.526	117.12
292.757	118.12
292.987	118.12
293.218	128.12
293.449	118.12
293.68	122.12
293.91	120.12
294.141	130.12
294.372	109.12
294.603	109.12
294.833	112.12
295.064	114.12
295.295	118.12
295.525	95.12
295.756	119.12
295.987	118.12
296.217	132.12
296.448	128.12
296.679	123.12
296.909	131.12
297.14	127.12
297.37	119.12
297.601	124.12
297.831	120.12
298.062	116.12
298.292	117.12
298.523	135.12
298.753	119.12
298.984	124.12
299.214	122.12
299.445	127.12
299.675	117.12
299.905	131.12
300.136	123.12
300.366	128.12
300.597	127.12
300.827	113.12
301.057	115.12
301.288	116.12
301.518	119.12
301.748	125.12
301.979	148.12
302.209	138.12
302.439	137.12
302.669	137.12
302.9	116.12
303.13	121.12
303.36	115.12
303.59	125.12
303.82	134.12
304.051	120.12
304.281	124.12
304.511	127.12
304.741	131.12
304.971	114.12
305.201	118.12
305.431	114.12
305.661	117.12
305.891	122.12
306.121	125.12
306.352	130.12
306.582	129.12
306.812	125.12
307.042	125.12
307.272	117.12
307.502	108.12
307.731	129.12
307.961	118.12
308.191	122.12
308.421	118.12
308.651	120.12
308.881	123.12
309.111	126.12
309.341	115.12
309.571	124.12
309.8	136.12
310.03	116.12
310.26	122.12
310.49	112.12
310.72	121.12
310.949	115.12
311.179	120.12
311.409	125.12
311.639	119.12
311.868	143.12
312.098	130.12
312.328	134.12
312.557	134.12
312.787	136.12
313.017	124.12
313.246	125.12
313.476	111.12
313.706	126.12
313.935	134.12
314.165	119.12
314.394	134.12
314.624	110.12
314.853	130.12
315.083	122.12
315.312	139.12
315.542	127.12
315.771	127.12
316.001	125.12
316.23	129.12
316.46	132.12
316.689	121.12
316.919	130.12
317.148	140.12
317.377	154.12
317.607	128.12
317.836	126.12
318.065	127.12
318.295	123.12
318.524	117.12
318.753	116.12
318.983	116.12
319.212	125.12
319.441	122.12
319.67	131.12
319.9	133.12
320.129	131.12
320.358	139.12
320.587	146.12
320.816	119.12
321.046	124.12
321.275	134.12
321.504	130.12
321.733	140.12
321.962	141.12
322.191	136.12
322.42	117.12
322.649	125.12
322.878	147.12
323.108	128.12
323.337	136.12
323.566	134.12
323.795	148.12
324.024	150.12
324.253	129.12
324.482	135.12
324.71	131.12
324.939	136.12
325.168	127.12
325.397	121.12
325.626	138.12
325.855	137.12
326.084	135.12
326.313	114.12
326.542	123.12
326.77	139.12
326.999	125.12
327.228	130.12
327.457	133.12
327.686	127.12
327.914	150.12
328.143	143.12
328.372	130.12
328.6	123.12
328.829	126.12
329.058	130.12
329.287	121.12
329.515	125.12
329.744	148.12
329.972	135.12
330.201	132.12
330.43	149.12
330.658	137.12
330.887	128.12
331.115	133.12
331.344	137.12
331.572	167.12
331.801	148.12
332.03	139.12
332.258	166.12
332.486	156.12
332.715	156.12
332.943	133.12
333.172	158.12
333.4	143.12
333.629	159.12
333.857	152.12
334.085	154.12
334.314	151.12
334.542	157.12
334.771	147.12
334.999	165.12
335.227	158.12
335.455	155.12
335.684	156.12
335.912	170.12
336.14	153.12
336.369	171.12
336.597	147.12
336.825	136.12
337.053	141.12
337.281	150.12
337.51	138.12
337.738	126.12
337.966	137.12
338.194	128.12
338.422	136.12
338.65	140.12
338.878	153.12
339.106	133.12
339.334	132.12
339.562	141.12
339.79	122.12
340.018	134.12
340.246	126.12
340.474	140.12
340.702	133.12
340.93	135.12
341.158	127.12
341.386	129.12
341.614	129.12
341.842	137.12
342.07	139.12
342.298	140.12
342.526	139.12
342.754	144.12
342.981	147.12
343.209	127.12
343.437	168.12
343.665	139.12
343.893	135.12
344.12	151.12
344.348	144.12
344.576	156.12
344.804	144.12
345.031	138.12
345.259	133.12
345.487	124.12
345.714	114.12
345.942	131.12
346.17	148.12
346.397	137.12
346.625	126.12
346.853	140.12
347.08	150.12
347.308	141.12
347.535	112.12
347.763	134.12
347.99	163.12
348.218	131.12
348.445	133.12
348.673	133.12
348.9	133.12
349.128	161.12
349.355	133.12
349.583	132.12
349.81	152.12
350.037	126.12
350.265	115.12
350.492	142.12
350.72	136.12
350.947	117.12
351.174	142.12
351.402	122.12
351.629	116.12
351.856	123.12
352.083	125.12
352.311	124.12
352.538	138.12
352.765	148.12
352.992	138.12
353.22	143.12
353.447	132.12
353.674	140.12
353.901	152.12
354.128	132.12
354.355	131.12
354.583	132.12
354.81	137.12
355.037	131.12
355.264	125.12
355.491	130.12
355.718	130.12
355.945	137.12
356.172	138.12
356.399	126.12
356.626	118.12
356.853	127.12
357.08	130.12
357.307	135.12
357.534	141.12
357.761	147.12
357.988	141.12
358.215	141.12
358.441	138.12
358.668	140.12
358.895	127.12
359.122	143.12
359.349	126.12
359.576	128.12
359.802	135.12
360.029	135.12
360.256	130.12
360.483	121.12
360.709	114.12
360.936	141.12
361.163	127.12
361.39	139.12
361.616	132.12
361.843	129.12
362.07	134.12
362.296	123.12
362.523	121.12
362.749	135.12
362.976	123.12
363.203	149.12
363.429	140.12
363.656	127.12
363.882	123.12
364.109	143.12
364.335	136.12
364.562	130.12
364.788	130.12
365.015	128.12
365.241	126.12
365.468	135.12
365.694	117.12
365.92	121.12
366.147	124.12
366.373	142.12
366.599	131.12
366.826	126.12
367.052	144.12
367.278	135.12
367.505	144.12
367.731	167.12
367.957	139.12
368.184	132.12
368.41	121.12
368.636	141.12
368.862	132.12
369.089	138.12
369.315	123.12
369.541	133.12
369.767	142.12
369.993	142.12
370.219	146.12
370.445	128.12
370.672	140.12
370.898	130.12
371.124	132.12
371.35	138.12
371.576	146.12
371.802	130.12
372.028	151.12
372.254	141.12
372.48	142.12
372.706	135.12
372.932	140.12
373.158	146.12
373.384	148.12
373.61	152.12
373.835	169.12
374.061	148.12
374.287	154.12
374.513	148.12
374.739	125.12
374.965	136.12
375.191	136.12
375.416	156.12
375.642	164.12
375.868	169.12
376.094	147.12
376.319	131.12
376.545	164.12
376.771	137.12
376.997	147.12
377.222	146.12
377.448	149.12
377.674	146.12
377.899	134.12
378.125	147.12
378.35	141.12
378.576	143.12
378.802	154.12
379.027	147.12
379.253	157.12
379.478	140.12
379.704	154.12
379.929	147.12
380.155	137.12
380.38	142.12
380.606	151.12
380.831	146.12
381.057	149.12
381.282	147.12
381.507	141.12
381.733	153.12
381.958	148.12
382.184	144.12
382.409	136.12
382.634	154.12
382.86	159.12
383.085	153.12
383.31	151.12
383.535	164.12
383.761	172.12
383.986	153.12
384.211	157.12
384.436	165.12
384.662	160.12
384.887	167.12
385.112	152.12
385.337	174.12
385.562	165.12
385.787	159.12
386.013	170.12
386.238	174.12
386.463	163.12
386.688	177.12
386.913	158.12
387.138	171.12
387.363	154.12
387.588	182.12
387.813	165.12
388.038	151.12
388.263	168.12
388.488	184.12
388.713	179.12
388.938	147.12
389.163	173.12
389.387	166.12
389.612	180.12
389.837	167.12
390.062	178.12
390.287	179.12
390.512	176.12
390.736	167.12
390.961	168.12
391.186	182.12
391.411	173.12
391.636	187.12
391.86	189.12
392.085	204.12
392.31	182.12
392.534	178.12
392.759	188.12
392.984	188.12
393.208	176.12
393.433	171.12
393.658	195.12
393.882	180.12
394.107	179.12
394.331	190.12
394.556	195.12
394.78	188.12
395.005	170.12
395.229	187.12
395.454	202.12
395.678	190.12
395.903	207.12
396.127	202.12
396.352	194.12
396.576	197.12
396.801	207.12
397.025	198.12
397.249	205.12
397.474	189.12
397.698	199.12
397.922	208.12
398.147	204.12
398.371	223.12
398.595	215.12
398.82	221.12
399.044	260.12
399.268	265.12
399.492	286.12
399.717	300.12
399.941	299.12
400.165	261.12
400.389	243.12
400.613	242.12
400.837	222.12
401.062	234.12
401.286	235.12
401.51	214.12
401.734	233.12
401.958	232.12
402.182	237.12
402.406	238.12
402.63	243.12
402.854	255.12
403.078	251.12
403.302	259.12
403.526	265.12
403.75	272.12
403.974	275.12
404.198	268.12
404.422	251.12
404.645	254.12
404.869	254.12
405.093	287.12
405.317	246.12
405.541	274.12
405.765	270.12
405.988	253.12
406.212	285.12
406.436	266.12
406.66	287.12
406.883	278.12
407.107	288.12
407.331	295.12
407.555	287.12
407.778	306.12
408.002	274.12
408.226	290.12
408.449	295.12
408.673	286.12
408.896	290.12
409.12	266.12
409.344	288.12
409.567	275.12
409.791	292.12
410.014	294.12
410.238	280.12
410.461	295.12
410.685	288.12
410.908	274.12
411.132	284.12
411.355	261.12
411.578	269.12
411.802	267.12
412.025	252.12
412.249	253.12
412.472	262.12
412.695	268.12
412.919	252.12
413.142	264.12
413.365	263.12
413.589	288.12
413.812	274.12
414.035	284.12
414.258	264.12
414.482	273.12
414.705	251.12
414.928	274.12
415.151	272.12
415.374	267.12
415.597	254.12
415.821	272.12
416.044	276.12
416.267	278.12
416.49	267.12
416.713	262.12
416.936	297.12
417.159	277.12
417.382	281.12
417.605	291.12
417.828	296.12
418.051	291.12
418.274	280.12
418.497	283.12
418.72	286.12
418.943	287.12
419.166	315.12
419.389	310.12
419.611	302.12
419.834	289.12
420.057	285.12
420.28	295.12
420.503	278.12
420.726	266.12
420.948	296.12
421.171	281.12
421.394	296.12
421.617	289.12
421.839	298.12
422.062	299.12
422.285	282.12
422.507	298.12
422.73	273.12
422.953	284.12
423.175	281.12
423.398	303.12
423.621	300.12
423.843	298.12
424.066	326.12
424.288	311.12
424.511	290.12
424.733	301.12
424.956	298.12
425.178	301.12
425.401	303.12
425.623	283.12
425.846	292.12
426.068	270.12
426.291	266.12
426.513	280.12
426.735	264.12
426.958	285.12
427.18	287.12
427.402	269.12
427.625	279.12
427.847	270.12
428.069	274.12
428.292	259.12
428.514	261.12
428.736	252.12
428.958	274.12
429.181	268.12
429.403	274.12
429.625	251.12
429.847	258.12
430.069	262.12
430.292	270.12
430.514	247.12
430.736	260.12
430.958	279.12
431.18	260.12
431.402	261.12
431.624	238.12
431.846	230.12
432.068	235.12
432.29	240.12
432.512	240.12
432.734	245.12
432.956	266.12
433.178	276.12
433.4	275.12
433.622	286.12
433.844	276.12
434.066	255.12
434.287	228.12
434.509	231.12
434.731	264.12
434.953	252.12
435.175	268.12
435.397	272.12
435.618	252.12
435.84	248.12
436.062	236.12
436.284	255.12
436.505	267.12
436.727	275.12
436.949	259.12
437.17	262.12
437.392	268.12
437.614	261.12
437.835	240.12
438.057	222.12
438.278	221.12
438.5	232.12
438.721	290.12
438.943	280.12
439.165	276.12
439.386	289.12
439.608	278.12
439.829	279.12
440.05	304.12
440.272	278.12
440.493	272.12
440.715	269.12
440.936	269.12
441.158	303.12
441.379	300.12
441.6	306.12
441.822	304.12
442.043	305.12
442.264	295.12
442.486	285.12
442.707	282.12
442.928	303.12
443.149	302.12
443.371	303.12
443.592	305.12
443.813	300.12
444.034	298.12
444.255	318.12
444.476	299.12
444.698	337.12
444.919	344.12
445.14	521.12
445.361	388.12
445.582	314.12
445.803	295.12
446.024	294.12
446.245	308.12
446.466	293.12
446.687	289.12
446.908	311.12
447.129	300.12
447.35	292.12
447.571	283.12
447.792	287.12
448.013	283.12
448.234	269.12
448.455	261.12
448.675	278.12
448.896	269.12
449.117	263.12
449.338	255.12
449.559	263.12
449.779	262.12
450	259.12
450.221	255.12
450.442	239.12
450.662	264.12
450.883	249.12
451.104	255.12
451.324	255.12
451.545	243.12
451.766	246.12
451.986	254.12
452.207	254.12
452.428	261.12
452.648	246.12
452.869	229.12
453.089	236.12
453.31	239.12
453.53	210.12
453.751	218.12
453.971	216.12
454.192	226.12
454.412	210.12
454.633	222.12
454.853	228.12
455.073	223.12
455.294	237.12
455.514	247.12
455.734	230.12
455.955	224.12
456.175	238.12
456.395	224.12
456.616	222.12
456.836	228.12
457.056	208.12
457.276	211.12
457.497	211.12
457.717	208.12
457.937	232.12
458.157	212.12
458.377	215.12
458.598	202.12
458.818	211.12
459.038	209.12
459.258	201.12
459.478	220.12
459.698	235.12
459.918	237.12
460.138	251.12
460.358	266.12
460.578	267.12
460.798	262.12
461.018	264.12
461.238	258.12
461.458	268.12
461.678	256.12
461.898	274.12
462.118	290.12
462.338	283.12
462.558	285.12
462.777	303.12
462.997	305.12
463.217	338.12
463.437	323.12
463.657	280.12
463.876	278.12
464.096	274.12
464.316	285.12
464.536	269.12
464.755	278.12
464.975	295.12
465.195	267.12
465.414	267.12
465.634	244.12
465.854	259.12
466.073	257.12
466.293	255.12
466.512	244.12
466.732	262.12
466.951	251.12
467.171	266.12
467.391	265.12
467.61	248.12
467.829	249.12
468.049	245.12
468.268	229.12
468.488	256.12
468.707	258.12
468.927	246.12
469.146	251.12
469.365	263.12
469.585	264.12
469.804	268.12
470.023	286.12
470.243	284.12
470.462	267.12
470.681	263.12
470.901	276.12
471.12	271.12
471.339	276.12
471.558	282.12
471.777	271.12
471.997	255.12
472.216	235.12
472.435	218.12
472.654	221.12
472.873	223.12
473.092	223.12
473.311	230.12
473.53	245.12
473.749	247.12
473.968	243.12
474.187	241.12
474.406	254.12
474.625	246.12
474.844	266.12
475.063	259.12
475.282	237.12
475.501	235.12
475.72	231.12
475.939	234.12
476.158	254.12
476.377	248.12
476.596	243.12
476.814	222.12
477.033	207.12
477.252	240.12
477.471	241.12
477.69	265.12
477.908	276.12
478.127	290.12
478.346	294.12
478.564	273.12
478.783	290.12
479.002	310.12
479.22	277.12
479.439	284.12
479.658	280.12
479.876	251.12
480.095	254.12
480.313	277.12
480.532	276.12
480.751	276.12
480.969	222.12
481.188	222.12
481.406	231.12
481.624	208.12
481.843	207.12
482.061	230.12
482.28	240.12
482.498	229.12
482.717	242.12
482.935	260.12
483.153	273.12
483.372	276.12
483.59	280.12
483.808	264.12
484.027	256.12
484.245	272.12
484.463	266.12
484.681	299.12
484.9	270.12
485.118	272.12
485.336	270.12
485.554	245.12
485.772	230.12
485.99	241.12
486.209	249.12
486.427	254.12
486.645	267.12
486.863	292.12
487.081	284.12
487.299	278.12
487.517	272.12
487.735	307.12
487.953	342.12
488.171	316.12
488.389	322.12
488.607	294.12
488.825	278.12
489.043	266.12
489.261	268.12
489.479	277.12
489.696	298.12
489.914	282.12
490.132	287.12
490.35	288.12
490.568	309.12
490.786	331.12
491.003	328.12
491.221	343.12
491.439	348.12
491.657	356.12
491.874	377.12
492.092	384.12
492.31	424.12
492.527	380.12
492.745	368.12
492.963	358.12
493.18	359.12
493.398	356.12
493.615	381.12
493.833	342.12
494.05	355.12
494.268	338.12
494.485	362.12
494.703	346.12
494.92	339.12
495.138	329.12
495.355	329.12
495.573	352.12
495.79	340.12
496.008	352.12
496.225	348.12
496.442	334.12
496.66	338.12
496.877	332.12
497.094	326.12
497.312	330.12
497.529	336.12
497.746	332.12
497.963	313.12
498.181	306.12
498.398	329.12
498.615	338.12
498.832	334.12
499.049	370.12
499.267	394.12
499.484	420.12
499.701	459.12
499.918	510.12
500.135	589.12
500.352	635.12
500.569	626.12
500.786	633.12
501.003	581.12
501.22	523.12
501.437	477.12
501.654	429.12
501.871	389.12
502.088	373.12
502.305	363.12
502.522	347.12
502.739	353.12
502.956	335.12
503.172	318.12
503.389	298.12
503.606	300.12
503.823	295.12
504.04	309.12
504.256	282.12
504.473	323.12
504.69	298.12
