Data from Uncirc_1996_H10_HRD10591_00074.txt Node
Date: Wed Jan 03 11:32:17 EST 2024
User: Yrep
Spectrometer: HR+D1059
Trigger mode: 1
Integration Time (sec): 1.000000E-1
Scans to average: 1
Electric dark correction enabled: true
Nonlinearity correction enabled: false
Boxcar width: 0
XAxis mode: Wavelengths
Number of Pixels in Spectrum: 2048
>>>>>Begin Spectral Data<<<<<
223.165	-27.69
223.4	-27.69
223.635	-27.69
223.869	-20.69
224.104	-15.69
224.338	-18.69
224.573	-11.69
224.808	-7.69
225.042	10.31
225.277	-9.69
225.511	-4.69
225.746	4.31
225.98	4.31
226.215	11.31
226.449	-3.69
226.683	16.31
226.918	30.31
227.152	43.31
227.387	26.31
227.621	47.31
227.856	37.31
228.09	35.31
228.324	50.31
228.559	57.31
228.793	58.31
229.027	61.31
229.262	69.31
229.496	68.31
229.73	73.31
229.964	72.31
230.199	73.31
230.433	74.31
230.667	83.31
230.901	71.31
231.136	74.31
231.37	87.31
231.604	78.31
231.838	87.31
232.072	91.31
232.306	80.31
232.541	103.31
232.775	72.31
233.009	88.31
233.243	71.31
233.477	74.31
233.711	86.31
233.945	79.31
234.179	76.31
234.413	81.31
234.647	82.31
234.881	74.31
235.115	74.31
235.349	83.31
235.583	75.31
235.817	65.31
236.051	75.31
236.285	82.31
236.519	66.31
236.753	75.31
236.987	86.31
237.221	96.31
237.455	81.31
237.689	74.31
237.922	74.31
238.156	75.31
238.39	76.31
238.624	75.31
238.858	74.31
239.091	79.31
239.325	66.31
239.559	67.31
239.793	75.31
240.027	81.31
240.26	61.31
240.494	96.31
240.728	76.31
240.961	79.31
241.195	78.31
241.429	79.31
241.662	75.31
241.896	73.31
242.13	80.31
242.363	72.31
242.597	82.31
242.83	70.31
243.064	90.31
243.298	80.31
243.531	70.31
243.765	70.31
243.998	74.31
244.232	76.31
244.465	65.31
244.699	84.31
244.932	89.31
245.166	76.31
245.399	71.31
245.633	80.31
245.866	75.31
246.099	78.31
246.333	73.31
246.566	70.31
246.8	83.31
247.033	84.31
247.266	76.31
247.5	81.31
247.733	84.31
247.966	61.31
248.2	69.31
248.433	74.31
248.666	71.31
248.899	86.31
249.133	89.31
249.366	95.31
249.599	86.31
249.832	84.31
250.066	94.31
250.299	75.31
250.532	78.31
250.765	78.31
250.998	87.31
251.231	76.31
251.465	81.31
251.698	61.31
251.931	77.31
252.164	63.31
252.397	81.31
252.63	82.31
252.863	80.31
253.096	76.31
253.329	84.31
253.562	79.31
253.795	74.31
254.028	93.31
254.261	79.31
254.494	74.31
254.727	87.31
254.96	86.31
255.193	82.31
255.426	72.31
255.659	87.31
255.892	89.31
256.124	96.31
256.357	91.31
256.59	72.31
256.823	87.31
257.056	81.31
257.289	78.31
257.521	75.31
257.754	79.31
257.987	86.31
258.22	91.31
258.452	80.31
258.685	82.31
258.918	80.31
259.151	83.31
259.383	90.31
259.616	77.31
259.849	79.31
260.081	77.31
260.314	90.31
260.547	88.31
260.779	78.31
261.012	81.31
261.244	62.31
261.477	86.31
261.71	89.31
261.942	103.31
262.175	115.31
262.407	97.31
262.64	82.31
262.872	87.31
263.105	83.31
263.337	86.31
263.57	80.31
263.802	81.31
264.035	86.31
264.267	79.31
264.499	89.31
264.732	82.31
264.964	91.31
265.197	88.31
265.429	89.31
265.661	88.31
265.894	95.31
266.126	88.31
266.358	71.31
266.591	85.31
266.823	95.31
267.055	87.31
267.287	96.31
267.52	62.31
267.752	70.31
267.984	87.31
268.216	75.31
268.448	90.31
268.681	102.31
268.913	100.31
269.145	86.31
269.377	84.31
269.609	86.31
269.841	90.31
270.073	89.31
270.306	90.31
270.538	71.31
270.77	69.31
271.002	91.31
271.234	88.31
271.466	72.31
271.698	83.31
271.93	82.31
272.162	96.31
272.394	90.31
272.626	77.31
272.858	64.31
273.09	95.31
273.322	91.31
273.553	82.31
273.785	77.31
274.017	84.31
274.249	75.31
274.481	83.31
274.713	91.31
274.945	84.31
275.176	88.31
275.408	90.31
275.64	88.31
275.872	83.31
276.104	81.31
276.335	89.31
276.567	90.31
276.799	95.31
277.031	91.31
277.262	90.31
277.494	74.31
277.726	72.31
277.957	81.31
278.189	93.31
278.421	88.31
278.652	94.31
278.884	87.31
279.115	100.31
279.347	72.31
279.579	72.31
279.81	87.31
280.042	91.31
280.273	93.31
280.505	82.31
280.736	74.31
280.968	86.31
281.199	80.31
281.431	97.31
281.662	75.31
281.894	79.31
282.125	90.31
282.356	103.31
282.588	122.31
282.819	97.31
283.051	91.31
283.282	92.31
283.513	90.31
283.745	87.31
283.976	81.31
284.207	76.31
284.439	94.31
284.67	74.31
284.901	72.31
285.132	88.31
285.364	90.31
285.595	87.31
285.826	77.31
286.057	88.31
286.288	88.31
286.52	93.31
286.751	70.31
286.982	99.31
287.213	79.31
287.444	66.31
287.675	81.31
287.906	89.31
288.138	83.31
288.369	80.31
288.6	84.31
288.831	89.31
289.062	77.31
289.293	90.31
289.524	94.31
289.755	83.31
289.986	93.31
290.217	82.31
290.448	93.31
290.679	93.31
290.91	88.31
291.141	100.31
291.371	91.31
291.602	85.31
291.833	80.31
292.064	94.31
292.295	95.31
292.526	89.31
292.757	90.31
292.987	95.31
293.218	79.31
293.449	88.31
293.68	91.31
293.91	94.31
294.141	92.31
294.372	88.31
294.603	85.31
294.833	81.31
295.064	80.31
295.295	91.31
295.525	106.31
295.756	102.31
295.987	106.31
296.217	130.31
296.448	126.31
296.679	96.31
296.909	93.31
297.14	98.31
297.37	81.31
297.601	90.31
297.831	82.31
298.062	85.31
298.292	90.31
298.523	86.31
298.753	75.31
298.984	93.31
299.214	72.31
299.445	92.31
299.675	94.31
299.905	75.31
300.136	92.31
300.366	89.31
300.597	79.31
300.827	93.31
301.057	102.31
301.288	90.31
301.518	91.31
301.748	77.31
301.979	118.31
302.209	79.31
302.439	92.31
302.669	97.31
302.9	84.31
303.13	84.31
303.36	94.31
303.59	89.31
303.82	93.31
304.051	82.31
304.281	75.31
304.511	95.31
304.741	83.31
304.971	92.31
305.201	91.31
305.431	85.31
305.661	86.31
305.891	86.31
306.121	109.31
306.352	94.31
306.582	94.31
306.812	103.31
307.042	89.31
307.272	78.31
307.502	93.31
307.731	92.31
307.961	89.31
308.191	88.31
308.421	94.31
308.651	87.31
308.881	93.31
309.111	90.31
309.341	104.31
309.571	95.31
309.8	97.31
310.03	87.31
310.26	104.31
310.49	90.31
310.72	95.31
310.949	97.31
311.179	95.31
311.409	92.31
311.639	99.31
311.868	92.31
312.098	79.31
312.328	90.31
312.557	110.31
312.787	84.31
313.017	106.31
313.246	95.31
313.476	80.31
313.706	95.31
313.935	107.31
314.165	99.31
314.394	90.31
314.624	101.31
314.853	105.31
315.083	100.31
315.312	97.31
315.542	85.31
315.771	86.31
316.001	90.31
316.23	91.31
316.46	95.31
316.689	99.31
316.919	87.31
317.148	92.31
317.377	90.31
317.607	93.31
317.836	88.31
318.065	89.31
318.295	100.31
318.524	92.31
318.753	103.31
318.983	95.31
319.212	108.31
319.441	100.31
319.67	83.31
319.9	93.31
320.129	89.31
320.358	94.31
320.587	90.31
320.816	92.31
321.046	98.31
321.275	95.31
321.504	87.31
321.733	97.31
321.962	96.31
322.191	98.31
322.42	95.31
322.649	103.31
322.878	111.31
323.108	124.31
323.337	116.31
323.566	109.31
323.795	124.31
324.024	188.31
324.253	352.31
324.482	753.31
324.71	1546.31
324.939	1987.31
325.168	721.31
325.397	224.31
325.626	142.31
325.855	138.31
326.084	143.31
326.313	147.31
326.542	138.31
326.77	207.31
326.999	415.31
327.228	849.31
327.457	1539.31
327.686	1178.31
327.914	348.31
328.143	192.31
328.372	142.31
328.6	115.31
328.829	111.31
329.058	123.31
329.287	123.31
329.515	107.31
329.744	98.31
329.972	106.31
330.201	110.31
330.43	96.31
330.658	128.31
330.887	121.31
331.115	129.31
331.344	98.31
331.572	107.31
331.801	91.31
332.03	108.31
332.258	92.31
332.486	107.31
332.715	83.31
332.943	88.31
333.172	97.31
333.4	106.31
333.629	91.31
333.857	105.31
334.085	108.31
334.314	107.31
334.542	82.31
334.771	91.31
334.999	89.31
335.227	103.31
335.455	96.31
335.684	101.31
335.912	89.31
336.14	94.31
336.369	90.31
336.597	87.31
336.825	96.31
337.053	111.31
337.281	93.31
337.51	96.31
337.738	86.31
337.966	91.31
338.194	110.31
338.422	99.31
338.65	100.31
338.878	84.31
339.106	90.31
339.334	92.31
339.562	88.31
339.79	86.31
340.018	94.31
340.246	81.31
340.474	106.31
340.702	81.31
340.93	86.31
341.158	86.31
341.386	100.31
341.614	85.31
341.842	108.31
342.07	93.31
342.298	83.31
342.526	100.31
342.754	108.31
342.981	100.31
343.209	84.31
343.437	107.31
343.665	95.31
343.893	113.31
344.12	94.31
344.348	84.31
344.576	91.31
344.804	82.31
345.031	91.31
345.259	97.31
345.487	88.31
345.714	96.31
345.942	88.31
346.17	80.31
346.397	94.31
346.625	90.31
346.853	92.31
347.08	90.31
347.308	87.31
347.535	86.31
347.763	99.31
347.99	104.31
348.218	95.31
348.445	94.31
348.673	95.31
348.9	90.31
349.128	87.31
349.355	73.31
349.583	99.31
349.81	108.31
350.037	100.31
350.265	100.31
350.492	95.31
350.72	90.31
350.947	95.31
351.174	100.31
351.402	126.31
351.629	91.31
351.856	104.31
352.083	92.31
352.311	107.31
352.538	98.31
352.765	105.31
352.992	110.31
353.22	120.31
353.447	104.31
353.674	106.31
353.901	106.31
354.128	99.31
354.355	102.31
354.583	100.31
354.81	84.31
355.037	92.31
355.264	88.31
355.491	89.31
355.718	97.31
355.945	104.31
356.172	108.31
356.399	106.31
356.626	86.31
356.853	97.31
357.08	98.31
357.307	83.31
357.534	91.31
357.761	98.31
357.988	103.31
358.215	108.31
358.441	78.31
358.668	78.31
358.895	88.31
359.122	86.31
359.349	88.31
359.576	90.31
359.802	97.31
360.029	98.31
360.256	94.31
360.483	90.31
360.709	100.31
360.936	89.31
361.163	93.31
361.39	97.31
361.616	86.31
361.843	82.31
362.07	85.31
362.296	94.31
362.523	91.31
362.749	95.31
362.976	87.31
363.203	90.31
363.429	92.31
363.656	100.31
363.882	81.31
364.109	79.31
364.335	95.31
364.562	100.31
364.788	86.31
365.015	89.31
365.241	99.31
365.468	97.31
365.694	98.31
365.92	86.31
366.147	104.31
366.373	84.31
366.599	91.31
366.826	93.31
367.052	76.31
367.278	102.31
367.505	91.31
367.731	98.31
367.957	94.31
368.184	82.31
368.41	94.31
368.636	112.31
368.862	122.31
369.089	110.31
369.315	94.31
369.541	80.31
369.767	91.31
369.993	87.31
370.219	93.31
370.445	89.31
370.672	94.31
370.898	99.31
371.124	92.31
371.35	91.31
371.576	74.31
371.802	89.31
372.028	89.31
372.254	93.31
372.48	87.31
372.706	97.31
372.932	92.31
373.158	86.31
373.384	70.31
373.61	100.31
373.835	89.31
374.061	84.31
374.287	89.31
374.513	82.31
374.739	82.31
374.965	87.31
375.191	83.31
375.416	87.31
375.642	93.31
375.868	90.31
376.094	111.31
376.319	86.31
376.545	72.31
376.771	75.31
376.997	79.31
377.222	96.31
377.448	100.31
377.674	82.31
377.899	91.31
378.125	83.31
378.35	80.31
378.576	88.31
378.802	84.31
379.027	86.31
379.253	98.31
379.478	95.31
379.704	98.31
379.929	90.31
380.155	75.31
380.38	95.31
380.606	97.31
380.831	88.31
381.057	95.31
381.282	95.31
381.507	89.31
381.733	93.31
381.958	99.31
382.184	85.31
382.409	102.31
382.634	93.31
382.86	96.31
383.085	89.31
383.31	104.31
383.535	87.31
383.761	88.31
383.986	85.31
384.211	96.31
384.436	102.31
384.662	108.31
384.887	85.31
385.112	89.31
385.337	95.31
385.562	103.31
385.787	100.31
386.013	96.31
386.238	103.31
386.463	107.31
386.688	115.31
386.913	107.31
387.138	112.31
387.363	110.31
387.588	107.31
387.813	96.31
388.038	106.31
388.263	102.31
388.488	102.31
388.713	95.31
388.938	80.31
389.163	103.31
389.387	102.31
389.612	92.31
389.837	96.31
390.062	90.31
390.287	77.31
390.512	96.31
390.736	86.31
390.961	88.31
391.186	106.31
391.411	107.31
391.636	83.31
391.86	82.31
392.085	77.31
392.31	88.31
392.534	78.31
392.759	86.31
392.984	93.31
393.208	105.31
393.433	99.31
393.658	83.31
393.882	72.31
394.107	92.31
394.331	87.31
394.556	87.31
394.78	82.31
395.005	99.31
395.229	104.31
395.454	88.31
395.678	101.31
395.903	88.31
396.127	88.31
396.352	77.31
396.576	94.31
396.801	90.31
397.025	80.31
397.249	83.31
397.474	85.31
397.698	89.31
397.922	83.31
398.147	86.31
398.371	86.31
398.595	86.31
398.82	78.31
399.044	88.31
399.268	84.31
399.492	93.31
399.717	79.31
399.941	75.31
400.165	86.31
400.389	86.31
400.613	88.31
400.837	83.31
401.062	76.31
401.286	92.31
401.51	91.31
401.734	95.31
401.958	100.31
402.182	116.31
402.406	150.31
402.63	132.31
402.854	96.31
403.078	104.31
403.302	73.31
403.526	92.31
403.75	70.31
403.974	77.31
404.198	86.31
404.422	88.31
404.645	93.31
404.869	100.31
405.093	94.31
405.317	103.31
405.541	97.31
405.765	102.31
405.988	98.31
406.212	151.31
406.436	213.31
406.66	128.31
406.883	115.31
407.107	97.31
407.331	98.31
407.555	95.31
407.778	99.31
408.002	86.31
408.226	99.31
408.449	99.31
408.673	96.31
408.896	95.31
409.12	107.31
409.344	96.31
409.567	84.31
409.791	92.31
410.014	96.31
410.238	98.31
410.461	99.31
410.685	100.31
410.908	101.31
411.132	115.31
411.355	111.31
411.578	94.31
411.802	94.31
412.025	87.31
412.249	105.31
412.472	98.31
412.695	96.31
412.919	83.31
413.142	93.31
413.365	89.31
413.589	87.31
413.812	88.31
414.035	100.31
414.258	105.31
414.482	96.31
414.705	94.31
414.928	89.31
415.151	91.31
415.374	97.31
415.597	82.31
415.821	91.31
416.044	80.31
416.267	90.31
416.49	108.31
416.713	90.31
416.936	95.31
417.159	82.31
417.382	88.31
417.605	82.31
417.828	91.31
418.051	93.31
418.274	90.31
418.497	100.31
418.72	89.31
418.943	96.31
419.166	93.31
419.389	90.31
419.611	73.31
419.834	94.31
420.057	99.31
420.28	88.31
420.503	84.31
420.726	86.31
420.948	86.31
421.171	75.31
421.394	96.31
421.617	100.31
421.839	96.31
422.062	83.31
422.285	98.31
422.507	104.31
422.73	107.31
422.953	97.31
423.175	95.31
423.398	92.31
423.621	94.31
423.843	88.31
424.066	84.31
424.288	72.31
424.511	83.31
424.733	103.31
424.956	111.31
425.178	111.31
425.401	100.31
425.623	106.31
425.846	89.31
426.068	96.31
426.291	79.31
426.513	100.31
426.735	103.31
426.958	92.31
427.18	110.31
427.402	118.31
427.625	154.31
427.847	112.31
428.069	100.31
428.292	96.31
428.514	81.31
428.736	88.31
428.958	80.31
429.181	94.31
429.403	84.31
429.625	79.31
429.847	97.31
430.069	103.31
430.292	97.31
430.514	88.31
430.736	89.31
430.958	86.31
431.18	75.31
431.402	90.31
431.624	88.31
431.846	106.31
432.068	82.31
432.29	88.31
432.512	83.31
432.734	79.31
432.956	95.31
433.178	94.31
433.4	90.31
433.622	93.31
433.844	95.31
434.066	95.31
434.287	84.31
434.509	97.31
434.731	90.31
434.953	90.31
435.175	65.31
435.397	90.31
435.618	99.31
435.84	110.31
436.062	124.31
436.284	113.31
436.505	96.31
436.727	106.31
436.949	91.31
437.17	86.31
437.392	80.31
437.614	105.31
437.835	105.31
438.057	110.31
438.278	115.31
438.5	99.31
438.721	107.31
438.943	115.31
439.165	81.31
439.386	85.31
439.608	87.31
439.829	108.31
440.05	110.31
440.272	136.31
440.493	89.31
440.715	91.31
440.936	82.31
441.158	91.31
441.379	79.31
441.6	103.31
441.822	92.31
442.043	77.31
442.264	106.31
442.486	103.31
442.707	91.31
442.928	97.31
443.149	120.31
443.371	131.31
443.592	110.31
443.813	94.31
444.034	110.31
444.255	94.31
444.476	86.31
444.698	87.31
444.919	76.31
445.14	156.31
445.361	123.31
445.582	107.31
445.803	128.31
446.024	135.31
446.245	140.31
446.466	119.31
446.687	83.31
446.908	85.31
447.129	88.31
447.35	98.31
447.571	106.31
447.792	95.31
448.013	94.31
448.234	104.31
448.455	95.31
448.675	95.31
448.896	114.31
449.117	88.31
449.338	88.31
449.559	111.31
449.779	138.31
450	94.31
450.221	80.31
450.442	109.31
450.662	83.31
450.883	97.31
451.104	106.31
451.324	89.31
451.545	90.31
451.766	83.31
451.986	99.31
452.207	90.31
452.428	89.31
452.648	90.31
452.869	104.31
453.089	100.31
453.31	109.31
453.53	82.31
453.751	89.31
453.971	92.31
454.192	106.31
454.412	74.31
454.633	97.31
454.853	81.31
455.073	85.31
455.294	79.31
455.514	83.31
455.734	95.31
455.955	90.31
456.175	74.31
456.395	93.31
456.616	80.31
456.836	108.31
457.056	95.31
457.276	100.31
457.497	75.31
457.717	92.31
457.937	73.31
458.157	71.31
458.377	92.31
458.598	106.31
458.818	118.31
459.038	164.31
459.258	110.31
459.478	97.31
459.698	93.31
459.918	90.31
460.138	88.31
460.358	98.31
460.578	88.31
460.798	71.31
461.018	105.31
461.238	94.31
461.458	95.31
461.678	90.31
461.898	87.31
462.118	87.31
462.338	78.31
462.558	68.31
462.777	80.31
462.997	72.31
463.217	86.31
463.437	100.31
463.657	79.31
463.876	84.31
464.096	86.31
464.316	93.31
464.536	92.31
464.755	97.31
464.975	99.31
465.195	148.31
465.414	138.31
465.634	89.31
465.854	86.31
466.073	83.31
466.293	88.31
466.512	94.31
466.732	86.31
466.951	78.31
467.171	95.31
467.391	105.31
467.61	96.31
467.829	94.31
468.049	90.31
468.268	77.31
468.488	95.31
468.707	79.31
468.927	92.31
469.146	90.31
469.365	90.31
469.585	91.31
469.804	104.31
470.023	104.31
470.243	97.31
470.462	90.31
470.681	107.31
470.901	94.31
471.12	88.31
471.339	106.31
471.558	81.31
471.777	91.31
471.997	95.31
472.216	89.31
472.435	86.31
472.654	89.31
472.873	80.31
473.092	79.31
473.311	80.31
473.53	87.31
473.749	82.31
473.968	100.31
474.187	104.31
474.406	98.31
474.625	91.31
474.844	85.31
475.063	88.31
475.282	80.31
475.501	72.31
475.72	103.31
475.939	94.31
476.158	92.31
476.377	90.31
476.596	79.31
476.814	95.31
477.033	98.31
477.252	78.31
477.471	89.31
477.69	78.31
477.908	98.31
478.127	92.31
478.346	100.31
478.564	95.31
478.783	92.31
479.002	100.31
479.22	93.31
479.439	79.31
479.658	107.31
479.876	88.31
480.095	92.31
480.313	99.31
480.532	107.31
480.751	94.31
480.969	97.31
481.188	80.31
481.406	74.31
481.624	82.31
481.843	77.31
482.061	87.31
482.28	91.31
482.498	74.31
482.717	77.31
482.935	86.31
483.153	98.31
483.372	88.31
483.59	87.31
483.808	87.31
484.027	85.31
484.245	95.31
484.463	87.31
484.681	94.31
484.9	76.31
485.118	89.31
485.336	82.31
485.554	95.31
485.772	107.31
485.99	110.31
486.209	83.31
486.427	110.31
486.645	106.31
486.863	124.31
487.081	99.31
487.299	89.31
487.517	91.31
487.735	94.31
487.953	100.31
488.171	92.31
488.389	105.31
488.607	91.31
488.825	91.31
489.043	95.31
489.261	101.31
489.479	98.31
489.696	96.31
489.914	78.31
490.132	88.31
490.35	104.31
490.568	90.31
490.786	95.31
491.003	86.31
491.221	90.31
491.439	91.31
491.657	77.31
491.874	84.31
492.092	103.31
492.31	99.31
492.527	85.31
492.745	82.31
492.963	92.31
493.18	103.31
493.398	77.31
493.615	87.31
493.833	94.31
494.05	93.31
494.268	105.31
494.485	85.31
494.703	93.31
494.92	95.31
495.138	93.31
495.355	107.31
495.573	94.31
495.79	95.31
496.008	101.31
496.225	89.31
496.442	88.31
496.66	95.31
496.877	96.31
497.094	91.31
497.312	92.31
497.529	84.31
497.746	98.31
497.963	89.31
498.181	87.31
498.398	98.31
498.615	96.31
498.832	103.31
499.049	99.31
499.267	109.31
499.484	86.31
499.701	86.31
499.918	89.31
500.135	99.31
500.352	91.31
500.569	80.31
500.786	85.31
501.003	88.31
501.22	97.31
501.437	100.31
501.654	91.31
501.871	94.31
502.088	79.31
502.305	87.31
502.522	97.31
502.739	82.31
502.956	90.31
503.172	99.31
503.389	95.31
503.606	103.31
503.823	106.31
504.04	104.31
504.256	89.31
504.473	97.31
504.69	72.31
504.907	90.31
505.123	81.31
505.34	97.31
505.557	95.31
505.773	96.31
505.99	91.31
506.207	90.31
506.423	83.31
506.64	90.31
506.856	86.31
507.073	93.31
507.289	88.31
507.506	96.31
507.722	110.31
507.939	96.31
508.155	102.31
508.372	82.31
508.588	91.31
508.805	92.31
509.021	94.31
509.238	103.31
509.454	102.31
509.67	96.31
509.887	86.31
510.103	143.31
510.319	200.31
510.536	656.31
510.752	2016.31
510.968	566.31
511.184	153.31
511.401	118.31
511.617	103.31
511.833	97.31
512.049	91.31
512.265	94.31
512.481	82.31
512.698	78.31
512.914	90.31
513.13	90.31
513.346	98.31
513.562	106.31
513.778	106.31
513.994	95.31
514.21	85.31
514.426	120.31
514.642	121.31
514.858	113.31
515.074	152.31
515.29	398.31
515.506	1238.31
515.721	466.31
515.937	134.31
