Data from Uncirc_1996_H10_HRD10591_00093.txt Node
Date: Wed Jan 03 11:32:21 EST 2024
User: Yrep
Spectrometer: HR+D1059
Trigger mode: 1
Integration Time (sec): 1.000000E-1
Scans to average: 1
Electric dark correction enabled: true
Nonlinearity correction enabled: false
Boxcar width: 0
XAxis mode: Wavelengths
Number of Pixels in Spectrum: 2048
>>>>>Begin Spectral Data<<<<<
223.165	-20.38
223.4	-20.38
223.635	-20.38
223.869	-23.38
224.104	-2.38
224.338	-20.38
224.573	-32.38
224.808	-12.38
225.042	-5.38
225.277	2.62
225.511	0.62
225.746	9.62
225.98	3.62
226.215	19.62
226.449	11.62
226.683	24.62
226.918	13.62
227.152	30.62
227.387	47.62
227.621	33.62
227.856	41.62
228.09	44.62
228.324	47.62
228.559	44.62
228.793	61.62
229.027	65.62
229.262	66.62
229.496	60.62
229.73	87.62
229.964	93.62
230.199	77.62
230.433	80.62
230.667	66.62
230.901	71.62
231.136	82.62
231.37	69.62
231.604	68.62
231.838	96.62
232.072	69.62
232.306	89.62
232.541	84.62
232.775	73.62
233.009	85.62
233.243	75.62
233.477	69.62
233.711	78.62
233.945	83.62
234.179	93.62
234.413	84.62
234.647	77.62
234.881	75.62
235.115	89.62
235.349	68.62
235.583	85.62
235.817	63.62
236.051	67.62
236.285	65.62
236.519	73.62
236.753	75.62
236.987	83.62
237.221	94.62
237.455	82.62
237.689	83.62
237.922	78.62
238.156	69.62
238.39	72.62
238.624	80.62
238.858	82.62
239.091	75.62
239.325	75.62
239.559	80.62
239.793	71.62
240.027	77.62
240.26	71.62
240.494	81.62
240.728	64.62
240.961	77.62
241.195	89.62
241.429	75.62
241.662	79.62
241.896	81.62
242.13	76.62
242.363	85.62
242.597	72.62
242.83	72.62
243.064	75.62
243.298	83.62
243.531	77.62
243.765	77.62
243.998	72.62
244.232	68.62
244.465	79.62
244.699	96.62
244.932	59.62
245.166	74.62
245.399	66.62
245.633	80.62
245.866	56.62
246.099	84.62
246.333	66.62
246.566	85.62
246.8	80.62
247.033	67.62
247.266	70.62
247.5	81.62
247.733	77.62
247.966	79.62
248.2	88.62
248.433	84.62
248.666	84.62
248.899	89.62
249.133	82.62
249.366	79.62
249.599	93.62
249.832	70.62
250.066	67.62
250.299	72.62
250.532	86.62
250.765	92.62
250.998	84.62
251.231	88.62
251.465	95.62
251.698	87.62
251.931	84.62
252.164	70.62
252.397	85.62
252.63	80.62
252.863	90.62
253.096	71.62
253.329	69.62
253.562	72.62
253.795	77.62
254.028	88.62
254.261	90.62
254.494	77.62
254.727	90.62
254.96	87.62
255.193	85.62
255.426	90.62
255.659	88.62
255.892	81.62
256.124	82.62
256.357	85.62
256.59	104.62
256.823	73.62
257.056	92.62
257.289	86.62
257.521	73.62
257.754	75.62
257.987	82.62
258.22	88.62
258.452	85.62
258.685	73.62
258.918	82.62
259.151	79.62
259.383	81.62
259.616	79.62
259.849	75.62
260.081	79.62
260.314	78.62
260.547	78.62
260.779	73.62
261.012	77.62
261.244	83.62
261.477	94.62
261.71	83.62
261.942	112.62
262.175	114.62
262.407	96.62
262.64	76.62
262.872	77.62
263.105	98.62
263.337	91.62
263.57	86.62
263.802	89.62
264.035	85.62
264.267	80.62
264.499	83.62
264.732	88.62
264.964	87.62
265.197	77.62
265.429	92.62
265.661	73.62
265.894	76.62
266.126	77.62
266.358	70.62
266.591	83.62
266.823	79.62
267.055	95.62
267.287	82.62
267.52	93.62
267.752	81.62
267.984	84.62
268.216	75.62
268.448	89.62
268.681	92.62
268.913	84.62
269.145	92.62
269.377	77.62
269.609	98.62
269.841	88.62
270.073	92.62
270.306	93.62
270.538	89.62
270.77	90.62
271.002	86.62
271.234	80.62
271.466	84.62
271.698	83.62
271.93	72.62
272.162	87.62
272.394	82.62
272.626	73.62
272.858	81.62
273.09	83.62
273.322	82.62
273.553	78.62
273.785	72.62
274.017	68.62
274.249	76.62
274.481	95.62
274.713	78.62
274.945	99.62
275.176	90.62
275.408	87.62
275.64	91.62
275.872	84.62
276.104	82.62
276.335	101.62
276.567	89.62
276.799	95.62
277.031	81.62
277.262	84.62
277.494	79.62
277.726	94.62
277.957	91.62
278.189	79.62
278.421	81.62
278.652	96.62
278.884	96.62
279.115	83.62
279.347	99.62
279.579	94.62
279.81	87.62
280.042	99.62
280.273	62.62
280.505	88.62
280.736	73.62
280.968	80.62
281.199	80.62
281.431	88.62
281.662	97.62
281.894	93.62
282.125	92.62
282.356	109.62
282.588	123.62
282.819	107.62
283.051	89.62
283.282	88.62
283.513	82.62
283.745	91.62
283.976	90.62
284.207	88.62
284.439	93.62
284.67	88.62
284.901	93.62
285.132	95.62
285.364	89.62
285.595	90.62
285.826	83.62
286.057	95.62
286.288	94.62
286.52	82.62
286.751	90.62
286.982	100.62
287.213	96.62
287.444	90.62
287.675	88.62
287.906	93.62
288.138	94.62
288.369	87.62
288.6	98.62
288.831	82.62
289.062	92.62
289.293	95.62
289.524	98.62
289.755	73.62
289.986	76.62
290.217	99.62
290.448	86.62
290.679	91.62
290.91	89.62
291.141	80.62
291.371	103.62
291.602	91.62
291.833	103.62
292.064	66.62
292.295	89.62
292.526	87.62
292.757	96.62
292.987	92.62
293.218	94.62
293.449	78.62
293.68	100.62
293.91	82.62
294.141	93.62
294.372	99.62
294.603	90.62
294.833	88.62
295.064	80.62
295.295	78.62
295.525	86.62
295.756	90.62
295.987	115.62
296.217	124.62
296.448	110.62
296.679	95.62
296.909	81.62
297.14	90.62
297.37	108.62
297.601	108.62
297.831	91.62
298.062	88.62
298.292	91.62
298.523	95.62
298.753	87.62
298.984	93.62
299.214	87.62
299.445	90.62
299.675	87.62
299.905	95.62
300.136	89.62
300.366	87.62
300.597	92.62
300.827	103.62
301.057	124.62
301.288	104.62
301.518	92.62
301.748	88.62
301.979	87.62
302.209	81.62
302.439	74.62
302.669	85.62
302.9	75.62
303.13	91.62
303.36	85.62
303.59	97.62
303.82	104.62
304.051	87.62
304.281	93.62
304.511	98.62
304.741	85.62
304.971	87.62
305.201	101.62
305.431	90.62
305.661	98.62
305.891	99.62
306.121	97.62
306.352	109.62
306.582	93.62
306.812	98.62
307.042	83.62
307.272	90.62
307.502	84.62
307.731	111.62
307.961	86.62
308.191	90.62
308.421	93.62
308.651	81.62
308.881	94.62
309.111	95.62
309.341	88.62
309.571	101.62
309.8	96.62
310.03	99.62
310.26	68.62
310.49	98.62
310.72	88.62
310.949	100.62
311.179	101.62
311.409	93.62
311.639	91.62
311.868	103.62
312.098	93.62
312.328	98.62
312.557	105.62
312.787	107.62
313.017	92.62
313.246	109.62
313.476	100.62
313.706	99.62
313.935	92.62
314.165	105.62
314.394	97.62
314.624	104.62
314.853	99.62
315.083	105.62
315.312	103.62
315.542	92.62
315.771	78.62
316.001	92.62
316.23	88.62
316.46	85.62
316.689	96.62
316.919	82.62
317.148	85.62
317.377	103.62
317.607	91.62
317.836	99.62
318.065	95.62
318.295	91.62
318.524	88.62
318.753	96.62
318.983	97.62
319.212	104.62
319.441	104.62
319.67	93.62
319.9	96.62
320.129	105.62
320.358	84.62
320.587	104.62
320.816	110.62
321.046	95.62
321.275	105.62
321.504	103.62
321.733	90.62
321.962	93.62
322.191	97.62
322.42	82.62
322.649	113.62
322.878	91.62
323.108	110.62
323.337	114.62
323.566	152.62
323.795	152.62
324.024	196.62
324.253	369.62
324.482	731.62
324.71	1535.62
324.939	2004.62
325.168	739.62
325.397	225.62
325.626	144.62
325.855	124.62
326.084	124.62
326.313	122.62
326.542	148.62
326.77	226.62
326.999	417.62
327.228	869.62
327.457	1602.62
327.686	1249.62
327.914	337.62
328.143	203.62
328.372	150.62
328.6	135.62
328.829	101.62
329.058	127.62
329.287	116.62
329.515	91.62
329.744	104.62
329.972	97.62
330.201	94.62
330.43	107.62
330.658	109.62
330.887	125.62
331.115	107.62
331.344	105.62
331.572	110.62
331.801	106.62
332.03	96.62
332.258	101.62
332.486	82.62
332.715	97.62
332.943	96.62
333.172	84.62
333.4	111.62
333.629	111.62
333.857	108.62
334.085	107.62
334.314	99.62
334.542	90.62
334.771	94.62
334.999	105.62
335.227	87.62
335.455	91.62
335.684	106.62
335.912	102.62
336.14	103.62
336.369	89.62
336.597	89.62
336.825	100.62
337.053	104.62
337.281	84.62
337.51	84.62
337.738	86.62
337.966	100.62
338.194	100.62
338.422	99.62
338.65	82.62
338.878	85.62
339.106	88.62
339.334	86.62
339.562	84.62
339.79	87.62
340.018	91.62
340.246	89.62
340.474	87.62
340.702	93.62
340.93	83.62
341.158	106.62
341.386	102.62
341.614	99.62
341.842	78.62
342.07	87.62
342.298	93.62
342.526	97.62
342.754	82.62
342.981	91.62
343.209	84.62
343.437	92.62
343.665	100.62
343.893	96.62
344.12	88.62
344.348	101.62
344.576	81.62
344.804	76.62
345.031	95.62
345.259	88.62
345.487	98.62
345.714	83.62
345.942	84.62
346.17	86.62
346.397	97.62
346.625	89.62
346.853	92.62
347.08	90.62
347.308	106.62
347.535	101.62
347.763	94.62
347.99	89.62
348.218	120.62
348.445	104.62
348.673	104.62
348.9	94.62
349.128	100.62
349.355	84.62
349.583	87.62
349.81	95.62
350.037	97.62
350.265	95.62
350.492	96.62
350.72	93.62
350.947	91.62
351.174	111.62
351.402	103.62
351.629	104.62
351.856	96.62
352.083	107.62
352.311	88.62
352.538	93.62
352.765	104.62
352.992	125.62
353.22	100.62
353.447	101.62
353.674	99.62
353.901	102.62
354.128	98.62
354.355	94.62
354.583	104.62
354.81	108.62
355.037	111.62
355.264	90.62
355.491	96.62
355.718	92.62
355.945	99.62
356.172	96.62
356.399	104.62
356.626	85.62
356.853	92.62
357.08	84.62
357.307	87.62
357.534	88.62
357.761	88.62
357.988	90.62
358.215	108.62
358.441	83.62
358.668	85.62
358.895	88.62
359.122	87.62
359.349	80.62
359.576	91.62
359.802	90.62
360.029	124.62
360.256	101.62
360.483	107.62
360.709	98.62
360.936	87.62
361.163	77.62
361.39	79.62
361.616	92.62
361.843	81.62
362.07	108.62
362.296	81.62
362.523	93.62
362.749	88.62
362.976	92.62
363.203	107.62
363.429	85.62
363.656	85.62
363.882	86.62
364.109	91.62
364.335	87.62
364.562	83.62
364.788	94.62
365.015	111.62
365.241	103.62
365.468	98.62
365.694	103.62
365.92	101.62
366.147	100.62
366.373	74.62
366.599	84.62
366.826	82.62
367.052	96.62
367.278	87.62
367.505	90.62
367.731	96.62
367.957	86.62
368.184	83.62
368.41	113.62
368.636	93.62
368.862	119.62
369.089	96.62
369.315	90.62
369.541	93.62
369.767	87.62
369.993	88.62
370.219	91.62
370.445	97.62
370.672	87.62
370.898	88.62
371.124	96.62
371.35	108.62
371.576	94.62
371.802	74.62
372.028	88.62
372.254	89.62
372.48	79.62
372.706	97.62
372.932	91.62
373.158	96.62
373.384	91.62
373.61	98.62
373.835	88.62
374.061	89.62
374.287	104.62
374.513	81.62
374.739	83.62
374.965	68.62
375.191	97.62
375.416	88.62
375.642	94.62
375.868	91.62
376.094	84.62
376.319	98.62
376.545	95.62
376.771	96.62
376.997	95.62
377.222	103.62
377.448	92.62
377.674	87.62
377.899	94.62
378.125	112.62
378.35	96.62
378.576	89.62
378.802	86.62
379.027	106.62
379.253	92.62
379.478	104.62
379.704	103.62
379.929	85.62
380.155	91.62
380.38	87.62
380.606	91.62
380.831	99.62
381.057	90.62
381.282	101.62
381.507	83.62
381.733	89.62
381.958	105.62
382.184	95.62
382.409	98.62
382.634	101.62
382.86	94.62
383.085	75.62
383.31	94.62
383.535	101.62
383.761	97.62
383.986	93.62
384.211	81.62
384.436	78.62
384.662	89.62
384.887	94.62
385.112	97.62
385.337	95.62
385.562	107.62
385.787	99.62
386.013	116.62
386.238	111.62
386.463	101.62
386.688	109.62
386.913	111.62
387.138	87.62
387.363	102.62
387.588	99.62
387.813	99.62
388.038	101.62
388.263	102.62
388.488	102.62
388.713	99.62
388.938	99.62
389.163	102.62
389.387	95.62
389.612	97.62
389.837	85.62
390.062	105.62
390.287	90.62
390.512	97.62
390.736	87.62
390.961	96.62
391.186	83.62
391.411	82.62
391.636	97.62
391.86	90.62
392.085	76.62
392.31	71.62
392.534	87.62
392.759	93.62
392.984	81.62
393.208	86.62
393.433	96.62
393.658	84.62
393.882	75.62
394.107	98.62
394.331	81.62
394.556	83.62
394.78	87.62
395.005	88.62
395.229	79.62
395.454	93.62
395.678	98.62
395.903	81.62
396.127	97.62
396.352	81.62
396.576	85.62
396.801	85.62
397.025	91.62
397.249	92.62
397.474	83.62
397.698	85.62
397.922	73.62
398.147	91.62
398.371	89.62
398.595	82.62
398.82	94.62
399.044	93.62
399.268	69.62
399.492	87.62
399.717	87.62
399.941	78.62
400.165	98.62
400.389	83.62
400.613	78.62
400.837	97.62
401.062	79.62
401.286	99.62
401.51	99.62
401.734	84.62
401.958	95.62
402.182	119.62
402.406	139.62
402.63	102.62
402.854	92.62
403.078	94.62
403.302	91.62
403.526	99.62
403.75	99.62
403.974	80.62
404.198	84.62
404.422	85.62
404.645	75.62
404.869	79.62
405.093	92.62
405.317	91.62
405.541	99.62
405.765	93.62
405.988	95.62
406.212	156.62
406.436	210.62
406.66	139.62
406.883	106.62
407.107	116.62
407.331	91.62
407.555	103.62
407.778	89.62
408.002	105.62
408.226	91.62
408.449	90.62
408.673	94.62
408.896	99.62
409.12	87.62
409.344	90.62
409.567	81.62
409.791	95.62
410.014	106.62
410.238	92.62
410.461	106.62
410.685	100.62
410.908	99.62
411.132	104.62
411.355	105.62
411.578	84.62
411.802	87.62
412.025	96.62
412.249	84.62
412.472	95.62
412.695	92.62
412.919	68.62
413.142	102.62
413.365	89.62
413.589	89.62
413.812	82.62
414.035	83.62
414.258	89.62
414.482	93.62
414.705	91.62
414.928	82.62
415.151	102.62
415.374	105.62
415.597	99.62
415.821	86.62
416.044	88.62
416.267	100.62
416.49	94.62
416.713	91.62
416.936	87.62
417.159	90.62
417.382	76.62
417.605	88.62
417.828	86.62
418.051	98.62
418.274	109.62
418.497	106.62
418.72	83.62
418.943	99.62
419.166	98.62
419.389	95.62
419.611	89.62
419.834	90.62
420.057	96.62
420.28	83.62
420.503	100.62
420.726	89.62
420.948	88.62
421.171	98.62
421.394	103.62
421.617	93.62
421.839	95.62
422.062	77.62
422.285	80.62
422.507	87.62
422.73	100.62
422.953	96.62
423.175	76.62
423.398	87.62
423.621	84.62
423.843	87.62
424.066	88.62
424.288	83.62
424.511	85.62
424.733	96.62
424.956	100.62
425.178	111.62
425.401	100.62
425.623	111.62
425.846	88.62
426.068	87.62
426.291	77.62
426.513	89.62
426.735	94.62
426.958	75.62
427.18	104.62
427.402	137.62
427.625	158.62
427.847	108.62
428.069	107.62
428.292	93.62
428.514	95.62
428.736	81.62
428.958	79.62
429.181	75.62
429.403	95.62
429.625	86.62
429.847	103.62
430.069	115.62
430.292	105.62
430.514	83.62
430.736	84.62
430.958	103.62
431.18	79.62
431.402	79.62
431.624	95.62
431.846	91.62
432.068	81.62
432.29	84.62
432.512	75.62
432.734	81.62
432.956	97.62
433.178	100.62
433.4	101.62
433.622	94.62
433.844	100.62
434.066	78.62
434.287	93.62
434.509	88.62
434.731	79.62
434.953	76.62
435.175	87.62
435.397	93.62
435.618	99.62
435.84	113.62
436.062	111.62
436.284	123.62
436.505	101.62
436.727	98.62
436.949	96.62
437.17	98.62
437.392	99.62
437.614	98.62
437.835	98.62
438.057	109.62
438.278	113.62
438.5	116.62
438.721	120.62
438.943	101.62
439.165	98.62
439.386	92.62
439.608	103.62
439.829	103.62
440.05	109.62
440.272	138.62
440.493	100.62
440.715	92.62
440.936	97.62
441.158	91.62
441.379	90.62
441.6	102.62
441.822	99.62
442.043	95.62
442.264	119.62
442.486	112.62
442.707	93.62
442.928	104.62
443.149	129.62
443.371	119.62
443.592	108.62
443.813	107.62
444.034	112.62
444.255	93.62
444.476	92.62
444.698	82.62
444.919	91.62
445.14	143.62
445.361	143.62
445.582	125.62
445.803	139.62
446.024	118.62
446.245	139.62
446.466	114.62
446.687	81.62
446.908	91.62
447.129	97.62
447.35	97.62
447.571	85.62
447.792	99.62
448.013	96.62
448.234	96.62
448.455	101.62
448.675	110.62
448.896	111.62
449.117	105.62
449.338	89.62
449.559	124.62
449.779	121.62
450	105.62
450.221	82.62
450.442	97.62
450.662	105.62
450.883	89.62
451.104	101.62
451.324	95.62
451.545	82.62
451.766	75.62
451.986	85.62
452.207	89.62
452.428	92.62
452.648	110.62
452.869	112.62
453.089	100.62
453.31	108.62
453.53	92.62
453.751	99.62
453.971	84.62
454.192	91.62
454.412	88.62
454.633	92.62
454.853	87.62
455.073	87.62
455.294	101.62
455.514	97.62
455.734	95.62
455.955	94.62
456.175	73.62
456.395	92.62
456.616	82.62
456.836	88.62
457.056	80.62
457.276	76.62
457.497	84.62
457.717	82.62
457.937	82.62
458.157	76.62
458.377	92.62
458.598	101.62
458.818	139.62
459.038	150.62
459.258	116.62
459.478	80.62
459.698	80.62
459.918	85.62
460.138	83.62
460.358	89.62
460.578	92.62
460.798	88.62
461.018	108.62
461.238	79.62
461.458	79.62
461.678	90.62
461.898	94.62
462.118	95.62
462.338	100.62
462.558	89.62
462.777	81.62
462.997	76.62
463.217	104.62
463.437	74.62
463.657	96.62
463.876	100.62
464.096	85.62
464.316	95.62
464.536	109.62
464.755	101.62
464.975	106.62
465.195	158.62
465.414	145.62
465.634	87.62
465.854	87.62
466.073	86.62
466.293	88.62
466.512	95.62
466.732	93.62
466.951	84.62
467.171	86.62
467.391	80.62
467.61	104.62
467.829	101.62
468.049	89.62
468.268	80.62
468.488	93.62
468.707	84.62
468.927	93.62
469.146	76.62
469.365	95.62
469.585	80.62
469.804	91.62
470.023	74.62
470.243	93.62
470.462	100.62
470.681	108.62
470.901	92.62
471.12	104.62
471.339	102.62
471.558	102.62
471.777	85.62
471.997	80.62
472.216	100.62
472.435	99.62
472.654	97.62
472.873	99.62
473.092	77.62
473.311	87.62
473.53	91.62
473.749	91.62
473.968	98.62
474.187	106.62
474.406	105.62
474.625	80.62
474.844	83.62
475.063	106.62
475.282	99.62
475.501	86.62
475.72	88.62
475.939	89.62
476.158	90.62
476.377	90.62
476.596	92.62
476.814	95.62
477.033	79.62
477.252	79.62
477.471	93.62
477.69	91.62
477.908	92.62
478.127	85.62
478.346	103.62
478.564	83.62
478.783	90.62
479.002	94.62
479.22	89.62
479.439	96.62
479.658	91.62
479.876	89.62
480.095	90.62
480.313	98.62
480.532	93.62
480.751	102.62
480.969	99.62
481.188	95.62
481.406	101.62
481.624	92.62
481.843	94.62
482.061	100.62
482.28	94.62
482.498	93.62
482.717	93.62
482.935	88.62
483.153	82.62
483.372	105.62
483.59	93.62
483.808	86.62
484.027	101.62
484.245	86.62
484.463	104.62
484.681	92.62
484.9	92.62
485.118	114.62
485.336	96.62
485.554	91.62
485.772	103.62
485.99	87.62
486.209	105.62
486.427	105.62
486.645	100.62
486.863	94.62
487.081	109.62
487.299	81.62
487.517	88.62
487.735	95.62
487.953	95.62
488.171	95.62
488.389	93.62
488.607	98.62
488.825	90.62
489.043	93.62
489.261	93.62
489.479	79.62
489.696	92.62
489.914	89.62
490.132	96.62
490.35	77.62
490.568	68.62
490.786	86.62
491.003	80.62
491.221	84.62
491.439	79.62
491.657	102.62
491.874	104.62
492.092	78.62
492.31	84.62
492.527	92.62
492.745	77.62
492.963	80.62
493.18	88.62
493.398	97.62
493.615	88.62
493.833	113.62
494.05	105.62
494.268	95.62
494.485	108.62
494.703	79.62
494.92	94.62
495.138	94.62
495.355	83.62
495.573	87.62
495.79	96.62
496.008	94.62
496.225	82.62
496.442	81.62
496.66	92.62
496.877	95.62
497.094	97.62
497.312	99.62
497.529	94.62
497.746	103.62
497.963	86.62
498.181	80.62
498.398	106.62
498.615	97.62
498.832	87.62
499.049	98.62
499.267	80.62
499.484	99.62
499.701	100.62
499.918	84.62
500.135	103.62
500.352	77.62
500.569	85.62
500.786	78.62
501.003	96.62
501.22	101.62
501.437	98.62
501.654	94.62
501.871	109.62
502.088	87.62
502.305	94.62
502.522	105.62
502.739	88.62
502.956	89.62
503.172	98.62
503.389	92.62
503.606	94.62
503.823	100.62
504.04	82.62
504.256	89.62
504.473	96.62
504.69	81.62
504.907	82.62
505.123	85.62
505.34	95.62
505.557	94.62
505.773	96.62
505.99	84.62
506.207	92.62
506.423	101.62
506.64	81.62
506.856	82.62
507.073	109.62
507.289	95.62
507.506	98.62
507.722	111.62
507.939	97.62
508.155	96.62
508.372	101.62
508.588	98.62
508.805	101.62
509.021	96.62
509.238	101.62
509.454	92.62
509.67	83.62
509.887	108.62
510.103	125.62
510.319	188.62
510.536	647.62
510.752	2023.62
510.968	572.62
511.184	141.62
511.401	94.62
511.617	103.62
511.833	85.62
512.049	87.62
512.265	89.62
512.481	99.62
512.698	111.62
512.914	105.62
513.13	104.62
513.346	95.62
513.562	107.62
513.778	97.62
513.994	89.62
514.21	98.62
514.426	98.62
514.642	130.62
514.858	120.62
515.074	150.62
515.29	396.62
515.506	1247.62
515.721	466.62
