Data from Uncirc_1996_H10_HRD10591_00031.txt Node
Date: Wed Jan 03 11:32:08 EST 2024
User: Yrep
Spectrometer: HR+D1059
Trigger mode: 1
Integration Time (sec): 1.000000E-1
Scans to average: 1
Electric dark correction enabled: true
Nonlinearity correction enabled: false
Boxcar width: 0
XAxis mode: Wavelengths
Number of Pixels in Spectrum: 2048
>>>>>Begin Spectral Data<<<<<
223.165	-22.31
223.4	-22.31
223.635	-22.31
223.869	-12.31
224.104	-37.31
224.338	-14.31
224.573	-10.31
224.808	-6.31
225.042	-11.31
225.277	-1.31
225.511	-11.31
225.746	8.69
225.98	8.69
226.215	10.69
226.449	14.69
226.683	24.69
226.918	22.69
227.152	36.69
227.387	52.69
227.621	34.69
227.856	51.69
228.09	36.69
228.324	63.69
228.559	53.69
228.793	58.69
229.027	67.69
229.262	57.69
229.496	68.69
229.73	67.69
229.964	92.69
230.199	68.69
230.433	72.69
230.667	106.69
230.901	70.69
231.136	81.69
231.37	82.69
231.604	88.69
231.838	88.69
232.072	79.69
232.306	64.69
232.541	86.69
232.775	76.69
233.009	76.69
233.243	75.69
233.477	74.69
233.711	95.69
233.945	67.69
234.179	84.69
234.413	96.69
234.647	84.69
234.881	80.69
235.115	67.69
235.349	78.69
235.583	66.69
235.817	83.69
236.051	79.69
236.285	67.69
236.519	68.69
236.753	93.69
236.987	96.69
237.221	76.69
237.455	78.69
237.689	83.69
237.922	81.69
238.156	80.69
238.39	66.69
238.624	65.69
238.858	82.69
239.091	79.69
239.325	64.69
239.559	84.69
239.793	78.69
240.027	78.69
240.26	77.69
240.494	83.69
240.728	82.69
240.961	72.69
241.195	78.69
241.429	77.69
241.662	79.69
241.896	72.69
242.13	61.69
242.363	74.69
242.597	65.69
242.83	70.69
243.064	85.69
243.298	80.69
243.531	84.69
243.765	68.69
243.998	92.69
244.232	78.69
244.465	84.69
244.699	95.69
244.932	84.69
245.166	70.69
245.399	90.69
245.633	93.69
245.866	80.69
246.099	80.69
246.333	80.69
246.566	84.69
246.8	81.69
247.033	89.69
247.266	95.69
247.5	68.69
247.733	86.69
247.966	78.69
248.2	84.69
248.433	93.69
248.666	89.69
248.899	84.69
249.133	83.69
249.366	112.69
249.599	96.69
249.832	92.69
250.066	70.69
250.299	65.69
250.532	68.69
250.765	78.69
250.998	69.69
251.231	88.69
251.465	86.69
251.698	78.69
251.931	77.69
252.164	92.69
252.397	86.69
252.63	85.69
252.863	79.69
253.096	82.69
253.329	80.69
253.562	92.69
253.795	84.69
254.028	84.69
254.261	81.69
254.494	82.69
254.727	91.69
254.96	89.69
255.193	86.69
255.426	82.69
255.659	83.69
255.892	88.69
256.124	74.69
256.357	80.69
256.59	69.69
256.823	75.69
257.056	69.69
257.289	83.69
257.521	88.69
257.754	85.69
257.987	83.69
258.22	87.69
258.452	91.69
258.685	84.69
258.918	89.69
259.151	73.69
259.383	92.69
259.616	94.69
259.849	84.69
260.081	74.69
260.314	88.69
260.547	83.69
260.779	77.69
261.012	85.69
261.244	78.69
261.477	88.69
261.71	94.69
261.942	109.69
262.175	101.69
262.407	77.69
262.64	78.69
262.872	97.69
263.105	82.69
263.337	88.69
263.57	85.69
263.802	66.69
264.035	75.69
264.267	91.69
264.499	94.69
264.732	89.69
264.964	79.69
265.197	83.69
265.429	82.69
265.661	76.69
265.894	88.69
266.126	82.69
266.358	72.69
266.591	85.69
266.823	81.69
267.055	86.69
267.287	84.69
267.52	72.69
267.752	82.69
267.984	90.69
268.216	82.69
268.448	96.69
268.681	84.69
268.913	77.69
269.145	84.69
269.377	73.69
269.609	77.69
269.841	88.69
270.073	88.69
270.306	93.69
270.538	87.69
270.77	92.69
271.002	73.69
271.234	85.69
271.466	76.69
271.698	84.69
271.93	89.69
272.162	78.69
272.394	91.69
272.626	85.69
272.858	68.69
273.09	92.69
273.322	100.69
273.553	89.69
273.785	81.69
274.017	90.69
274.249	77.69
274.481	80.69
274.713	86.69
274.945	81.69
275.176	90.69
275.408	90.69
275.64	100.69
275.872	99.69
276.104	84.69
276.335	97.69
276.567	81.69
276.799	108.69
277.031	100.69
277.262	105.69
277.494	85.69
277.726	92.69
277.957	89.69
278.189	99.69
278.421	96.69
278.652	74.69
278.884	83.69
279.115	72.69
279.347	92.69
279.579	84.69
279.81	73.69
280.042	81.69
280.273	89.69
280.505	93.69
280.736	82.69
280.968	88.69
281.199	81.69
281.431	100.69
281.662	89.69
281.894	87.69
282.125	108.69
282.356	115.69
282.588	115.69
282.819	107.69
283.051	101.69
283.282	95.69
283.513	99.69
283.745	100.69
283.976	77.69
284.207	80.69
284.439	97.69
284.67	91.69
284.901	85.69
285.132	88.69
285.364	89.69
285.595	97.69
285.826	78.69
286.057	71.69
286.288	90.69
286.52	90.69
286.751	102.69
286.982	76.69
287.213	99.69
287.444	81.69
287.675	78.69
287.906	82.69
288.138	91.69
288.369	92.69
288.6	96.69
288.831	92.69
289.062	74.69
289.293	77.69
289.524	76.69
289.755	100.69
289.986	95.69
290.217	102.69
290.448	98.69
290.679	100.69
290.91	97.69
291.141	89.69
291.371	79.69
291.602	90.69
291.833	93.69
292.064	92.69
292.295	77.69
292.526	91.69
292.757	95.69
292.987	83.69
293.218	90.69
293.449	92.69
293.68	95.69
293.91	98.69
294.141	72.69
294.372	82.69
294.603	86.69
294.833	96.69
295.064	84.69
295.295	77.69
295.525	97.69
295.756	110.69
295.987	110.69
296.217	141.69
296.448	125.69
296.679	96.69
296.909	79.69
297.14	85.69
297.37	88.69
297.601	82.69
297.831	73.69
298.062	99.69
298.292	99.69
298.523	91.69
298.753	100.69
298.984	94.69
299.214	79.69
299.445	84.69
299.675	93.69
299.905	95.69
300.136	101.69
300.366	81.69
300.597	96.69
300.827	91.69
301.057	97.69
301.288	107.69
301.518	102.69
301.748	87.69
301.979	101.69
302.209	102.69
302.439	97.69
302.669	88.69
302.9	94.69
303.13	97.69
303.36	99.69
303.59	95.69
303.82	109.69
304.051	88.69
304.281	96.69
304.511	77.69
304.741	84.69
304.971	92.69
305.201	86.69
305.431	95.69
305.661	104.69
305.891	75.69
306.121	104.69
306.352	88.69
306.582	103.69
306.812	85.69
307.042	97.69
307.272	82.69
307.502	92.69
307.731	92.69
307.961	106.69
308.191	92.69
308.421	90.69
308.651	102.69
308.881	101.69
309.111	75.69
309.341	90.69
309.571	88.69
309.8	91.69
310.03	95.69
310.26	94.69
310.49	111.69
310.72	81.69
310.949	100.69
311.179	101.69
311.409	96.69
311.639	95.69
311.868	97.69
312.098	97.69
312.328	99.69
312.557	104.69
312.787	88.69
313.017	107.69
313.246	94.69
313.476	89.69
313.706	91.69
313.935	93.69
314.165	102.69
314.394	97.69
314.624	101.69
314.853	106.69
315.083	95.69
315.312	99.69
315.542	90.69
315.771	101.69
316.001	97.69
316.23	91.69
316.46	96.69
316.689	89.69
316.919	98.69
317.148	95.69
317.377	85.69
317.607	96.69
317.836	90.69
318.065	81.69
318.295	86.69
318.524	88.69
318.753	85.69
318.983	93.69
319.212	97.69
319.441	92.69
319.67	101.69
319.9	95.69
320.129	97.69
320.358	100.69
320.587	107.69
320.816	100.69
321.046	102.69
321.275	90.69
321.504	83.69
321.733	94.69
321.962	90.69
322.191	124.69
322.42	95.69
322.649	106.69
322.878	97.69
323.108	120.69
323.337	125.69
323.566	125.69
323.795	134.69
324.024	197.69
324.253	322.69
324.482	704.69
324.71	1393.69
324.939	1864.69
325.168	664.69
325.397	210.69
325.626	131.69
325.855	102.69
326.084	114.69
326.313	126.69
326.542	162.69
326.77	210.69
326.999	414.69
327.228	812.69
327.457	1448.69
327.686	1144.69
327.914	329.69
328.143	204.69
328.372	158.69
328.6	120.69
328.829	106.69
329.058	118.69
329.287	107.69
329.515	103.69
329.744	97.69
329.972	108.69
330.201	106.69
330.43	97.69
330.658	121.69
330.887	115.69
331.115	110.69
331.344	95.69
331.572	95.69
331.801	94.69
332.03	103.69
332.258	100.69
332.486	105.69
332.715	100.69
332.943	94.69
333.172	101.69
333.4	103.69
333.629	97.69
333.857	107.69
334.085	88.69
334.314	99.69
334.542	108.69
334.771	97.69
334.999	102.69
335.227	92.69
335.455	86.69
335.684	94.69
335.912	100.69
336.14	88.69
336.369	111.69
336.597	92.69
336.825	90.69
337.053	95.69
337.281	97.69
337.51	88.69
337.738	104.69
337.966	103.69
338.194	120.69
338.422	134.69
338.65	98.69
338.878	91.69
339.106	92.69
339.334	99.69
339.562	97.69
339.79	97.69
340.018	92.69
340.246	97.69
340.474	102.69
340.702	102.69
340.93	98.69
341.158	91.69
341.386	95.69
341.614	93.69
341.842	94.69
342.07	96.69
342.298	83.69
342.526	90.69
342.754	102.69
342.981	85.69
343.209	77.69
343.437	89.69
343.665	85.69
343.893	83.69
344.12	103.69
344.348	103.69
344.576	86.69
344.804	92.69
345.031	91.69
345.259	94.69
345.487	91.69
345.714	96.69
345.942	98.69
346.17	92.69
346.397	87.69
346.625	92.69
346.853	85.69
347.08	92.69
347.308	77.69
347.535	104.69
347.763	101.69
347.99	108.69
348.218	98.69
348.445	102.69
348.673	108.69
348.9	92.69
349.128	73.69
349.355	92.69
349.583	95.69
349.81	108.69
350.037	96.69
350.265	89.69
350.492	98.69
350.72	93.69
350.947	97.69
351.174	96.69
351.402	97.69
351.629	95.69
351.856	104.69
352.083	116.69
352.311	117.69
352.538	88.69
352.765	100.69
352.992	123.69
353.22	97.69
353.447	105.69
353.674	88.69
353.901	105.69
354.128	91.69
354.355	102.69
354.583	88.69
354.81	109.69
355.037	108.69
355.264	96.69
355.491	80.69
355.718	105.69
355.945	89.69
356.172	92.69
356.399	97.69
356.626	100.69
356.853	79.69
357.08	94.69
357.307	91.69
357.534	95.69
357.761	94.69
357.988	98.69
358.215	108.69
358.441	96.69
358.668	82.69
358.895	88.69
359.122	96.69
359.349	94.69
359.576	98.69
359.802	97.69
360.029	118.69
360.256	84.69
360.483	96.69
360.709	86.69
360.936	86.69
361.163	88.69
361.39	107.69
361.616	97.69
361.843	99.69
362.07	89.69
362.296	87.69
362.523	88.69
362.749	93.69
362.976	94.69
363.203	102.69
363.429	88.69
363.656	93.69
363.882	96.69
364.109	107.69
364.335	84.69
364.562	100.69
364.788	91.69
365.015	107.69
365.241	81.69
365.468	116.69
365.694	100.69
365.92	100.69
366.147	92.69
366.373	85.69
366.599	89.69
366.826	79.69
367.052	98.69
367.278	92.69
367.505	105.69
367.731	99.69
367.957	91.69
368.184	89.69
368.41	92.69
368.636	101.69
368.862	102.69
369.089	109.69
369.315	107.69
369.541	92.69
369.767	100.69
369.993	93.69
370.219	113.69
370.445	100.69
370.672	96.69
370.898	99.69
371.124	97.69
371.35	94.69
371.576	111.69
371.802	90.69
372.028	82.69
372.254	91.69
372.48	92.69
372.706	86.69
372.932	90.69
373.158	95.69
373.384	102.69
373.61	103.69
373.835	98.69
374.061	89.69
374.287	98.69
374.513	79.69
374.739	97.69
374.965	92.69
375.191	96.69
375.416	86.69
375.642	92.69
375.868	99.69
376.094	92.69
376.319	90.69
376.545	80.69
376.771	76.69
376.997	94.69
377.222	81.69
377.448	84.69
377.674	90.69
377.899	94.69
378.125	106.69
378.35	96.69
378.576	94.69
378.802	80.69
379.027	94.69
379.253	94.69
379.478	94.69
379.704	91.69
379.929	93.69
380.155	95.69
380.38	83.69
380.606	93.69
380.831	88.69
381.057	87.69
381.282	95.69
381.507	97.69
381.733	99.69
381.958	92.69
382.184	91.69
382.409	102.69
382.634	110.69
382.86	104.69
383.085	111.69
383.31	114.69
383.535	107.69
383.761	84.69
383.986	84.69
384.211	89.69
384.436	104.69
384.662	101.69
384.887	102.69
385.112	107.69
385.337	103.69
385.562	105.69
385.787	109.69
386.013	110.69
386.238	99.69
386.463	99.69
386.688	111.69
386.913	90.69
387.138	109.69
387.363	100.69
387.588	105.69
387.813	101.69
388.038	98.69
388.263	119.69
388.488	99.69
388.713	98.69
388.938	93.69
389.163	89.69
389.387	84.69
389.612	101.69
389.837	100.69
390.062	102.69
390.287	97.69
390.512	85.69
390.736	114.69
390.961	81.69
391.186	83.69
391.411	102.69
391.636	94.69
391.86	88.69
392.085	86.69
392.31	87.69
392.534	90.69
392.759	88.69
392.984	85.69
393.208	93.69
393.433	84.69
393.658	98.69
393.882	84.69
394.107	85.69
394.331	92.69
394.556	88.69
394.78	80.69
395.005	80.69
395.229	85.69
395.454	76.69
395.678	102.69
395.903	90.69
396.127	85.69
396.352	98.69
396.576	81.69
396.801	88.69
397.025	87.69
397.249	81.69
397.474	102.69
397.698	88.69
397.922	91.69
398.147	83.69
398.371	84.69
398.595	86.69
398.82	93.69
399.044	94.69
399.268	93.69
399.492	81.69
399.717	87.69
399.941	88.69
400.165	90.69
400.389	88.69
400.613	87.69
400.837	86.69
401.062	75.69
401.286	84.69
401.51	89.69
401.734	106.69
401.958	101.69
402.182	111.69
402.406	126.69
402.63	110.69
402.854	81.69
403.078	89.69
403.302	77.69
403.526	88.69
403.75	84.69
403.974	82.69
404.198	85.69
404.422	114.69
404.645	89.69
404.869	90.69
405.093	95.69
405.317	102.69
405.541	95.69
405.765	97.69
405.988	97.69
406.212	146.69
406.436	193.69
406.66	122.69
406.883	99.69
407.107	94.69
407.331	104.69
407.555	96.69
407.778	93.69
408.002	83.69
408.226	83.69
408.449	72.69
408.673	88.69
408.896	88.69
409.12	88.69
409.344	102.69
409.567	84.69
409.791	95.69
410.014	100.69
410.238	86.69
410.461	82.69
410.685	110.69
410.908	89.69
411.132	96.69
411.355	105.69
411.578	88.69
411.802	83.69
412.025	74.69
412.249	77.69
412.472	92.69
412.695	90.69
412.919	84.69
413.142	95.69
413.365	90.69
413.589	76.69
413.812	88.69
414.035	95.69
414.258	90.69
414.482	102.69
414.705	92.69
414.928	84.69
415.151	104.69
415.374	104.69
415.597	100.69
415.821	84.69
416.044	91.69
416.267	100.69
416.49	84.69
416.713	85.69
416.936	87.69
417.159	98.69
417.382	93.69
417.605	78.69
417.828	100.69
418.051	93.69
418.274	97.69
418.497	80.69
418.72	82.69
418.943	76.69
419.166	76.69
419.389	79.69
419.611	88.69
419.834	86.69
420.057	77.69
420.28	77.69
420.503	83.69
420.726	86.69
420.948	103.69
421.171	96.69
421.394	86.69
421.617	81.69
421.839	86.69
422.062	97.69
422.285	96.69
422.507	90.69
422.73	99.69
422.953	92.69
423.175	95.69
423.398	92.69
423.621	99.69
423.843	75.69
424.066	88.69
424.288	98.69
424.511	97.69
424.733	90.69
424.956	91.69
425.178	99.69
425.401	106.69
425.623	101.69
425.846	100.69
426.068	95.69
426.291	80.69
426.513	89.69
426.735	103.69
426.958	106.69
427.18	92.69
427.402	116.69
427.625	146.69
427.847	113.69
428.069	96.69
428.292	86.69
428.514	88.69
428.736	79.69
428.958	78.69
429.181	82.69
429.403	89.69
429.625	102.69
429.847	86.69
430.069	104.69
430.292	88.69
430.514	80.69
430.736	89.69
430.958	102.69
431.18	67.69
431.402	92.69
431.624	70.69
431.846	92.69
432.068	94.69
432.29	85.69
432.512	77.69
432.734	84.69
432.956	91.69
433.178	92.69
433.4	96.69
433.622	94.69
433.844	107.69
434.066	78.69
434.287	94.69
434.509	83.69
434.731	90.69
434.953	94.69
435.175	107.69
435.397	84.69
435.618	104.69
435.84	103.69
436.062	110.69
436.284	121.69
436.505	101.69
436.727	98.69
436.949	99.69
437.17	86.69
437.392	84.69
437.614	95.69
437.835	96.69
438.057	129.69
438.278	95.69
438.5	112.69
438.721	140.69
438.943	92.69
439.165	94.69
439.386	97.69
439.608	107.69
439.829	108.69
440.05	110.69
440.272	140.69
440.493	95.69
440.715	69.69
440.936	90.69
441.158	83.69
441.379	91.69
441.6	105.69
441.822	82.69
442.043	88.69
442.264	101.69
442.486	97.69
442.707	91.69
442.928	92.69
443.149	138.69
443.371	115.69
443.592	101.69
443.813	122.69
444.034	93.69
444.255	110.69
444.476	92.69
444.698	70.69
444.919	83.69
445.14	138.69
445.361	110.69
445.582	113.69
445.803	122.69
446.024	135.69
446.245	124.69
446.466	107.69
446.687	98.69
446.908	75.69
447.129	84.69
447.35	88.69
447.571	90.69
447.792	76.69
448.013	92.69
448.234	93.69
448.455	94.69
448.675	112.69
448.896	110.69
449.117	94.69
449.338	92.69
449.559	124.69
449.779	124.69
450	99.69
450.221	98.69
450.442	97.69
450.662	100.69
450.883	90.69
451.104	108.69
451.324	85.69
451.545	70.69
451.766	92.69
451.986	93.69
452.207	89.69
452.428	92.69
452.648	106.69
452.869	95.69
453.089	108.69
453.31	116.69
453.53	77.69
453.751	82.69
453.971	107.69
454.192	116.69
454.412	80.69
454.633	83.69
454.853	87.69
455.073	90.69
455.294	85.69
455.514	90.69
455.734	94.69
455.955	79.69
456.175	90.69
456.395	95.69
456.616	74.69
456.836	85.69
457.056	80.69
457.276	99.69
457.497	87.69
457.717	82.69
457.937	84.69
458.157	92.69
458.377	89.69
458.598	115.69
458.818	123.69
459.038	149.69
459.258	105.69
459.478	97.69
459.698	87.69
459.918	79.69
460.138	87.69
460.358	91.69
460.578	73.69
460.798	77.69
461.018	89.69
461.238	105.69
461.458	89.69
461.678	71.69
461.898	78.69
462.118	89.69
462.338	86.69
462.558	81.69
462.777	81.69
462.997	87.69
463.217	89.69
463.437	96.69
463.657	70.69
463.876	96.69
464.096	94.69
464.316	102.69
464.536	89.69
464.755	92.69
464.975	104.69
465.195	139.69
465.414	132.69
465.634	83.69
465.854	77.69
466.073	99.69
466.293	78.69
466.512	78.69
466.732	82.69
466.951	88.69
467.171	85.69
467.391	91.69
467.61	89.69
467.829	88.69
468.049	101.69
468.268	83.69
468.488	100.69
468.707	72.69
468.927	90.69
469.146	98.69
469.365	81.69
469.585	82.69
469.804	97.69
470.023	94.69
470.243	90.69
470.462	87.69
470.681	86.69
470.901	83.69
471.12	85.69
471.339	98.69
471.558	86.69
471.777	74.69
471.997	95.69
472.216	93.69
472.435	97.69
472.654	80.69
472.873	90.69
473.092	85.69
473.311	82.69
473.53	83.69
473.749	84.69
473.968	85.69
474.187	111.69
474.406	93.69
474.625	94.69
474.844	83.69
475.063	99.69
475.282	92.69
475.501	90.69
475.72	94.69
475.939	76.69
476.158	85.69
476.377	99.69
476.596	95.69
476.814	92.69
477.033	90.69
477.252	79.69
477.471	85.69
477.69	84.69
477.908	81.69
478.127	86.69
478.346	83.69
478.564	92.69
478.783	95.69
479.002	75.69
479.22	103.69
479.439	102.69
479.658	85.69
479.876	88.69
480.095	87.69
480.313	101.69
480.532	90.69
480.751	93.69
480.969	79.69
481.188	88.69
481.406	88.69
481.624	91.69
481.843	90.69
482.061	91.69
482.28	91.69
482.498	84.69
482.717	76.69
482.935	94.69
483.153	74.69
483.372	78.69
483.59	82.69
483.808	77.69
484.027	84.69
484.245	86.69
484.463	95.69
484.681	93.69
484.9	89.69
485.118	100.69
485.336	88.69
485.554	99.69
485.772	102.69
485.99	102.69
486.209	101.69
486.427	109.69
486.645	100.69
486.863	104.69
487.081	108.69
487.299	108.69
487.517	96.69
487.735	70.69
487.953	96.69
488.171	106.69
488.389	112.69
488.607	92.69
488.825	89.69
489.043	86.69
489.261	93.69
489.479	93.69
489.696	86.69
489.914	95.69
490.132	90.69
490.35	87.69
490.568	98.69
490.786	81.69
491.003	87.69
491.221	97.69
491.439	99.69
491.657	106.69
491.874	92.69
492.092	98.69
492.31	96.69
492.527	78.69
492.745	82.69
492.963	96.69
493.18	99.69
493.398	97.69
493.615	97.69
493.833	102.69
494.05	88.69
494.268	97.69
494.485	95.69
494.703	102.69
494.92	85.69
495.138	90.69
495.355	85.69
495.573	98.69
495.79	85.69
496.008	86.69
496.225	90.69
496.442	75.69
496.66	91.69
496.877	81.69
497.094	96.69
497.312	101.69
497.529	84.69
497.746	98.69
497.963	86.69
498.181	92.69
498.398	88.69
498.615	113.69
498.832	102.69
499.049	93.69
499.267	93.69
499.484	97.69
499.701	81.69
499.918	98.69
500.135	87.69
500.352	94.69
500.569	77.69
500.786	98.69
501.003	92.69
501.22	88.69
501.437	73.69
501.654	90.69
501.871	104.69
502.088	89.69
502.305	84.69
502.522	101.69
502.739	88.69
502.956	96.69
503.172	94.69
503.389	98.69
503.606	93.69
503.823	101.69
504.04	98.69
504.256	84.69
504.473	95.69
504.69	85.69
504.907	84.69
505.123	101.69
505.34	87.69
505.557	81.69
505.773	97.69
505.99	86.69
506.207	80.69
506.423	86.69
506.64	81.69
506.856	96.69
507.073	96.69
507.289	85.69
507.506	101.69
507.722	91.69
507.939	108.69
508.155	93.69
508.372	96.69
508.588	81.69
508.805	105.69
509.021	101.69
509.238	96.69
509.454	88.69
509.67	96.69
509.887	91.69
510.103	109.69
510.319	166.69
510.536	561.69
510.752	1732.69
510.968	483.69
511.184	133.69
511.401	97.69
511.617	106.69
511.833	89.69
512.049	107.69
512.265	99.69
512.481	99.69
512.698	87.69
512.914	83.69
513.13	91.69
513.346	85.69
513.562	89.69
513.778	95.69
513.994	100.69
514.21	99.69
514.426	108.69
514.642	125.69
514.858	101.69
515.074	144.69
515.29	363.69
515.506	1098.69
515.721	406.69
