Data from Uncirc_1996_H10_HRD10591_00022.txt Node
Date: Wed Jan 03 11:32:06 EST 2024
User: Yrep
Spectrometer: HR+D1059
Trigger mode: 1
Integration Time (sec): 1.000000E-1
Scans to average: 1
Electric dark correction enabled: true
Nonlinearity correction enabled: false
Boxcar width: 0
XAxis mode: Wavelengths
Number of Pixels in Spectrum: 2048
>>>>>Begin Spectral Data<<<<<
223.165	-15.19
223.4	-15.19
223.635	-15.19
223.869	-18.19
224.104	-12.19
224.338	-28.19
224.573	-26.19
224.808	-11.19
225.042	-4.19
225.277	-6.19
225.511	8.81
225.746	2.81
225.98	9.81
226.215	6.81
226.449	31.81
226.683	20.81
226.918	27.81
227.152	12.81
227.387	40.81
227.621	47.81
227.856	41.81
228.09	35.81
228.324	58.81
228.559	57.81
228.793	60.81
229.027	61.81
229.262	54.81
229.496	84.81
229.73	65.81
229.964	67.81
230.199	65.81
230.433	86.81
230.667	92.81
230.901	86.81
231.136	83.81
231.37	84.81
231.604	78.81
231.838	89.81
232.072	86.81
232.306	80.81
232.541	98.81
232.775	81.81
233.009	73.81
233.243	86.81
233.477	90.81
233.711	77.81
233.945	74.81
234.179	73.81
234.413	77.81
234.647	71.81
234.881	93.81
235.115	60.81
235.349	64.81
235.583	75.81
235.817	78.81
236.051	91.81
236.285	82.81
236.519	91.81
236.753	65.81
236.987	72.81
237.221	72.81
237.455	74.81
237.689	87.81
237.922	83.81
238.156	76.81
238.39	83.81
238.624	82.81
238.858	70.81
239.091	82.81
239.325	73.81
239.559	77.81
239.793	86.81
240.027	77.81
240.26	78.81
240.494	85.81
240.728	74.81
240.961	92.81
241.195	79.81
241.429	67.81
241.662	73.81
241.896	72.81
242.13	77.81
242.363	86.81
242.597	80.81
242.83	62.81
243.064	69.81
243.298	73.81
243.531	74.81
243.765	86.81
243.998	79.81
244.232	78.81
244.465	67.81
244.699	95.81
244.932	75.81
245.166	83.81
245.399	67.81
245.633	86.81
245.866	82.81
246.099	92.81
246.333	71.81
246.566	82.81
246.8	86.81
247.033	73.81
247.266	89.81
247.5	81.81
247.733	68.81
247.966	93.81
248.2	63.81
248.433	80.81
248.666	91.81
248.899	91.81
249.133	76.81
249.366	88.81
249.599	90.81
249.832	82.81
250.066	82.81
250.299	89.81
250.532	60.81
250.765	78.81
250.998	76.81
251.231	88.81
251.465	74.81
251.698	90.81
251.931	76.81
252.164	88.81
252.397	66.81
252.63	81.81
252.863	84.81
253.096	88.81
253.329	80.81
253.562	83.81
253.795	80.81
254.028	76.81
254.261	72.81
254.494	82.81
254.727	87.81
254.96	72.81
255.193	72.81
255.426	85.81
255.659	74.81
255.892	73.81
256.124	81.81
256.357	70.81
256.59	80.81
256.823	78.81
257.056	90.81
257.289	87.81
257.521	89.81
257.754	87.81
257.987	74.81
258.22	86.81
258.452	79.81
258.685	86.81
258.918	87.81
259.151	76.81
259.383	82.81
259.616	88.81
259.849	95.81
260.081	81.81
260.314	72.81
260.547	97.81
260.779	84.81
261.012	84.81
261.244	83.81
261.477	93.81
261.71	93.81
261.942	109.81
262.175	117.81
262.407	87.81
262.64	86.81
262.872	83.81
263.105	85.81
263.337	80.81
263.57	74.81
263.802	83.81
264.035	80.81
264.267	70.81
264.499	81.81
264.732	84.81
264.964	77.81
265.197	87.81
265.429	83.81
265.661	86.81
265.894	82.81
266.126	87.81
266.358	88.81
266.591	83.81
266.823	82.81
267.055	81.81
267.287	91.81
267.52	93.81
267.752	87.81
267.984	67.81
268.216	74.81
268.448	89.81
268.681	75.81
268.913	84.81
269.145	82.81
269.377	67.81
269.609	81.81
269.841	79.81
270.073	84.81
270.306	90.81
270.538	90.81
270.77	107.81
271.002	82.81
271.234	82.81
271.466	84.81
271.698	77.81
271.93	76.81
272.162	82.81
272.394	82.81
272.626	94.81
272.858	92.81
273.09	78.81
273.322	84.81
273.553	80.81
273.785	88.81
274.017	81.81
274.249	90.81
274.481	83.81
274.713	94.81
274.945	80.81
275.176	89.81
275.408	72.81
275.64	78.81
275.872	95.81
276.104	91.81
276.335	106.81
276.567	94.81
276.799	107.81
277.031	100.81
277.262	68.81
277.494	90.81
277.726	96.81
277.957	88.81
278.189	86.81
278.421	100.81
278.652	97.81
278.884	87.81
279.115	81.81
279.347	93.81
279.579	86.81
279.81	76.81
280.042	91.81
280.273	88.81
280.505	94.81
280.736	94.81
280.968	94.81
281.199	87.81
281.431	86.81
281.662	81.81
281.894	77.81
282.125	84.81
282.356	109.81
282.588	116.81
282.819	112.81
283.051	91.81
283.282	88.81
283.513	94.81
283.745	84.81
283.976	73.81
284.207	79.81
284.439	101.81
284.67	91.81
284.901	105.81
285.132	83.81
285.364	92.81
285.595	74.81
285.826	90.81
286.057	90.81
286.288	90.81
286.52	79.81
286.751	84.81
286.982	84.81
287.213	78.81
287.444	95.81
287.675	76.81
287.906	84.81
288.138	100.81
288.369	92.81
288.6	96.81
288.831	89.81
289.062	81.81
289.293	95.81
289.524	80.81
289.755	82.81
289.986	96.81
290.217	78.81
290.448	81.81
290.679	82.81
290.91	89.81
291.141	95.81
291.371	95.81
291.602	88.81
291.833	97.81
292.064	93.81
292.295	96.81
292.526	82.81
292.757	86.81
292.987	91.81
293.218	78.81
293.449	84.81
293.68	76.81
293.91	78.81
294.141	92.81
294.372	92.81
294.603	84.81
294.833	90.81
295.064	89.81
295.295	108.81
295.525	91.81
295.756	95.81
295.987	101.81
296.217	125.81
296.448	101.81
296.679	81.81
296.909	86.81
297.14	86.81
297.37	100.81
297.601	86.81
297.831	93.81
298.062	100.81
298.292	86.81
298.523	99.81
298.753	89.81
298.984	93.81
299.214	93.81
299.445	84.81
299.675	80.81
299.905	100.81
300.136	73.81
300.366	83.81
300.597	82.81
300.827	102.81
301.057	104.81
301.288	116.81
301.518	94.81
301.748	96.81
301.979	103.81
302.209	86.81
302.439	86.81
302.669	97.81
302.9	83.81
303.13	98.81
303.36	96.81
303.59	87.81
303.82	94.81
304.051	86.81
304.281	83.81
304.511	79.81
304.741	95.81
304.971	77.81
305.201	86.81
305.431	103.81
305.661	86.81
305.891	83.81
306.121	106.81
306.352	105.81
306.582	104.81
306.812	91.81
307.042	92.81
307.272	85.81
307.502	101.81
307.731	86.81
307.961	83.81
308.191	96.81
308.421	83.81
308.651	88.81
308.881	110.81
309.111	92.81
309.341	106.81
309.571	81.81
309.8	86.81
310.03	87.81
310.26	88.81
310.49	95.81
310.72	96.81
310.949	110.81
311.179	97.81
311.409	96.81
311.639	90.81
311.868	92.81
312.098	95.81
312.328	94.81
312.557	93.81
312.787	100.81
313.017	98.81
313.246	104.81
313.476	93.81
313.706	97.81
313.935	89.81
314.165	102.81
314.394	101.81
314.624	87.81
314.853	91.81
315.083	90.81
315.312	90.81
315.542	84.81
315.771	83.81
316.001	89.81
316.23	74.81
316.46	92.81
316.689	99.81
316.919	100.81
317.148	86.81
317.377	89.81
317.607	81.81
317.836	86.81
318.065	80.81
318.295	87.81
318.524	88.81
318.753	104.81
318.983	101.81
319.212	108.81
319.441	107.81
319.67	100.81
319.9	76.81
320.129	90.81
320.358	87.81
320.587	91.81
320.816	106.81
321.046	104.81
321.275	99.81
321.504	90.81
321.733	99.81
321.962	100.81
322.191	97.81
322.42	90.81
322.649	112.81
322.878	112.81
323.108	114.81
323.337	128.81
323.566	120.81
323.795	134.81
324.024	201.81
324.253	335.81
324.482	706.81
324.71	1434.81
324.939	1855.81
325.168	684.81
325.397	208.81
325.626	140.81
325.855	117.81
326.084	108.81
326.313	126.81
326.542	146.81
326.77	227.81
326.999	406.81
327.228	831.81
327.457	1464.81
327.686	1194.81
327.914	341.81
328.143	227.81
328.372	164.81
328.6	122.81
328.829	112.81
329.058	130.81
329.287	122.81
329.515	125.81
329.744	104.81
329.972	97.81
330.201	103.81
330.43	98.81
330.658	108.81
330.887	123.81
331.115	104.81
331.344	95.81
331.572	109.81
331.801	98.81
332.03	94.81
332.258	99.81
332.486	79.81
332.715	98.81
332.943	91.81
333.172	95.81
333.4	93.81
333.629	105.81
333.857	107.81
334.085	101.81
334.314	103.81
334.542	97.81
334.771	99.81
334.999	99.81
335.227	82.81
335.455	93.81
335.684	91.81
335.912	104.81
336.14	113.81
336.369	86.81
336.597	99.81
336.825	105.81
337.053	99.81
337.281	90.81
337.51	99.81
337.738	96.81
337.966	106.81
338.194	121.81
338.422	132.81
338.65	109.81
338.878	100.81
339.106	100.81
339.334	96.81
339.562	94.81
339.79	87.81
340.018	99.81
340.246	83.81
340.474	90.81
340.702	91.81
340.93	75.81
341.158	96.81
341.386	98.81
341.614	84.81
341.842	100.81
342.07	96.81
342.298	89.81
342.526	100.81
342.754	93.81
342.981	106.81
343.209	79.81
343.437	109.81
343.665	89.81
343.893	98.81
344.12	82.81
344.348	89.81
344.576	83.81
344.804	106.81
345.031	105.81
345.259	87.81
345.487	95.81
345.714	98.81
345.942	84.81
346.17	84.81
346.397	84.81
346.625	84.81
346.853	94.81
347.08	75.81
347.308	91.81
347.535	105.81
347.763	111.81
347.99	93.81
348.218	105.81
348.445	109.81
348.673	102.81
348.9	96.81
349.128	102.81
349.355	100.81
349.583	95.81
349.81	90.81
350.037	79.81
350.265	95.81
350.492	83.81
350.72	105.81
350.947	97.81
351.174	107.81
351.402	108.81
351.629	108.81
351.856	104.81
352.083	110.81
352.311	104.81
352.538	118.81
352.765	105.81
352.992	110.81
353.22	101.81
353.447	102.81
353.674	89.81
353.901	87.81
354.128	88.81
354.355	99.81
354.583	102.81
354.81	101.81
355.037	96.81
355.264	99.81
355.491	94.81
355.718	90.81
355.945	94.81
356.172	104.81
356.399	95.81
356.626	95.81
356.853	112.81
357.08	90.81
357.307	98.81
357.534	115.81
357.761	97.81
357.988	92.81
358.215	100.81
358.441	93.81
358.668	82.81
358.895	84.81
359.122	88.81
359.349	95.81
359.576	91.81
359.802	87.81
360.029	113.81
360.256	103.81
360.483	91.81
360.709	86.81
360.936	83.81
361.163	90.81
361.39	90.81
361.616	95.81
361.843	92.81
362.07	80.81
362.296	87.81
362.523	99.81
362.749	86.81
362.976	92.81
363.203	94.81
363.429	84.81
363.656	80.81
363.882	79.81
364.109	90.81
364.335	81.81
364.562	93.81
364.788	91.81
365.015	102.81
365.241	84.81
365.468	106.81
365.694	109.81
365.92	92.81
366.147	83.81
366.373	102.81
366.599	96.81
366.826	97.81
367.052	88.81
367.278	93.81
367.505	88.81
367.731	84.81
367.957	91.81
368.184	79.81
368.41	103.81
368.636	108.81
368.862	110.81
369.089	81.81
369.315	92.81
369.541	95.81
369.767	86.81
369.993	99.81
370.219	100.81
370.445	95.81
370.672	84.81
370.898	105.81
371.124	102.81
371.35	92.81
371.576	95.81
371.802	86.81
372.028	102.81
372.254	91.81
372.48	94.81
372.706	89.81
372.932	80.81
373.158	84.81
373.384	94.81
373.61	95.81
373.835	93.81
374.061	91.81
374.287	97.81
374.513	84.81
374.739	82.81
374.965	88.81
375.191	72.81
375.416	83.81
375.642	92.81
375.868	88.81
376.094	100.81
376.319	89.81
376.545	93.81
376.771	96.81
376.997	101.81
377.222	90.81
377.448	90.81
377.674	87.81
377.899	97.81
378.125	88.81
378.35	100.81
378.576	90.81
378.802	88.81
379.027	88.81
379.253	89.81
379.478	91.81
379.704	83.81
379.929	91.81
380.155	92.81
380.38	88.81
380.606	101.81
380.831	103.81
381.057	99.81
381.282	100.81
381.507	95.81
381.733	99.81
381.958	97.81
382.184	90.81
382.409	92.81
382.634	87.81
382.86	96.81
383.085	108.81
383.31	96.81
383.535	107.81
383.761	99.81
383.986	108.81
384.211	107.81
384.436	96.81
384.662	102.81
384.887	99.81
385.112	100.81
385.337	106.81
385.562	102.81
385.787	101.81
386.013	105.81
386.238	107.81
386.463	119.81
386.688	124.81
386.913	109.81
387.138	108.81
387.363	124.81
387.588	111.81
387.813	90.81
388.038	103.81
388.263	112.81
388.488	131.81
388.713	104.81
388.938	95.81
389.163	98.81
389.387	99.81
389.612	82.81
389.837	91.81
390.062	95.81
390.287	92.81
390.512	106.81
390.736	97.81
390.961	82.81
391.186	112.81
391.411	94.81
391.636	96.81
391.86	99.81
392.085	75.81
392.31	80.81
392.534	87.81
392.759	105.81
392.984	87.81
393.208	106.81
393.433	127.81
393.658	108.81
393.882	82.81
394.107	77.81
394.331	82.81
394.556	89.81
394.78	91.81
395.005	86.81
395.229	79.81
395.454	82.81
395.678	87.81
395.903	95.81
396.127	99.81
396.352	94.81
396.576	77.81
396.801	89.81
397.025	105.81
397.249	93.81
397.474	82.81
397.698	90.81
397.922	76.81
398.147	86.81
398.371	81.81
398.595	75.81
398.82	97.81
399.044	84.81
399.268	75.81
399.492	102.81
399.717	75.81
399.941	80.81
400.165	111.81
400.389	91.81
400.613	94.81
400.837	95.81
401.062	82.81
401.286	87.81
401.51	77.81
401.734	89.81
401.958	105.81
402.182	127.81
402.406	138.81
402.63	115.81
402.854	102.81
403.078	84.81
403.302	79.81
403.526	86.81
403.75	68.81
403.974	93.81
404.198	88.81
404.422	97.81
404.645	90.81
404.869	104.81
405.093	94.81
405.317	102.81
405.541	96.81
405.765	95.81
405.988	115.81
406.212	147.81
406.436	200.81
406.66	118.81
406.883	92.81
407.107	98.81
407.331	83.81
407.555	98.81
407.778	88.81
408.002	94.81
408.226	87.81
408.449	95.81
408.673	93.81
408.896	99.81
409.12	98.81
409.344	90.81
409.567	88.81
409.791	92.81
410.014	93.81
410.238	90.81
410.461	92.81
410.685	76.81
410.908	97.81
411.132	106.81
411.355	91.81
411.578	95.81
411.802	90.81
412.025	93.81
412.249	92.81
412.472	81.81
412.695	84.81
412.919	77.81
413.142	75.81
413.365	78.81
413.589	77.81
413.812	85.81
414.035	91.81
414.258	94.81
414.482	92.81
414.705	99.81
414.928	99.81
415.151	95.81
415.374	101.81
415.597	98.81
415.821	82.81
416.044	86.81
416.267	102.81
416.49	88.81
416.713	86.81
416.936	78.81
417.159	108.81
417.382	87.81
417.605	84.81
417.828	91.81
418.051	81.81
418.274	94.81
418.497	84.81
418.72	79.81
418.943	92.81
419.166	84.81
419.389	89.81
419.611	97.81
419.834	86.81
420.057	97.81
420.28	92.81
420.503	87.81
420.726	92.81
420.948	94.81
421.171	93.81
421.394	90.81
421.617	86.81
421.839	99.81
422.062	96.81
422.285	93.81
422.507	106.81
422.73	98.81
422.953	85.81
423.175	88.81
423.398	97.81
423.621	103.81
423.843	88.81
424.066	90.81
424.288	84.81
424.511	83.81
424.733	113.81
424.956	105.81
425.178	91.81
425.401	96.81
425.623	98.81
425.846	79.81
426.068	103.81
426.291	92.81
426.513	94.81
426.735	99.81
426.958	88.81
427.18	92.81
427.402	115.81
427.625	154.81
427.847	104.81
428.069	80.81
428.292	90.81
428.514	83.81
428.736	90.81
428.958	102.81
429.181	92.81
429.403	74.81
429.625	80.81
429.847	86.81
430.069	89.81
430.292	95.81
430.514	91.81
430.736	97.81
430.958	88.81
431.18	81.81
431.402	97.81
431.624	85.81
431.846	85.81
432.068	90.81
432.29	93.81
432.512	80.81
432.734	87.81
432.956	88.81
433.178	110.81
433.4	102.81
433.622	92.81
433.844	91.81
434.066	93.81
434.287	88.81
434.509	90.81
434.731	87.81
434.953	84.81
435.175	93.81
435.397	82.81
435.618	95.81
435.84	115.81
436.062	138.81
436.284	111.81
436.505	94.81
436.727	101.81
436.949	90.81
437.17	86.81
437.392	74.81
437.614	99.81
437.835	99.81
438.057	113.81
438.278	114.81
438.5	85.81
438.721	123.81
438.943	101.81
439.165	91.81
439.386	86.81
439.608	97.81
439.829	105.81
440.05	122.81
440.272	127.81
440.493	104.81
440.715	86.81
440.936	73.81
441.158	91.81
441.379	72.81
441.6	90.81
441.822	88.81
442.043	85.81
442.264	97.81
442.486	99.81
442.707	88.81
442.928	95.81
443.149	129.81
443.371	138.81
443.592	97.81
443.813	114.81
444.034	97.81
444.255	100.81
444.476	83.81
444.698	98.81
444.919	79.81
445.14	131.81
445.361	125.81
445.582	124.81
445.803	108.81
446.024	118.81
446.245	124.81
446.466	105.81
446.687	91.81
446.908	94.81
447.129	86.81
447.35	86.81
447.571	111.81
447.792	96.81
448.013	91.81
448.234	106.81
448.455	106.81
448.675	112.81
448.896	130.81
449.117	98.81
449.338	92.81
449.559	112.81
449.779	123.81
450	89.81
450.221	103.81
450.442	89.81
450.662	95.81
450.883	102.81
451.104	99.81
451.324	99.81
451.545	78.81
451.766	86.81
451.986	69.81
452.207	93.81
452.428	92.81
452.648	84.81
452.869	99.81
453.089	108.81
453.31	110.81
453.53	102.81
453.751	100.81
453.971	87.81
454.192	105.81
454.412	83.81
454.633	92.81
454.853	87.81
455.073	83.81
455.294	79.81
455.514	119.81
455.734	90.81
455.955	91.81
456.175	77.81
456.395	75.81
456.616	82.81
456.836	77.81
457.056	91.81
457.276	91.81
457.497	91.81
457.717	86.81
457.937	88.81
458.157	89.81
458.377	88.81
458.598	105.81
458.818	127.81
459.038	146.81
459.258	110.81
459.478	88.81
459.698	90.81
459.918	83.81
460.138	94.81
460.358	91.81
460.578	77.81
460.798	106.81
461.018	92.81
461.238	88.81
461.458	75.81
461.678	100.81
461.898	84.81
462.118	93.81
462.338	76.81
462.558	86.81
462.777	76.81
462.997	102.81
463.217	82.81
463.437	94.81
463.657	85.81
463.876	84.81
464.096	97.81
464.316	80.81
464.536	86.81
464.755	72.81
464.975	110.81
465.195	127.81
465.414	128.81
465.634	83.81
465.854	76.81
466.073	84.81
466.293	97.81
466.512	81.81
466.732	88.81
466.951	90.81
467.171	100.81
467.391	92.81
467.61	90.81
467.829	92.81
468.049	88.81
468.268	79.81
468.488	89.81
468.707	85.81
468.927	86.81
469.146	74.81
469.365	83.81
469.585	89.81
469.804	81.81
470.023	95.81
470.243	84.81
470.462	96.81
470.681	99.81
470.901	77.81
471.12	86.81
471.339	80.81
471.558	98.81
471.777	92.81
471.997	86.81
472.216	96.81
472.435	105.81
472.654	66.81
472.873	104.81
473.092	101.81
473.311	91.81
473.53	84.81
473.749	78.81
473.968	79.81
474.187	93.81
474.406	96.81
474.625	89.81
474.844	81.81
475.063	87.81
475.282	88.81
475.501	75.81
475.72	83.81
475.939	87.81
476.158	81.81
476.377	92.81
476.596	95.81
476.814	99.81
477.033	88.81
477.252	95.81
477.471	84.81
477.69	89.81
477.908	88.81
478.127	86.81
478.346	84.81
478.564	96.81
478.783	103.81
479.002	88.81
479.22	93.81
479.439	99.81
479.658	94.81
479.876	78.81
480.095	78.81
480.313	96.81
480.532	98.81
480.751	88.81
480.969	98.81
481.188	100.81
481.406	104.81
481.624	90.81
481.843	74.81
482.061	99.81
482.28	90.81
482.498	82.81
482.717	82.81
482.935	94.81
483.153	88.81
483.372	79.81
483.59	96.81
483.808	90.81
484.027	88.81
484.245	85.81
484.463	100.81
484.681	92.81
484.9	75.81
485.118	89.81
485.336	95.81
485.554	111.81
485.772	97.81
485.99	106.81
486.209	93.81
486.427	99.81
486.645	98.81
486.863	106.81
487.081	90.81
487.299	99.81
487.517	103.81
487.735	90.81
487.953	97.81
488.171	96.81
488.389	95.81
488.607	97.81
488.825	77.81
489.043	86.81
489.261	99.81
489.479	78.81
489.696	90.81
489.914	75.81
490.132	78.81
490.35	96.81
490.568	93.81
490.786	95.81
491.003	83.81
491.221	91.81
491.439	100.81
491.657	97.81
491.874	103.81
492.092	97.81
492.31	74.81
492.527	90.81
492.745	87.81
492.963	96.81
493.18	97.81
493.398	89.81
493.615	96.81
493.833	98.81
494.05	86.81
494.268	80.81
494.485	82.81
494.703	94.81
494.92	85.81
495.138	91.81
495.355	91.81
495.573	92.81
495.79	90.81
496.008	77.81
496.225	103.81
496.442	100.81
496.66	105.81
496.877	105.81
497.094	94.81
497.312	91.81
497.529	94.81
497.746	88.81
497.963	87.81
498.181	103.81
498.398	102.81
498.615	104.81
498.832	84.81
499.049	105.81
499.267	107.81
499.484	87.81
499.701	99.81
499.918	83.81
500.135	102.81
500.352	94.81
500.569	77.81
500.786	85.81
501.003	89.81
501.22	81.81
501.437	92.81
501.654	106.81
501.871	104.81
502.088	95.81
502.305	85.81
502.522	90.81
502.739	90.81
502.956	92.81
503.172	84.81
503.389	89.81
503.606	86.81
503.823	81.81
504.04	83.81
504.256	87.81
504.473	87.81
504.69	79.81
504.907	97.81
505.123	80.81
505.34	86.81
505.557	91.81
505.773	86.81
505.99	82.81
506.207	94.81
506.423	69.81
506.64	72.81
506.856	91.81
507.073	83.81
507.289	97.81
507.506	94.81
507.722	121.81
507.939	104.81
508.155	96.81
508.372	104.81
508.588	85.81
508.805	93.81
509.021	99.81
509.238	89.81
509.454	95.81
509.67	95.81
509.887	103.81
510.103	119.81
510.319	177.81
510.536	625.81
510.752	1845.81
510.968	513.81
511.184	144.81
511.401	116.81
511.617	98.81
511.833	89.81
512.049	94.81
512.265	99.81
512.481	85.81
512.698	80.81
512.914	88.81
513.13	95.81
513.346	74.81
513.562	100.81
513.778	92.81
513.994	87.81
514.21	93.81
514.426	106.81
514.642	123.81
514.858	118.81
515.074	154.81
515.29	380.81
515.506	1128.81
515.721	428.81
515.937	127.81
