Data from Uncirc_1996_H10_HRD10591_00066.txt Node
Date: Wed Jan 03 11:32:15 EST 2024
User: Yrep
Spectrometer: HR+D1059
Trigger mode: 1
Integration Time (sec): 1.000000E-1
Scans to average: 1
Electric dark correction enabled: true
Nonlinearity correction enabled: false
Boxcar width: 0
XAxis mode: Wavelengths
Number of Pixels in Spectrum: 2048
>>>>>Begin Spectral Data<<<<<
223.165	-1.94
223.4	-1.94
223.635	-1.94
223.869	-13.94
224.104	-13.94
224.338	-25.94
224.573	-26.94
224.808	-6.94
225.042	-10.94
225.277	1.06
225.511	-1.94
225.746	3.06
225.98	5.06
226.215	11.06
226.449	25.06
226.683	25.06
226.918	25.06
227.152	7.06
227.387	38.06
227.621	42.06
227.856	37.06
228.09	50.06
228.324	59.06
228.559	55.06
228.793	54.06
229.027	59.06
229.262	62.06
229.496	65.06
229.73	95.06
229.964	75.06
230.199	73.06
230.433	74.06
230.667	85.06
230.901	86.06
231.136	74.06
231.37	86.06
231.604	81.06
231.838	80.06
232.072	67.06
232.306	92.06
232.541	96.06
232.775	86.06
233.009	81.06
233.243	86.06
233.477	84.06
233.711	89.06
233.945	72.06
234.179	71.06
234.413	74.06
234.647	79.06
234.881	86.06
235.115	84.06
235.349	74.06
235.583	87.06
235.817	79.06
236.051	95.06
236.285	83.06
236.519	76.06
236.753	77.06
236.987	91.06
237.221	89.06
237.455	99.06
237.689	70.06
237.922	77.06
238.156	83.06
238.39	86.06
238.624	68.06
238.858	75.06
239.091	73.06
239.325	83.06
239.559	75.06
239.793	83.06
240.027	77.06
240.26	75.06
240.494	88.06
240.728	73.06
240.961	88.06
241.195	99.06
241.429	63.06
241.662	80.06
241.896	69.06
242.13	82.06
242.363	85.06
242.597	81.06
242.83	81.06
243.064	70.06
243.298	84.06
243.531	85.06
243.765	90.06
243.998	91.06
244.232	85.06
244.465	95.06
244.699	93.06
244.932	80.06
245.166	79.06
245.399	76.06
245.633	85.06
245.866	83.06
246.099	70.06
246.333	76.06
246.566	80.06
246.8	85.06
247.033	83.06
247.266	70.06
247.5	88.06
247.733	87.06
247.966	85.06
248.2	82.06
248.433	68.06
248.666	83.06
248.899	77.06
249.133	85.06
249.366	114.06
249.599	98.06
249.832	79.06
250.066	85.06
250.299	71.06
250.532	86.06
250.765	76.06
250.998	76.06
251.231	74.06
251.465	79.06
251.698	84.06
251.931	84.06
252.164	84.06
252.397	80.06
252.63	81.06
252.863	82.06
253.096	80.06
253.329	82.06
253.562	89.06
253.795	93.06
254.028	84.06
254.261	80.06
254.494	98.06
254.727	91.06
254.96	86.06
255.193	81.06
255.426	71.06
255.659	79.06
255.892	99.06
256.124	90.06
256.357	80.06
256.59	90.06
256.823	70.06
257.056	90.06
257.289	89.06
257.521	91.06
257.754	78.06
257.987	82.06
258.22	91.06
258.452	87.06
258.685	87.06
258.918	81.06
259.151	89.06
259.383	98.06
259.616	82.06
259.849	91.06
260.081	80.06
260.314	81.06
260.547	93.06
260.779	79.06
261.012	85.06
261.244	90.06
261.477	89.06
261.71	75.06
261.942	112.06
262.175	117.06
262.407	87.06
262.64	68.06
262.872	80.06
263.105	78.06
263.337	87.06
263.57	83.06
263.802	89.06
264.035	77.06
264.267	96.06
264.499	93.06
264.732	90.06
264.964	91.06
265.197	91.06
265.429	98.06
265.661	92.06
265.894	92.06
266.126	80.06
266.358	83.06
266.591	76.06
266.823	81.06
267.055	95.06
267.287	91.06
267.52	70.06
267.752	81.06
267.984	83.06
268.216	88.06
268.448	102.06
268.681	104.06
268.913	77.06
269.145	86.06
269.377	88.06
269.609	84.06
269.841	93.06
270.073	75.06
270.306	87.06
270.538	94.06
270.77	87.06
271.002	78.06
271.234	91.06
271.466	93.06
271.698	94.06
271.93	75.06
272.162	90.06
272.394	91.06
272.626	87.06
272.858	107.06
273.09	91.06
273.322	78.06
273.553	77.06
273.785	79.06
274.017	79.06
274.249	96.06
274.481	93.06
274.713	92.06
274.945	83.06
275.176	98.06
275.408	90.06
275.64	95.06
275.872	81.06
276.104	88.06
276.335	91.06
276.567	95.06
276.799	99.06
277.031	98.06
277.262	86.06
277.494	106.06
277.726	89.06
277.957	92.06
278.189	91.06
278.421	92.06
278.652	77.06
278.884	91.06
279.115	91.06
279.347	79.06
279.579	94.06
279.81	76.06
280.042	99.06
280.273	83.06
280.505	92.06
280.736	80.06
280.968	83.06
281.199	87.06
281.431	96.06
281.662	97.06
281.894	87.06
282.125	95.06
282.356	118.06
282.588	151.06
282.819	118.06
283.051	96.06
283.282	97.06
283.513	90.06
283.745	100.06
283.976	85.06
284.207	87.06
284.439	94.06
284.67	78.06
284.901	89.06
285.132	91.06
285.364	93.06
285.595	93.06
285.826	104.06
286.057	89.06
286.288	87.06
286.52	94.06
286.751	101.06
286.982	79.06
287.213	105.06
287.444	96.06
287.675	111.06
287.906	107.06
288.138	90.06
288.369	104.06
288.6	86.06
288.831	87.06
289.062	81.06
289.293	91.06
289.524	92.06
289.755	107.06
289.986	93.06
290.217	85.06
290.448	84.06
290.679	98.06
290.91	75.06
291.141	86.06
291.371	96.06
291.602	95.06
291.833	105.06
292.064	95.06
292.295	80.06
292.526	95.06
292.757	94.06
292.987	89.06
293.218	105.06
293.449	98.06
293.68	90.06
293.91	97.06
294.141	100.06
294.372	92.06
294.603	97.06
294.833	91.06
295.064	85.06
295.295	84.06
295.525	112.06
295.756	100.06
295.987	107.06
296.217	137.06
296.448	135.06
296.679	103.06
296.909	85.06
297.14	108.06
297.37	92.06
297.601	84.06
297.831	90.06
298.062	107.06
298.292	98.06
298.523	100.06
298.753	90.06
298.984	96.06
299.214	89.06
299.445	98.06
299.675	105.06
299.905	97.06
300.136	85.06
300.366	86.06
300.597	87.06
300.827	99.06
301.057	128.06
301.288	109.06
301.518	98.06
301.748	92.06
301.979	110.06
302.209	95.06
302.439	108.06
302.669	91.06
302.9	95.06
303.13	95.06
303.36	90.06
303.59	108.06
303.82	108.06
304.051	85.06
304.281	91.06
304.511	89.06
304.741	98.06
304.971	86.06
305.201	96.06
305.431	103.06
305.661	93.06
305.891	89.06
306.121	92.06
306.352	102.06
306.582	103.06
306.812	88.06
307.042	102.06
307.272	91.06
307.502	105.06
307.731	100.06
307.961	86.06
308.191	93.06
308.421	104.06
308.651	97.06
308.881	102.06
309.111	89.06
309.341	92.06
309.571	97.06
309.8	94.06
310.03	96.06
310.26	103.06
310.49	94.06
310.72	98.06
310.949	101.06
311.179	99.06
311.409	112.06
311.639	109.06
311.868	97.06
312.098	97.06
312.328	94.06
312.557	102.06
312.787	103.06
313.017	109.06
313.246	99.06
313.476	91.06
313.706	95.06
313.935	89.06
314.165	116.06
314.394	111.06
314.624	101.06
314.853	101.06
315.083	103.06
315.312	102.06
315.542	109.06
315.771	83.06
316.001	100.06
316.23	83.06
316.46	106.06
316.689	78.06
316.919	97.06
317.148	87.06
317.377	103.06
317.607	94.06
317.836	92.06
318.065	107.06
318.295	83.06
318.524	94.06
318.753	99.06
318.983	86.06
319.212	109.06
319.441	98.06
319.67	107.06
319.9	95.06
320.129	102.06
320.358	94.06
320.587	80.06
320.816	111.06
321.046	107.06
321.275	94.06
321.504	97.06
321.733	99.06
321.962	95.06
322.191	102.06
322.42	106.06
322.649	103.06
322.878	109.06
323.108	120.06
323.337	128.06
323.566	136.06
323.795	144.06
324.024	197.06
324.253	378.06
324.482	781.06
324.71	1603.06
324.939	2069.06
325.168	777.06
325.397	235.06
325.626	151.06
325.855	127.06
326.084	129.06
326.313	134.06
326.542	151.06
326.77	231.06
326.999	452.06
327.228	913.06
327.457	1597.06
327.686	1269.06
327.914	366.06
328.143	187.06
328.372	146.06
328.6	125.06
328.829	112.06
329.058	138.06
329.287	132.06
329.515	116.06
329.744	112.06
329.972	107.06
330.201	106.06
330.43	94.06
330.658	117.06
330.887	134.06
331.115	125.06
331.344	113.06
331.572	99.06
331.801	105.06
332.03	112.06
332.258	87.06
332.486	98.06
332.715	93.06
332.943	92.06
333.172	89.06
333.4	105.06
333.629	106.06
333.857	122.06
334.085	101.06
334.314	79.06
334.542	103.06
334.771	99.06
334.999	111.06
335.227	91.06
335.455	109.06
335.684	106.06
335.912	107.06
336.14	105.06
336.369	86.06
336.597	97.06
336.825	86.06
337.053	94.06
337.281	107.06
337.51	93.06
337.738	108.06
337.966	97.06
338.194	112.06
338.422	109.06
338.65	88.06
338.878	103.06
339.106	91.06
339.334	82.06
339.562	107.06
339.79	98.06
340.018	89.06
340.246	96.06
340.474	92.06
340.702	95.06
340.93	98.06
341.158	101.06
341.386	92.06
341.614	91.06
341.842	106.06
342.07	99.06
342.298	87.06
342.526	97.06
342.754	83.06
342.981	95.06
343.209	99.06
343.437	103.06
343.665	77.06
343.893	80.06
344.12	95.06
344.348	97.06
344.576	90.06
344.804	96.06
345.031	100.06
345.259	102.06
345.487	86.06
345.714	77.06
345.942	94.06
346.17	99.06
346.397	91.06
346.625	90.06
346.853	97.06
347.08	89.06
347.308	99.06
347.535	102.06
347.763	101.06
347.99	96.06
348.218	114.06
348.445	103.06
348.673	98.06
348.9	101.06
349.128	100.06
349.355	93.06
349.583	88.06
349.81	100.06
350.037	93.06
350.265	86.06
350.492	94.06
350.72	100.06
350.947	96.06
351.174	107.06
351.402	105.06
351.629	101.06
351.856	97.06
352.083	102.06
352.311	92.06
352.538	101.06
352.765	115.06
352.992	108.06
353.22	118.06
353.447	113.06
353.674	107.06
353.901	94.06
354.128	105.06
354.355	108.06
354.583	100.06
354.81	99.06
355.037	100.06
355.264	92.06
355.491	101.06
355.718	90.06
355.945	88.06
356.172	102.06
356.399	113.06
356.626	88.06
356.853	97.06
357.08	103.06
357.307	89.06
357.534	101.06
357.761	101.06
357.988	70.06
358.215	108.06
358.441	95.06
358.668	108.06
358.895	84.06
359.122	99.06
359.349	101.06
359.576	115.06
359.802	96.06
360.029	102.06
360.256	119.06
360.483	91.06
360.709	94.06
360.936	109.06
361.163	96.06
361.39	99.06
361.616	101.06
361.843	110.06
362.07	81.06
362.296	105.06
362.523	90.06
362.749	97.06
362.976	94.06
363.203	97.06
363.429	97.06
363.656	82.06
363.882	101.06
364.109	93.06
364.335	94.06
364.562	92.06
364.788	73.06
365.015	97.06
365.241	105.06
365.468	107.06
365.694	108.06
365.92	97.06
366.147	91.06
366.373	99.06
366.599	96.06
366.826	85.06
367.052	103.06
367.278	93.06
367.505	114.06
367.731	94.06
367.957	77.06
368.184	94.06
368.41	108.06
368.636	111.06
368.862	110.06
369.089	90.06
369.315	102.06
369.541	103.06
369.767	95.06
369.993	93.06
370.219	97.06
370.445	86.06
370.672	93.06
370.898	98.06
371.124	96.06
371.35	96.06
371.576	98.06
371.802	89.06
372.028	81.06
372.254	88.06
372.48	97.06
372.706	88.06
372.932	97.06
373.158	99.06
373.384	97.06
373.61	108.06
373.835	82.06
374.061	87.06
374.287	85.06
374.513	104.06
374.739	85.06
374.965	91.06
375.191	91.06
375.416	98.06
375.642	95.06
375.868	96.06
376.094	86.06
376.319	96.06
376.545	97.06
376.771	106.06
376.997	89.06
377.222	87.06
377.448	93.06
377.674	98.06
377.899	97.06
378.125	91.06
378.35	103.06
378.576	95.06
378.802	85.06
379.027	93.06
379.253	99.06
379.478	100.06
379.704	79.06
379.929	91.06
380.155	111.06
380.38	98.06
380.606	99.06
380.831	85.06
381.057	104.06
381.282	101.06
381.507	100.06
381.733	100.06
381.958	96.06
382.184	86.06
382.409	92.06
382.634	113.06
382.86	99.06
383.085	103.06
383.31	99.06
383.535	110.06
383.761	103.06
383.986	91.06
384.211	96.06
384.436	103.06
384.662	108.06
384.887	109.06
385.112	90.06
385.337	100.06
385.562	109.06
385.787	101.06
386.013	105.06
386.238	101.06
386.463	105.06
386.688	124.06
386.913	105.06
387.138	111.06
387.363	103.06
387.588	96.06
387.813	97.06
388.038	107.06
388.263	110.06
388.488	109.06
388.713	91.06
388.938	109.06
389.163	85.06
389.387	92.06
389.612	92.06
389.837	111.06
390.062	111.06
390.287	95.06
390.512	100.06
390.736	77.06
390.961	89.06
391.186	115.06
391.411	93.06
391.636	91.06
391.86	96.06
392.085	94.06
392.31	91.06
392.534	95.06
392.759	98.06
392.984	85.06
393.208	93.06
393.433	92.06
393.658	91.06
393.882	102.06
394.107	89.06
394.331	95.06
394.556	93.06
394.78	87.06
395.005	79.06
395.229	94.06
395.454	86.06
395.678	100.06
395.903	89.06
396.127	88.06
396.352	95.06
396.576	97.06
396.801	95.06
397.025	98.06
397.249	98.06
397.474	93.06
397.698	79.06
397.922	91.06
398.147	99.06
398.371	99.06
398.595	92.06
398.82	90.06
399.044	84.06
399.268	89.06
399.492	92.06
399.717	94.06
399.941	81.06
400.165	98.06
400.389	89.06
400.613	98.06
400.837	82.06
401.062	89.06
401.286	99.06
401.51	97.06
401.734	90.06
401.958	113.06
402.182	112.06
402.406	151.06
402.63	106.06
402.854	89.06
403.078	96.06
403.302	89.06
403.526	90.06
403.75	90.06
403.974	92.06
404.198	102.06
404.422	96.06
404.645	82.06
404.869	88.06
405.093	90.06
405.317	104.06
405.541	97.06
405.765	98.06
405.988	113.06
406.212	175.06
406.436	207.06
406.66	128.06
406.883	108.06
407.107	108.06
407.331	93.06
407.555	105.06
407.778	89.06
408.002	113.06
408.226	90.06
408.449	99.06
408.673	85.06
408.896	94.06
409.12	106.06
409.344	98.06
409.567	92.06
409.791	100.06
410.014	86.06
410.238	86.06
410.461	109.06
410.685	94.06
410.908	86.06
411.132	99.06
411.355	100.06
411.578	84.06
411.802	79.06
412.025	95.06
412.249	88.06
412.472	97.06
412.695	86.06
412.919	79.06
413.142	82.06
413.365	93.06
413.589	97.06
413.812	94.06
414.035	98.06
414.258	91.06
414.482	80.06
414.705	86.06
414.928	79.06
415.151	89.06
415.374	92.06
415.597	83.06
415.821	80.06
416.044	80.06
416.267	109.06
416.49	74.06
416.713	85.06
416.936	89.06
417.159	106.06
417.382	87.06
417.605	78.06
417.828	101.06
418.051	95.06
418.274	90.06
418.497	98.06
418.72	92.06
418.943	94.06
419.166	97.06
419.389	95.06
419.611	97.06
419.834	98.06
420.057	99.06
420.28	92.06
420.503	102.06
420.726	88.06
420.948	87.06
421.171	92.06
421.394	102.06
421.617	91.06
421.839	100.06
422.062	90.06
422.285	94.06
422.507	103.06
422.73	100.06
422.953	93.06
423.175	91.06
423.398	97.06
423.621	111.06
423.843	92.06
424.066	87.06
424.288	85.06
424.511	101.06
424.733	93.06
424.956	99.06
425.178	101.06
425.401	93.06
425.623	103.06
425.846	111.06
426.068	102.06
426.291	108.06
426.513	100.06
426.735	90.06
426.958	106.06
427.18	94.06
427.402	141.06
427.625	152.06
427.847	123.06
428.069	99.06
428.292	97.06
428.514	92.06
428.736	84.06
428.958	68.06
429.181	91.06
429.403	80.06
429.625	85.06
429.847	97.06
430.069	100.06
430.292	106.06
430.514	83.06
430.736	89.06
430.958	95.06
431.18	83.06
431.402	97.06
431.624	90.06
431.846	79.06
432.068	92.06
432.29	103.06
432.512	92.06
432.734	100.06
432.956	94.06
433.178	93.06
433.4	106.06
433.622	93.06
433.844	100.06
434.066	105.06
434.287	82.06
434.509	83.06
434.731	80.06
434.953	82.06
435.175	112.06
435.397	100.06
435.618	92.06
435.84	101.06
436.062	138.06
436.284	133.06
436.505	103.06
436.727	102.06
436.949	97.06
437.17	90.06
437.392	91.06
437.614	101.06
437.835	113.06
438.057	122.06
438.278	108.06
438.5	86.06
438.721	116.06
438.943	111.06
439.165	95.06
439.386	103.06
439.608	85.06
439.829	99.06
440.05	115.06
440.272	141.06
440.493	94.06
440.715	89.06
440.936	91.06
441.158	95.06
441.379	76.06
441.6	113.06
441.822	90.06
442.043	100.06
442.264	115.06
442.486	88.06
442.707	99.06
442.928	106.06
443.149	126.06
443.371	130.06
443.592	122.06
443.813	114.06
444.034	103.06
444.255	93.06
444.476	97.06
444.698	95.06
444.919	92.06
445.14	151.06
445.361	137.06
445.582	111.06
445.803	163.06
446.024	140.06
446.245	124.06
446.466	114.06
446.687	102.06
446.908	79.06
447.129	90.06
447.35	94.06
447.571	98.06
447.792	87.06
448.013	93.06
448.234	103.06
448.455	97.06
448.675	115.06
448.896	122.06
449.117	109.06
449.338	102.06
449.559	141.06
449.779	131.06
450	82.06
450.221	76.06
450.442	95.06
450.662	97.06
450.883	98.06
451.104	105.06
451.324	93.06
451.545	97.06
451.766	97.06
451.986	97.06
452.207	97.06
452.428	101.06
452.648	103.06
452.869	113.06
453.089	113.06
453.31	117.06
453.53	87.06
453.751	88.06
453.971	106.06
454.192	106.06
454.412	86.06
454.633	83.06
454.853	85.06
455.073	85.06
455.294	93.06
455.514	106.06
455.734	98.06
455.955	82.06
456.175	71.06
456.395	94.06
456.616	98.06
456.836	92.06
457.056	89.06
457.276	81.06
457.497	93.06
457.717	85.06
457.937	81.06
458.157	85.06
458.377	93.06
458.598	113.06
458.818	153.06
459.038	170.06
459.258	117.06
459.478	100.06
459.698	83.06
459.918	93.06
460.138	87.06
460.358	94.06
460.578	89.06
460.798	100.06
461.018	83.06
461.238	93.06
461.458	90.06
461.678	89.06
461.898	105.06
462.118	84.06
462.338	86.06
462.558	96.06
462.777	88.06
462.997	86.06
463.217	84.06
463.437	98.06
463.657	100.06
463.876	84.06
464.096	93.06
464.316	104.06
464.536	87.06
464.755	99.06
464.975	113.06
465.195	155.06
465.414	146.06
465.634	89.06
465.854	85.06
466.073	92.06
466.293	91.06
466.512	84.06
466.732	102.06
466.951	93.06
467.171	95.06
467.391	96.06
467.61	107.06
467.829	98.06
468.049	98.06
468.268	80.06
468.488	83.06
468.707	84.06
468.927	99.06
469.146	97.06
469.365	87.06
469.585	97.06
469.804	98.06
470.023	93.06
470.243	92.06
470.462	117.06
470.681	100.06
470.901	94.06
471.12	99.06
471.339	92.06
471.558	88.06
471.777	89.06
471.997	85.06
472.216	90.06
472.435	83.06
472.654	97.06
472.873	98.06
473.092	94.06
473.311	87.06
473.53	77.06
473.749	92.06
473.968	94.06
474.187	115.06
474.406	108.06
474.625	90.06
474.844	83.06
475.063	86.06
475.282	91.06
475.501	93.06
475.72	89.06
475.939	101.06
476.158	96.06
476.377	85.06
476.596	76.06
476.814	104.06
477.033	92.06
477.252	85.06
477.471	76.06
477.69	85.06
477.908	100.06
478.127	94.06
478.346	98.06
478.564	89.06
478.783	85.06
479.002	90.06
479.22	96.06
479.439	110.06
479.658	107.06
479.876	94.06
480.095	99.06
480.313	87.06
480.532	103.06
480.751	89.06
480.969	98.06
481.188	87.06
481.406	102.06
481.624	95.06
481.843	102.06
482.061	100.06
482.28	87.06
482.498	84.06
482.717	77.06
482.935	86.06
483.153	99.06
483.372	104.06
483.59	98.06
483.808	105.06
484.027	98.06
484.245	97.06
484.463	86.06
484.681	95.06
484.9	90.06
485.118	103.06
485.336	93.06
485.554	93.06
485.772	98.06
485.99	103.06
486.209	101.06
486.427	115.06
486.645	107.06
486.863	109.06
487.081	112.06
487.299	89.06
487.517	106.06
487.735	94.06
487.953	97.06
488.171	99.06
488.389	96.06
488.607	88.06
488.825	105.06
489.043	93.06
489.261	95.06
489.479	95.06
489.696	91.06
489.914	83.06
490.132	86.06
490.35	95.06
490.568	88.06
490.786	88.06
491.003	93.06
491.221	101.06
491.439	95.06
491.657	91.06
491.874	99.06
492.092	96.06
492.31	93.06
492.527	84.06
492.745	95.06
492.963	91.06
493.18	89.06
493.398	89.06
493.615	89.06
493.833	90.06
494.05	103.06
494.268	94.06
494.485	99.06
494.703	93.06
494.92	98.06
495.138	99.06
495.355	106.06
495.573	90.06
495.79	87.06
496.008	92.06
496.225	105.06
496.442	97.06
496.66	101.06
496.877	98.06
497.094	107.06
497.312	89.06
497.529	94.06
497.746	90.06
497.963	90.06
498.181	113.06
498.398	91.06
498.615	111.06
498.832	100.06
499.049	94.06
499.267	93.06
499.484	101.06
499.701	91.06
499.918	86.06
500.135	84.06
500.352	77.06
500.569	76.06
500.786	93.06
501.003	103.06
501.22	95.06
501.437	98.06
501.654	90.06
501.871	102.06
502.088	89.06
502.305	108.06
502.522	98.06
502.739	85.06
502.956	78.06
503.172	88.06
503.389	97.06
503.606	99.06
503.823	98.06
504.04	98.06
504.256	97.06
504.473	102.06
504.69	84.06
504.907	97.06
505.123	100.06
505.34	101.06
505.557	93.06
505.773	87.06
505.99	85.06
506.207	75.06
506.423	90.06
506.64	91.06
506.856	103.06
507.073	93.06
507.289	103.06
507.506	94.06
507.722	117.06
507.939	96.06
508.155	98.06
508.372	103.06
508.588	100.06
508.805	84.06
509.021	101.06
509.238	93.06
509.454	89.06
509.67	101.06
509.887	103.06
510.103	133.06
510.319	208.06
510.536	698.06
510.752	2155.06
510.968	605.06
511.184	147.06
511.401	103.06
511.617	106.06
511.833	107.06
512.049	90.06
512.265	94.06
512.481	102.06
512.698	90.06
512.914	86.06
513.13	75.06
513.346	109.06
513.562	96.06
513.778	109.06
513.994	102.06
514.21	112.06
514.426	110.06
514.642	139.06
