Data from Uncirc_1996_H10_HRD10591_00037.txt Node
Date: Wed Jan 03 11:32:09 EST 2024
User: Yrep
Spectrometer: HR+D1059
Trigger mode: 1
Integration Time (sec): 1.000000E-1
Scans to average: 1
Electric dark correction enabled: true
Nonlinearity correction enabled: false
Boxcar width: 0
XAxis mode: Wavelengths
Number of Pixels in Spectrum: 2048
>>>>>Begin Spectral Data<<<<<
223.165	-13
223.4	-13
223.635	-13
223.869	-28
224.104	-28
224.338	-20
224.573	-13
224.808	-15
225.042	-3
225.277	-8
225.511	-4
225.746	7
225.98	7
226.215	15
226.449	19
226.683	27
226.918	27
227.152	30
227.387	47
227.621	46
227.856	45
228.09	46
228.324	57
228.559	60
228.793	167
229.027	452
229.262	529
229.496	608
229.73	843
229.964	816
230.199	576
230.433	492
230.667	490
230.901	448
231.136	460
231.37	461
231.604	452
231.838	442
232.072	455
232.306	474
232.541	465
232.775	477
233.009	465
233.243	474
233.477	477
233.711	480
233.945	525
234.179	525
234.413	529
234.647	506
234.881	512
235.115	542
235.349	547
235.583	547
235.817	597
236.051	652
236.285	624
236.519	621
236.753	703
236.987	929
237.221	1433
237.455	1573
237.689	914
237.922	754
238.156	747
238.39	683
238.624	666
238.858	652
239.091	633
239.325	675
239.559	690
239.793	705
240.027	783
240.26	947
240.494	981
240.728	988
240.961	894
241.195	826
241.429	809
241.662	768
241.896	772
242.13	781
242.363	779
242.597	801
242.83	821
243.064	830
243.298	801
243.531	839
243.765	849
243.998	845
244.232	846
244.465	898
244.699	913
244.932	897
245.166	909
245.399	905
245.633	876
245.866	909
246.099	930
246.333	945
246.566	957
246.8	980
247.033	1038
247.266	1087
247.5	1120
247.733	1184
247.966	1176
248.2	1158
248.433	1130
248.666	1228
248.899	1392
249.133	1463
249.366	1497
249.599	1321
249.832	1187
250.066	1203
250.299	1238
250.532	1357
250.765	1529
250.998	1769
251.231	1666
251.465	1477
251.698	1454
251.931	1425
252.164	1405
252.397	1417
252.63	1449
252.863	1566
253.096	1698
253.329	1769
253.562	1649
253.795	1577
254.028	1578
254.261	1596
254.494	1848
254.727	2247
254.96	2286
255.193	1963
255.426	1767
255.659	1622
255.892	1560
256.124	1536
256.357	1515
256.59	1495
256.823	1505
257.056	1489
257.289	1535
257.521	1531
257.754	1563
257.987	1547
258.22	1518
258.452	1526
258.685	1555
258.918	1607
259.151	1621
259.383	1725
259.616	1741
259.849	1762
260.081	1937
260.314	2160
260.547	2064
260.779	1900
261.012	1820
261.244	1773
261.477	1713
261.71	1721
261.942	1790
262.175	1782
262.407	1719
262.64	1669
262.872	1715
263.105	1630
263.337	1646
263.57	1697
263.802	1689
264.035	1659
264.267	1713
264.499	1685
264.732	1703
264.964	1658
265.197	1703
265.429	1754
265.661	1712
265.894	1743
266.126	1754
266.358	1786
266.591	1829
266.823	1887
267.055	1906
267.287	1894
267.52	1838
267.752	1878
267.984	1879
268.216	1912
268.448	1938
268.681	1997
268.913	2153
269.145	2355
269.377	2410
269.609	2318
269.841	2317
270.073	2403
270.306	2711
270.538	2818
270.77	2717
271.002	2542
271.234	2486
271.466	2633
271.698	2823
271.93	2799
272.162	2797
272.394	2742
272.626	2591
272.858	2341
273.09	2315
273.322	2224
273.553	2251
273.785	2231
274.017	2259
274.249	2261
274.481	2259
274.713	2278
274.945	2341
275.176	2290
275.408	2263
275.64	2290
275.872	2271
276.104	2314
276.335	2307
276.567	2460
276.799	2565
277.031	2851
277.262	2925
277.494	2830
277.726	2610
277.957	2557
278.189	2444
278.421	2392
278.652	2407
278.884	2363
279.115	2386
279.347	2395
279.579	2405
279.81	2392
280.042	2381
280.273	2411
280.505	2383
280.736	2458
280.968	2431
281.199	2429
281.431	2465
281.662	2467
281.894	2494
282.125	2524
282.356	2737
282.588	2839
282.819	2678
283.051	2592
283.282	2557
283.513	2608
283.745	2658
283.976	2687
284.207	2690
284.439	2725
284.67	2657
284.901	2661
285.132	2651
285.364	2631
285.595	2717
285.826	2647
286.057	2729
286.288	2699
286.52	2677
286.751	2731
286.982	2705
287.213	2703
287.444	2768
287.675	2839
287.906	2940
288.138	2991
288.369	2934
288.6	2980
288.831	2921
289.062	2861
289.293	2808
289.524	2842
289.755	2891
289.986	2865
290.217	2790
290.448	2819
290.679	2800
290.91	2802
291.141	2795
291.371	2853
291.602	2869
291.833	2833
292.064	2881
292.295	2890
292.526	2859
292.757	2873
292.987	2840
293.218	2832
293.449	2946
293.68	2855
293.91	2873
294.141	2835
294.372	2867
294.603	2937
294.833	2897
295.064	2853
295.295	2925
295.525	2914
295.756	3000
295.987	3052
296.217	3254
296.448	3167
296.679	2991
296.909	2978
297.14	2977
297.37	3038
297.601	3054
297.831	3056
298.062	3070
298.292	3129
298.523	3171
298.753	3183
298.984	3130
299.214	3150
299.445	3147
299.675	3123
299.905	3222
300.136	3190
300.366	3242
300.597	3199
300.827	3393
301.057	3446
301.288	3423
301.518	3349
301.748	3344
301.979	3442
302.209	3433
302.439	3467
302.669	3385
302.9	3367
303.13	3414
303.36	3444
303.59	3430
303.82	3454
304.051	3406
304.281	3342
304.511	3294
304.741	3273
304.971	3346
305.201	3305
305.431	3336
305.661	3356
305.891	3331
306.121	3298
306.352	3348
306.582	3330
306.812	3296
307.042	3293
307.272	3307
307.502	3313
307.731	3307
307.961	3324
308.191	3289
308.421	3353
308.651	3363
308.881	3382
309.111	3426
309.341	3405
309.571	3475
309.8	3567
310.03	3656
310.26	3659
310.49	3631
310.72	3786
310.949	3799
311.179	3818
311.409	3712
311.639	3664
311.868	3691
312.098	3747
312.328	3827
312.557	3971
312.787	4066
313.017	3956
313.246	3855
313.476	3696
313.706	3778
313.935	3898
314.165	3997
314.394	4053
314.624	4001
314.853	3848
315.083	3807
315.312	3781
315.542	3755
315.771	3679
316.001	3700
316.23	3686
316.46	3738
316.689	3742
316.919	3778
317.148	3830
317.377	3787
317.607	3778
317.836	3744
318.065	3661
318.295	3729
318.524	3694
318.753	3670
318.983	3713
319.212	3679
319.441	3783
319.67	3847
319.9	3808
320.129	3794
320.358	3786
320.587	3744
320.816	3831
321.046	3888
321.275	3831
321.504	3915
321.733	3891
321.962	3908
322.191	4025
322.42	4157
322.649	4265
322.878	4310
323.108	4402
323.337	4637
323.566	4735
323.795	5039
324.024	5624
324.253	7372
324.482	11096
324.71	15420
324.939	15619
325.168	13442
325.397	6685
325.626	5317
325.855	4842
326.084	4773
326.313	4837
326.542	4941
326.77	5581
326.999	7112
327.228	10486
327.457	14684
327.686	14025
327.914	7475
328.143	5971
328.372	5589
328.6	5264
328.829	5240
329.058	5452
329.287	5383
329.515	5001
329.744	4775
329.972	4736
330.201	4847
330.43	5098
330.658	5430
330.887	5910
331.115	5470
331.344	5041
331.572	4917
331.801	5026
332.03	5029
332.258	4994
332.486	4990
332.715	5032
332.943	5249
333.172	5370
333.4	5525
333.629	5586
333.857	5614
334.085	5569
334.314	5467
334.542	5386
334.771	5385
334.999	5342
335.227	5293
335.455	5147
335.684	5063
335.912	5002
336.14	5032
336.369	4991
336.597	5026
336.825	4969
337.053	4931
337.281	4860
337.51	4789
337.738	4818
337.966	4825
338.194	4846
338.422	4757
338.65	4605
338.878	4581
339.106	4627
339.334	4529
339.562	4491
339.79	4428
340.018	4468
340.246	4475
340.474	4521
340.702	4509
340.93	4441
341.158	4487
341.386	4417
341.614	4440
341.842	4438
342.07	4410
342.298	4363
342.526	4346
342.754	4373
342.981	4385
343.209	4471
343.437	4704
343.665	4841
343.893	5195
344.12	5247
344.348	4998
344.576	4795
344.804	4780
345.031	4691
345.259	4669
345.487	4488
345.714	4417
345.942	4335
346.17	4249
346.397	4325
346.625	4232
346.853	4263
347.08	4235
347.308	4256
347.535	4343
347.763	4368
347.99	4341
348.218	4371
348.445	4427
348.673	4371
348.9	4237
349.128	4165
349.355	4100
349.583	4102
349.81	4131
350.037	4166
350.265	4068
350.492	4107
350.72	4121
350.947	4157
351.174	4263
351.402	4322
351.629	4189
351.856	4233
352.083	4303
352.311	4300
352.538	4354
352.765	4297
352.992	4214
353.22	4124
353.447	4166
353.674	4055
353.901	3997
354.128	4082
354.355	4039
354.583	4109
354.81	4039
355.037	4017
355.264	3957
355.491	3974
355.718	4048
355.945	4010
356.172	4040
356.399	4032
356.626	3974
356.853	3989
357.08	3945
357.307	3993
357.534	4002
357.761	3986
357.988	3993
358.215	3997
358.441	4085
358.668	4056
358.895	4093
359.122	4173
359.349	4208
359.576	4346
359.802	4509
360.029	4682
360.256	4653
360.483	4455
360.709	4333
360.936	4272
361.163	4307
361.39	4295
361.616	4295
361.843	4240
362.07	4280
362.296	4282
362.523	4213
362.749	4269
362.976	4128
363.203	4130
363.429	4133
363.656	4098
363.882	4090
364.109	4079
364.335	4048
364.562	4122
364.788	4064
365.015	4082
365.241	4102
365.468	4107
365.694	4181
365.92	4174
366.147	4058
366.373	4090
366.599	4092
366.826	4053
367.052	3997
367.278	4109
367.505	4115
367.731	4092
367.957	4091
368.184	4117
368.41	4252
368.636	4289
368.862	4317
369.089	4195
369.315	4175
369.541	4151
369.767	4206
369.993	4294
370.219	4232
370.445	4274
370.672	4244
370.898	4265
371.124	4301
371.35	4338
371.576	4313
371.802	4334
372.028	4335
372.254	4366
372.48	4384
372.706	4493
372.932	4513
373.158	4438
373.384	4421
373.61	4335
373.835	4415
374.061	4485
374.287	4506
374.513	4553
374.739	4691
374.965	4819
375.191	4749
375.416	4736
375.642	4611
375.868	4556
376.094	4493
376.319	4438
376.545	4424
376.771	4385
376.997	4362
377.222	4393
377.448	4453
377.674	4385
377.899	4265
378.125	4352
378.35	4295
378.576	4258
378.802	4317
379.027	4313
379.253	4360
379.478	4294
379.704	4302
379.929	4398
380.155	4376
380.38	4333
380.606	4453
380.831	4374
381.057	4425
381.282	4417
381.507	4463
381.733	4440
381.958	4490
382.184	4522
382.409	4589
382.634	4662
382.86	4698
383.085	4697
383.31	4776
383.535	4815
383.761	4883
383.986	4907
384.211	5020
384.436	5042
384.662	5144
384.887	5255
385.112	5263
385.337	5258
385.562	5292
385.787	5263
386.013	5473
386.238	5377
386.463	5382
386.688	5387
386.913	5200
387.138	5217
387.363	5181
387.588	5149
387.813	5171
388.038	5221
388.263	5229
388.488	5234
388.713	5248
388.938	5232
389.163	5206
389.387	5180
389.612	5064
389.837	5131
390.062	5106
390.287	5187
390.512	5168
390.736	5264
390.961	5337
391.186	5435
391.411	5537
391.636	5650
391.86	5813
392.085	5913
392.31	5759
392.534	5631
392.759	5496
392.984	5389
393.208	5479
393.433	5473
393.658	5395
393.882	5473
394.107	5490
394.331	5513
394.556	5469
394.78	5516
395.005	5571
395.229	5649
395.454	5815
395.678	5847
395.903	5947
396.127	6007
396.352	5749
396.576	5564
396.801	5559
397.025	5578
397.249	5694
397.474	5830
397.698	5959
397.922	6023
398.147	6159
398.371	6254
398.595	6389
398.82	6666
399.044	7259
399.268	7960
399.492	9113
399.717	9634
399.941	9508
400.165	8891
400.389	8270
400.613	7355
400.837	6939
401.062	6746
401.286	6635
401.51	6631
401.734	6588
401.958	6754
402.182	6832
402.406	6856
402.63	7046
402.854	7006
403.078	7078
403.302	7305
403.526	7480
403.75	7426
403.974	7614
404.198	7529
404.422	7617
404.645	7515
404.869	7499
405.093	7521
405.317	7551
405.541	7664
405.765	7291
405.988	7376
406.212	7503
406.436	7605
406.66	7807
406.883	7775
407.107	8466
407.331	9005
407.555	9536
407.778	9304
408.002	8430
408.226	8043
408.449	7911
408.673	7802
408.896	7934
409.12	8086
409.344	7609
409.567	7270
409.791	7267
410.014	7111
410.238	7009
410.461	7030
410.685	7087
410.908	7176
411.132	7473
411.355	7527
411.578	7090
411.802	6824
412.025	6790
412.249	6886
412.472	6820
412.695	6666
412.919	6536
413.142	6493
413.365	6472
413.589	6501
413.812	6395
414.035	6351
414.258	6383
414.482	6445
414.705	6535
414.928	6456
415.151	6407
415.374	6511
415.597	6390
415.821	6388
416.044	6386
416.267	6313
416.49	6271
416.713	6254
416.936	6453
417.159	6354
417.382	6449
417.605	6458
417.828	6574
418.051	6718
418.274	6661
418.497	6478
418.72	6641
418.943	6554
419.166	6967
419.389	7318
419.611	7276
419.834	7002
420.057	6854
420.28	6635
420.503	6394
420.726	6561
420.948	6719
421.171	7176
421.394	7189
421.617	6628
421.839	6574
422.062	6665
422.285	6970
422.507	7562
422.73	8116
422.953	7505
423.175	7076
423.398	7072
423.621	7179
423.843	7402
424.066	7282
424.288	7203
424.511	7439
424.733	7967
424.956	8474
425.178	7871
425.401	8072
425.623	7959
425.846	6892
426.068	6721
426.291	6665
426.513	6721
426.735	6816
426.958	7213
427.18	8034
427.402	9277
427.625	9241
427.847	7763
428.069	6856
428.292	6584
428.514	6166
428.736	6031
428.958	6188
429.181	5964
429.403	6022
429.625	6135
429.847	6428
430.069	7014
430.292	6520
430.514	5921
430.736	5933
430.958	5778
431.18	5701
431.402	5777
431.624	5724
431.846	5792
432.068	5859
432.29	5919
432.512	5844
432.734	5945
432.956	5869
433.178	5904
433.4	5949
433.622	5791
433.844	5866
434.066	5906
434.287	6006
434.509	6131
434.731	6412
434.953	6570
435.175	6776
435.397	6858
435.618	6729
435.84	7259
436.062	8039
436.284	8018
436.505	6719
436.727	6405
436.949	6117
437.17	5903
437.392	5885
437.614	6116
437.835	6499
438.057	7523
438.278	8219
438.5	8097
438.721	8941
438.943	7841
439.165	6558
439.386	6414
439.608	6409
439.829	6571
440.05	6934
440.272	7147
440.493	6591
440.715	6327
440.936	6230
441.158	6234
441.379	6383
441.6	6677
441.822	6967
442.043	7377
442.264	8275
442.486	7883
442.707	7122
442.928	6926
443.149	7165
443.371	7376
443.592	7905
443.813	8879
444.034	8826
444.255	7659
444.476	7497
444.698	7745
444.919	7696
445.14	7520
445.361	7412
445.582	7610
445.803	8321
446.024	9001
446.245	8527
446.466	7551
446.687	6602
446.908	6249
447.129	5947
447.35	5798
447.571	5770
447.792	5682
448.013	5794
448.234	5935
448.455	6713
448.675	7993
448.896	8413
449.117	6902
449.338	7071
449.559	8525
449.779	8776
450	6697
450.221	5887
450.442	5649
450.662	5570
450.883	5683
451.104	5761
451.324	5638
451.545	5440
451.766	5300
451.986	5191
452.207	5177
452.428	5173
452.648	5200
452.869	5246
453.089	5336
453.31	5375
453.53	5214
453.751	5071
453.971	5085
454.192	5303
454.412	5092
454.633	5043
454.853	4987
455.073	4968
455.294	5488
455.514	6021
455.734	5467
455.955	4867
456.175	4825
456.395	4707
456.616	4735
456.836	4705
457.056	4728
457.276	4633
457.497	4803
457.717	4761
457.937	4833
458.157	4905
458.377	5041
458.598	5409
458.818	6202
459.038	6991
459.258	6816
459.478	6121
459.698	5922
459.918	5929
460.138	6213
460.358	6323
460.578	6402
460.798	6561
461.018	6473
461.238	6341
461.458	6349
461.678	6284
461.898	6404
462.118	6473
462.338	6782
462.558	6886
462.777	7253
462.997	7889
463.217	8208
463.437	8075
463.657	7394
463.876	7202
464.096	7244
464.316	7324
464.536	7322
464.755	7103
464.975	6978
465.195	7167
465.414	7194
465.634	6313
465.854	6015
466.073	5806
466.293	5585
466.512	5433
466.732	5280
466.951	5267
467.171	5257
467.391	5333
467.61	5388
467.829	5381
468.049	5280
468.268	5110
468.488	5093
468.707	5089
468.927	4960
469.146	5073
469.365	5106
469.585	5163
469.804	5386
470.023	5534
470.243	5512
470.462	5557
470.681	5736
470.901	5629
471.12	5466
471.339	5408
471.558	5364
471.777	5264
471.997	5197
472.216	5137
472.435	5056
472.654	5017
472.873	5008
473.092	4952
473.311	4933
473.53	5024
473.749	5232
473.968	5803
474.187	6885
474.406	6349
474.625	5365
474.844	5106
475.063	5104
475.282	5113
475.501	5180
475.72	5161
475.939	5219
476.158	5233
476.377	5238
476.596	5207
476.814	5420
477.033	5487
477.252	5546
477.471	5629
477.69	5779
477.908	5903
478.127	5965
478.346	6078
478.564	6198
478.783	6316
479.002	6379
479.22	6419
479.439	6462
479.658	6640
479.876	6700
480.095	6886
480.313	7369
480.532	7113
480.751	6956
480.969	6882
481.188	6732
481.406	6574
481.624	6329
481.843	6108
482.061	6117
482.28	5966
482.498	5961
482.717	5991
482.935	5886
483.153	5918
483.372	5967
483.59	5954
483.808	5973
484.027	5974
484.245	5996
484.463	6031
484.681	6138
484.9	6175
485.118	6145
485.336	6229
485.554	6348
485.772	6250
485.99	6332
486.209	6309
486.427	6429
486.645	6405
486.863	6499
487.081	6533
487.299	6412
487.517	6415
487.735	6407
487.953	6403
488.171	6322
488.389	6340
488.607	6328
488.825	6346
489.043	6469
489.261	6432
489.479	6475
489.696	6511
489.914	6535
490.132	6602
490.35	6705
490.568	6721
490.786	6777
491.003	6962
491.221	7105
491.439	7119
491.657	7257
491.874	7211
492.092	7265
492.31	7294
492.527	7266
492.745	7327
492.963	7463
493.18	7420
493.398	7552
493.615	7705
493.833	7633
494.05	7696
494.268	7667
494.485	7582
494.703	7617
494.92	7639
495.138	7623
495.355	7667
495.573	7672
495.79	7678
496.008	7659
496.225	7667
496.442	7665
496.66	7688
496.877	7721
497.094	7807
497.312	8037
497.529	8254
497.746	8334
497.963	8591
498.181	9033
498.398	9208
498.615	9617
498.832	10194
499.049	10674
499.267	11335
499.484	12082
499.701	12748
499.918	13547
500.135	14361
500.352	14968
500.569	15145
500.786	14900
501.003	14463
501.22	13838
501.437	13175
501.654	12371
501.871	11729
502.088	10925
502.305	10225
502.522	9748
502.739	9465
502.956	9047
503.172	8715
503.389	8469
503.606	8412
503.823	8304
504.04	8229
504.256	8293
504.473	8417
504.69	8533
504.907	8171
505.123	7783
505.34	7568
505.557	7416
505.773	7339
505.99	7278
506.207	7235
506.423	7187
506.64	6954
506.856	6962
507.073	6803
507.289	6799
507.506	6825
507.722	6927
507.939	6900
508.155	6685
508.372	6627
508.588	6530
508.805	6465
509.021	6523
509.238	6678
509.454	6733
509.67	6599
509.887	6443
510.103	6334
510.319	6429
510.536	7669
510.752	11350
510.968	7671
511.184	6228
511.401	6153
511.617	6001
511.833	5964
512.049	5877
512.265	5935
512.481	5909
512.698	5918
512.914	6024
513.13	5912
513.346	5974
513.562	5894
513.778	5929
513.994	6037
514.21	6216
514.426	6325
514.642	6669
514.858	6814
515.074	7244
515.29	8704
515.506	11624
515.721	8443
515.937	6970
516.153	6811
516.369	6727
516.585	6781
516.801	6903
517.016	7095
517.232	7418
517.448	7587
517.664	7767
517.879	7688
518.095	7573
518.311	7531
518.527	7229
518.742	7014
518.958	6802
519.173	6607
519.389	6473
519.605	6421
519.82	6307
520.036	6432
520.251	6516
520.467	6621
520.682	6412
520.898	6512
521.113	6616
521.329	7010
521.544	7583
521.76	9561
521.975	14206
522.19	11369
522.406	7115
522.621	6138
522.836	5837
523.052	5658
523.267	5447
523.482	5370
523.698	5421
523.913	5359
524.128	5292
524.343	5194
524.559	5127
524.774	5116
524.989	5108
525.204	5096
525.419	5112
525.634	5058
525.849	5032
526.064	4946
526.28	4914
526.495	4844
526.71	4904
526.925	4894
527.14	4824
527.355	4846
527.57	4767
527.785	4887
527.999	4783
528.214	4793
528.429	4774
528.644	4893
528.859	4863
529.074	4886
529.289	5083
529.503	5669
529.718	5275
529.933	5015
530.148	4871
530.363	4862
530.577	4753
530.792	4767
531.007	4729
531.221	4803
531.436	4776
531.651	4802
531.865	4771
532.08	4725
532.295	4800
532.509	4756
532.724	4763
532.938	4754
533.153	4723
533.367	4779
533.582	4696
533.796	4658
534.011	4694
534.225	4673
534.44	4629
534.654	4557
534.868	4590
535.083	4600
535.297	4604
535.511	4666
535.726	4622
535.94	4595
536.154	4590
536.369	4531
536.583	4459
536.797	4407
537.011	4368
537.225	4409
537.44	4401
537.654	4408
537.868	4369
538.082	4410
538.296	4391
538.51	4435
538.724	4402
538.938	4371
539.153	4334
539.367	4461
539.581	4352
539.795	4278
540.009	4322
540.222	4310
540.436	4325
540.65	4362
540.864	4451
541.078	4416
541.292	4361
541.506	4288
541.72	4191
541.934	4156
542.147	4170
