Data from Uncirc_1996_H10_HRD10591_00086.txt Node
Date: Wed Jan 03 11:32:19 EST 2024
User: Yrep
Spectrometer: HR+D1059
Trigger mode: 1
Integration Time (sec): 1.000000E-1
Scans to average: 1
Electric dark correction enabled: true
Nonlinearity correction enabled: false
Boxcar width: 0
XAxis mode: Wavelengths
Number of Pixels in Spectrum: 2048
>>>>>Begin Spectral Data<<<<<
223.165	-14.62
223.4	-14.62
223.635	-14.62
223.869	-15.62
224.104	-23.62
224.338	-25.62
224.573	-16.62
224.808	-0.62
225.042	10.38
225.277	-13.62
225.511	0.38
225.746	11.38
225.98	8.38
226.215	18.38
226.449	1.38
226.683	14.38
226.918	14.38
227.152	31.38
227.387	38.38
227.621	36.38
227.856	38.38
228.09	41.38
228.324	50.38
228.559	58.38
228.793	160.38
229.027	454.38
229.262	535.38
229.496	612.38
229.73	812.38
229.964	834.38
230.199	568.38
230.433	485.38
230.667	491.38
230.901	476.38
231.136	456.38
231.37	457.38
231.604	443.38
231.838	470.38
232.072	454.38
232.306	466.38
232.541	460.38
232.775	491.38
233.009	473.38
233.243	487.38
233.477	479.38
233.711	506.38
233.945	501.38
234.179	506.38
234.413	530.38
234.647	521.38
234.881	512.38
235.115	522.38
235.349	546.38
235.583	559.38
235.817	595.38
236.051	657.38
236.285	607.38
236.519	639.38
236.753	705.38
236.987	921.38
237.221	1385.38
237.455	1534.38
237.689	942.38
237.922	742.38
238.156	719.38
238.39	696.38
238.624	657.38
238.858	673.38
239.091	671.38
239.325	663.38
239.559	689.38
239.793	704.38
240.027	816.38
240.26	925.38
240.494	968.38
240.728	968.38
240.961	927.38
241.195	820.38
241.429	779.38
241.662	765.38
241.896	774.38
242.13	774.38
242.363	763.38
242.597	800.38
242.83	831.38
243.064	848.38
243.298	854.38
243.531	861.38
243.765	842.38
243.998	885.38
244.232	855.38
244.465	894.38
244.699	906.38
244.932	914.38
245.166	909.38
245.399	920.38
245.633	878.38
245.866	950.38
246.099	916.38
246.333	942.38
246.566	952.38
246.8	979.38
247.033	1043.38
247.266	1024.38
247.5	1085.38
247.733	1189.38
247.966	1172.38
248.2	1151.38
248.433	1194.38
248.666	1212.38
248.899	1390.38
249.133	1508.38
249.366	1472.38
249.599	1306.38
249.832	1234.38
250.066	1215.38
250.299	1266.38
250.532	1349.38
250.765	1544.38
250.998	1757.38
251.231	1655.38
251.465	1506.38
251.698	1437.38
251.931	1419.38
252.164	1401.38
252.397	1412.38
252.63	1506.38
252.863	1579.38
253.096	1716.38
253.329	1799.38
253.562	1666.38
253.795	1597.38
254.028	1592.38
254.261	1639.38
254.494	1896.38
254.727	2187.38
254.96	2304.38
255.193	1985.38
255.426	1808.38
255.659	1633.38
255.892	1599.38
256.124	1573.38
256.357	1546.38
256.59	1519.38
256.823	1515.38
257.056	1520.38
257.289	1545.38
257.521	1530.38
257.754	1559.38
257.987	1520.38
258.22	1548.38
258.452	1541.38
258.685	1564.38
258.918	1579.38
259.151	1665.38
259.383	1713.38
259.616	1746.38
259.849	1817.38
260.081	1996.38
260.314	2169.38
260.547	2106.38
260.779	1925.38
261.012	1831.38
261.244	1746.38
261.477	1705.38
261.71	1717.38
261.942	1784.38
262.175	1813.38
262.407	1718.38
262.64	1710.38
262.872	1687.38
263.105	1665.38
263.337	1669.38
263.57	1704.38
263.802	1723.38
264.035	1712.38
264.267	1707.38
264.499	1669.38
264.732	1716.38
264.964	1722.38
265.197	1743.38
265.429	1784.38
265.661	1709.38
265.894	1772.38
266.126	1758.38
266.358	1801.38
266.591	1808.38
266.823	1885.38
267.055	1913.38
267.287	1921.38
267.52	1873.38
267.752	1860.38
267.984	1862.38
268.216	1924.38
268.448	1887.38
268.681	2077.38
268.913	2133.38
269.145	2388.38
269.377	2467.38
269.609	2359.38
269.841	2324.38
270.073	2438.38
270.306	2756.38
270.538	2872.38
270.77	2753.38
271.002	2586.38
271.234	2527.38
271.466	2681.38
271.698	2868.38
271.93	2815.38
272.162	2808.38
272.394	2792.38
272.626	2562.38
272.858	2435.38
273.09	2346.38
273.322	2282.38
273.553	2305.38
273.785	2276.38
274.017	2278.38
274.249	2295.38
274.481	2289.38
274.713	2333.38
274.945	2310.38
275.176	2319.38
275.408	2264.38
275.64	2310.38
275.872	2310.38
276.104	2365.38
276.335	2356.38
276.567	2492.38
276.799	2589.38
277.031	2827.38
277.262	2965.38
277.494	2791.38
277.726	2654.38
277.957	2524.38
278.189	2462.38
278.421	2393.38
278.652	2458.38
278.884	2399.38
279.115	2418.38
279.347	2484.38
279.579	2406.38
279.81	2429.38
280.042	2417.38
280.273	2428.38
280.505	2406.38
280.736	2428.38
280.968	2409.38
281.199	2479.38
281.431	2466.38
281.662	2443.38
281.894	2535.38
282.125	2582.38
282.356	2736.38
282.588	2895.38
282.819	2792.38
283.051	2588.38
283.282	2568.38
283.513	2608.38
283.745	2667.38
283.976	2724.38
284.207	2742.38
284.439	2681.38
284.67	2663.38
284.901	2661.38
285.132	2649.38
285.364	2694.38
285.595	2713.38
285.826	2692.38
286.057	2697.38
286.288	2760.38
286.52	2722.38
286.751	2713.38
286.982	2781.38
287.213	2832.38
287.444	2774.38
287.675	2914.38
287.906	2999.38
288.138	2983.38
288.369	2937.38
288.6	2995.38
288.831	2924.38
289.062	2874.38
289.293	2889.38
289.524	2853.38
289.755	2874.38
289.986	2871.38
290.217	2832.38
290.448	2888.38
290.679	2820.38
290.91	2837.38
291.141	2860.38
291.371	2908.38
291.602	2847.38
291.833	2889.38
292.064	2881.38
292.295	2870.38
292.526	2875.38
292.757	2910.38
292.987	2877.38
293.218	2884.38
293.449	2914.38
293.68	2952.38
293.91	2900.38
294.141	2867.38
294.372	2938.38
294.603	2965.38
294.833	2929.38
295.064	2921.38
295.295	2948.38
295.525	2934.38
295.756	3024.38
295.987	3049.38
296.217	3218.38
296.448	3179.38
296.679	3053.38
296.909	2955.38
297.14	2981.38
297.37	3115.38
297.601	3119.38
297.831	3115.38
298.062	3098.38
298.292	3112.38
298.523	3176.38
298.753	3208.38
298.984	3129.38
299.214	3119.38
299.445	3144.38
299.675	3194.38
299.905	3271.38
300.136	3186.38
300.366	3230.38
300.597	3257.38
300.827	3316.38
301.057	3404.38
301.288	3478.38
301.518	3410.38
301.748	3417.38
301.979	3464.38
302.209	3484.38
302.439	3479.38
302.669	3409.38
302.9	3348.38
303.13	3358.38
303.36	3397.38
303.59	3431.38
303.82	3454.38
304.051	3485.38
304.281	3453.38
304.511	3344.38
304.741	3351.38
304.971	3312.38
305.201	3330.38
305.431	3335.38
305.661	3308.38
305.891	3373.38
306.121	3370.38
306.352	3384.38
306.582	3370.38
306.812	3276.38
307.042	3344.38
307.272	3407.38
307.502	3361.38
307.731	3358.38
307.961	3350.38
308.191	3363.38
308.421	3351.38
308.651	3393.38
308.881	3371.38
309.111	3429.38
309.341	3404.38
309.571	3490.38
309.8	3612.38
310.03	3645.38
310.26	3699.38
310.49	3624.38
310.72	3839.38
310.949	3852.38
311.179	3825.38
311.409	3708.38
311.639	3699.38
311.868	3720.38
312.098	3776.38
312.328	3894.38
312.557	3940.38
312.787	4016.38
313.017	3892.38
313.246	3872.38
313.476	3799.38
313.706	3820.38
313.935	3888.38
314.165	4063.38
314.394	4034.38
314.624	3984.38
314.853	3938.38
315.083	3892.38
315.312	3837.38
315.542	3798.38
315.771	3799.38
316.001	3759.38
316.23	3750.38
316.46	3763.38
316.689	3829.38
316.919	3841.38
317.148	3910.38
317.377	3886.38
317.607	3839.38
317.836	3756.38
318.065	3768.38
318.295	3753.38
318.524	3735.38
318.753	3786.38
318.983	3750.38
319.212	3759.38
319.441	3854.38
319.67	3854.38
319.9	3783.38
320.129	3759.38
320.358	3761.38
320.587	3773.38
320.816	3857.38
321.046	3976.38
321.275	3929.38
321.504	3877.38
321.733	3917.38
321.962	3972.38
322.191	4072.38
322.42	4205.38
322.649	4260.38
322.878	4348.38
323.108	4389.38
323.337	4612.38
323.566	4758.38
323.795	5092.38
324.024	5620.38
324.253	7279.38
324.482	10843.38
324.71	15142.38
324.939	15618.38
325.168	13150.38
325.397	6661.38
325.626	5364.38
325.855	4975.38
326.084	4884.38
326.313	4872.38
326.542	5016.38
326.77	5589.38
326.999	7016.38
327.228	10134.38
327.457	14304.38
327.686	13687.38
327.914	7510.38
328.143	6004.38
328.372	5518.38
328.6	5256.38
328.829	5311.38
329.058	5450.38
329.287	5360.38
329.515	5036.38
329.744	4806.38
329.972	4895.38
330.201	4870.38
330.43	5179.38
330.658	5486.38
330.887	5851.38
331.115	5466.38
331.344	5103.38
331.572	4963.38
331.801	5011.38
332.03	5053.38
332.258	5039.38
332.486	5054.38
332.715	5140.38
332.943	5241.38
333.172	5454.38
333.4	5514.38
333.629	5644.38
333.857	5706.38
334.085	5605.38
334.314	5514.38
334.542	5464.38
334.771	5481.38
334.999	5334.38
335.227	5225.38
335.455	5252.38
335.684	5213.38
335.912	5073.38
336.14	5025.38
336.369	5018.38
336.597	5136.38
336.825	5016.38
337.053	4932.38
337.281	4928.38
337.51	4861.38
337.738	4926.38
337.966	4764.38
338.194	4782.38
338.422	4686.38
338.65	4629.38
338.878	4688.38
339.106	4610.38
339.334	4580.38
339.562	4607.38
339.79	4492.38
340.018	4471.38
340.246	4514.38
340.474	4508.38
340.702	4552.38
340.93	4537.38
341.158	4552.38
341.386	4473.38
341.614	4510.38
341.842	4485.38
342.07	4505.38
342.298	4374.38
342.526	4344.38
342.754	4392.38
342.981	4494.38
343.209	4580.38
343.437	4747.38
343.665	5058.38
343.893	5206.38
344.12	5354.38
344.348	5065.38
344.576	4900.38
344.804	4799.38
345.031	4730.38
345.259	4684.38
345.487	4564.38
345.714	4518.38
345.942	4408.38
346.17	4312.38
346.397	4351.38
346.625	4333.38
346.853	4309.38
347.08	4335.38
347.308	4308.38
347.535	4414.38
347.763	4414.38
347.99	4369.38
348.218	4439.38
348.445	4422.38
348.673	4332.38
348.9	4265.38
349.128	4213.38
349.355	4136.38
349.583	4206.38
349.81	4136.38
350.037	4116.38
350.265	4143.38
350.492	4172.38
350.72	4197.38
350.947	4159.38
351.174	4279.38
351.402	4286.38
351.629	4265.38
351.856	4261.38
352.083	4348.38
352.311	4378.38
352.538	4328.38
352.765	4268.38
352.992	4200.38
353.22	4205.38
353.447	4168.38
353.674	4107.38
353.901	4046.38
354.128	4062.38
354.355	4036.38
354.583	4032.38
354.81	4042.38
355.037	4101.38
355.264	4001.38
355.491	4037.38
355.718	4053.38
355.945	4025.38
356.172	4062.38
356.399	3985.38
356.626	4057.38
356.853	4080.38
357.08	4045.38
357.307	4022.38
357.534	4053.38
357.761	4002.38
357.988	4062.38
358.215	4045.38
358.441	4081.38
358.668	4047.38
358.895	4129.38
359.122	4168.38
359.349	4256.38
359.576	4421.38
359.802	4548.38
360.029	4695.38
360.256	4688.38
360.483	4427.38
360.709	4360.38
360.936	4297.38
361.163	4266.38
361.39	4393.38
361.616	4321.38
361.843	4338.38
362.07	4295.38
362.296	4338.38
362.523	4254.38
362.749	4292.38
362.976	4228.38
363.203	4169.38
363.429	4122.38
363.656	4191.38
363.882	4154.38
364.109	4175.38
364.335	4105.38
364.562	4114.38
364.788	4182.38
365.015	4180.38
365.241	4084.38
365.468	4190.38
365.694	4146.38
365.92	4206.38
366.147	4169.38
366.373	4132.38
366.599	4168.38
366.826	4145.38
367.052	4106.38
367.278	4155.38
367.505	4132.38
367.731	4222.38
367.957	4176.38
368.184	4212.38
368.41	4282.38
368.636	4311.38
368.862	4349.38
369.089	4219.38
369.315	4263.38
369.541	4261.38
369.767	4277.38
369.993	4281.38
370.219	4223.38
370.445	4286.38
370.672	4318.38
370.898	4405.38
371.124	4331.38
371.35	4438.38
371.576	4406.38
371.802	4414.38
372.028	4392.38
372.254	4378.38
372.48	4431.38
372.706	4567.38
372.932	4656.38
373.158	4453.38
373.384	4461.38
373.61	4397.38
373.835	4470.38
374.061	4440.38
374.287	4544.38
374.513	4558.38
374.739	4733.38
374.965	4820.38
375.191	4865.38
375.416	4729.38
375.642	4606.38
375.868	4598.38
376.094	4517.38
376.319	4493.38
376.545	4401.38
376.771	4473.38
376.997	4487.38
377.222	4478.38
377.448	4422.38
377.674	4455.38
377.899	4316.38
378.125	4384.38
378.35	4345.38
378.576	4312.38
378.802	4342.38
379.027	4406.38
379.253	4404.38
379.478	4347.38
379.704	4478.38
379.929	4415.38
380.155	4373.38
380.38	4410.38
380.606	4422.38
380.831	4344.38
381.057	4384.38
381.282	4439.38
381.507	4434.38
381.733	4605.38
381.958	4561.38
382.184	4649.38
382.409	4678.38
382.634	4605.38
382.86	4736.38
383.085	4733.38
383.31	4806.38
383.535	4884.38
383.761	4883.38
383.986	5000.38
384.211	5087.38
384.436	5092.38
384.662	5180.38
384.887	5313.38
385.112	5302.38
385.337	5344.38
385.562	5343.38
385.787	5322.38
386.013	5426.38
386.238	5423.38
386.463	5418.38
386.688	5434.38
386.913	5326.38
387.138	5277.38
387.363	5289.38
387.588	5169.38
387.813	5282.38
388.038	5224.38
388.263	5281.38
388.488	5324.38
388.713	5290.38
388.938	5323.38
389.163	5256.38
389.387	5238.38
389.612	5167.38
389.837	5197.38
390.062	5156.38
390.287	5194.38
390.512	5205.38
390.736	5282.38
390.961	5383.38
391.186	5436.38
391.411	5679.38
391.636	5706.38
391.86	5980.38
392.085	5962.38
392.31	5823.38
392.534	5660.38
392.759	5560.38
392.984	5492.38
393.208	5534.38
393.433	5509.38
393.658	5443.38
393.882	5549.38
394.107	5534.38
394.331	5529.38
394.556	5563.38
394.78	5643.38
395.005	5685.38
395.229	5719.38
395.454	5880.38
395.678	5916.38
395.903	5956.38
396.127	6012.38
396.352	5803.38
396.576	5607.38
396.801	5605.38
397.025	5716.38
397.249	5851.38
397.474	5917.38
397.698	5964.38
397.922	6152.38
398.147	6151.38
398.371	6307.38
398.595	6477.38
398.82	6707.38
399.044	7316.38
399.268	8060.38
399.492	9176.38
399.717	9785.38
399.941	9512.38
400.165	8992.38
400.389	8264.38
400.613	7353.38
400.837	6912.38
401.062	6887.38
401.286	6679.38
401.51	6699.38
401.734	6685.38
401.958	6739.38
402.182	6814.38
402.406	6954.38
402.63	7058.38
402.854	7166.38
403.078	7279.38
403.302	7338.38
403.526	7508.38
403.75	7562.38
403.974	7656.38
404.198	7587.38
404.422	7673.38
404.645	7575.38
404.869	7456.38
405.093	7573.38
405.317	7597.38
405.541	7663.38
405.765	7412.38
405.988	7388.38
406.212	7591.38
406.436	7654.38
406.66	7888.38
406.883	7904.38
407.107	8442.38
407.331	9030.38
407.555	9692.38
407.778	9277.38
408.002	8548.38
408.226	8089.38
408.449	8004.38
408.673	7882.38
408.896	7964.38
409.12	8196.38
409.344	7753.38
409.567	7256.38
409.791	7364.38
410.014	7160.38
410.238	7092.38
410.461	7227.38
410.685	7193.38
410.908	7328.38
411.132	7580.38
411.355	7593.38
411.578	7095.38
411.802	6914.38
412.025	6929.38
412.249	6936.38
412.472	6955.38
412.695	6778.38
412.919	6674.38
413.142	6660.38
413.365	6454.38
413.589	6606.38
413.812	6463.38
414.035	6467.38
414.258	6497.38
414.482	6557.38
414.705	6571.38
414.928	6537.38
415.151	6560.38
415.374	6526.38
415.597	6485.38
415.821	6437.38
416.044	6438.38
416.267	6363.38
416.49	6303.38
416.713	6355.38
416.936	6501.38
417.159	6446.38
417.382	6493.38
417.605	6452.38
417.828	6601.38
418.051	6740.38
418.274	6603.38
418.497	6656.38
418.72	6693.38
418.943	6650.38
419.166	7082.38
419.389	7493.38
419.611	7314.38
419.834	7069.38
420.057	7003.38
420.28	6711.38
420.503	6552.38
420.726	6679.38
420.948	6818.38
421.171	7300.38
421.394	7211.38
421.617	6683.38
421.839	6617.38
422.062	6755.38
422.285	6895.38
422.507	7600.38
422.73	8126.38
422.953	7589.38
423.175	7188.38
423.398	7192.38
423.621	7207.38
423.843	7467.38
424.066	7488.38
424.288	7373.38
424.511	7567.38
424.733	8002.38
424.956	8481.38
425.178	7882.38
425.401	8129.38
425.623	7993.38
425.846	7017.38
426.068	6826.38
426.291	6703.38
426.513	6650.38
426.735	6871.38
426.958	7320.38
427.18	8192.38
427.402	9256.38
427.625	9184.38
427.847	7765.38
428.069	7009.38
428.292	6552.38
428.514	6297.38
428.736	6190.38
428.958	6160.38
429.181	5910.38
429.403	5905.38
429.625	6176.38
429.847	6498.38
430.069	7112.38
430.292	6596.38
430.514	5936.38
430.736	5960.38
430.958	5812.38
431.18	5830.38
431.402	5820.38
431.624	5832.38
431.846	5852.38
432.068	5940.38
432.29	5972.38
432.512	5835.38
432.734	5983.38
432.956	5887.38
433.178	5980.38
433.4	6006.38
433.622	5919.38
433.844	5889.38
434.066	5927.38
434.287	5986.38
434.509	6260.38
434.731	6508.38
434.953	6609.38
435.175	6766.38
435.397	6860.38
435.618	6734.38
435.84	7239.38
436.062	8055.38
436.284	8013.38
436.505	6794.38
436.727	6516.38
436.949	6176.38
437.17	6064.38
437.392	6020.38
437.614	6132.38
437.835	6496.38
438.057	7586.38
438.278	8175.38
438.5	8097.38
438.721	8915.38
438.943	7845.38
439.165	6596.38
439.386	6338.38
439.608	6519.38
439.829	6563.38
440.05	6877.38
440.272	7245.38
440.493	6607.38
440.715	6342.38
440.936	6297.38
441.158	6365.38
441.379	6432.38
441.6	6834.38
441.822	6992.38
442.043	7492.38
442.264	8221.38
442.486	7879.38
442.707	7113.38
442.928	6898.38
443.149	7072.38
443.371	7304.38
443.592	7958.38
443.813	8882.38
444.034	8831.38
444.255	7852.38
444.476	7480.38
444.698	7681.38
444.919	7805.38
445.14	7641.38
445.361	7494.38
445.582	7581.38
445.803	8221.38
446.024	8962.38
446.245	8603.38
446.466	7669.38
446.687	6711.38
446.908	6370.38
447.129	6033.38
447.35	5789.38
447.571	5781.38
447.792	5699.38
448.013	5863.38
448.234	6037.38
448.455	6686.38
448.675	8002.38
448.896	8406.38
449.117	6955.38
449.338	7126.38
449.559	8536.38
449.779	8631.38
450	6576.38
450.221	5996.38
450.442	5700.38
450.662	5684.38
450.883	5662.38
451.104	5746.38
451.324	5611.38
451.545	5536.38
451.766	5335.38
451.986	5214.38
452.207	5205.38
452.428	5175.38
452.648	5256.38
452.869	5245.38
453.089	5358.38
453.31	5419.38
453.53	5290.38
453.751	5119.38
453.971	5167.38
454.192	5242.38
454.412	5136.38
454.633	5062.38
454.853	5067.38
455.073	5081.38
455.294	5494.38
455.514	5990.38
455.734	5503.38
455.955	4951.38
456.175	4834.38
456.395	4745.38
456.616	4796.38
456.836	4729.38
457.056	4710.38
457.276	4708.38
457.497	4856.38
457.717	4845.38
457.937	4925.38
458.157	4983.38
458.377	5113.38
458.598	5411.38
458.818	6181.38
459.038	6874.38
459.258	6820.38
459.478	6087.38
459.698	5986.38
459.918	6028.38
460.138	6189.38
460.358	6441.38
460.578	6444.38
460.798	6508.38
461.018	6609.38
461.238	6413.38
461.458	6387.38
461.678	6314.38
461.898	6449.38
462.118	6502.38
462.338	6877.38
462.558	7013.38
462.777	7328.38
462.997	7912.38
463.217	8334.38
463.437	8146.38
463.657	7499.38
463.876	7265.38
464.096	7315.38
464.316	7342.38
464.536	7393.38
464.755	7175.38
464.975	6982.38
465.195	7188.38
465.414	7146.38
465.634	6396.38
465.854	6022.38
466.073	5845.38
466.293	5621.38
466.512	5465.38
466.732	5375.38
466.951	5297.38
467.171	5354.38
467.391	5425.38
467.61	5389.38
467.829	5479.38
468.049	5318.38
468.268	5140.38
468.488	5078.38
468.707	5055.38
468.927	5136.38
469.146	5110.38
469.365	5139.38
469.585	5194.38
469.804	5402.38
470.023	5560.38
470.243	5510.38
470.462	5593.38
470.681	5755.38
470.901	5580.38
471.12	5539.38
471.339	5429.38
471.558	5410.38
471.777	5359.38
471.997	5161.38
472.216	5164.38
472.435	5125.38
472.654	5054.38
472.873	4988.38
473.092	5070.38
473.311	5080.38
473.53	5085.38
473.749	5231.38
473.968	5804.38
474.187	6848.38
474.406	6368.38
474.625	5387.38
474.844	5126.38
475.063	5190.38
475.282	5153.38
475.501	5178.38
475.72	5204.38
475.939	5203.38
476.158	5310.38
476.377	5277.38
476.596	5259.38
476.814	5494.38
477.033	5560.38
477.252	5617.38
477.471	5706.38
477.69	5785.38
477.908	5840.38
478.127	6030.38
478.346	6106.38
478.564	6204.38
478.783	6254.38
479.002	6515.38
479.22	6429.38
479.439	6570.38
479.658	6640.38
479.876	6747.38
480.095	6873.38
480.313	7366.38
480.532	7167.38
480.751	7060.38
480.969	6935.38
481.188	6776.38
481.406	6462.38
481.624	6407.38
481.843	6172.38
482.061	6189.38
482.28	6064.38
482.498	6013.38
482.717	5945.38
482.935	6012.38
483.153	5980.38
483.372	5968.38
483.59	5918.38
483.808	6007.38
484.027	6019.38
484.245	6050.38
484.463	6149.38
484.681	6171.38
484.9	6172.38
485.118	6351.38
485.336	6312.38
485.554	6426.38
485.772	6394.38
485.99	6382.38
486.209	6501.38
486.427	6465.38
486.645	6455.38
486.863	6521.38
487.081	6502.38
487.299	6458.38
487.517	6391.38
487.735	6459.38
487.953	6391.38
