Data from Uncirc_1996_H10_HRD10591_00094.txt Node
Date: Wed Jan 03 11:32:21 EST 2024
User: Yrep
Spectrometer: HR+D1059
Trigger mode: 1
Integration Time (sec): 1.000000E-1
Scans to average: 1
Electric dark correction enabled: true
Nonlinearity correction enabled: false
Boxcar width: 0
XAxis mode: Wavelengths
Number of Pixels in Spectrum: 2048
>>>>>Begin Spectral Data<<<<<
223.165	-5.31
223.4	-5.31
223.635	-5.31
223.869	-20.31
224.104	-25.31
224.338	-4.31
224.573	-2.31
224.808	-5.31
225.042	-10.31
225.277	-10.31
225.511	-6.31
225.746	4.69
225.98	-2.31
226.215	5.69
226.449	26.69
226.683	14.69
226.918	14.69
227.152	25.69
227.387	23.69
227.621	33.69
227.856	40.69
228.09	34.69
228.324	52.69
228.559	56.69
228.793	57.69
229.027	79.69
229.262	76.69
229.496	75.69
229.73	88.69
229.964	96.69
230.199	76.69
230.433	76.69
230.667	62.69
230.901	68.69
231.136	75.69
231.37	73.69
231.604	84.69
231.838	76.69
232.072	81.69
232.306	90.69
232.541	77.69
232.775	84.69
233.009	83.69
233.243	68.69
233.477	85.69
233.711	78.69
233.945	98.69
234.179	83.69
234.413	65.69
234.647	84.69
234.881	72.69
235.115	71.69
235.349	84.69
235.583	92.69
235.817	75.69
236.051	75.69
236.285	83.69
236.519	73.69
236.753	81.69
236.987	84.69
237.221	80.69
237.455	74.69
237.689	76.69
237.922	80.69
238.156	66.69
238.39	68.69
238.624	76.69
238.858	73.69
239.091	79.69
239.325	73.69
239.559	90.69
239.793	79.69
240.027	73.69
240.26	72.69
240.494	81.69
240.728	80.69
240.961	59.69
241.195	82.69
241.429	65.69
241.662	83.69
241.896	72.69
242.13	85.69
242.363	72.69
242.597	85.69
242.83	92.69
243.064	79.69
243.298	86.69
243.531	92.69
243.765	73.69
243.998	80.69
244.232	76.69
244.465	89.69
244.699	88.69
244.932	86.69
245.166	84.69
245.399	86.69
245.633	80.69
245.866	67.69
246.099	76.69
246.333	81.69
246.566	80.69
246.8	84.69
247.033	77.69
247.266	83.69
247.5	78.69
247.733	85.69
247.966	66.69
248.2	79.69
248.433	77.69
248.666	78.69
248.899	86.69
249.133	84.69
249.366	86.69
249.599	92.69
249.832	82.69
250.066	75.69
250.299	76.69
250.532	78.69
250.765	82.69
250.998	81.69
251.231	75.69
251.465	95.69
251.698	77.69
251.931	83.69
252.164	89.69
252.397	90.69
252.63	84.69
252.863	88.69
253.096	90.69
253.329	90.69
253.562	88.69
253.795	81.69
254.028	79.69
254.261	80.69
254.494	80.69
254.727	73.69
254.96	69.69
255.193	70.69
255.426	81.69
255.659	75.69
255.892	97.69
256.124	80.69
256.357	74.69
256.59	88.69
256.823	99.69
257.056	84.69
257.289	90.69
257.521	80.69
257.754	81.69
257.987	75.69
258.22	87.69
258.452	79.69
258.685	87.69
258.918	73.69
259.151	73.69
259.383	89.69
259.616	83.69
259.849	98.69
260.081	82.69
260.314	90.69
260.547	80.69
260.779	88.69
261.012	85.69
261.244	84.69
261.477	90.69
261.71	112.69
261.942	119.69
262.175	110.69
262.407	86.69
262.64	81.69
262.872	80.69
263.105	83.69
263.337	94.69
263.57	84.69
263.802	85.69
264.035	87.69
264.267	87.69
264.499	78.69
264.732	86.69
264.964	66.69
265.197	81.69
265.429	89.69
265.661	101.69
265.894	85.69
266.126	106.69
266.358	79.69
266.591	83.69
266.823	83.69
267.055	74.69
267.287	83.69
267.52	83.69
267.752	82.69
267.984	83.69
268.216	84.69
268.448	96.69
268.681	94.69
268.913	81.69
269.145	79.69
269.377	74.69
269.609	74.69
269.841	95.69
270.073	89.69
270.306	85.69
270.538	93.69
270.77	76.69
271.002	86.69
271.234	84.69
271.466	82.69
271.698	89.69
271.93	93.69
272.162	93.69
272.394	102.69
272.626	84.69
272.858	79.69
273.09	76.69
273.322	78.69
273.553	73.69
273.785	91.69
274.017	84.69
274.249	86.69
274.481	89.69
274.713	88.69
274.945	90.69
275.176	100.69
275.408	79.69
275.64	75.69
275.872	83.69
276.104	92.69
276.335	86.69
276.567	102.69
276.799	106.69
277.031	104.69
277.262	84.69
277.494	89.69
277.726	80.69
277.957	77.69
278.189	77.69
278.421	77.69
278.652	100.69
278.884	101.69
279.115	77.69
279.347	81.69
279.579	94.69
279.81	87.69
280.042	78.69
280.273	84.69
280.505	90.69
280.736	94.69
280.968	82.69
281.199	93.69
281.431	93.69
281.662	85.69
281.894	83.69
282.125	83.69
282.356	118.69
282.588	120.69
282.819	108.69
283.051	86.69
283.282	89.69
283.513	88.69
283.745	86.69
283.976	92.69
284.207	93.69
284.439	81.69
284.67	80.69
284.901	89.69
285.132	77.69
285.364	96.69
285.595	110.69
285.826	87.69
286.057	81.69
286.288	82.69
286.52	94.69
286.751	79.69
286.982	83.69
287.213	92.69
287.444	91.69
287.675	85.69
287.906	87.69
288.138	84.69
288.369	99.69
288.6	95.69
288.831	96.69
289.062	85.69
289.293	84.69
289.524	89.69
289.755	88.69
289.986	98.69
290.217	82.69
290.448	84.69
290.679	91.69
290.91	80.69
291.141	105.69
291.371	94.69
291.602	78.69
291.833	84.69
292.064	83.69
292.295	88.69
292.526	81.69
292.757	101.69
292.987	102.69
293.218	83.69
293.449	89.69
293.68	86.69
293.91	84.69
294.141	93.69
294.372	95.69
294.603	75.69
294.833	89.69
295.064	88.69
295.295	86.69
295.525	92.69
295.756	98.69
295.987	116.69
296.217	137.69
296.448	119.69
296.679	98.69
296.909	95.69
297.14	100.69
297.37	88.69
297.601	94.69
297.831	87.69
298.062	89.69
298.292	86.69
298.523	97.69
298.753	88.69
298.984	85.69
299.214	77.69
299.445	90.69
299.675	89.69
299.905	100.69
300.136	84.69
300.366	89.69
300.597	85.69
300.827	92.69
301.057	99.69
301.288	103.69
301.518	91.69
301.748	108.69
301.979	98.69
302.209	104.69
302.439	84.69
302.669	96.69
302.9	93.69
303.13	94.69
303.36	96.69
303.59	108.69
303.82	98.69
304.051	94.69
304.281	97.69
304.511	82.69
304.741	97.69
304.971	84.69
305.201	94.69
305.431	84.69
305.661	89.69
305.891	107.69
306.121	89.69
306.352	105.69
306.582	92.69
306.812	97.69
307.042	90.69
307.272	85.69
307.502	99.69
307.731	96.69
307.961	92.69
308.191	98.69
308.421	110.69
308.651	74.69
308.881	108.69
309.111	105.69
309.341	106.69
309.571	97.69
309.8	99.69
310.03	94.69
310.26	89.69
310.49	91.69
310.72	95.69
310.949	97.69
311.179	95.69
311.409	96.69
311.639	87.69
311.868	92.69
312.098	98.69
312.328	92.69
312.557	101.69
312.787	103.69
313.017	103.69
313.246	101.69
313.476	98.69
313.706	105.69
313.935	106.69
314.165	89.69
314.394	100.69
314.624	104.69
314.853	93.69
315.083	94.69
315.312	88.69
315.542	99.69
315.771	99.69
316.001	87.69
316.23	94.69
316.46	91.69
316.689	91.69
316.919	92.69
317.148	105.69
317.377	84.69
317.607	92.69
317.836	97.69
318.065	111.69
318.295	88.69
318.524	101.69
318.753	93.69
318.983	96.69
319.212	96.69
319.441	107.69
319.67	90.69
319.9	95.69
320.129	96.69
320.358	104.69
320.587	96.69
320.816	104.69
321.046	96.69
321.275	100.69
321.504	96.69
321.733	97.69
321.962	81.69
322.191	92.69
322.42	104.69
322.649	107.69
322.878	117.69
323.108	114.69
323.337	121.69
323.566	126.69
323.795	169.69
324.024	196.69
324.253	365.69
324.482	738.69
324.71	1539.69
324.939	2026.69
325.168	731.69
325.397	218.69
325.626	153.69
325.855	128.69
326.084	128.69
326.313	125.69
326.542	142.69
326.77	226.69
326.999	425.69
327.228	849.69
327.457	1554.69
327.686	1237.69
327.914	346.69
328.143	189.69
328.372	156.69
328.6	124.69
328.829	113.69
329.058	130.69
329.287	122.69
329.515	99.69
329.744	102.69
329.972	97.69
330.201	103.69
330.43	98.69
330.658	120.69
330.887	139.69
331.115	126.69
331.344	100.69
331.572	97.69
331.801	92.69
332.03	108.69
332.258	108.69
332.486	101.69
332.715	99.69
332.943	86.69
333.172	92.69
333.4	97.69
333.629	111.69
333.857	118.69
334.085	99.69
334.314	108.69
334.542	97.69
334.771	108.69
334.999	94.69
335.227	97.69
335.455	100.69
335.684	107.69
335.912	96.69
336.14	105.69
336.369	102.69
336.597	101.69
336.825	95.69
337.053	85.69
337.281	105.69
337.51	97.69
337.738	91.69
337.966	90.69
338.194	115.69
338.422	109.69
338.65	104.69
338.878	102.69
339.106	91.69
339.334	97.69
339.562	94.69
339.79	86.69
340.018	103.69
340.246	106.69
340.474	87.69
340.702	96.69
340.93	105.69
341.158	102.69
341.386	93.69
341.614	91.69
341.842	101.69
342.07	94.69
342.298	83.69
342.526	86.69
342.754	98.69
342.981	92.69
343.209	87.69
343.437	110.69
343.665	88.69
343.893	92.69
344.12	106.69
344.348	85.69
344.576	89.69
344.804	78.69
345.031	102.69
345.259	95.69
345.487	84.69
345.714	98.69
345.942	84.69
346.17	84.69
346.397	100.69
346.625	104.69
346.853	101.69
347.08	87.69
347.308	104.69
347.535	89.69
347.763	100.69
347.99	108.69
348.218	99.69
348.445	106.69
348.673	97.69
348.9	93.69
349.128	89.69
349.355	82.69
349.583	95.69
349.81	97.69
350.037	103.69
350.265	96.69
350.492	99.69
350.72	105.69
350.947	106.69
351.174	118.69
351.402	106.69
351.629	108.69
351.856	103.69
352.083	98.69
352.311	108.69
352.538	104.69
352.765	107.69
352.992	118.69
353.22	110.69
353.447	105.69
353.674	96.69
353.901	110.69
354.128	98.69
354.355	99.69
354.583	107.69
354.81	92.69
355.037	101.69
355.264	102.69
355.491	100.69
355.718	105.69
355.945	100.69
356.172	98.69
356.399	95.69
356.626	84.69
356.853	91.69
357.08	91.69
357.307	89.69
357.534	89.69
357.761	83.69
357.988	102.69
358.215	97.69
358.441	100.69
358.668	83.69
358.895	84.69
359.122	97.69
359.349	98.69
359.576	96.69
359.802	113.69
360.029	96.69
360.256	94.69
360.483	86.69
360.709	99.69
360.936	101.69
361.163	89.69
361.39	99.69
361.616	88.69
361.843	105.69
362.07	99.69
362.296	84.69
362.523	105.69
362.749	92.69
362.976	89.69
363.203	88.69
363.429	95.69
363.656	101.69
363.882	87.69
364.109	84.69
364.335	95.69
364.562	100.69
364.788	78.69
365.015	81.69
365.241	97.69
365.468	112.69
365.694	105.69
365.92	102.69
366.147	93.69
366.373	88.69
366.599	90.69
366.826	89.69
367.052	94.69
367.278	86.69
367.505	98.69
367.731	102.69
367.957	89.69
368.184	97.69
368.41	87.69
368.636	115.69
368.862	126.69
369.089	126.69
369.315	98.69
369.541	103.69
369.767	83.69
369.993	82.69
370.219	81.69
370.445	93.69
370.672	83.69
370.898	94.69
371.124	86.69
371.35	81.69
371.576	93.69
371.802	101.69
372.028	97.69
372.254	102.69
372.48	95.69
372.706	99.69
372.932	88.69
373.158	92.69
373.384	84.69
373.61	101.69
373.835	97.69
374.061	105.69
374.287	91.69
374.513	87.69
374.739	98.69
374.965	89.69
375.191	90.69
375.416	88.69
375.642	99.69
375.868	102.69
376.094	94.69
376.319	87.69
376.545	90.69
376.771	100.69
376.997	84.69
377.222	100.69
377.448	85.69
377.674	91.69
377.899	99.69
378.125	85.69
378.35	84.69
378.576	88.69
378.802	97.69
379.027	92.69
379.253	88.69
379.478	83.69
379.704	92.69
379.929	97.69
380.155	99.69
380.38	100.69
380.606	92.69
380.831	91.69
381.057	97.69
381.282	94.69
381.507	92.69
381.733	100.69
381.958	101.69
382.184	95.69
382.409	96.69
382.634	89.69
382.86	89.69
383.085	102.69
383.31	113.69
383.535	96.69
383.761	110.69
383.986	95.69
384.211	99.69
384.436	92.69
384.662	113.69
384.887	84.69
385.112	100.69
385.337	116.69
385.562	99.69
385.787	93.69
386.013	105.69
386.238	101.69
386.463	106.69
386.688	113.69
386.913	98.69
387.138	99.69
387.363	107.69
387.588	106.69
387.813	100.69
388.038	101.69
388.263	121.69
388.488	102.69
388.713	103.69
388.938	94.69
389.163	94.69
389.387	105.69
389.612	96.69
389.837	93.69
390.062	101.69
390.287	99.69
390.512	93.69
390.736	92.69
390.961	91.69
391.186	91.69
391.411	100.69
391.636	93.69
391.86	90.69
392.085	86.69
392.31	95.69
392.534	94.69
392.759	113.69
392.984	97.69
393.208	84.69
393.433	88.69
393.658	101.69
393.882	90.69
394.107	90.69
394.331	95.69
394.556	83.69
394.78	96.69
395.005	91.69
395.229	92.69
395.454	83.69
395.678	82.69
395.903	90.69
396.127	85.69
396.352	95.69
396.576	77.69
396.801	92.69
397.025	85.69
397.249	89.69
397.474	88.69
397.698	80.69
397.922	90.69
398.147	98.69
398.371	95.69
398.595	100.69
398.82	89.69
399.044	82.69
399.268	94.69
399.492	89.69
399.717	83.69
399.941	88.69
400.165	77.69
400.389	77.69
400.613	92.69
400.837	93.69
401.062	86.69
401.286	81.69
401.51	106.69
401.734	94.69
401.958	85.69
402.182	131.69
402.406	147.69
402.63	113.69
402.854	93.69
403.078	83.69
403.302	90.69
403.526	91.69
403.75	89.69
403.974	98.69
404.198	92.69
404.422	93.69
404.645	89.69
404.869	107.69
405.093	104.69
405.317	92.69
405.541	93.69
405.765	101.69
405.988	107.69
406.212	161.69
406.436	216.69
406.66	147.69
406.883	101.69
407.107	103.69
407.331	100.69
407.555	107.69
407.778	94.69
408.002	89.69
408.226	92.69
408.449	98.69
408.673	93.69
408.896	109.69
409.12	101.69
409.344	86.69
409.567	94.69
409.791	90.69
410.014	91.69
410.238	93.69
410.461	90.69
410.685	87.69
410.908	98.69
411.132	106.69
411.355	95.69
411.578	103.69
411.802	87.69
412.025	96.69
412.249	103.69
412.472	88.69
412.695	88.69
412.919	94.69
413.142	91.69
413.365	88.69
413.589	103.69
413.812	82.69
414.035	82.69
414.258	80.69
414.482	94.69
414.705	92.69
414.928	90.69
415.151	95.69
415.374	95.69
415.597	93.69
415.821	91.69
416.044	90.69
416.267	99.69
416.49	98.69
416.713	80.69
416.936	91.69
417.159	81.69
417.382	92.69
417.605	106.69
417.828	92.69
418.051	84.69
418.274	101.69
418.497	101.69
418.72	76.69
418.943	99.69
419.166	84.69
419.389	83.69
419.611	87.69
419.834	84.69
420.057	76.69
420.28	83.69
420.503	91.69
420.726	98.69
420.948	93.69
421.171	91.69
421.394	99.69
421.617	85.69
421.839	72.69
422.062	102.69
422.285	94.69
422.507	99.69
422.73	98.69
422.953	92.69
423.175	90.69
423.398	70.69
423.621	97.69
423.843	99.69
424.066	105.69
424.288	96.69
424.511	83.69
424.733	94.69
424.956	108.69
425.178	89.69
425.401	100.69
425.623	106.69
425.846	84.69
426.068	89.69
426.291	97.69
426.513	90.69
426.735	92.69
426.958	85.69
427.18	95.69
427.402	132.69
427.625	151.69
427.847	123.69
428.069	102.69
428.292	94.69
428.514	81.69
428.736	97.69
428.958	83.69
429.181	84.69
429.403	83.69
429.625	93.69
429.847	98.69
430.069	88.69
430.292	84.69
430.514	91.69
430.736	85.69
430.958	72.69
431.18	103.69
431.402	90.69
431.624	82.69
431.846	93.69
432.068	99.69
432.29	97.69
432.512	78.69
432.734	64.69
432.956	88.69
433.178	93.69
433.4	88.69
433.622	90.69
433.844	95.69
434.066	93.69
434.287	90.69
434.509	92.69
434.731	100.69
434.953	99.69
435.175	99.69
435.397	88.69
435.618	106.69
435.84	95.69
436.062	108.69
436.284	113.69
436.505	100.69
436.727	93.69
436.949	91.69
437.17	97.69
437.392	105.69
437.614	90.69
437.835	117.69
438.057	118.69
438.278	128.69
438.5	97.69
438.721	111.69
438.943	102.69
439.165	96.69
439.386	84.69
439.608	96.69
439.829	93.69
440.05	117.69
440.272	134.69
440.493	93.69
440.715	92.69
440.936	82.69
441.158	86.69
441.379	87.69
441.6	98.69
441.822	110.69
442.043	81.69
442.264	96.69
442.486	106.69
442.707	89.69
442.928	102.69
443.149	116.69
443.371	116.69
443.592	115.69
443.813	118.69
444.034	106.69
444.255	98.69
444.476	95.69
444.698	79.69
444.919	90.69
445.14	138.69
445.361	126.69
445.582	118.69
445.803	128.69
446.024	131.69
446.245	133.69
446.466	110.69
446.687	84.69
446.908	98.69
447.129	104.69
447.35	84.69
447.571	93.69
447.792	85.69
448.013	93.69
448.234	108.69
448.455	104.69
448.675	112.69
448.896	110.69
449.117	110.69
449.338	109.69
449.559	130.69
449.779	120.69
450	115.69
450.221	89.69
450.442	95.69
450.662	96.69
450.883	99.69
451.104	110.69
451.324	101.69
451.545	90.69
451.766	90.69
451.986	85.69
452.207	87.69
452.428	86.69
452.648	96.69
452.869	103.69
453.089	121.69
453.31	112.69
453.53	84.69
453.751	102.69
453.971	100.69
454.192	114.69
454.412	94.69
454.633	102.69
454.853	70.69
455.073	91.69
455.294	83.69
455.514	102.69
455.734	90.69
455.955	99.69
456.175	97.69
456.395	89.69
456.616	98.69
456.836	90.69
457.056	90.69
457.276	92.69
457.497	83.69
457.717	78.69
457.937	78.69
458.157	89.69
458.377	96.69
458.598	110.69
458.818	136.69
459.038	176.69
459.258	114.69
459.478	94.69
459.698	87.69
459.918	88.69
460.138	90.69
460.358	78.69
460.578	81.69
460.798	90.69
461.018	81.69
461.238	89.69
461.458	86.69
461.678	106.69
461.898	100.69
462.118	90.69
462.338	101.69
462.558	59.69
462.777	87.69
462.997	95.69
463.217	92.69
463.437	93.69
463.657	87.69
463.876	82.69
464.096	82.69
464.316	92.69
464.536	89.69
464.755	80.69
464.975	110.69
465.195	172.69
465.414	147.69
465.634	98.69
465.854	92.69
466.073	94.69
466.293	95.69
466.512	104.69
466.732	98.69
466.951	75.69
467.171	109.69
467.391	95.69
467.61	104.69
467.829	91.69
468.049	85.69
468.268	84.69
468.488	88.69
468.707	78.69
468.927	101.69
469.146	94.69
469.365	88.69
469.585	72.69
469.804	101.69
470.023	100.69
470.243	105.69
470.462	102.69
470.681	105.69
470.901	84.69
471.12	74.69
471.339	90.69
471.558	76.69
471.777	97.69
471.997	85.69
472.216	88.69
472.435	108.69
472.654	92.69
472.873	84.69
473.092	81.69
473.311	84.69
473.53	88.69
473.749	79.69
473.968	94.69
474.187	111.69
474.406	104.69
474.625	96.69
474.844	96.69
475.063	85.69
475.282	60.69
475.501	80.69
475.72	94.69
475.939	89.69
476.158	90.69
476.377	86.69
476.596	90.69
476.814	86.69
477.033	85.69
477.252	75.69
477.471	98.69
477.69	93.69
477.908	96.69
478.127	83.69
478.346	88.69
478.564	101.69
478.783	87.69
479.002	86.69
479.22	98.69
479.439	91.69
479.658	118.69
479.876	95.69
480.095	82.69
480.313	93.69
480.532	83.69
480.751	88.69
480.969	80.69
481.188	113.69
481.406	102.69
481.624	102.69
481.843	96.69
482.061	88.69
482.28	82.69
482.498	78.69
482.717	84.69
482.935	89.69
483.153	88.69
483.372	86.69
483.59	73.69
483.808	79.69
484.027	98.69
484.245	96.69
484.463	84.69
484.681	81.69
484.9	91.69
485.118	87.69
485.336	94.69
485.554	102.69
485.772	112.69
485.99	112.69
486.209	112.69
486.427	100.69
486.645	102.69
486.863	121.69
487.081	107.69
487.299	106.69
487.517	98.69
487.735	98.69
487.953	97.69
488.171	89.69
488.389	96.69
488.607	101.69
488.825	84.69
489.043	100.69
489.261	85.69
489.479	106.69
489.696	73.69
489.914	90.69
490.132	93.69
490.35	88.69
490.568	92.69
490.786	82.69
491.003	102.69
491.221	90.69
491.439	91.69
491.657	83.69
491.874	92.69
492.092	95.69
492.31	90.69
492.527	86.69
492.745	97.69
492.963	100.69
493.18	103.69
493.398	99.69
493.615	88.69
493.833	100.69
494.05	96.69
494.268	93.69
494.485	83.69
494.703	94.69
494.92	90.69
495.138	96.69
495.355	94.69
495.573	86.69
495.79	106.69
496.008	90.69
496.225	94.69
496.442	97.69
496.66	93.69
496.877	97.69
497.094	106.69
497.312	93.69
497.529	115.69
497.746	102.69
497.963	94.69
498.181	88.69
498.398	96.69
498.615	103.69
498.832	90.69
499.049	90.69
499.267	90.69
499.484	88.69
499.701	90.69
499.918	85.69
500.135	75.69
500.352	84.69
500.569	91.69
500.786	90.69
501.003	97.69
501.22	84.69
501.437	82.69
501.654	110.69
501.871	99.69
502.088	96.69
502.305	88.69
502.522	87.69
502.739	96.69
502.956	100.69
503.172	97.69
503.389	94.69
503.606	112.69
503.823	101.69
504.04	95.69
504.256	95.69
504.473	92.69
504.69	81.69
504.907	116.69
505.123	104.69
505.34	97.69
505.557	90.69
505.773	88.69
505.99	89.69
506.207	89.69
506.423	89.69
506.64	102.69
506.856	93.69
507.073	90.69
507.289	99.69
507.506	103.69
507.722	100.69
507.939	97.69
508.155	97.69
508.372	93.69
508.588	89.69
508.805	108.69
509.021	97.69
509.238	100.69
509.454	91.69
509.67	104.69
509.887	116.69
510.103	129.69
510.319	208.69
510.536	744.69
510.752	2294.69
510.968	635.69
511.184	162.69
511.401	116.69
511.617	89.69
511.833	92.69
512.049	105.69
512.265	98.69
512.481	101.69
512.698	96.69
512.914	87.69
513.13	97.69
513.346	100.69
513.562	83.69
513.778	101.69
513.994	92.69
514.21	98.69
514.426	111.69
514.642	144.69
514.858	92.69
515.074	156.69
515.29	429.69
