Data from Uncirc_1996_H10_HRD10591_00060.txt Node
Date: Wed Jan 03 11:32:14 EST 2024
User: Yrep
Spectrometer: HR+D1059
Trigger mode: 1
Integration Time (sec): 1.000000E-1
Scans to average: 1
Electric dark correction enabled: true
Nonlinearity correction enabled: false
Boxcar width: 0
XAxis mode: Wavelengths
Number of Pixels in Spectrum: 2048
>>>>>Begin Spectral Data<<<<<
223.165	-6.12
223.4	-6.12
223.635	-6.12
223.869	-10.12
224.104	-15.12
224.338	-20.12
224.573	-25.12
224.808	-8.12
225.042	-3.12
225.277	-16.12
225.511	1.88
225.746	17.88
225.98	14.88
226.215	15.88
226.449	-2.12
226.683	11.88
226.918	18.88
227.152	24.88
227.387	27.88
227.621	37.88
227.856	47.88
228.09	36.88
228.324	47.88
228.559	64.88
228.793	62.88
229.027	66.88
229.262	80.88
229.496	67.88
229.73	94.88
229.964	91.88
230.199	85.88
230.433	67.88
230.667	69.88
230.901	81.88
231.136	77.88
231.37	72.88
231.604	81.88
231.838	75.88
232.072	77.88
232.306	85.88
232.541	80.88
232.775	95.88
233.009	71.88
233.243	86.88
233.477	93.88
233.711	84.88
233.945	77.88
234.179	80.88
234.413	76.88
234.647	78.88
234.881	89.88
235.115	77.88
235.349	82.88
235.583	73.88
235.817	92.88
236.051	79.88
236.285	76.88
236.519	88.88
236.753	75.88
236.987	55.88
237.221	88.88
237.455	91.88
237.689	71.88
237.922	71.88
238.156	84.88
238.39	72.88
238.624	66.88
238.858	68.88
239.091	74.88
239.325	64.88
239.559	83.88
239.793	73.88
240.027	72.88
240.26	68.88
240.494	79.88
240.728	77.88
240.961	68.88
241.195	80.88
241.429	69.88
241.662	87.88
241.896	67.88
242.13	81.88
242.363	74.88
242.597	85.88
242.83	86.88
243.064	67.88
243.298	71.88
243.531	86.88
243.765	83.88
243.998	86.88
244.232	79.88
244.465	77.88
244.699	66.88
244.932	73.88
245.166	73.88
245.399	79.88
245.633	74.88
245.866	82.88
246.099	80.88
246.333	87.88
246.566	74.88
246.8	83.88
247.033	80.88
247.266	85.88
247.5	70.88
247.733	76.88
247.966	80.88
248.2	90.88
248.433	83.88
248.666	78.88
248.899	86.88
249.133	85.88
249.366	99.88
249.599	99.88
249.832	95.88
250.066	86.88
250.299	67.88
250.532	87.88
250.765	75.88
250.998	72.88
251.231	89.88
251.465	87.88
251.698	85.88
251.931	80.88
252.164	80.88
252.397	96.88
252.63	87.88
252.863	97.88
253.096	79.88
253.329	81.88
253.562	72.88
253.795	77.88
254.028	85.88
254.261	84.88
254.494	88.88
254.727	99.88
254.96	80.88
255.193	87.88
255.426	74.88
255.659	79.88
255.892	92.88
256.124	71.88
256.357	76.88
256.59	99.88
256.823	71.88
257.056	98.88
257.289	71.88
257.521	76.88
257.754	78.88
257.987	84.88
258.22	82.88
258.452	81.88
258.685	75.88
258.918	81.88
259.151	95.88
259.383	86.88
259.616	80.88
259.849	73.88
260.081	88.88
260.314	71.88
260.547	76.88
260.779	76.88
261.012	85.88
261.244	80.88
261.477	104.88
261.71	95.88
261.942	101.88
262.175	102.88
262.407	83.88
262.64	90.88
262.872	88.88
263.105	77.88
263.337	85.88
263.57	95.88
263.802	78.88
264.035	86.88
264.267	80.88
264.499	86.88
264.732	74.88
264.964	76.88
265.197	83.88
265.429	82.88
265.661	78.88
265.894	79.88
266.126	72.88
266.358	80.88
266.591	66.88
266.823	69.88
267.055	95.88
267.287	83.88
267.52	90.88
267.752	80.88
267.984	86.88
268.216	89.88
268.448	93.88
268.681	91.88
268.913	93.88
269.145	91.88
269.377	88.88
269.609	94.88
269.841	87.88
270.073	80.88
270.306	91.88
270.538	84.88
270.77	86.88
271.002	80.88
271.234	84.88
271.466	78.88
271.698	88.88
271.93	91.88
272.162	87.88
272.394	96.88
272.626	81.88
272.858	88.88
273.09	85.88
273.322	78.88
273.553	83.88
273.785	90.88
274.017	76.88
274.249	88.88
274.481	97.88
274.713	96.88
274.945	84.88
275.176	92.88
275.408	97.88
275.64	94.88
275.872	96.88
276.104	89.88
276.335	83.88
276.567	101.88
276.799	89.88
277.031	91.88
277.262	92.88
277.494	85.88
277.726	101.88
277.957	84.88
278.189	83.88
278.421	75.88
278.652	84.88
278.884	89.88
279.115	89.88
279.347	80.88
279.579	89.88
279.81	77.88
280.042	88.88
280.273	92.88
280.505	93.88
280.736	82.88
280.968	79.88
281.199	83.88
281.431	82.88
281.662	85.88
281.894	85.88
282.125	81.88
282.356	106.88
282.588	113.88
282.819	105.88
283.051	95.88
283.282	102.88
283.513	94.88
283.745	83.88
283.976	84.88
284.207	84.88
284.439	96.88
284.67	97.88
284.901	81.88
285.132	76.88
285.364	87.88
285.595	88.88
285.826	86.88
286.057	80.88
286.288	83.88
286.52	81.88
286.751	99.88
286.982	88.88
287.213	93.88
287.444	100.88
287.675	79.88
287.906	84.88
288.138	84.88
288.369	87.88
288.6	90.88
288.831	76.88
289.062	80.88
289.293	86.88
289.524	105.88
289.755	79.88
289.986	101.88
290.217	99.88
290.448	74.88
290.679	89.88
290.91	95.88
291.141	87.88
291.371	87.88
291.602	101.88
291.833	98.88
292.064	101.88
292.295	92.88
292.526	90.88
292.757	84.88
292.987	100.88
293.218	90.88
293.449	86.88
293.68	97.88
293.91	89.88
294.141	91.88
294.372	90.88
294.603	89.88
294.833	95.88
295.064	92.88
295.295	105.88
295.525	82.88
295.756	118.88
295.987	97.88
296.217	140.88
296.448	115.88
296.679	90.88
296.909	90.88
297.14	101.88
297.37	94.88
297.601	83.88
297.831	90.88
298.062	85.88
298.292	91.88
298.523	98.88
298.753	88.88
298.984	89.88
299.214	91.88
299.445	99.88
299.675	90.88
299.905	99.88
300.136	102.88
300.366	89.88
300.597	94.88
300.827	91.88
301.057	88.88
301.288	90.88
301.518	98.88
301.748	94.88
301.979	98.88
302.209	83.88
302.439	84.88
302.669	98.88
302.9	89.88
303.13	91.88
303.36	91.88
303.59	104.88
303.82	102.88
304.051	100.88
304.281	80.88
304.511	91.88
304.741	102.88
304.971	90.88
305.201	85.88
305.431	105.88
305.661	95.88
305.891	99.88
306.121	106.88
306.352	99.88
306.582	93.88
306.812	84.88
307.042	86.88
307.272	85.88
307.502	99.88
307.731	93.88
307.961	76.88
308.191	84.88
308.421	85.88
308.651	106.88
308.881	95.88
309.111	98.88
309.341	89.88
309.571	104.88
309.8	100.88
310.03	96.88
310.26	96.88
310.49	93.88
310.72	101.88
310.949	105.88
311.179	99.88
311.409	94.88
311.639	95.88
311.868	91.88
312.098	106.88
312.328	91.88
312.557	88.88
312.787	93.88
313.017	99.88
313.246	87.88
313.476	99.88
313.706	95.88
313.935	95.88
314.165	105.88
314.394	102.88
314.624	99.88
314.853	96.88
315.083	94.88
315.312	77.88
315.542	99.88
315.771	101.88
316.001	88.88
316.23	96.88
316.46	94.88
316.689	94.88
316.919	92.88
317.148	93.88
317.377	102.88
317.607	89.88
317.836	88.88
318.065	85.88
318.295	85.88
318.524	89.88
318.753	101.88
318.983	89.88
319.212	109.88
319.441	90.88
319.67	103.88
319.9	93.88
320.129	99.88
320.358	93.88
320.587	93.88
320.816	90.88
321.046	106.88
321.275	101.88
321.504	96.88
321.733	101.88
321.962	98.88
322.191	104.88
322.42	123.88
322.649	108.88
322.878	95.88
323.108	112.88
323.337	95.88
323.566	140.88
323.795	151.88
324.024	183.88
324.253	346.88
324.482	733.88
324.71	1473.88
324.939	1943.88
325.168	713.88
325.397	227.88
325.626	140.88
325.855	113.88
326.084	108.88
326.313	127.88
326.542	140.88
326.77	206.88
326.999	415.88
327.228	859.88
327.457	1532.88
327.686	1227.88
327.914	348.88
328.143	199.88
328.372	143.88
328.6	105.88
328.829	116.88
329.058	118.88
329.287	123.88
329.515	99.88
329.744	109.88
329.972	98.88
330.201	106.88
330.43	114.88
330.658	116.88
330.887	125.88
331.115	126.88
331.344	97.88
331.572	109.88
331.801	104.88
332.03	101.88
332.258	92.88
332.486	101.88
332.715	96.88
332.943	106.88
333.172	115.88
333.4	100.88
333.629	99.88
333.857	111.88
334.085	100.88
334.314	110.88
334.542	105.88
334.771	98.88
334.999	89.88
335.227	97.88
335.455	93.88
335.684	101.88
335.912	111.88
336.14	101.88
336.369	113.88
336.597	98.88
336.825	88.88
337.053	105.88
337.281	99.88
337.51	94.88
337.738	86.88
337.966	98.88
338.194	84.88
338.422	100.88
338.65	84.88
338.878	97.88
339.106	95.88
339.334	96.88
339.562	80.88
339.79	81.88
340.018	98.88
340.246	103.88
340.474	84.88
340.702	91.88
340.93	96.88
341.158	92.88
341.386	101.88
341.614	83.88
341.842	100.88
342.07	89.88
342.298	95.88
342.526	96.88
342.754	99.88
342.981	88.88
343.209	94.88
343.437	109.88
343.665	89.88
343.893	87.88
344.12	101.88
344.348	93.88
344.576	76.88
344.804	96.88
345.031	67.88
345.259	88.88
345.487	100.88
345.714	87.88
345.942	85.88
346.17	95.88
346.397	82.88
346.625	84.88
346.853	105.88
347.08	97.88
347.308	89.88
347.535	96.88
347.763	91.88
347.99	81.88
348.218	96.88
348.445	109.88
348.673	98.88
348.9	90.88
349.128	94.88
349.355	94.88
349.583	108.88
349.81	95.88
350.037	100.88
350.265	94.88
350.492	100.88
350.72	101.88
350.947	114.88
351.174	101.88
351.402	122.88
351.629	106.88
351.856	95.88
352.083	84.88
352.311	108.88
352.538	113.88
352.765	107.88
352.992	120.88
353.22	115.88
353.447	88.88
353.674	97.88
353.901	99.88
354.128	100.88
354.355	96.88
354.583	94.88
354.81	100.88
355.037	107.88
355.264	105.88
355.491	89.88
355.718	87.88
355.945	105.88
356.172	89.88
356.399	106.88
356.626	91.88
356.853	91.88
357.08	94.88
357.307	87.88
357.534	95.88
357.761	104.88
357.988	92.88
358.215	102.88
358.441	78.88
358.668	96.88
358.895	79.88
359.122	79.88
359.349	73.88
359.576	91.88
359.802	92.88
360.029	104.88
360.256	107.88
360.483	105.88
360.709	89.88
360.936	86.88
361.163	89.88
361.39	97.88
361.616	86.88
361.843	84.88
362.07	85.88
362.296	100.88
362.523	88.88
362.749	103.88
362.976	110.88
363.203	102.88
363.429	88.88
363.656	82.88
363.882	91.88
364.109	89.88
364.335	95.88
364.562	106.88
364.788	95.88
365.015	99.88
365.241	95.88
365.468	99.88
365.694	92.88
365.92	76.88
366.147	106.88
366.373	94.88
366.599	83.88
366.826	93.88
367.052	96.88
367.278	100.88
367.505	90.88
367.731	102.88
367.957	99.88
368.184	84.88
368.41	107.88
368.636	113.88
368.862	102.88
369.089	91.88
369.315	87.88
369.541	99.88
369.767	93.88
369.993	106.88
370.219	97.88
370.445	96.88
370.672	83.88
370.898	94.88
371.124	89.88
371.35	100.88
371.576	95.88
371.802	80.88
372.028	83.88
372.254	93.88
372.48	75.88
372.706	93.88
372.932	75.88
373.158	88.88
373.384	97.88
373.61	89.88
373.835	98.88
374.061	97.88
374.287	99.88
374.513	92.88
374.739	89.88
374.965	82.88
375.191	79.88
375.416	89.88
375.642	91.88
375.868	99.88
376.094	95.88
376.319	84.88
376.545	97.88
376.771	97.88
376.997	80.88
377.222	104.88
377.448	82.88
377.674	79.88
377.899	94.88
378.125	85.88
378.35	95.88
378.576	88.88
378.802	95.88
379.027	79.88
379.253	92.88
379.478	93.88
379.704	105.88
379.929	92.88
380.155	79.88
380.38	94.88
380.606	83.88
380.831	89.88
381.057	80.88
381.282	93.88
381.507	89.88
381.733	99.88
381.958	103.88
382.184	105.88
382.409	89.88
382.634	101.88
382.86	107.88
383.085	93.88
383.31	85.88
383.535	100.88
383.761	93.88
383.986	100.88
384.211	107.88
384.436	95.88
384.662	89.88
384.887	99.88
385.112	105.88
385.337	92.88
385.562	101.88
385.787	99.88
386.013	101.88
386.238	104.88
386.463	113.88
386.688	93.88
386.913	99.88
387.138	92.88
387.363	99.88
387.588	94.88
387.813	110.88
388.038	99.88
388.263	92.88
388.488	101.88
388.713	103.88
388.938	99.88
389.163	79.88
389.387	79.88
389.612	75.88
389.837	101.88
390.062	84.88
390.287	96.88
390.512	99.88
390.736	92.88
390.961	92.88
391.186	101.88
391.411	97.88
391.636	83.88
391.86	82.88
392.085	88.88
392.31	82.88
392.534	80.88
392.759	79.88
392.984	89.88
393.208	96.88
393.433	100.88
393.658	92.88
393.882	94.88
394.107	80.88
394.331	82.88
394.556	80.88
394.78	89.88
395.005	93.88
395.229	86.88
395.454	91.88
395.678	92.88
395.903	85.88
396.127	83.88
396.352	103.88
396.576	85.88
396.801	92.88
397.025	92.88
397.249	89.88
397.474	85.88
397.698	99.88
397.922	92.88
398.147	93.88
398.371	83.88
398.595	88.88
398.82	90.88
399.044	89.88
399.268	100.88
399.492	84.88
399.717	91.88
399.941	79.88
400.165	85.88
400.389	83.88
400.613	81.88
400.837	76.88
401.062	90.88
401.286	81.88
401.51	97.88
401.734	96.88
401.958	99.88
402.182	111.88
402.406	138.88
402.63	107.88
402.854	100.88
403.078	88.88
403.302	95.88
403.526	90.88
403.75	83.88
403.974	89.88
404.198	83.88
404.422	87.88
404.645	92.88
404.869	91.88
405.093	90.88
405.317	98.88
405.541	95.88
405.765	98.88
405.988	109.88
406.212	162.88
406.436	196.88
406.66	119.88
406.883	93.88
407.107	98.88
407.331	92.88
407.555	96.88
407.778	108.88
408.002	79.88
408.226	84.88
408.449	75.88
408.673	92.88
408.896	98.88
409.12	100.88
409.344	95.88
409.567	92.88
409.791	87.88
410.014	90.88
410.238	93.88
410.461	96.88
410.685	101.88
410.908	94.88
411.132	105.88
411.355	108.88
411.578	98.88
411.802	81.88
412.025	82.88
412.249	99.88
412.472	99.88
412.695	91.88
412.919	96.88
413.142	81.88
413.365	85.88
413.589	109.88
413.812	95.88
414.035	98.88
414.258	76.88
414.482	85.88
414.705	85.88
414.928	96.88
415.151	109.88
415.374	100.88
415.597	87.88
415.821	97.88
416.044	88.88
416.267	92.88
416.49	84.88
416.713	105.88
416.936	92.88
417.159	101.88
417.382	93.88
417.605	97.88
417.828	95.88
418.051	81.88
418.274	81.88
418.497	87.88
418.72	87.88
418.943	85.88
419.166	100.88
419.389	84.88
419.611	93.88
419.834	96.88
420.057	87.88
420.28	84.88
420.503	83.88
420.726	86.88
420.948	101.88
421.171	101.88
421.394	94.88
421.617	91.88
421.839	87.88
422.062	81.88
422.285	88.88
422.507	104.88
422.73	106.88
422.953	107.88
423.175	100.88
423.398	90.88
423.621	88.88
423.843	88.88
424.066	94.88
424.288	90.88
424.511	92.88
424.733	96.88
424.956	101.88
425.178	85.88
425.401	91.88
425.623	110.88
425.846	87.88
426.068	77.88
426.291	96.88
426.513	86.88
426.735	91.88
426.958	82.88
427.18	98.88
427.402	132.88
427.625	129.88
427.847	112.88
428.069	100.88
428.292	105.88
428.514	77.88
428.736	89.88
428.958	94.88
429.181	78.88
429.403	81.88
429.625	77.88
429.847	94.88
430.069	90.88
430.292	91.88
430.514	81.88
430.736	87.88
430.958	103.88
431.18	87.88
431.402	94.88
431.624	103.88
431.846	80.88
432.068	78.88
432.29	80.88
432.512	87.88
432.734	93.88
432.956	89.88
433.178	96.88
433.4	99.88
433.622	101.88
433.844	86.88
434.066	94.88
434.287	101.88
434.509	100.88
434.731	88.88
434.953	96.88
435.175	78.88
435.397	96.88
435.618	89.88
435.84	96.88
436.062	122.88
436.284	111.88
436.505	89.88
436.727	96.88
436.949	95.88
437.17	86.88
437.392	79.88
437.614	88.88
437.835	98.88
438.057	105.88
438.278	101.88
438.5	105.88
438.721	121.88
438.943	91.88
439.165	97.88
439.386	81.88
439.608	96.88
439.829	104.88
440.05	125.88
440.272	128.88
440.493	96.88
440.715	90.88
440.936	78.88
441.158	80.88
441.379	88.88
441.6	76.88
441.822	81.88
442.043	93.88
442.264	98.88
442.486	111.88
442.707	80.88
442.928	96.88
443.149	128.88
443.371	131.88
443.592	99.88
443.813	103.88
444.034	98.88
444.255	103.88
444.476	101.88
444.698	82.88
444.919	85.88
445.14	141.88
445.361	133.88
445.582	108.88
445.803	126.88
446.024	124.88
446.245	131.88
446.466	106.88
446.687	97.88
446.908	74.88
447.129	79.88
447.35	85.88
447.571	93.88
447.792	96.88
448.013	98.88
448.234	97.88
448.455	100.88
448.675	106.88
448.896	104.88
449.117	85.88
449.338	104.88
449.559	124.88
449.779	124.88
450	104.88
450.221	92.88
450.442	93.88
450.662	92.88
450.883	101.88
451.104	103.88
451.324	101.88
451.545	92.88
451.766	91.88
451.986	88.88
452.207	81.88
452.428	93.88
452.648	100.88
452.869	92.88
453.089	99.88
453.31	103.88
453.53	98.88
453.751	92.88
453.971	95.88
454.192	96.88
454.412	76.88
454.633	79.88
454.853	77.88
455.073	81.88
455.294	111.88
455.514	99.88
455.734	94.88
455.955	79.88
456.175	99.88
456.395	74.88
456.616	71.88
456.836	77.88
457.056	80.88
457.276	84.88
457.497	96.88
457.717	97.88
457.937	85.88
458.157	102.88
458.377	89.88
458.598	96.88
458.818	127.88
459.038	144.88
459.258	108.88
459.478	93.88
459.698	86.88
459.918	84.88
460.138	92.88
460.358	93.88
460.578	85.88
460.798	97.88
461.018	86.88
461.238	79.88
461.458	86.88
461.678	92.88
461.898	95.88
462.118	87.88
462.338	91.88
462.558	90.88
462.777	77.88
462.997	74.88
463.217	89.88
463.437	86.88
463.657	71.88
463.876	91.88
464.096	91.88
464.316	82.88
464.536	102.88
464.755	87.88
464.975	100.88
465.195	150.88
465.414	142.88
465.634	113.88
465.854	87.88
466.073	92.88
466.293	91.88
466.512	83.88
466.732	97.88
466.951	90.88
467.171	92.88
467.391	94.88
467.61	110.88
467.829	101.88
468.049	91.88
468.268	87.88
468.488	93.88
468.707	97.88
468.927	80.88
469.146	87.88
469.365	100.88
469.585	94.88
469.804	88.88
470.023	91.88
470.243	86.88
470.462	108.88
470.681	90.88
470.901	85.88
471.12	78.88
471.339	86.88
471.558	83.88
471.777	87.88
471.997	87.88
472.216	91.88
472.435	83.88
472.654	96.88
472.873	87.88
473.092	88.88
473.311	98.88
473.53	86.88
473.749	113.88
473.968	83.88
474.187	105.88
474.406	95.88
474.625	99.88
474.844	104.88
475.063	94.88
475.282	85.88
475.501	75.88
475.72	98.88
475.939	87.88
476.158	82.88
476.377	97.88
476.596	88.88
476.814	84.88
477.033	97.88
477.252	98.88
477.471	90.88
477.69	92.88
477.908	88.88
478.127	83.88
478.346	81.88
478.564	95.88
478.783	95.88
479.002	100.88
479.22	91.88
479.439	113.88
479.658	112.88
479.876	88.88
480.095	100.88
480.313	84.88
480.532	98.88
480.751	85.88
480.969	83.88
481.188	92.88
481.406	91.88
481.624	98.88
481.843	100.88
482.061	94.88
482.28	80.88
482.498	94.88
482.717	84.88
482.935	93.88
483.153	92.88
483.372	95.88
483.59	94.88
483.808	95.88
484.027	85.88
484.245	83.88
484.463	89.88
484.681	97.88
484.9	84.88
485.118	85.88
485.336	114.88
485.554	94.88
485.772	89.88
485.99	95.88
486.209	103.88
486.427	92.88
486.645	109.88
486.863	101.88
487.081	107.88
487.299	92.88
487.517	88.88
487.735	94.88
487.953	93.88
488.171	81.88
488.389	103.88
488.607	112.88
488.825	99.88
489.043	89.88
489.261	89.88
489.479	105.88
489.696	85.88
489.914	90.88
490.132	97.88
490.35	95.88
490.568	110.88
490.786	101.88
491.003	93.88
491.221	83.88
491.439	87.88
491.657	91.88
491.874	99.88
492.092	85.88
492.31	93.88
492.527	83.88
492.745	92.88
492.963	91.88
493.18	81.88
493.398	75.88
493.615	96.88
493.833	86.88
494.05	83.88
494.268	96.88
494.485	88.88
494.703	95.88
494.92	91.88
495.138	90.88
495.355	98.88
495.573	96.88
495.79	84.88
496.008	106.88
496.225	92.88
496.442	94.88
496.66	88.88
496.877	99.88
497.094	83.88
497.312	84.88
497.529	82.88
497.746	95.88
497.963	93.88
498.181	91.88
498.398	96.88
498.615	109.88
498.832	108.88
499.049	77.88
499.267	92.88
499.484	94.88
499.701	98.88
499.918	94.88
500.135	97.88
500.352	85.88
500.569	91.88
500.786	87.88
501.003	78.88
501.22	101.88
501.437	98.88
501.654	92.88
501.871	96.88
502.088	91.88
502.305	81.88
502.522	91.88
502.739	79.88
502.956	81.88
503.172	82.88
503.389	89.88
503.606	110.88
503.823	95.88
504.04	99.88
504.256	96.88
504.473	76.88
504.69	82.88
504.907	89.88
505.123	90.88
505.34	103.88
505.557	95.88
505.773	89.88
505.99	78.88
506.207	75.88
506.423	86.88
506.64	91.88
506.856	99.88
507.073	103.88
507.289	96.88
507.506	99.88
507.722	108.88
507.939	119.88
508.155	94.88
508.372	92.88
508.588	91.88
508.805	98.88
509.021	99.88
509.238	98.88
509.454	105.88
509.67	104.88
509.887	117.88
510.103	131.88
510.319	203.88
510.536	647.88
510.752	1944.88
510.968	555.88
511.184	158.88
511.401	117.88
511.617	100.88
511.833	104.88
512.049	95.88
512.265	87.88
512.481	88.88
512.698	87.88
512.914	105.88
513.13	91.88
513.346	100.88
513.562	93.88
513.778	97.88
513.994	94.88
514.21	106.88
514.426	108.88
514.642	127.88
514.858	124.88
515.074	153.88
515.29	384.88
515.506	1241.88
515.721	445.88
515.937	149.88
