Data from Uncirc_1996_H10_HRD10591_00017.txt Node
Date: Wed Jan 03 11:32:05 EST 2024
User: Yrep
Spectrometer: HR+D1059
Trigger mode: 1
Integration Time (sec): 1.000000E-1
Scans to average: 1
Electric dark correction enabled: true
Nonlinearity correction enabled: false
Boxcar width: 0
XAxis mode: Wavelengths
Number of Pixels in Spectrum: 2048
>>>>>Begin Spectral Data<<<<<
223.165	-4.69
223.4	-4.69
223.635	-4.69
223.869	-28.69
224.104	-23.69
224.338	-27.69
224.573	-11.69
224.808	-20.69
225.042	-1.69
225.277	-12.69
225.511	5.31
225.746	8.31
225.98	11.31
226.215	13.31
226.449	20.31
226.683	18.31
226.918	29.31
227.152	25.31
227.387	41.31
227.621	42.31
227.856	39.31
228.09	42.31
228.324	56.31
228.559	54.31
228.793	59.31
229.027	67.31
229.262	65.31
229.496	68.31
229.73	88.31
229.964	83.31
230.199	88.31
230.433	75.31
230.667	87.31
230.901	83.31
231.136	79.31
231.37	88.31
231.604	80.31
231.838	78.31
232.072	88.31
232.306	95.31
232.541	79.31
232.775	91.31
233.009	81.31
233.243	79.31
233.477	82.31
233.711	83.31
233.945	88.31
234.179	92.31
234.413	87.31
234.647	82.31
234.881	89.31
235.115	83.31
235.349	95.31
235.583	80.31
235.817	72.31
236.051	68.31
236.285	66.31
236.519	79.31
236.753	85.31
236.987	79.31
237.221	89.31
237.455	90.31
237.689	75.31
237.922	94.31
238.156	81.31
238.39	79.31
238.624	86.31
238.858	85.31
239.091	77.31
239.325	79.31
239.559	76.31
239.793	67.31
240.027	82.31
240.26	81.31
240.494	68.31
240.728	71.31
240.961	77.31
241.195	73.31
241.429	77.31
241.662	77.31
241.896	101.31
242.13	71.31
242.363	88.31
242.597	73.31
242.83	79.31
243.064	87.31
243.298	75.31
243.531	69.31
243.765	87.31
243.998	73.31
244.232	71.31
244.465	78.31
244.699	67.31
244.932	79.31
245.166	67.31
245.399	84.31
245.633	62.31
245.866	79.31
246.099	82.31
246.333	84.31
246.566	91.31
246.8	73.31
247.033	82.31
247.266	81.31
247.5	87.31
247.733	80.31
247.966	76.31
248.2	78.31
248.433	69.31
248.666	75.31
248.899	74.31
249.133	85.31
249.366	101.31
249.599	95.31
249.832	92.31
250.066	81.31
250.299	85.31
250.532	71.31
250.765	74.31
250.998	76.31
251.231	73.31
251.465	93.31
251.698	87.31
251.931	81.31
252.164	80.31
252.397	75.31
252.63	79.31
252.863	82.31
253.096	77.31
253.329	87.31
253.562	83.31
253.795	77.31
254.028	90.31
254.261	67.31
254.494	77.31
254.727	76.31
254.96	82.31
255.193	74.31
255.426	72.31
255.659	76.31
255.892	79.31
256.124	85.31
256.357	71.31
256.59	85.31
256.823	83.31
257.056	81.31
257.289	87.31
257.521	83.31
257.754	88.31
257.987	83.31
258.22	83.31
258.452	91.31
258.685	93.31
258.918	75.31
259.151	65.31
259.383	103.31
259.616	85.31
259.849	82.31
260.081	89.31
260.314	81.31
260.547	67.31
260.779	80.31
261.012	73.31
261.244	96.31
261.477	88.31
261.71	102.31
261.942	116.31
262.175	115.31
262.407	92.31
262.64	74.31
262.872	84.31
263.105	84.31
263.337	76.31
263.57	88.31
263.802	90.31
264.035	91.31
264.267	103.31
264.499	87.31
264.732	70.31
264.964	84.31
265.197	93.31
265.429	80.31
265.661	91.31
265.894	82.31
266.126	88.31
266.358	92.31
266.591	92.31
266.823	81.31
267.055	86.31
267.287	84.31
267.52	83.31
267.752	82.31
267.984	64.31
268.216	79.31
268.448	87.31
268.681	106.31
268.913	71.31
269.145	88.31
269.377	96.31
269.609	91.31
269.841	76.31
270.073	89.31
270.306	95.31
270.538	88.31
270.77	85.31
271.002	86.31
271.234	98.31
271.466	91.31
271.698	90.31
271.93	84.31
272.162	85.31
272.394	104.31
272.626	93.31
272.858	75.31
273.09	76.31
273.322	76.31
273.553	85.31
273.785	89.31
274.017	69.31
274.249	72.31
274.481	91.31
274.713	90.31
274.945	96.31
275.176	84.31
275.408	84.31
275.64	78.31
275.872	88.31
276.104	92.31
276.335	96.31
276.567	86.31
276.799	94.31
277.031	105.31
277.262	96.31
277.494	87.31
277.726	90.31
277.957	93.31
278.189	79.31
278.421	87.31
278.652	83.31
278.884	76.31
279.115	93.31
279.347	90.31
279.579	82.31
279.81	86.31
280.042	88.31
280.273	81.31
280.505	87.31
280.736	81.31
280.968	86.31
281.199	90.31
281.431	91.31
281.662	85.31
281.894	87.31
282.125	91.31
282.356	101.31
282.588	111.31
282.819	119.31
283.051	97.31
283.282	91.31
283.513	80.31
283.745	94.31
283.976	83.31
284.207	89.31
284.439	81.31
284.67	101.31
284.901	90.31
285.132	101.31
285.364	96.31
285.595	93.31
285.826	84.31
286.057	85.31
286.288	100.31
286.52	94.31
286.751	76.31
286.982	88.31
287.213	67.31
287.444	89.31
287.675	83.31
287.906	101.31
288.138	85.31
288.369	74.31
288.6	82.31
288.831	83.31
289.062	99.31
289.293	97.31
289.524	83.31
289.755	98.31
289.986	90.31
290.217	98.31
290.448	84.31
290.679	100.31
290.91	96.31
291.141	82.31
291.371	77.31
291.602	81.31
291.833	67.31
292.064	89.31
292.295	72.31
292.526	83.31
292.757	84.31
292.987	87.31
293.218	89.31
293.449	88.31
293.68	93.31
293.91	100.31
294.141	88.31
294.372	88.31
294.603	94.31
294.833	94.31
295.064	91.31
295.295	104.31
295.525	91.31
295.756	95.31
295.987	94.31
296.217	131.31
296.448	129.31
296.679	92.31
296.909	96.31
297.14	102.31
297.37	86.31
297.601	85.31
297.831	82.31
298.062	88.31
298.292	83.31
298.523	83.31
298.753	91.31
298.984	77.31
299.214	74.31
299.445	93.31
299.675	97.31
299.905	97.31
300.136	102.31
300.366	93.31
300.597	83.31
300.827	97.31
301.057	101.31
301.288	105.31
301.518	97.31
301.748	97.31
301.979	100.31
302.209	87.31
302.439	88.31
302.669	81.31
302.9	95.31
303.13	88.31
303.36	92.31
303.59	92.31
303.82	105.31
304.051	92.31
304.281	90.31
304.511	104.31
304.741	103.31
304.971	82.31
305.201	85.31
305.431	87.31
305.661	82.31
305.891	87.31
306.121	106.31
306.352	97.31
306.582	93.31
306.812	91.31
307.042	95.31
307.272	95.31
307.502	89.31
307.731	97.31
307.961	99.31
308.191	90.31
308.421	90.31
308.651	103.31
308.881	97.31
309.111	84.31
309.341	96.31
309.571	93.31
309.8	99.31
310.03	96.31
310.26	96.31
310.49	120.31
310.72	102.31
310.949	85.31
311.179	84.31
311.409	93.31
311.639	97.31
311.868	99.31
312.098	95.31
312.328	90.31
312.557	98.31
312.787	99.31
313.017	104.31
313.246	102.31
313.476	95.31
313.706	104.31
313.935	110.31
314.165	96.31
314.394	101.31
314.624	92.31
314.853	100.31
315.083	84.31
315.312	101.31
315.542	96.31
315.771	82.31
316.001	90.31
316.23	88.31
316.46	87.31
316.689	84.31
316.919	88.31
317.148	91.31
317.377	87.31
317.607	95.31
317.836	87.31
318.065	79.31
318.295	89.31
318.524	109.31
318.753	100.31
318.983	91.31
319.212	97.31
319.441	102.31
319.67	104.31
319.9	91.31
320.129	94.31
320.358	82.31
320.587	110.31
320.816	91.31
321.046	93.31
321.275	98.31
321.504	90.31
321.733	83.31
321.962	107.31
322.191	101.31
322.42	95.31
322.649	119.31
322.878	102.31
323.108	125.31
323.337	136.31
323.566	130.31
323.795	149.31
324.024	201.31
324.253	365.31
324.482	752.31
324.71	1567.31
324.939	2101.31
325.168	774.31
325.397	224.31
325.626	151.31
325.855	121.31
326.084	125.31
326.313	119.31
326.542	142.31
326.77	221.31
326.999	427.31
327.228	903.31
327.457	1625.31
327.686	1344.31
327.914	390.31
328.143	233.31
328.372	188.31
328.6	130.31
328.829	102.31
329.058	121.31
329.287	132.31
329.515	98.31
329.744	100.31
329.972	91.31
330.201	106.31
330.43	110.31
330.658	123.31
330.887	129.31
331.115	116.31
331.344	99.31
331.572	94.31
331.801	109.31
332.03	91.31
332.258	88.31
332.486	89.31
332.715	96.31
332.943	101.31
333.172	104.31
333.4	103.31
333.629	109.31
333.857	116.31
334.085	103.31
334.314	95.31
334.542	91.31
334.771	91.31
334.999	99.31
335.227	96.31
335.455	101.31
335.684	91.31
335.912	94.31
336.14	99.31
336.369	106.31
336.597	121.31
336.825	100.31
337.053	71.31
337.281	91.31
337.51	108.31
337.738	112.31
337.966	101.31
338.194	121.31
338.422	132.31
338.65	114.31
338.878	112.31
339.106	91.31
339.334	85.31
339.562	98.31
339.79	88.31
340.018	93.31
340.246	93.31
340.474	104.31
340.702	91.31
340.93	89.31
341.158	104.31
341.386	91.31
341.614	107.31
341.842	85.31
342.07	96.31
342.298	81.31
342.526	88.31
342.754	87.31
342.981	91.31
343.209	88.31
343.437	99.31
343.665	84.31
343.893	81.31
344.12	80.31
344.348	81.31
344.576	99.31
344.804	95.31
345.031	99.31
345.259	88.31
345.487	96.31
345.714	98.31
345.942	80.31
346.17	82.31
346.397	91.31
346.625	90.31
346.853	100.31
347.08	89.31
347.308	92.31
347.535	101.31
347.763	99.31
347.99	90.31
348.218	101.31
348.445	115.31
348.673	91.31
348.9	99.31
349.128	81.31
349.355	95.31
349.583	93.31
349.81	99.31
350.037	95.31
350.265	91.31
350.492	102.31
350.72	100.31
350.947	97.31
351.174	105.31
351.402	119.31
351.629	107.31
351.856	96.31
352.083	97.31
352.311	106.31
352.538	114.31
352.765	113.31
352.992	113.31
353.22	101.31
353.447	97.31
353.674	82.31
353.901	91.31
354.128	101.31
354.355	98.31
354.583	109.31
354.81	105.31
355.037	85.31
355.264	90.31
355.491	93.31
355.718	88.31
355.945	92.31
356.172	92.31
356.399	99.31
356.626	85.31
356.853	85.31
357.08	83.31
357.307	91.31
357.534	96.31
357.761	100.31
357.988	108.31
358.215	78.31
358.441	87.31
358.668	85.31
358.895	83.31
359.122	72.31
359.349	79.31
359.576	105.31
359.802	106.31
360.029	96.31
360.256	99.31
360.483	104.31
360.709	85.31
360.936	82.31
361.163	79.31
361.39	83.31
361.616	89.31
361.843	103.31
362.07	104.31
362.296	97.31
362.523	87.31
362.749	99.31
362.976	95.31
363.203	82.31
363.429	97.31
363.656	87.31
363.882	87.31
364.109	77.31
364.335	93.31
364.562	83.31
364.788	97.31
365.015	88.31
365.241	93.31
365.468	105.31
365.694	112.31
365.92	108.31
366.147	83.31
366.373	101.31
366.599	90.31
366.826	92.31
367.052	95.31
367.278	84.31
367.505	93.31
367.731	91.31
367.957	82.31
368.184	97.31
368.41	90.31
368.636	114.31
368.862	121.31
369.089	101.31
369.315	101.31
369.541	87.31
369.767	111.31
369.993	93.31
370.219	100.31
370.445	93.31
370.672	104.31
370.898	104.31
371.124	82.31
371.35	95.31
371.576	90.31
371.802	84.31
372.028	83.31
372.254	94.31
372.48	85.31
372.706	85.31
372.932	83.31
373.158	91.31
373.384	100.31
373.61	91.31
373.835	89.31
374.061	93.31
374.287	108.31
374.513	88.31
374.739	87.31
374.965	83.31
375.191	85.31
375.416	87.31
375.642	92.31
375.868	101.31
376.094	95.31
376.319	93.31
376.545	91.31
376.771	93.31
376.997	78.31
377.222	85.31
377.448	82.31
377.674	88.31
377.899	80.31
378.125	93.31
378.35	94.31
378.576	83.31
378.802	85.31
379.027	82.31
379.253	102.31
379.478	87.31
379.704	107.31
379.929	94.31
380.155	104.31
380.38	93.31
380.606	83.31
380.831	108.31
381.057	99.31
381.282	106.31
381.507	104.31
381.733	101.31
381.958	109.31
382.184	92.31
382.409	105.31
382.634	110.31
382.86	101.31
383.085	109.31
383.31	109.31
383.535	98.31
383.761	95.31
383.986	94.31
384.211	97.31
384.436	96.31
384.662	104.31
384.887	100.31
385.112	92.31
385.337	116.31
385.562	111.31
385.787	107.31
386.013	111.31
386.238	116.31
386.463	110.31
386.688	110.31
386.913	99.31
387.138	100.31
387.363	105.31
387.588	98.31
387.813	98.31
388.038	107.31
388.263	107.31
388.488	109.31
388.713	84.31
388.938	92.31
389.163	101.31
389.387	99.31
389.612	105.31
389.837	89.31
390.062	91.31
390.287	97.31
390.512	101.31
390.736	107.31
390.961	89.31
391.186	112.31
391.411	102.31
391.636	85.31
391.86	88.31
392.085	78.31
392.31	85.31
392.534	96.31
392.759	82.31
392.984	88.31
393.208	108.31
393.433	92.31
393.658	108.31
393.882	95.31
394.107	84.31
394.331	99.31
394.556	82.31
394.78	90.31
395.005	83.31
395.229	81.31
395.454	74.31
395.678	89.31
395.903	89.31
396.127	91.31
396.352	90.31
396.576	99.31
396.801	86.31
397.025	99.31
397.249	100.31
397.474	97.31
397.698	84.31
397.922	91.31
398.147	93.31
398.371	78.31
398.595	87.31
398.82	89.31
399.044	80.31
399.268	81.31
399.492	87.31
399.717	92.31
399.941	76.31
400.165	88.31
400.389	87.31
400.613	86.31
400.837	83.31
401.062	90.31
401.286	82.31
401.51	88.31
401.734	112.31
401.958	105.31
402.182	130.31
402.406	150.31
402.63	116.31
402.854	88.31
403.078	94.31
403.302	93.31
403.526	96.31
403.75	91.31
403.974	96.31
404.198	84.31
404.422	89.31
404.645	88.31
404.869	91.31
405.093	91.31
405.317	109.31
405.541	92.31
405.765	93.31
405.988	123.31
406.212	162.31
406.436	203.31
406.66	138.31
406.883	94.31
407.107	100.31
407.331	80.31
407.555	83.31
407.778	104.31
408.002	81.31
408.226	95.31
408.449	83.31
408.673	87.31
408.896	91.31
409.12	89.31
409.344	97.31
409.567	85.31
409.791	90.31
410.014	85.31
410.238	88.31
410.461	84.31
410.685	91.31
410.908	95.31
411.132	109.31
411.355	91.31
411.578	101.31
411.802	82.31
412.025	82.31
412.249	96.31
412.472	104.31
412.695	79.31
412.919	89.31
413.142	83.31
413.365	79.31
413.589	91.31
413.812	89.31
414.035	88.31
414.258	86.31
414.482	95.31
414.705	95.31
414.928	100.31
415.151	68.31
415.374	82.31
415.597	91.31
415.821	94.31
416.044	91.31
416.267	92.31
416.49	77.31
416.713	87.31
416.936	91.31
417.159	94.31
417.382	96.31
417.605	98.31
417.828	100.31
418.051	83.31
418.274	86.31
418.497	98.31
418.72	85.31
418.943	84.31
419.166	84.31
419.389	99.31
419.611	80.31
419.834	99.31
420.057	88.31
420.28	94.31
420.503	97.31
420.726	88.31
420.948	94.31
421.171	101.31
421.394	81.31
421.617	84.31
421.839	97.31
422.062	93.31
422.285	101.31
422.507	101.31
422.73	93.31
422.953	102.31
423.175	97.31
423.398	87.31
423.621	89.31
423.843	92.31
424.066	82.31
424.288	75.31
424.511	91.31
424.733	104.31
424.956	105.31
425.178	107.31
425.401	95.31
425.623	109.31
425.846	102.31
426.068	94.31
426.291	96.31
426.513	91.31
426.735	91.31
426.958	91.31
427.18	107.31
427.402	130.31
427.625	153.31
427.847	112.31
428.069	105.31
428.292	98.31
428.514	96.31
428.736	77.31
428.958	82.31
429.181	93.31
429.403	85.31
429.625	84.31
429.847	85.31
430.069	100.31
430.292	104.31
430.514	76.31
430.736	93.31
430.958	95.31
431.18	98.31
431.402	66.31
431.624	98.31
431.846	88.31
432.068	84.31
432.29	95.31
432.512	103.31
432.734	100.31
432.956	79.31
433.178	91.31
433.4	98.31
433.622	84.31
433.844	80.31
434.066	93.31
434.287	95.31
434.509	85.31
434.731	89.31
434.953	75.31
435.175	83.31
435.397	92.31
435.618	105.31
435.84	114.31
436.062	131.31
436.284	121.31
436.505	98.31
436.727	109.31
436.949	99.31
437.17	84.31
437.392	83.31
437.614	81.31
437.835	119.31
438.057	121.31
438.278	103.31
438.5	92.31
438.721	118.31
438.943	91.31
439.165	82.31
439.386	94.31
439.608	90.31
439.829	95.31
440.05	100.31
440.272	143.31
440.493	94.31
440.715	81.31
440.936	94.31
441.158	81.31
441.379	104.31
441.6	86.31
441.822	87.31
442.043	94.31
442.264	104.31
442.486	101.31
442.707	84.31
442.928	113.31
443.149	116.31
443.371	140.31
443.592	101.31
443.813	117.31
444.034	95.31
444.255	100.31
444.476	80.31
444.698	89.31
444.919	100.31
445.14	124.31
445.361	131.31
445.582	100.31
445.803	136.31
446.024	129.31
446.245	139.31
446.466	115.31
446.687	107.31
446.908	101.31
447.129	82.31
447.35	81.31
447.571	88.31
447.792	105.31
448.013	111.31
448.234	112.31
448.455	94.31
448.675	123.31
448.896	118.31
449.117	108.31
449.338	104.31
449.559	138.31
449.779	151.31
450	89.31
450.221	102.31
450.442	107.31
450.662	93.31
450.883	100.31
451.104	100.31
451.324	93.31
451.545	80.31
451.766	80.31
451.986	90.31
452.207	89.31
452.428	79.31
452.648	93.31
452.869	115.31
453.089	97.31
453.31	119.31
453.53	100.31
453.751	86.31
453.971	96.31
454.192	109.31
454.412	105.31
454.633	86.31
454.853	95.31
455.073	82.31
455.294	94.31
455.514	93.31
455.734	91.31
455.955	79.31
456.175	89.31
456.395	89.31
456.616	97.31
456.836	85.31
457.056	87.31
457.276	83.31
457.497	85.31
457.717	89.31
457.937	87.31
458.157	81.31
458.377	89.31
458.598	123.31
458.818	144.31
459.038	157.31
459.258	113.31
459.478	96.31
459.698	101.31
459.918	88.31
460.138	92.31
460.358	90.31
460.578	80.31
460.798	87.31
461.018	99.31
461.238	92.31
461.458	87.31
461.678	83.31
461.898	90.31
462.118	94.31
462.338	93.31
462.558	91.31
462.777	92.31
462.997	97.31
463.217	79.31
463.437	94.31
463.657	88.31
463.876	100.31
464.096	90.31
464.316	106.31
464.536	88.31
464.755	100.31
464.975	89.31
465.195	138.31
465.414	147.31
465.634	102.31
465.854	88.31
466.073	104.31
466.293	101.31
466.512	85.31
466.732	95.31
466.951	75.31
467.171	89.31
467.391	95.31
467.61	100.31
467.829	91.31
468.049	81.31
468.268	84.31
468.488	85.31
468.707	70.31
468.927	87.31
469.146	84.31
469.365	87.31
469.585	95.31
469.804	94.31
470.023	85.31
470.243	97.31
470.462	98.31
470.681	98.31
470.901	82.31
471.12	90.31
471.339	92.31
471.558	95.31
471.777	83.31
471.997	83.31
472.216	109.31
472.435	83.31
472.654	90.31
472.873	95.31
473.092	83.31
473.311	87.31
473.53	77.31
473.749	86.31
473.968	93.31
474.187	109.31
474.406	99.31
474.625	100.31
474.844	105.31
475.063	91.31
475.282	87.31
475.501	91.31
475.72	96.31
475.939	87.31
476.158	92.31
476.377	81.31
476.596	84.31
476.814	83.31
477.033	97.31
477.252	86.31
477.471	87.31
477.69	88.31
477.908	56.31
478.127	80.31
478.346	87.31
478.564	97.31
478.783	110.31
479.002	106.31
479.22	101.31
479.439	102.31
479.658	106.31
479.876	87.31
480.095	98.31
480.313	84.31
480.532	78.31
480.751	84.31
480.969	89.31
481.188	88.31
481.406	101.31
481.624	81.31
481.843	92.31
482.061	95.31
482.28	88.31
482.498	97.31
482.717	88.31
482.935	101.31
483.153	91.31
483.372	92.31
483.59	95.31
483.808	94.31
484.027	82.31
484.245	97.31
484.463	89.31
484.681	106.31
484.9	96.31
485.118	105.31
485.336	109.31
485.554	90.31
485.772	96.31
485.99	92.31
486.209	102.31
486.427	108.31
486.645	107.31
486.863	112.31
487.081	96.31
487.299	97.31
487.517	102.31
487.735	102.31
487.953	85.31
488.171	91.31
488.389	96.31
488.607	111.31
488.825	105.31
489.043	105.31
489.261	81.31
489.479	85.31
489.696	90.31
489.914	80.31
490.132	91.31
490.35	92.31
490.568	77.31
490.786	92.31
491.003	94.31
491.221	87.31
491.439	101.31
491.657	83.31
491.874	76.31
492.092	89.31
492.31	96.31
492.527	92.31
492.745	82.31
492.963	103.31
493.18	91.31
493.398	92.31
493.615	99.31
493.833	88.31
494.05	109.31
494.268	91.31
494.485	99.31
494.703	83.31
494.92	95.31
495.138	83.31
495.355	99.31
495.573	96.31
495.79	86.31
496.008	95.31
496.225	94.31
496.442	85.31
496.66	93.31
496.877	90.31
497.094	89.31
497.312	84.31
497.529	99.31
497.746	98.31
497.963	94.31
498.181	93.31
498.398	95.31
498.615	110.31
498.832	98.31
499.049	99.31
499.267	93.31
499.484	102.31
499.701	85.31
499.918	90.31
500.135	87.31
500.352	99.31
500.569	92.31
500.786	90.31
501.003	99.31
501.22	89.31
501.437	101.31
501.654	99.31
501.871	103.31
502.088	92.31
502.305	99.31
502.522	94.31
502.739	92.31
502.956	91.31
503.172	92.31
503.389	98.31
503.606	104.31
503.823	89.31
504.04	111.31
504.256	104.31
504.473	87.31
504.69	95.31
504.907	92.31
505.123	100.31
505.34	92.31
505.557	95.31
505.773	92.31
505.99	102.31
506.207	86.31
506.423	96.31
506.64	103.31
506.856	95.31
507.073	93.31
507.289	99.31
507.506	93.31
507.722	116.31
507.939	122.31
508.155	94.31
508.372	87.31
508.588	95.31
508.805	97.31
509.021	109.31
509.238	101.31
509.454	90.31
509.67	103.31
509.887	106.31
510.103	131.31
510.319	180.31
510.536	634.31
510.752	2036.31
510.968	561.31
511.184	149.31
511.401	107.31
511.617	100.31
511.833	88.31
512.049	96.31
512.265	98.31
512.481	94.31
512.698	92.31
512.914	89.31
513.13	91.31
513.346	96.31
513.562	83.31
513.778	94.31
513.994	103.31
514.21	109.31
514.426	112.31
514.642	123.31
514.858	131.31
515.074	153.31
515.29	398.31
