Data from Uncirc_1996_H10_HRD10591_00036.txt Node
Date: Wed Jan 03 11:32:09 EST 2024
User: Yrep
Spectrometer: HR+D1059
Trigger mode: 1
Integration Time (sec): 1.000000E-1
Scans to average: 1
Electric dark correction enabled: true
Nonlinearity correction enabled: false
Boxcar width: 0
XAxis mode: Wavelengths
Number of Pixels in Spectrum: 2048
>>>>>Begin Spectral Data<<<<<
223.165	-10.75
223.4	-10.75
223.635	-10.75
223.869	-17.75
224.104	-21.75
224.338	-15.75
224.573	-14.75
224.808	-15.75
225.042	-16.75
225.277	-7.75
225.511	-0.75
225.746	4.25
225.98	4.25
226.215	34.25
226.449	15.25
226.683	13.25
226.918	23.25
227.152	27.25
227.387	39.25
227.621	33.25
227.856	43.25
228.09	39.25
228.324	34.25
228.559	46.25
228.793	160.25
229.027	447.25
229.262	517.25
229.496	585.25
229.73	797.25
229.964	797.25
230.199	542.25
230.433	478.25
230.667	472.25
230.901	443.25
231.136	436.25
231.37	439.25
231.604	458.25
231.838	442.25
232.072	462.25
232.306	463.25
232.541	451.25
232.775	456.25
233.009	473.25
233.243	475.25
233.477	478.25
233.711	468.25
233.945	504.25
234.179	504.25
234.413	493.25
234.647	495.25
234.881	518.25
235.115	507.25
235.349	524.25
235.583	539.25
235.817	589.25
236.051	623.25
236.285	606.25
236.519	620.25
236.753	690.25
236.987	901.25
237.221	1348.25
237.455	1500.25
237.689	889.25
237.922	752.25
238.156	717.25
238.39	670.25
238.624	647.25
238.858	627.25
239.091	628.25
239.325	668.25
239.559	679.25
239.793	687.25
240.027	741.25
240.26	887.25
240.494	937.25
240.728	929.25
240.961	921.25
241.195	803.25
241.429	790.25
241.662	735.25
241.896	766.25
242.13	774.25
242.363	765.25
242.597	777.25
242.83	807.25
243.064	799.25
243.298	797.25
243.531	830.25
243.765	851.25
243.998	843.25
244.232	812.25
244.465	879.25
244.699	895.25
244.932	887.25
245.166	915.25
245.399	869.25
245.633	888.25
245.866	916.25
246.099	904.25
246.333	905.25
246.566	955.25
246.8	979.25
247.033	1018.25
247.266	1039.25
247.5	1052.25
247.733	1143.25
247.966	1141.25
248.2	1103.25
248.433	1145.25
248.666	1215.25
248.899	1334.25
249.133	1415.25
249.366	1406.25
249.599	1309.25
249.832	1171.25
250.066	1208.25
250.299	1228.25
250.532	1318.25
250.765	1477.25
250.998	1713.25
251.231	1632.25
251.465	1488.25
251.698	1390.25
251.931	1351.25
252.164	1374.25
252.397	1417.25
252.63	1446.25
252.863	1509.25
253.096	1673.25
253.329	1725.25
253.562	1641.25
253.795	1525.25
254.028	1544.25
254.261	1603.25
254.494	1839.25
254.727	2114.25
254.96	2205.25
255.193	1959.25
255.426	1709.25
255.659	1571.25
255.892	1562.25
256.124	1554.25
256.357	1473.25
256.59	1453.25
256.823	1495.25
257.056	1464.25
257.289	1478.25
257.521	1542.25
257.754	1533.25
257.987	1501.25
258.22	1506.25
258.452	1485.25
258.685	1557.25
258.918	1549.25
259.151	1581.25
259.383	1679.25
259.616	1683.25
259.849	1742.25
260.081	1927.25
260.314	2093.25
260.547	2003.25
260.779	1811.25
261.012	1737.25
261.244	1710.25
261.477	1693.25
261.71	1708.25
261.942	1696.25
262.175	1808.25
262.407	1652.25
262.64	1619.25
262.872	1652.25
263.105	1614.25
263.337	1608.25
263.57	1621.25
263.802	1676.25
264.035	1630.25
264.267	1656.25
264.499	1674.25
264.732	1681.25
264.964	1710.25
265.197	1709.25
265.429	1691.25
265.661	1686.25
265.894	1711.25
266.126	1728.25
266.358	1756.25
266.591	1748.25
266.823	1827.25
267.055	1847.25
267.287	1852.25
267.52	1861.25
267.752	1840.25
267.984	1885.25
268.216	1857.25
268.448	1913.25
268.681	1957.25
268.913	2099.25
269.145	2345.25
269.377	2388.25
269.609	2278.25
269.841	2232.25
270.073	2417.25
270.306	2624.25
270.538	2793.25
270.77	2687.25
271.002	2515.25
271.234	2461.25
271.466	2598.25
271.698	2679.25
271.93	2766.25
272.162	2727.25
272.394	2661.25
272.626	2505.25
272.858	2366.25
273.09	2287.25
273.322	2262.25
273.553	2218.25
273.785	2216.25
274.017	2253.25
274.249	2219.25
274.481	2227.25
274.713	2229.25
274.945	2268.25
275.176	2259.25
275.408	2268.25
275.64	2265.25
275.872	2195.25
276.104	2283.25
276.335	2293.25
276.567	2389.25
276.799	2529.25
277.031	2815.25
277.262	2854.25
277.494	2808.25
277.726	2587.25
277.957	2467.25
278.189	2383.25
278.421	2318.25
278.652	2360.25
278.884	2399.25
279.115	2324.25
279.347	2341.25
279.579	2371.25
279.81	2380.25
280.042	2356.25
280.273	2364.25
280.505	2397.25
280.736	2389.25
280.968	2392.25
281.199	2382.25
281.431	2466.25
281.662	2480.25
281.894	2451.25
282.125	2517.25
282.356	2654.25
282.588	2748.25
282.819	2679.25
283.051	2526.25
283.282	2539.25
283.513	2543.25
283.745	2581.25
283.976	2624.25
284.207	2657.25
284.439	2599.25
284.67	2592.25
284.901	2623.25
285.132	2561.25
285.364	2595.25
285.595	2656.25
285.826	2603.25
286.057	2620.25
286.288	2617.25
286.52	2685.25
286.751	2712.25
286.982	2656.25
287.213	2725.25
287.444	2732.25
287.675	2803.25
287.906	2816.25
288.138	2908.25
288.369	2939.25
288.6	2895.25
288.831	2889.25
289.062	2828.25
289.293	2821.25
289.524	2791.25
289.755	2812.25
289.986	2721.25
290.217	2771.25
290.448	2809.25
290.679	2798.25
290.91	2821.25
291.141	2826.25
291.371	2791.25
291.602	2810.25
291.833	2801.25
292.064	2814.25
292.295	2834.25
292.526	2789.25
292.757	2869.25
292.987	2836.25
293.218	2808.25
293.449	2876.25
293.68	2819.25
293.91	2814.25
294.141	2796.25
294.372	2789.25
294.603	2865.25
294.833	2841.25
295.064	2861.25
295.295	2890.25
295.525	2883.25
295.756	2949.25
295.987	2995.25
296.217	3181.25
296.448	3087.25
296.679	2941.25
296.909	2939.25
297.14	2958.25
297.37	3001.25
297.601	3020.25
297.831	3035.25
298.062	3035.25
298.292	3049.25
298.523	3132.25
298.753	3161.25
298.984	3097.25
299.214	3092.25
299.445	3083.25
299.675	3079.25
299.905	3200.25
300.136	3107.25
300.366	3155.25
300.597	3147.25
300.827	3260.25
301.057	3284.25
301.288	3347.25
301.518	3322.25
301.748	3379.25
301.979	3374.25
302.209	3375.25
302.439	3401.25
302.669	3320.25
302.9	3285.25
303.13	3251.25
303.36	3344.25
303.59	3307.25
303.82	3343.25
304.051	3319.25
304.281	3303.25
304.511	3220.25
304.741	3292.25
304.971	3315.25
305.201	3327.25
305.431	3288.25
305.661	3272.25
305.891	3273.25
306.121	3268.25
306.352	3349.25
306.582	3290.25
306.812	3219.25
307.042	3262.25
307.272	3303.25
307.502	3304.25
307.731	3271.25
307.961	3304.25
308.191	3249.25
308.421	3347.25
308.651	3285.25
308.881	3279.25
309.111	3334.25
309.341	3359.25
309.571	3415.25
309.8	3559.25
310.03	3576.25
310.26	3611.25
310.49	3483.25
310.72	3656.25
310.949	3811.25
311.179	3696.25
311.409	3612.25
311.639	3660.25
311.868	3639.25
312.098	3695.25
312.328	3787.25
312.557	3860.25
312.787	3899.25
313.017	3844.25
313.246	3749.25
313.476	3716.25
313.706	3807.25
313.935	3822.25
314.165	3911.25
314.394	3949.25
314.624	3912.25
314.853	3816.25
315.083	3773.25
315.312	3665.25
315.542	3715.25
315.771	3663.25
316.001	3647.25
316.23	3671.25
316.46	3679.25
316.689	3769.25
316.919	3723.25
317.148	3704.25
317.377	3701.25
317.607	3742.25
317.836	3716.25
318.065	3682.25
318.295	3681.25
318.524	3633.25
318.753	3646.25
318.983	3675.25
319.212	3635.25
319.441	3754.25
319.67	3784.25
319.9	3655.25
320.129	3680.25
320.358	3742.25
320.587	3693.25
320.816	3767.25
321.046	3815.25
321.275	3772.25
321.504	3824.25
321.733	3818.25
321.962	3877.25
322.191	4027.25
322.42	4016.25
322.649	4156.25
322.878	4235.25
323.108	4309.25
323.337	4461.25
323.566	4635.25
323.795	4886.25
324.024	5413.25
324.253	6993.25
324.482	10492.25
324.71	14944.25
324.939	15617.25
325.168	12832.25
325.397	6494.25
325.626	5176.25
325.855	4787.25
326.084	4757.25
326.313	4723.25
326.542	4879.25
326.77	5494.25
326.999	6870.25
327.228	9861.25
327.457	14098.25
327.686	13476.25
327.914	7239.25
328.143	5852.25
328.372	5379.25
328.6	5097.25
328.829	5048.25
329.058	5262.25
329.287	5227.25
329.515	4947.25
329.744	4709.25
329.972	4636.25
330.201	4731.25
330.43	4969.25
330.658	5287.25
330.887	5652.25
331.115	5259.25
331.344	4950.25
331.572	4835.25
331.801	4924.25
332.03	4928.25
332.258	4888.25
332.486	4870.25
332.715	4967.25
332.943	5112.25
333.172	5348.25
333.4	5380.25
333.629	5467.25
333.857	5585.25
334.085	5490.25
334.314	5408.25
334.542	5345.25
334.771	5275.25
334.999	5157.25
335.227	5129.25
335.455	5100.25
335.684	5024.25
335.912	5007.25
336.14	4953.25
336.369	4949.25
336.597	4975.25
336.825	4915.25
337.053	4846.25
337.281	4760.25
337.51	4719.25
337.738	4689.25
337.966	4711.25
338.194	4723.25
338.422	4715.25
338.65	4581.25
338.878	4540.25
339.106	4476.25
339.334	4555.25
339.562	4454.25
339.79	4389.25
340.018	4368.25
340.246	4355.25
340.474	4383.25
340.702	4428.25
340.93	4387.25
341.158	4378.25
341.386	4443.25
341.614	4391.25
341.842	4355.25
342.07	4349.25
342.298	4367.25
342.526	4281.25
342.754	4293.25
342.981	4302.25
343.209	4358.25
343.437	4666.25
343.665	4907.25
343.893	5134.25
344.12	5199.25
344.348	4948.25
344.576	4743.25
344.804	4732.25
345.031	4643.25
345.259	4573.25
345.487	4428.25
345.714	4356.25
345.942	4256.25
346.17	4226.25
346.397	4229.25
346.625	4222.25
346.853	4186.25
347.08	4134.25
347.308	4198.25
347.535	4236.25
347.763	4283.25
347.99	4238.25
348.218	4286.25
348.445	4308.25
348.673	4252.25
348.9	4185.25
349.128	4147.25
349.355	4064.25
349.583	4103.25
349.81	4109.25
350.037	4079.25
350.265	4027.25
350.492	4064.25
350.72	4013.25
350.947	4124.25
351.174	4186.25
351.402	4176.25
351.629	4155.25
351.856	4127.25
352.083	4186.25
352.311	4211.25
352.538	4218.25
352.765	4156.25
352.992	4151.25
353.22	4147.25
353.447	4097.25
353.674	4007.25
353.901	3947.25
354.128	4008.25
354.355	4009.25
354.583	3994.25
354.81	3959.25
355.037	3898.25
355.264	3979.25
355.491	3990.25
355.718	4003.25
355.945	3904.25
356.172	3949.25
356.399	3988.25
356.626	3937.25
356.853	3955.25
357.08	3909.25
357.307	3900.25
357.534	3927.25
357.761	3935.25
357.988	3991.25
358.215	4011.25
358.441	3949.25
358.668	3957.25
358.895	4031.25
359.122	4021.25
359.349	4112.25
359.576	4258.25
359.802	4532.25
360.029	4560.25
360.256	4544.25
360.483	4356.25
360.709	4207.25
360.936	4205.25
361.163	4166.25
361.39	4224.25
361.616	4238.25
361.843	4189.25
362.07	4127.25
362.296	4271.25
362.523	4135.25
362.749	4212.25
362.976	4087.25
363.203	4069.25
363.429	4035.25
363.656	4059.25
363.882	4020.25
364.109	3991.25
364.335	3972.25
364.562	4017.25
364.788	4044.25
365.015	4032.25
365.241	4055.25
365.468	4109.25
365.694	4107.25
365.92	4119.25
366.147	4078.25
366.373	4041.25
366.599	4051.25
366.826	3987.25
367.052	4067.25
367.278	4035.25
367.505	4051.25
367.731	4090.25
367.957	4105.25
368.184	4073.25
368.41	4220.25
368.636	4229.25
368.862	4299.25
369.089	4144.25
369.315	4123.25
369.541	4122.25
369.767	4157.25
369.993	4152.25
370.219	4189.25
370.445	4172.25
370.672	4215.25
370.898	4195.25
371.124	4248.25
371.35	4311.25
371.576	4309.25
371.802	4274.25
372.028	4307.25
372.254	4289.25
372.48	4340.25
372.706	4487.25
372.932	4467.25
373.158	4409.25
373.384	4342.25
373.61	4397.25
373.835	4323.25
374.061	4366.25
374.287	4459.25
374.513	4515.25
374.739	4585.25
374.965	4705.25
375.191	4808.25
375.416	4703.25
375.642	4516.25
375.868	4493.25
376.094	4398.25
376.319	4377.25
376.545	4412.25
376.771	4332.25
376.997	4347.25
377.222	4296.25
377.448	4368.25
377.674	4335.25
377.899	4247.25
378.125	4267.25
378.35	4256.25
378.576	4295.25
378.802	4203.25
379.027	4303.25
379.253	4267.25
379.478	4239.25
379.704	4237.25
379.929	4318.25
380.155	4329.25
380.38	4324.25
380.606	4380.25
380.831	4320.25
381.057	4367.25
381.282	4291.25
381.507	4363.25
381.733	4407.25
381.958	4411.25
382.184	4453.25
382.409	4501.25
382.634	4573.25
382.86	4581.25
383.085	4647.25
383.31	4750.25
383.535	4785.25
383.761	4823.25
383.986	4874.25
384.211	5021.25
384.436	4990.25
384.662	5080.25
384.887	5192.25
385.112	5150.25
385.337	5196.25
385.562	5115.25
385.787	5251.25
386.013	5337.25
386.238	5335.25
386.463	5326.25
386.688	5279.25
386.913	5136.25
387.138	5151.25
387.363	5179.25
387.588	5065.25
387.813	5110.25
388.038	5160.25
388.263	5238.25
388.488	5213.25
388.713	5136.25
388.938	5150.25
389.163	5081.25
389.387	5091.25
389.612	5022.25
389.837	5065.25
390.062	5048.25
390.287	5069.25
390.512	5123.25
390.736	5136.25
390.961	5219.25
391.186	5267.25
391.411	5370.25
391.636	5633.25
391.86	5671.25
392.085	5745.25
392.31	5655.25
392.534	5644.25
392.759	5519.25
392.984	5431.25
393.208	5424.25
393.433	5385.25
393.658	5387.25
393.882	5344.25
394.107	5449.25
394.331	5438.25
394.556	5385.25
394.78	5496.25
395.005	5569.25
395.229	5533.25
395.454	5702.25
395.678	5811.25
395.903	5809.25
396.127	5812.25
396.352	5679.25
396.576	5508.25
396.801	5516.25
397.025	5575.25
397.249	5712.25
397.474	5752.25
397.698	5830.25
397.922	5941.25
398.147	6144.25
398.371	6186.25
398.595	6313.25
398.82	6626.25
399.044	7111.25
399.268	7967.25
399.492	8990.25
399.717	9588.25
399.941	9374.25
400.165	8704.25
400.389	8149.25
400.613	7239.25
400.837	6809.25
401.062	6698.25
401.286	6532.25
401.51	6483.25
401.734	6501.25
401.958	6565.25
402.182	6706.25
402.406	6877.25
402.63	6843.25
402.854	6956.25
403.078	7082.25
403.302	7200.25
403.526	7399.25
403.75	7378.25
403.974	7416.25
404.198	7343.25
404.422	7439.25
404.645	7358.25
404.869	7262.25
405.093	7413.25
405.317	7392.25
405.541	7569.25
405.765	7234.25
405.988	7213.25
406.212	7377.25
406.436	7574.25
406.66	7762.25
406.883	7676.25
407.107	8264.25
407.331	8815.25
407.555	9414.25
407.778	8974.25
408.002	8382.25
408.226	7848.25
408.449	7733.25
408.673	7618.25
408.896	7837.25
409.12	7934.25
409.344	7518.25
409.567	7115.25
409.791	7133.25
410.014	7009.25
410.238	6923.25
410.461	6970.25
410.685	7067.25
410.908	7136.25
411.132	7323.25
411.355	7346.25
411.578	7003.25
411.802	6766.25
412.025	6718.25
412.249	6756.25
412.472	6764.25
412.695	6566.25
412.919	6421.25
413.142	6391.25
413.365	6437.25
413.589	6456.25
413.812	6369.25
414.035	6335.25
414.258	6360.25
414.482	6434.25
414.705	6520.25
414.928	6447.25
415.151	6487.25
415.374	6388.25
415.597	6320.25
415.821	6264.25
416.044	6183.25
416.267	6246.25
416.49	6292.25
416.713	6177.25
416.936	6270.25
417.159	6337.25
417.382	6422.25
417.605	6347.25
417.828	6509.25
418.051	6651.25
418.274	6510.25
418.497	6440.25
418.72	6493.25
418.943	6501.25
419.166	6821.25
419.389	7271.25
419.611	7187.25
419.834	6902.25
420.057	6703.25
420.28	6629.25
420.503	6394.25
420.726	6406.25
420.948	6632.25
421.171	7059.25
421.394	7055.25
421.617	6583.25
421.839	6550.25
422.062	6591.25
422.285	6793.25
422.507	7422.25
422.73	7996.25
422.953	7379.25
423.175	7049.25
423.398	6936.25
423.621	7040.25
423.843	7299.25
424.066	7290.25
424.288	7099.25
424.511	7280.25
424.733	7854.25
424.956	8293.25
425.178	7691.25
425.401	7953.25
425.623	7785.25
425.846	6771.25
426.068	6647.25
426.291	6540.25
426.513	6593.25
426.735	6658.25
426.958	7133.25
427.18	7812.25
427.402	9027.25
427.625	8980.25
427.847	7603.25
428.069	6677.25
428.292	6350.25
428.514	6083.25
428.736	6006.25
428.958	5950.25
429.181	5788.25
429.403	5789.25
429.625	6064.25
429.847	6399.25
430.069	6906.25
430.292	6458.25
430.514	5805.25
430.736	5896.25
430.958	5769.25
431.18	5703.25
431.402	5736.25
431.624	5657.25
431.846	5727.25
432.068	5695.25
432.29	5897.25
432.512	5769.25
432.734	5850.25
432.956	5756.25
433.178	5870.25
433.4	5828.25
433.622	5749.25
433.844	5752.25
434.066	5805.25
434.287	5897.25
434.509	6100.25
434.731	6368.25
434.953	6405.25
435.175	6552.25
435.397	6710.25
435.618	6603.25
435.84	7031.25
436.062	7872.25
436.284	7687.25
436.505	6649.25
436.727	6215.25
436.949	5963.25
437.17	5820.25
437.392	5855.25
437.614	6017.25
437.835	6395.25
438.057	7301.25
438.278	7971.25
438.5	7837.25
438.721	8686.25
438.943	7579.25
439.165	6475.25
439.386	6319.25
439.608	6327.25
439.829	6368.25
440.05	6758.25
440.272	7011.25
440.493	6505.25
440.715	6275.25
440.936	6148.25
441.158	6206.25
441.379	6385.25
441.6	6608.25
441.822	6809.25
442.043	7239.25
442.264	8067.25
442.486	7738.25
442.707	7013.25
442.928	6843.25
443.149	6984.25
443.371	7201.25
443.592	7686.25
443.813	8685.25
444.034	8621.25
444.255	7595.25
444.476	7359.25
444.698	7545.25
444.919	7583.25
445.14	7397.25
445.361	7327.25
445.582	7453.25
445.803	8113.25
446.024	8651.25
446.245	8305.25
446.466	7479.25
446.687	6467.25
446.908	6204.25
447.129	5892.25
447.35	5765.25
447.571	5735.25
447.792	5604.25
448.013	5704.25
448.234	5870.25
448.455	6468.25
448.675	7829.25
448.896	8173.25
449.117	6774.25
449.338	6963.25
449.559	8190.25
449.779	8445.25
450	6427.25
450.221	5768.25
450.442	5559.25
450.662	5483.25
450.883	5537.25
451.104	5673.25
451.324	5547.25
451.545	5333.25
451.766	5215.25
451.986	5104.25
452.207	5107.25
452.428	5068.25
452.648	5088.25
452.869	5123.25
453.089	5184.25
453.31	5353.25
453.53	5110.25
453.751	5085.25
453.971	5062.25
454.192	5206.25
454.412	4974.25
454.633	4929.25
454.853	4957.25
455.073	4931.25
455.294	5356.25
455.514	5829.25
455.734	5360.25
455.955	4891.25
456.175	4770.25
456.395	4668.25
456.616	4675.25
456.836	4638.25
457.056	4652.25
457.276	4538.25
457.497	4777.25
457.717	4751.25
457.937	4765.25
458.157	4877.25
458.377	4972.25
458.598	5308.25
458.818	5970.25
459.038	6762.25
459.258	6565.25
459.478	5979.25
459.698	5825.25
459.918	5895.25
460.138	6112.25
460.358	6359.25
460.578	6361.25
460.798	6367.25
461.018	6417.25
461.238	6229.25
461.458	6248.25
461.678	6186.25
461.898	6313.25
462.118	6394.25
462.338	6739.25
462.558	6860.25
462.777	7141.25
462.997	7667.25
463.217	8167.25
463.437	7938.25
463.657	7335.25
463.876	7104.25
464.096	7217.25
464.316	7297.25
464.536	7268.25
464.755	6991.25
464.975	6902.25
465.195	7014.25
465.414	7015.25
465.634	6186.25
465.854	5888.25
466.073	5629.25
466.293	5496.25
466.512	5359.25
466.732	5257.25
466.951	5194.25
467.171	5208.25
467.391	5289.25
467.61	5354.25
467.829	5294.25
468.049	5168.25
468.268	5067.25
468.488	4968.25
468.707	4937.25
468.927	5023.25
469.146	4967.25
469.365	5006.25
469.585	5164.25
469.804	5288.25
470.023	5360.25
470.243	5398.25
470.462	5514.25
470.681	5647.25
470.901	5466.25
471.12	5376.25
471.339	5354.25
471.558	5316.25
471.777	5174.25
471.997	5089.25
472.216	5017.25
472.435	4931.25
472.654	4961.25
472.873	4919.25
473.092	4936.25
473.311	4967.25
473.53	5030.25
473.749	5087.25
473.968	5546.25
474.187	6679.25
474.406	6228.25
474.625	5300.25
474.844	5076.25
475.063	4992.25
475.282	5000.25
475.501	5108.25
475.72	5144.25
475.939	5206.25
476.158	5205.25
476.377	5136.25
476.596	5175.25
476.814	5392.25
477.033	5327.25
477.252	5472.25
477.471	5509.25
477.69	5696.25
477.908	5750.25
478.127	5911.25
478.346	5947.25
478.564	6054.25
478.783	6120.25
479.002	6327.25
479.22	6271.25
479.439	6407.25
479.658	6507.25
479.876	6576.25
480.095	6821.25
480.313	7148.25
480.532	7036.25
480.751	6910.25
480.969	6775.25
481.188	6659.25
481.406	6335.25
481.624	6199.25
481.843	6096.25
482.061	6011.25
482.28	5913.25
482.498	5860.25
482.717	5937.25
482.935	5931.25
483.153	5829.25
483.372	5729.25
483.59	5800.25
483.808	5788.25
484.027	5881.25
484.245	5971.25
484.463	5911.25
484.681	5997.25
484.9	6054.25
485.118	6085.25
485.336	6114.25
485.554	6231.25
485.772	6254.25
485.99	6297.25
486.209	6396.25
486.427	6301.25
486.645	6343.25
486.863	6442.25
487.081	6390.25
487.299	6296.25
487.517	6284.25
487.735	6291.25
