Data from Uncirc_1996_H10_HRD10591_00087.txt Node
Date: Wed Jan 03 11:32:19 EST 2024
User: Yrep
Spectrometer: HR+D1059
Trigger mode: 1
Integration Time (sec): 1.000000E-1
Scans to average: 1
Electric dark correction enabled: true
Nonlinearity correction enabled: false
Boxcar width: 0
XAxis mode: Wavelengths
Number of Pixels in Spectrum: 2048
>>>>>Begin Spectral Data<<<<<
223.165	-16.38
223.4	-16.38
223.635	-16.38
223.869	-31.38
224.104	-15.38
224.338	-19.38
224.573	4.62
224.808	-9.38
225.042	-16.38
225.277	-16.38
225.511	-3.38
225.746	0.62
225.98	4.62
226.215	7.62
226.449	28.62
226.683	26.62
226.918	12.62
227.152	42.62
227.387	25.62
227.621	30.62
227.856	36.62
228.09	46.62
228.324	33.62
228.559	52.62
228.793	56.62
229.027	58.62
229.262	77.62
229.496	62.62
229.73	77.62
229.964	84.62
230.199	70.62
230.433	71.62
230.667	64.62
230.901	83.62
231.136	79.62
231.37	83.62
231.604	71.62
231.838	73.62
232.072	64.62
232.306	78.62
232.541	72.62
232.775	76.62
233.009	81.62
233.243	74.62
233.477	89.62
233.711	80.62
233.945	76.62
234.179	80.62
234.413	77.62
234.647	68.62
234.881	74.62
235.115	71.62
235.349	96.62
235.583	80.62
235.817	86.62
236.051	81.62
236.285	75.62
236.519	66.62
236.753	79.62
236.987	74.62
237.221	95.62
237.455	79.62
237.689	76.62
237.922	76.62
238.156	66.62
238.39	80.62
238.624	80.62
238.858	72.62
239.091	80.62
239.325	73.62
239.559	84.62
239.793	80.62
240.027	75.62
240.26	77.62
240.494	83.62
240.728	77.62
240.961	77.62
241.195	79.62
241.429	64.62
241.662	79.62
241.896	72.62
242.13	67.62
242.363	77.62
242.597	65.62
242.83	82.62
243.064	83.62
243.298	70.62
243.531	81.62
243.765	61.62
243.998	74.62
244.232	80.62
244.465	83.62
244.699	79.62
244.932	90.62
245.166	66.62
245.399	81.62
245.633	73.62
245.866	78.62
246.099	76.62
246.333	64.62
246.566	74.62
246.8	82.62
247.033	60.62
247.266	84.62
247.5	67.62
247.733	82.62
247.966	72.62
248.2	51.62
248.433	68.62
248.666	81.62
248.899	73.62
249.133	76.62
249.366	83.62
249.599	90.62
249.832	88.62
250.066	78.62
250.299	88.62
250.532	77.62
250.765	78.62
250.998	80.62
251.231	74.62
251.465	80.62
251.698	86.62
251.931	69.62
252.164	76.62
252.397	84.62
252.63	80.62
252.863	78.62
253.096	75.62
253.329	70.62
253.562	86.62
253.795	74.62
254.028	81.62
254.261	79.62
254.494	69.62
254.727	76.62
254.96	85.62
255.193	72.62
255.426	82.62
255.659	74.62
255.892	66.62
256.124	78.62
256.357	71.62
256.59	76.62
256.823	72.62
257.056	79.62
257.289	87.62
257.521	96.62
257.754	88.62
257.987	79.62
258.22	86.62
258.452	86.62
258.685	75.62
258.918	82.62
259.151	83.62
259.383	80.62
259.616	82.62
259.849	80.62
260.081	78.62
260.314	82.62
260.547	92.62
260.779	79.62
261.012	97.62
261.244	81.62
261.477	88.62
261.71	97.62
261.942	98.62
262.175	88.62
262.407	96.62
262.64	69.62
262.872	86.62
263.105	77.62
263.337	84.62
263.57	78.62
263.802	70.62
264.035	72.62
264.267	77.62
264.499	74.62
264.732	79.62
264.964	75.62
265.197	89.62
265.429	82.62
265.661	81.62
265.894	87.62
266.126	82.62
266.358	96.62
266.591	94.62
266.823	77.62
267.055	84.62
267.287	77.62
267.52	72.62
267.752	84.62
267.984	83.62
268.216	86.62
268.448	90.62
268.681	68.62
268.913	90.62
269.145	76.62
269.377	69.62
269.609	67.62
269.841	86.62
270.073	86.62
270.306	85.62
270.538	94.62
270.77	80.62
271.002	86.62
271.234	90.62
271.466	91.62
271.698	81.62
271.93	86.62
272.162	92.62
272.394	82.62
272.626	80.62
272.858	77.62
273.09	92.62
273.322	81.62
273.553	74.62
273.785	77.62
274.017	87.62
274.249	85.62
274.481	79.62
274.713	87.62
274.945	84.62
275.176	86.62
275.408	93.62
275.64	86.62
275.872	90.62
276.104	88.62
276.335	86.62
276.567	98.62
276.799	109.62
277.031	103.62
277.262	65.62
277.494	80.62
277.726	90.62
277.957	87.62
278.189	88.62
278.421	86.62
278.652	66.62
278.884	86.62
279.115	84.62
279.347	88.62
279.579	84.62
279.81	74.62
280.042	91.62
280.273	86.62
280.505	82.62
280.736	95.62
280.968	73.62
281.199	78.62
281.431	76.62
281.662	88.62
281.894	93.62
282.125	85.62
282.356	104.62
282.588	148.62
282.819	105.62
283.051	75.62
283.282	75.62
283.513	86.62
283.745	84.62
283.976	88.62
284.207	92.62
284.439	78.62
284.67	88.62
284.901	85.62
285.132	84.62
285.364	78.62
285.595	85.62
285.826	87.62
286.057	88.62
286.288	93.62
286.52	70.62
286.751	87.62
286.982	77.62
287.213	85.62
287.444	72.62
287.675	80.62
287.906	94.62
288.138	97.62
288.369	94.62
288.6	82.62
288.831	90.62
289.062	83.62
289.293	70.62
289.524	88.62
289.755	81.62
289.986	93.62
290.217	84.62
290.448	89.62
290.679	91.62
290.91	79.62
291.141	92.62
291.371	85.62
291.602	72.62
291.833	77.62
292.064	78.62
292.295	88.62
292.526	88.62
292.757	95.62
292.987	75.62
293.218	87.62
293.449	90.62
293.68	91.62
293.91	98.62
294.141	99.62
294.372	88.62
294.603	72.62
294.833	73.62
295.064	95.62
295.295	90.62
295.525	89.62
295.756	91.62
295.987	126.62
296.217	137.62
296.448	119.62
296.679	88.62
296.909	76.62
297.14	95.62
297.37	101.62
297.601	90.62
297.831	82.62
298.062	77.62
298.292	87.62
298.523	91.62
298.753	86.62
298.984	86.62
299.214	83.62
299.445	89.62
299.675	85.62
299.905	85.62
300.136	86.62
300.366	90.62
300.597	87.62
300.827	83.62
301.057	105.62
301.288	96.62
301.518	85.62
301.748	98.62
301.979	99.62
302.209	86.62
302.439	85.62
302.669	86.62
302.9	88.62
303.13	80.62
303.36	97.62
303.59	92.62
303.82	98.62
304.051	96.62
304.281	92.62
304.511	90.62
304.741	97.62
304.971	97.62
305.201	82.62
305.431	94.62
305.661	97.62
305.891	74.62
306.121	82.62
306.352	87.62
306.582	94.62
306.812	92.62
307.042	88.62
307.272	91.62
307.502	86.62
307.731	90.62
307.961	92.62
308.191	81.62
308.421	81.62
308.651	89.62
308.881	93.62
309.111	92.62
309.341	98.62
309.571	93.62
309.8	83.62
310.03	92.62
310.26	100.62
310.49	84.62
310.72	85.62
310.949	86.62
311.179	95.62
311.409	89.62
311.639	100.62
311.868	98.62
312.098	96.62
312.328	94.62
312.557	102.62
312.787	107.62
313.017	93.62
313.246	63.62
313.476	82.62
313.706	96.62
313.935	91.62
314.165	81.62
314.394	96.62
314.624	90.62
314.853	87.62
315.083	84.62
315.312	80.62
315.542	91.62
315.771	96.62
316.001	101.62
316.23	81.62
316.46	78.62
316.689	86.62
316.919	92.62
317.148	96.62
317.377	92.62
317.607	88.62
317.836	91.62
318.065	76.62
318.295	89.62
318.524	74.62
318.753	82.62
318.983	94.62
319.212	91.62
319.441	107.62
319.67	117.62
319.9	98.62
320.129	93.62
320.358	94.62
320.587	104.62
320.816	87.62
321.046	91.62
321.275	99.62
321.504	97.62
321.733	96.62
321.962	96.62
322.191	106.62
322.42	97.62
322.649	97.62
322.878	112.62
323.108	95.62
323.337	110.62
323.566	133.62
323.795	157.62
324.024	198.62
324.253	378.62
324.482	766.62
324.71	1582.62
324.939	2043.62
325.168	774.62
325.397	224.62
325.626	140.62
325.855	119.62
326.084	113.62
326.313	125.62
326.542	146.62
326.77	207.62
326.999	415.62
327.228	909.62
327.457	1625.62
327.686	1274.62
327.914	361.62
328.143	202.62
328.372	137.62
328.6	118.62
328.829	117.62
329.058	128.62
329.287	114.62
329.515	87.62
329.744	116.62
329.972	99.62
330.201	88.62
330.43	103.62
330.658	125.62
330.887	145.62
331.115	119.62
331.344	89.62
331.572	102.62
331.801	100.62
332.03	98.62
332.258	92.62
332.486	88.62
332.715	82.62
332.943	94.62
333.172	92.62
333.4	102.62
333.629	91.62
333.857	104.62
334.085	90.62
334.314	80.62
334.542	85.62
334.771	103.62
334.999	100.62
335.227	93.62
335.455	96.62
335.684	104.62
335.912	94.62
336.14	88.62
336.369	95.62
336.597	91.62
336.825	95.62
337.053	92.62
337.281	81.62
337.51	92.62
337.738	85.62
337.966	91.62
338.194	101.62
338.422	103.62
338.65	91.62
338.878	105.62
339.106	93.62
339.334	75.62
339.562	85.62
339.79	81.62
340.018	90.62
340.246	100.62
340.474	106.62
340.702	100.62
340.93	81.62
341.158	94.62
341.386	83.62
341.614	95.62
341.842	85.62
342.07	104.62
342.298	99.62
342.526	86.62
342.754	94.62
342.981	81.62
343.209	93.62
343.437	96.62
343.665	97.62
343.893	86.62
344.12	92.62
344.348	93.62
344.576	84.62
344.804	96.62
345.031	94.62
345.259	101.62
345.487	77.62
345.714	85.62
345.942	95.62
346.17	102.62
346.397	88.62
346.625	112.62
346.853	81.62
347.08	97.62
347.308	98.62
347.535	101.62
347.763	102.62
347.99	78.62
348.218	117.62
348.445	101.62
348.673	98.62
348.9	98.62
349.128	89.62
349.355	73.62
349.583	95.62
349.81	87.62
350.037	83.62
350.265	92.62
350.492	96.62
350.72	93.62
350.947	104.62
351.174	115.62
351.402	101.62
351.629	92.62
351.856	92.62
352.083	107.62
352.311	91.62
352.538	95.62
352.765	97.62
352.992	104.62
353.22	114.62
353.447	93.62
353.674	98.62
353.901	94.62
354.128	95.62
354.355	103.62
354.583	95.62
354.81	98.62
355.037	92.62
355.264	97.62
355.491	88.62
355.718	95.62
355.945	94.62
356.172	93.62
356.399	93.62
356.626	98.62
356.853	72.62
357.08	74.62
357.307	88.62
357.534	80.62
357.761	85.62
357.988	97.62
358.215	88.62
358.441	91.62
358.668	91.62
358.895	90.62
359.122	89.62
359.349	96.62
359.576	98.62
359.802	87.62
360.029	102.62
360.256	114.62
360.483	94.62
360.709	84.62
360.936	74.62
361.163	95.62
361.39	97.62
361.616	87.62
361.843	80.62
362.07	91.62
362.296	102.62
362.523	84.62
362.749	75.62
362.976	84.62
363.203	80.62
363.429	81.62
363.656	91.62
363.882	93.62
364.109	98.62
364.335	73.62
364.562	86.62
364.788	88.62
365.015	85.62
365.241	112.62
365.468	104.62
365.694	95.62
365.92	95.62
366.147	88.62
366.373	72.62
366.599	88.62
366.826	79.62
367.052	93.62
367.278	84.62
367.505	98.62
367.731	77.62
367.957	88.62
368.184	84.62
368.41	102.62
368.636	104.62
368.862	113.62
369.089	108.62
369.315	94.62
369.541	103.62
369.767	95.62
369.993	76.62
370.219	84.62
370.445	85.62
370.672	68.62
370.898	80.62
371.124	81.62
371.35	84.62
371.576	64.62
371.802	91.62
372.028	102.62
372.254	78.62
372.48	95.62
372.706	84.62
372.932	81.62
373.158	82.62
373.384	89.62
373.61	81.62
373.835	84.62
374.061	83.62
374.287	76.62
374.513	80.62
374.739	73.62
374.965	82.62
375.191	72.62
375.416	97.62
375.642	84.62
375.868	96.62
376.094	93.62
376.319	82.62
376.545	84.62
376.771	83.62
376.997	80.62
377.222	88.62
377.448	99.62
377.674	82.62
377.899	88.62
378.125	85.62
378.35	85.62
378.576	85.62
378.802	78.62
379.027	84.62
379.253	103.62
379.478	86.62
379.704	87.62
379.929	93.62
380.155	90.62
380.38	100.62
380.606	94.62
380.831	82.62
381.057	103.62
381.282	87.62
381.507	103.62
381.733	92.62
381.958	95.62
382.184	100.62
382.409	97.62
382.634	99.62
382.86	82.62
383.085	100.62
383.31	102.62
383.535	87.62
383.761	82.62
383.986	96.62
384.211	93.62
384.436	96.62
384.662	85.62
384.887	107.62
385.112	91.62
385.337	97.62
385.562	106.62
385.787	103.62
386.013	117.62
386.238	96.62
386.463	96.62
386.688	109.62
386.913	97.62
387.138	94.62
387.363	97.62
387.588	90.62
387.813	87.62
388.038	96.62
388.263	113.62
388.488	86.62
388.713	100.62
388.938	92.62
389.163	87.62
389.387	83.62
389.612	87.62
389.837	89.62
390.062	83.62
390.287	87.62
390.512	99.62
390.736	74.62
390.961	98.62
391.186	95.62
391.411	84.62
391.636	103.62
391.86	86.62
392.085	89.62
392.31	86.62
392.534	86.62
392.759	93.62
392.984	75.62
393.208	85.62
393.433	93.62
393.658	88.62
393.882	88.62
394.107	77.62
394.331	90.62
394.556	82.62
394.78	92.62
395.005	90.62
395.229	85.62
395.454	100.62
395.678	84.62
395.903	91.62
396.127	94.62
396.352	87.62
396.576	74.62
396.801	82.62
397.025	87.62
397.249	79.62
397.474	83.62
397.698	74.62
397.922	85.62
398.147	85.62
398.371	70.62
398.595	88.62
398.82	80.62
399.044	71.62
399.268	73.62
399.492	76.62
399.717	92.62
399.941	91.62
400.165	92.62
400.389	98.62
400.613	89.62
400.837	78.62
401.062	82.62
401.286	90.62
401.51	85.62
401.734	94.62
401.958	99.62
402.182	110.62
402.406	152.62
402.63	119.62
402.854	90.62
403.078	85.62
403.302	85.62
403.526	87.62
403.75	85.62
403.974	84.62
404.198	88.62
404.422	89.62
404.645	93.62
404.869	87.62
405.093	98.62
405.317	107.62
405.541	104.62
405.765	90.62
405.988	118.62
406.212	154.62
406.436	221.62
406.66	119.62
406.883	98.62
407.107	93.62
407.331	100.62
407.555	94.62
407.778	93.62
408.002	95.62
408.226	90.62
408.449	96.62
408.673	93.62
408.896	95.62
409.12	89.62
409.344	89.62
409.567	97.62
409.791	93.62
410.014	85.62
410.238	93.62
410.461	93.62
410.685	91.62
410.908	96.62
411.132	98.62
411.355	94.62
411.578	77.62
411.802	78.62
412.025	73.62
412.249	87.62
412.472	80.62
412.695	74.62
412.919	88.62
413.142	90.62
413.365	93.62
413.589	94.62
413.812	73.62
414.035	82.62
414.258	93.62
414.482	84.62
414.705	101.62
414.928	94.62
415.151	99.62
415.374	92.62
415.597	85.62
415.821	79.62
416.044	81.62
416.267	82.62
416.49	82.62
416.713	77.62
416.936	74.62
417.159	71.62
417.382	69.62
417.605	97.62
417.828	92.62
418.051	97.62
418.274	85.62
418.497	92.62
418.72	85.62
418.943	90.62
419.166	90.62
419.389	84.62
419.611	80.62
419.834	83.62
420.057	80.62
420.28	87.62
420.503	88.62
420.726	84.62
420.948	92.62
421.171	98.62
421.394	100.62
421.617	90.62
421.839	98.62
422.062	91.62
422.285	89.62
422.507	89.62
422.73	99.62
422.953	86.62
423.175	82.62
423.398	79.62
423.621	80.62
423.843	76.62
424.066	80.62
424.288	89.62
424.511	98.62
424.733	93.62
424.956	97.62
425.178	90.62
425.401	107.62
425.623	86.62
425.846	78.62
426.068	95.62
426.291	98.62
426.513	97.62
426.735	88.62
426.958	90.62
427.18	113.62
427.402	143.62
427.625	148.62
427.847	136.62
428.069	96.62
428.292	94.62
428.514	84.62
428.736	90.62
428.958	87.62
429.181	96.62
429.403	92.62
429.625	82.62
429.847	91.62
430.069	113.62
430.292	92.62
430.514	82.62
430.736	84.62
430.958	82.62
431.18	72.62
431.402	85.62
431.624	89.62
431.846	76.62
432.068	96.62
432.29	84.62
432.512	85.62
432.734	95.62
432.956	82.62
433.178	88.62
433.4	94.62
433.622	94.62
433.844	88.62
434.066	92.62
434.287	96.62
434.509	78.62
434.731	74.62
434.953	103.62
435.175	94.62
435.397	97.62
435.618	101.62
435.84	88.62
436.062	111.62
436.284	95.62
436.505	98.62
436.727	93.62
436.949	81.62
437.17	82.62
437.392	80.62
437.614	88.62
437.835	111.62
438.057	119.62
438.278	107.62
438.5	100.62
438.721	123.62
438.943	104.62
439.165	88.62
439.386	80.62
439.608	95.62
439.829	102.62
440.05	118.62
440.272	133.62
440.493	97.62
440.715	80.62
440.936	98.62
441.158	81.62
441.379	84.62
441.6	81.62
441.822	81.62
442.043	93.62
442.264	113.62
442.486	105.62
442.707	97.62
442.928	102.62
443.149	110.62
443.371	128.62
443.592	112.62
443.813	111.62
444.034	119.62
444.255	85.62
444.476	82.62
444.698	85.62
444.919	92.62
445.14	124.62
445.361	123.62
445.582	98.62
445.803	141.62
446.024	129.62
446.245	129.62
446.466	109.62
446.687	89.62
446.908	78.62
447.129	106.62
447.35	85.62
447.571	80.62
447.792	86.62
448.013	106.62
448.234	111.62
448.455	94.62
448.675	112.62
448.896	110.62
449.117	99.62
449.338	117.62
449.559	137.62
449.779	125.62
450	82.62
450.221	89.62
450.442	88.62
450.662	89.62
450.883	96.62
451.104	106.62
451.324	90.62
451.545	83.62
451.766	89.62
451.986	83.62
452.207	89.62
452.428	90.62
452.648	96.62
452.869	99.62
453.089	99.62
453.31	112.62
453.53	96.62
453.751	86.62
453.971	103.62
454.192	95.62
454.412	91.62
454.633	93.62
454.853	82.62
455.073	92.62
455.294	79.62
455.514	92.62
455.734	82.62
455.955	91.62
456.175	83.62
456.395	80.62
456.616	84.62
456.836	82.62
457.056	75.62
457.276	79.62
457.497	92.62
457.717	76.62
457.937	80.62
458.157	93.62
458.377	87.62
458.598	105.62
458.818	134.62
459.038	164.62
459.258	128.62
459.478	84.62
459.698	75.62
459.918	71.62
460.138	80.62
460.358	85.62
460.578	88.62
460.798	81.62
461.018	105.62
461.238	75.62
461.458	85.62
461.678	104.62
461.898	80.62
462.118	96.62
462.338	92.62
462.558	87.62
462.777	92.62
462.997	80.62
463.217	84.62
463.437	86.62
463.657	89.62
463.876	77.62
464.096	85.62
464.316	81.62
464.536	85.62
464.755	76.62
464.975	113.62
465.195	147.62
465.414	129.62
465.634	98.62
465.854	84.62
466.073	78.62
466.293	82.62
466.512	82.62
466.732	65.62
466.951	101.62
467.171	89.62
467.391	96.62
467.61	107.62
467.829	95.62
468.049	81.62
468.268	80.62
468.488	79.62
468.707	80.62
468.927	92.62
469.146	86.62
469.365	91.62
469.585	75.62
469.804	96.62
470.023	83.62
470.243	98.62
470.462	88.62
470.681	115.62
470.901	85.62
471.12	91.62
471.339	88.62
471.558	100.62
471.777	95.62
471.997	94.62
472.216	65.62
472.435	86.62
472.654	82.62
472.873	91.62
473.092	98.62
473.311	96.62
473.53	72.62
473.749	82.62
473.968	91.62
474.187	93.62
474.406	96.62
474.625	81.62
474.844	81.62
475.063	84.62
475.282	87.62
475.501	90.62
475.72	88.62
475.939	65.62
476.158	72.62
476.377	89.62
476.596	89.62
476.814	85.62
477.033	71.62
477.252	87.62
477.471	88.62
477.69	93.62
477.908	92.62
478.127	86.62
478.346	98.62
478.564	97.62
478.783	106.62
479.002	94.62
479.22	97.62
479.439	108.62
479.658	84.62
479.876	103.62
480.095	88.62
480.313	98.62
480.532	102.62
480.751	93.62
480.969	90.62
481.188	96.62
481.406	82.62
481.624	92.62
481.843	85.62
482.061	82.62
482.28	96.62
482.498	93.62
482.717	85.62
482.935	79.62
483.153	98.62
483.372	86.62
483.59	90.62
483.808	92.62
484.027	92.62
484.245	72.62
484.463	96.62
484.681	104.62
484.9	96.62
485.118	90.62
485.336	92.62
485.554	92.62
485.772	106.62
485.99	107.62
486.209	98.62
486.427	103.62
486.645	101.62
486.863	107.62
487.081	95.62
487.299	98.62
487.517	82.62
487.735	88.62
487.953	84.62
488.171	93.62
488.389	97.62
488.607	111.62
488.825	90.62
489.043	91.62
489.261	95.62
489.479	76.62
489.696	97.62
489.914	95.62
490.132	89.62
490.35	85.62
490.568	83.62
490.786	77.62
491.003	98.62
491.221	89.62
491.439	73.62
491.657	99.62
491.874	76.62
492.092	85.62
492.31	80.62
492.527	90.62
492.745	75.62
492.963	80.62
493.18	92.62
493.398	80.62
493.615	84.62
493.833	91.62
494.05	87.62
494.268	85.62
494.485	93.62
494.703	80.62
494.92	84.62
495.138	71.62
495.355	81.62
495.573	95.62
495.79	103.62
496.008	89.62
496.225	82.62
496.442	95.62
496.66	87.62
496.877	99.62
497.094	102.62
497.312	94.62
497.529	96.62
497.746	77.62
497.963	90.62
498.181	93.62
498.398	86.62
498.615	100.62
498.832	112.62
499.049	87.62
499.267	99.62
499.484	92.62
499.701	96.62
499.918	98.62
500.135	86.62
500.352	93.62
500.569	78.62
500.786	86.62
501.003	84.62
501.22	97.62
501.437	104.62
501.654	96.62
501.871	99.62
502.088	88.62
502.305	89.62
502.522	95.62
502.739	82.62
502.956	73.62
503.172	93.62
503.389	91.62
503.606	98.62
503.823	100.62
504.04	88.62
504.256	93.62
504.473	83.62
504.69	89.62
504.907	88.62
505.123	76.62
505.34	78.62
505.557	88.62
505.773	78.62
505.99	93.62
506.207	83.62
506.423	81.62
506.64	96.62
506.856	93.62
507.073	83.62
507.289	81.62
507.506	79.62
507.722	110.62
507.939	104.62
508.155	86.62
508.372	92.62
508.588	86.62
508.805	93.62
509.021	100.62
509.238	107.62
509.454	84.62
509.67	101.62
509.887	96.62
510.103	125.62
510.319	207.62
510.536	737.62
510.752	2237.62
510.968	615.62
511.184	169.62
511.401	116.62
511.617	90.62
511.833	97.62
512.049	89.62
512.265	82.62
512.481	95.62
512.698	84.62
512.914	93.62
513.13	100.62
513.346	100.62
513.562	92.62
513.778	96.62
513.994	95.62
514.21	96.62
514.426	118.62
514.642	110.62
514.858	114.62
515.074	149.62
515.29	448.62
515.506	1397.62
515.721	501.62
515.937	138.62
516.153	112.62
516.369	70.62
516.585	88.62
516.801	87.62
517.016	84.62
