Data from Uncirc_1996_H10_HRD10591_00019.txt Node
Date: Wed Jan 03 11:32:06 EST 2024
User: Yrep
Spectrometer: HR+D1059
Trigger mode: 1
Integration Time (sec): 1.000000E-1
Scans to average: 1
Electric dark correction enabled: true
Nonlinearity correction enabled: false
Boxcar width: 0
XAxis mode: Wavelengths
Number of Pixels in Spectrum: 2048
>>>>>Begin Spectral Data<<<<<
223.165	-21.81
223.4	-21.81
223.635	-21.81
223.869	-6.81
224.104	-13.81
224.338	-17.81
224.573	-4.81
224.808	-10.81
225.042	-10.81
225.277	-5.81
225.511	1.19
225.746	3.19
225.98	0.19
226.215	9.19
226.449	2.19
226.683	25.19
226.918	26.19
227.152	25.19
227.387	29.19
227.621	43.19
227.856	39.19
228.09	55.19
228.324	59.19
228.559	60.19
228.793	55.19
229.027	62.19
229.262	73.19
229.496	53.19
229.73	80.19
229.964	71.19
230.199	64.19
230.433	75.19
230.667	85.19
230.901	72.19
231.136	78.19
231.37	82.19
231.604	75.19
231.838	80.19
232.072	85.19
232.306	81.19
232.541	74.19
232.775	65.19
233.009	79.19
233.243	63.19
233.477	94.19
233.711	82.19
233.945	78.19
234.179	82.19
234.413	66.19
234.647	77.19
234.881	89.19
235.115	77.19
235.349	86.19
235.583	73.19
235.817	73.19
236.051	80.19
236.285	82.19
236.519	77.19
236.753	74.19
236.987	71.19
237.221	90.19
237.455	66.19
237.689	70.19
237.922	78.19
238.156	75.19
238.39	81.19
238.624	88.19
238.858	82.19
239.091	77.19
239.325	74.19
239.559	76.19
239.793	85.19
240.027	86.19
240.26	75.19
240.494	81.19
240.728	80.19
240.961	77.19
241.195	85.19
241.429	74.19
241.662	79.19
241.896	66.19
242.13	73.19
242.363	69.19
242.597	70.19
242.83	74.19
243.064	83.19
243.298	63.19
243.531	73.19
243.765	69.19
243.998	74.19
244.232	71.19
244.465	81.19
244.699	74.19
244.932	88.19
245.166	80.19
245.399	73.19
245.633	78.19
245.866	80.19
246.099	77.19
246.333	76.19
246.566	74.19
246.8	85.19
247.033	89.19
247.266	76.19
247.5	78.19
247.733	75.19
247.966	65.19
248.2	71.19
248.433	69.19
248.666	83.19
248.899	80.19
249.133	83.19
249.366	83.19
249.599	96.19
249.832	87.19
250.066	86.19
250.299	90.19
250.532	82.19
250.765	79.19
250.998	71.19
251.231	81.19
251.465	73.19
251.698	82.19
251.931	86.19
252.164	80.19
252.397	74.19
252.63	81.19
252.863	91.19
253.096	85.19
253.329	75.19
253.562	83.19
253.795	95.19
254.028	83.19
254.261	67.19
254.494	71.19
254.727	87.19
254.96	83.19
255.193	79.19
255.426	83.19
255.659	77.19
255.892	87.19
256.124	67.19
256.357	74.19
256.59	96.19
256.823	87.19
257.056	78.19
257.289	79.19
257.521	85.19
257.754	91.19
257.987	79.19
258.22	74.19
258.452	71.19
258.685	87.19
258.918	95.19
259.151	78.19
259.383	73.19
259.616	95.19
259.849	83.19
260.081	94.19
260.314	74.19
260.547	66.19
260.779	73.19
261.012	86.19
261.244	83.19
261.477	99.19
261.71	91.19
261.942	97.19
262.175	105.19
262.407	75.19
262.64	82.19
262.872	77.19
263.105	78.19
263.337	96.19
263.57	99.19
263.802	74.19
264.035	83.19
264.267	78.19
264.499	75.19
264.732	63.19
264.964	100.19
265.197	91.19
265.429	85.19
265.661	79.19
265.894	92.19
266.126	86.19
266.358	89.19
266.591	79.19
266.823	74.19
267.055	89.19
267.287	98.19
267.52	87.19
267.752	85.19
267.984	83.19
268.216	76.19
268.448	70.19
268.681	83.19
268.913	70.19
269.145	77.19
269.377	82.19
269.609	79.19
269.841	69.19
270.073	75.19
270.306	82.19
270.538	87.19
270.77	88.19
271.002	82.19
271.234	74.19
271.466	75.19
271.698	73.19
271.93	80.19
272.162	79.19
272.394	91.19
272.626	85.19
272.858	82.19
273.09	77.19
273.322	89.19
273.553	75.19
273.785	90.19
274.017	83.19
274.249	77.19
274.481	85.19
274.713	92.19
274.945	86.19
275.176	89.19
275.408	80.19
275.64	94.19
275.872	88.19
276.104	79.19
276.335	93.19
276.567	96.19
276.799	98.19
277.031	94.19
277.262	81.19
277.494	85.19
277.726	97.19
277.957	93.19
278.189	76.19
278.421	80.19
278.652	86.19
278.884	81.19
279.115	81.19
279.347	74.19
279.579	89.19
279.81	83.19
280.042	86.19
280.273	101.19
280.505	101.19
280.736	81.19
280.968	68.19
281.199	74.19
281.431	85.19
281.662	92.19
281.894	94.19
282.125	99.19
282.356	103.19
282.588	118.19
282.819	94.19
283.051	95.19
283.282	94.19
283.513	84.19
283.745	78.19
283.976	82.19
284.207	85.19
284.439	91.19
284.67	94.19
284.901	85.19
285.132	79.19
285.364	79.19
285.595	87.19
285.826	92.19
286.057	92.19
286.288	90.19
286.52	94.19
286.751	78.19
286.982	84.19
287.213	93.19
287.444	93.19
287.675	89.19
287.906	86.19
288.138	93.19
288.369	98.19
288.6	95.19
288.831	76.19
289.062	91.19
289.293	97.19
289.524	77.19
289.755	95.19
289.986	76.19
290.217	88.19
290.448	74.19
290.679	101.19
290.91	89.19
291.141	95.19
291.371	94.19
291.602	91.19
291.833	88.19
292.064	79.19
292.295	77.19
292.526	80.19
292.757	86.19
292.987	73.19
293.218	87.19
293.449	80.19
293.68	102.19
293.91	96.19
294.141	85.19
294.372	96.19
294.603	79.19
294.833	91.19
295.064	82.19
295.295	85.19
295.525	90.19
295.756	112.19
295.987	107.19
296.217	130.19
296.448	96.19
296.679	111.19
296.909	94.19
297.14	86.19
297.37	91.19
297.601	82.19
297.831	94.19
298.062	86.19
298.292	83.19
298.523	91.19
298.753	91.19
298.984	87.19
299.214	82.19
299.445	80.19
299.675	97.19
299.905	92.19
300.136	91.19
300.366	80.19
300.597	99.19
300.827	89.19
301.057	90.19
301.288	110.19
301.518	89.19
301.748	98.19
301.979	104.19
302.209	99.19
302.439	97.19
302.669	91.19
302.9	88.19
303.13	91.19
303.36	88.19
303.59	83.19
303.82	96.19
304.051	94.19
304.281	93.19
304.511	99.19
304.741	97.19
304.971	77.19
305.201	98.19
305.431	85.19
305.661	89.19
305.891	96.19
306.121	101.19
306.352	93.19
306.582	101.19
306.812	96.19
307.042	91.19
307.272	86.19
307.502	104.19
307.731	94.19
307.961	95.19
308.191	99.19
308.421	93.19
308.651	84.19
308.881	76.19
309.111	87.19
309.341	103.19
309.571	89.19
309.8	102.19
310.03	98.19
310.26	90.19
310.49	91.19
310.72	98.19
310.949	99.19
311.179	88.19
311.409	108.19
311.639	101.19
311.868	87.19
312.098	94.19
312.328	99.19
312.557	88.19
312.787	98.19
313.017	100.19
313.246	86.19
313.476	95.19
313.706	113.19
313.935	98.19
314.165	94.19
314.394	104.19
314.624	97.19
314.853	107.19
315.083	86.19
315.312	87.19
315.542	93.19
315.771	98.19
316.001	99.19
316.23	82.19
316.46	88.19
316.689	85.19
316.919	85.19
317.148	87.19
317.377	104.19
317.607	101.19
317.836	94.19
318.065	95.19
318.295	82.19
318.524	83.19
318.753	93.19
318.983	74.19
319.212	94.19
319.441	90.19
319.67	89.19
319.9	106.19
320.129	93.19
320.358	83.19
320.587	97.19
320.816	106.19
321.046	89.19
321.275	101.19
321.504	97.19
321.733	103.19
321.962	114.19
322.191	105.19
322.42	93.19
322.649	105.19
322.878	117.19
323.108	97.19
323.337	101.19
323.566	120.19
323.795	130.19
324.024	186.19
324.253	370.19
324.482	721.19
324.71	1494.19
324.939	1946.19
325.168	742.19
325.397	220.19
325.626	138.19
325.855	121.19
326.084	113.19
326.313	130.19
326.542	153.19
326.77	200.19
326.999	407.19
327.228	845.19
327.457	1528.19
327.686	1234.19
327.914	351.19
328.143	202.19
328.372	177.19
328.6	130.19
328.829	102.19
329.058	122.19
329.287	107.19
329.515	127.19
329.744	105.19
329.972	105.19
330.201	88.19
330.43	108.19
330.658	113.19
330.887	119.19
331.115	113.19
331.344	101.19
331.572	104.19
331.801	104.19
332.03	101.19
332.258	103.19
332.486	98.19
332.715	93.19
332.943	89.19
333.172	110.19
333.4	106.19
333.629	115.19
333.857	115.19
334.085	93.19
334.314	99.19
334.542	81.19
334.771	91.19
334.999	86.19
335.227	91.19
335.455	100.19
335.684	97.19
335.912	95.19
336.14	94.19
336.369	89.19
336.597	103.19
336.825	108.19
337.053	81.19
337.281	81.19
337.51	112.19
337.738	92.19
337.966	102.19
338.194	125.19
338.422	120.19
338.65	100.19
338.878	98.19
339.106	97.19
339.334	95.19
339.562	87.19
339.79	93.19
340.018	94.19
340.246	99.19
340.474	89.19
340.702	87.19
340.93	94.19
341.158	87.19
341.386	86.19
341.614	89.19
341.842	102.19
342.07	75.19
342.298	99.19
342.526	91.19
342.754	79.19
342.981	93.19
343.209	94.19
343.437	103.19
343.665	89.19
343.893	101.19
344.12	90.19
344.348	103.19
344.576	94.19
344.804	100.19
345.031	101.19
345.259	96.19
345.487	88.19
345.714	93.19
345.942	87.19
346.17	102.19
346.397	92.19
346.625	97.19
346.853	98.19
347.08	99.19
347.308	91.19
347.535	89.19
347.763	97.19
347.99	106.19
348.218	103.19
348.445	105.19
348.673	109.19
348.9	93.19
349.128	89.19
349.355	95.19
349.583	101.19
349.81	95.19
350.037	90.19
350.265	97.19
350.492	90.19
350.72	95.19
350.947	85.19
351.174	101.19
351.402	108.19
351.629	97.19
351.856	103.19
352.083	101.19
352.311	99.19
352.538	98.19
352.765	103.19
352.992	104.19
353.22	111.19
353.447	98.19
353.674	87.19
353.901	81.19
354.128	88.19
354.355	86.19
354.583	111.19
354.81	97.19
355.037	106.19
355.264	97.19
355.491	103.19
355.718	109.19
355.945	99.19
356.172	102.19
356.399	101.19
356.626	92.19
356.853	95.19
357.08	95.19
357.307	100.19
357.534	92.19
357.761	99.19
357.988	87.19
358.215	90.19
358.441	93.19
358.668	98.19
358.895	87.19
359.122	92.19
359.349	89.19
359.576	84.19
359.802	109.19
360.029	87.19
360.256	104.19
360.483	90.19
360.709	83.19
360.936	104.19
361.163	71.19
361.39	85.19
361.616	89.19
361.843	71.19
362.07	90.19
362.296	93.19
362.523	84.19
362.749	102.19
362.976	100.19
363.203	97.19
363.429	85.19
363.656	100.19
363.882	82.19
364.109	95.19
364.335	87.19
364.562	79.19
364.788	89.19
365.015	103.19
365.241	93.19
365.468	110.19
365.694	99.19
365.92	103.19
366.147	90.19
366.373	97.19
366.599	85.19
366.826	86.19
367.052	86.19
367.278	94.19
367.505	94.19
367.731	99.19
367.957	89.19
368.184	89.19
368.41	97.19
368.636	108.19
368.862	113.19
369.089	111.19
369.315	101.19
369.541	97.19
369.767	99.19
369.993	97.19
370.219	96.19
370.445	83.19
370.672	78.19
370.898	90.19
371.124	93.19
371.35	88.19
371.576	87.19
371.802	89.19
372.028	79.19
372.254	73.19
372.48	86.19
372.706	84.19
372.932	102.19
373.158	83.19
373.384	86.19
373.61	95.19
373.835	81.19
374.061	89.19
374.287	89.19
374.513	90.19
374.739	79.19
374.965	86.19
375.191	91.19
375.416	80.19
375.642	94.19
375.868	101.19
376.094	97.19
376.319	87.19
376.545	91.19
376.771	95.19
376.997	90.19
377.222	93.19
377.448	103.19
377.674	82.19
377.899	78.19
378.125	97.19
378.35	79.19
378.576	92.19
378.802	100.19
379.027	98.19
379.253	101.19
379.478	93.19
379.704	85.19
379.929	96.19
380.155	95.19
380.38	93.19
380.606	86.19
380.831	85.19
381.057	90.19
381.282	108.19
381.507	97.19
381.733	89.19
381.958	85.19
382.184	95.19
382.409	104.19
382.634	95.19
382.86	103.19
383.085	90.19
383.31	83.19
383.535	105.19
383.761	103.19
383.986	91.19
384.211	96.19
384.436	94.19
384.662	91.19
384.887	113.19
385.112	106.19
385.337	96.19
385.562	106.19
385.787	90.19
386.013	103.19
386.238	117.19
386.463	101.19
386.688	112.19
386.913	106.19
387.138	100.19
387.363	88.19
387.588	106.19
387.813	94.19
388.038	102.19
388.263	105.19
388.488	98.19
388.713	101.19
388.938	85.19
389.163	106.19
389.387	101.19
389.612	93.19
389.837	89.19
390.062	97.19
390.287	102.19
390.512	103.19
390.736	75.19
390.961	89.19
391.186	97.19
391.411	109.19
391.636	74.19
391.86	90.19
392.085	73.19
392.31	86.19
392.534	93.19
392.759	79.19
392.984	81.19
393.208	93.19
393.433	106.19
393.658	98.19
393.882	89.19
394.107	99.19
394.331	78.19
394.556	81.19
394.78	89.19
395.005	82.19
395.229	74.19
395.454	86.19
395.678	78.19
395.903	80.19
396.127	96.19
396.352	92.19
396.576	88.19
396.801	94.19
397.025	110.19
397.249	89.19
397.474	82.19
397.698	82.19
397.922	87.19
398.147	101.19
398.371	91.19
398.595	80.19
398.82	90.19
399.044	94.19
399.268	77.19
399.492	76.19
399.717	94.19
399.941	92.19
400.165	95.19
400.389	99.19
400.613	81.19
400.837	84.19
401.062	99.19
401.286	80.19
401.51	102.19
401.734	98.19
401.958	104.19
402.182	110.19
402.406	128.19
402.63	101.19
402.854	79.19
403.078	84.19
403.302	64.19
403.526	97.19
403.75	92.19
403.974	75.19
404.198	89.19
404.422	101.19
404.645	92.19
404.869	95.19
405.093	94.19
405.317	96.19
405.541	105.19
405.765	81.19
405.988	102.19
406.212	144.19
406.436	193.19
406.66	124.19
406.883	101.19
407.107	92.19
407.331	97.19
407.555	89.19
407.778	99.19
408.002	96.19
408.226	93.19
408.449	86.19
408.673	74.19
408.896	101.19
409.12	95.19
409.344	102.19
409.567	88.19
409.791	87.19
410.014	86.19
410.238	74.19
410.461	94.19
410.685	84.19
410.908	97.19
411.132	103.19
411.355	99.19
411.578	98.19
411.802	74.19
412.025	89.19
412.249	104.19
412.472	85.19
412.695	78.19
412.919	89.19
413.142	91.19
413.365	90.19
413.589	98.19
413.812	79.19
414.035	83.19
414.258	93.19
414.482	88.19
414.705	88.19
414.928	87.19
415.151	83.19
415.374	82.19
415.597	70.19
415.821	79.19
416.044	87.19
416.267	84.19
416.49	87.19
416.713	93.19
416.936	85.19
417.159	78.19
417.382	93.19
417.605	85.19
417.828	86.19
418.051	88.19
418.274	85.19
418.497	75.19
418.72	75.19
418.943	82.19
419.166	79.19
419.389	96.19
419.611	93.19
419.834	98.19
420.057	86.19
420.28	91.19
420.503	90.19
420.726	79.19
420.948	88.19
421.171	88.19
421.394	93.19
421.617	93.19
421.839	81.19
422.062	90.19
422.285	89.19
422.507	113.19
422.73	106.19
422.953	87.19
423.175	93.19
423.398	82.19
423.621	96.19
423.843	92.19
424.066	87.19
424.288	87.19
424.511	96.19
424.733	86.19
424.956	111.19
425.178	94.19
425.401	83.19
425.623	90.19
425.846	106.19
426.068	111.19
426.291	86.19
426.513	89.19
426.735	74.19
426.958	94.19
427.18	102.19
427.402	117.19
427.625	136.19
427.847	108.19
428.069	99.19
428.292	82.19
428.514	95.19
428.736	79.19
428.958	83.19
429.181	75.19
429.403	82.19
429.625	75.19
429.847	90.19
430.069	110.19
430.292	96.19
430.514	91.19
430.736	91.19
430.958	90.19
431.18	77.19
431.402	94.19
431.624	81.19
431.846	80.19
432.068	89.19
432.29	78.19
432.512	91.19
432.734	77.19
432.956	95.19
433.178	88.19
433.4	104.19
433.622	74.19
433.844	91.19
434.066	85.19
434.287	90.19
434.509	87.19
434.731	100.19
434.953	94.19
435.175	85.19
435.397	92.19
435.618	99.19
435.84	93.19
436.062	119.19
436.284	115.19
436.505	104.19
436.727	101.19
436.949	104.19
437.17	70.19
437.392	76.19
437.614	84.19
437.835	94.19
438.057	109.19
438.278	96.19
438.5	98.19
438.721	112.19
438.943	91.19
439.165	102.19
439.386	100.19
439.608	95.19
439.829	95.19
440.05	112.19
440.272	131.19
440.493	102.19
440.715	91.19
440.936	95.19
441.158	73.19
441.379	92.19
441.6	85.19
441.822	102.19
442.043	92.19
442.264	90.19
442.486	90.19
442.707	95.19
442.928	112.19
443.149	117.19
443.371	109.19
443.592	112.19
443.813	104.19
444.034	97.19
444.255	80.19
444.476	101.19
444.698	82.19
444.919	88.19
445.14	133.19
445.361	128.19
445.582	104.19
445.803	120.19
446.024	133.19
446.245	127.19
446.466	104.19
446.687	113.19
446.908	99.19
447.129	88.19
447.35	85.19
447.571	84.19
447.792	84.19
448.013	92.19
448.234	91.19
448.455	109.19
448.675	115.19
448.896	109.19
449.117	110.19
449.338	110.19
449.559	129.19
449.779	123.19
450	96.19
450.221	83.19
450.442	91.19
450.662	80.19
450.883	95.19
451.104	120.19
451.324	83.19
451.545	89.19
451.766	81.19
451.986	91.19
452.207	97.19
452.428	99.19
452.648	91.19
452.869	107.19
453.089	104.19
453.31	98.19
453.53	85.19
453.751	93.19
453.971	93.19
454.192	96.19
454.412	97.19
454.633	73.19
454.853	74.19
455.073	74.19
455.294	84.19
455.514	95.19
455.734	98.19
455.955	84.19
456.175	71.19
456.395	88.19
456.616	86.19
456.836	72.19
457.056	73.19
457.276	90.19
457.497	88.19
457.717	81.19
457.937	79.19
458.157	94.19
458.377	78.19
458.598	101.19
458.818	139.19
459.038	131.19
459.258	104.19
459.478	91.19
459.698	74.19
459.918	92.19
460.138	89.19
460.358	78.19
460.578	84.19
460.798	83.19
461.018	90.19
461.238	88.19
461.458	97.19
461.678	86.19
461.898	81.19
462.118	83.19
462.338	70.19
462.558	83.19
462.777	94.19
462.997	85.19
463.217	92.19
463.437	84.19
463.657	91.19
463.876	86.19
464.096	83.19
464.316	97.19
464.536	94.19
464.755	97.19
464.975	98.19
465.195	135.19
465.414	148.19
465.634	85.19
465.854	96.19
466.073	95.19
466.293	73.19
466.512	73.19
466.732	93.19
466.951	78.19
467.171	98.19
467.391	97.19
467.61	103.19
467.829	103.19
468.049	81.19
468.268	89.19
468.488	69.19
468.707	67.19
468.927	77.19
469.146	87.19
469.365	81.19
469.585	103.19
469.804	93.19
470.023	97.19
470.243	100.19
470.462	101.19
470.681	98.19
470.901	74.19
471.12	92.19
471.339	92.19
471.558	97.19
471.777	85.19
471.997	85.19
472.216	80.19
472.435	82.19
472.654	82.19
472.873	101.19
473.092	97.19
473.311	90.19
473.53	71.19
473.749	91.19
473.968	83.19
474.187	112.19
474.406	87.19
474.625	89.19
474.844	78.19
475.063	88.19
475.282	88.19
475.501	81.19
475.72	91.19
475.939	87.19
476.158	85.19
476.377	85.19
476.596	83.19
476.814	97.19
477.033	93.19
477.252	97.19
477.471	74.19
477.69	97.19
477.908	82.19
478.127	80.19
478.346	76.19
478.564	88.19
478.783	82.19
479.002	101.19
479.22	103.19
479.439	85.19
479.658	94.19
479.876	98.19
480.095	81.19
480.313	89.19
480.532	95.19
480.751	86.19
480.969	77.19
481.188	96.19
481.406	88.19
481.624	97.19
481.843	88.19
482.061	98.19
482.28	84.19
482.498	81.19
482.717	85.19
482.935	92.19
483.153	91.19
483.372	83.19
483.59	86.19
483.808	86.19
484.027	78.19
484.245	94.19
484.463	81.19
484.681	96.19
484.9	81.19
485.118	83.19
485.336	96.19
485.554	77.19
485.772	98.19
485.99	97.19
486.209	107.19
486.427	105.19
486.645	110.19
486.863	123.19
487.081	91.19
487.299	106.19
487.517	89.19
487.735	86.19
487.953	89.19
488.171	95.19
488.389	87.19
488.607	89.19
488.825	90.19
489.043	90.19
489.261	88.19
489.479	97.19
489.696	84.19
489.914	89.19
490.132	96.19
490.35	85.19
490.568	95.19
490.786	92.19
491.003	89.19
491.221	88.19
491.439	85.19
491.657	93.19
491.874	75.19
492.092	88.19
492.31	90.19
492.527	91.19
492.745	90.19
492.963	89.19
493.18	87.19
493.398	96.19
493.615	93.19
493.833	94.19
494.05	86.19
494.268	87.19
494.485	80.19
494.703	97.19
494.92	80.19
495.138	88.19
495.355	89.19
495.573	81.19
495.79	91.19
496.008	75.19
496.225	79.19
496.442	87.19
496.66	92.19
496.877	90.19
497.094	75.19
497.312	94.19
497.529	99.19
497.746	87.19
497.963	88.19
498.181	91.19
498.398	90.19
498.615	112.19
498.832	97.19
499.049	95.19
499.267	107.19
499.484	101.19
499.701	88.19
499.918	87.19
500.135	85.19
500.352	83.19
500.569	88.19
500.786	98.19
501.003	91.19
501.22	80.19
501.437	88.19
501.654	94.19
501.871	97.19
502.088	90.19
502.305	85.19
502.522	79.19
502.739	94.19
502.956	100.19
503.172	88.19
503.389	80.19
503.606	94.19
503.823	84.19
504.04	87.19
504.256	94.19
504.473	86.19
504.69	96.19
504.907	95.19
505.123	86.19
505.34	74.19
505.557	91.19
505.773	88.19
505.99	90.19
506.207	92.19
506.423	89.19
506.64	94.19
506.856	93.19
507.073	85.19
507.289	91.19
507.506	91.19
507.722	98.19
507.939	108.19
508.155	83.19
508.372	93.19
508.588	95.19
508.805	89.19
509.021	85.19
509.238	98.19
509.454	99.19
509.67	96.19
509.887	107.19
510.103	121.19
510.319	174.19
510.536	621.19
510.752	1866.19
510.968	538.19
511.184	131.19
511.401	99.19
511.617	93.19
511.833	94.19
512.049	95.19
512.265	89.19
512.481	87.19
512.698	88.19
512.914	82.19
513.13	87.19
513.346	81.19
513.562	75.19
513.778	90.19
513.994	85.19
514.21	106.19
514.426	106.19
514.642	134.19
514.858	118.19
515.074	149.19
515.29	371.19
515.506	1136.19
515.721	421.19
515.937	137.19
516.153	106.19
516.369	92.19
