Data from Uncirc_1996_H10_HRD10591_00052.txt Node
Date: Wed Jan 03 11:32:12 EST 2024
User: Yrep
Spectrometer: HR+D1059
Trigger mode: 1
Integration Time (sec): 1.000000E-1
Scans to average: 1
Electric dark correction enabled: true
Nonlinearity correction enabled: false
Boxcar width: 0
XAxis mode: Wavelengths
Number of Pixels in Spectrum: 2048
>>>>>Begin Spectral Data<<<<<
223.165	-9.5
223.4	-9.5
223.635	-9.5
223.869	-30.5
224.104	-21.5
224.338	-19.5
224.573	-6.5
224.808	-14.5
225.042	-3.5
225.277	-1.5
225.511	1.5
225.746	0.5
225.98	10.5
226.215	19.5
226.449	18.5
226.683	21.5
226.918	11.5
227.152	23.5
227.387	41.5
227.621	38.5
227.856	49.5
228.09	48.5
228.324	60.5
228.559	64.5
228.793	53.5
229.027	50.5
229.262	52.5
229.496	85.5
229.73	91.5
229.964	76.5
230.199	75.5
230.433	73.5
230.667	78.5
230.901	80.5
231.136	76.5
231.37	75.5
231.604	72.5
231.838	87.5
232.072	69.5
232.306	87.5
232.541	74.5
232.775	81.5
233.009	90.5
233.243	74.5
233.477	78.5
233.711	81.5
233.945	72.5
234.179	80.5
234.413	93.5
234.647	74.5
234.881	85.5
235.115	63.5
235.349	72.5
235.583	73.5
235.817	68.5
236.051	82.5
236.285	80.5
236.519	86.5
236.753	76.5
236.987	85.5
237.221	85.5
237.455	92.5
237.689	72.5
237.922	85.5
238.156	80.5
238.39	81.5
238.624	73.5
238.858	74.5
239.091	60.5
239.325	77.5
239.559	66.5
239.793	67.5
240.027	79.5
240.26	75.5
240.494	81.5
240.728	53.5
240.961	73.5
241.195	76.5
241.429	82.5
241.662	76.5
241.896	69.5
242.13	62.5
242.363	69.5
242.597	73.5
242.83	88.5
243.064	69.5
243.298	90.5
243.531	72.5
243.765	82.5
243.998	88.5
244.232	79.5
244.465	75.5
244.699	80.5
244.932	85.5
245.166	77.5
245.399	72.5
245.633	74.5
245.866	96.5
246.099	71.5
246.333	75.5
246.566	79.5
246.8	71.5
247.033	81.5
247.266	81.5
247.5	90.5
247.733	65.5
247.966	79.5
248.2	78.5
248.433	91.5
248.666	75.5
248.899	78.5
249.133	67.5
249.366	90.5
249.599	80.5
249.832	84.5
250.066	75.5
250.299	69.5
250.532	61.5
250.765	68.5
250.998	75.5
251.231	73.5
251.465	97.5
251.698	73.5
251.931	97.5
252.164	90.5
252.397	77.5
252.63	74.5
252.863	82.5
253.096	74.5
253.329	73.5
253.562	82.5
253.795	81.5
254.028	83.5
254.261	71.5
254.494	88.5
254.727	81.5
254.96	91.5
255.193	77.5
255.426	79.5
255.659	90.5
255.892	79.5
256.124	92.5
256.357	82.5
256.59	68.5
256.823	79.5
257.056	79.5
257.289	79.5
257.521	82.5
257.754	87.5
257.987	80.5
258.22	87.5
258.452	82.5
258.685	81.5
258.918	80.5
259.151	74.5
259.383	97.5
259.616	79.5
259.849	72.5
260.081	87.5
260.314	73.5
260.547	72.5
260.779	96.5
261.012	85.5
261.244	83.5
261.477	78.5
261.71	102.5
261.942	97.5
262.175	106.5
262.407	88.5
262.64	87.5
262.872	85.5
263.105	89.5
263.337	77.5
263.57	84.5
263.802	79.5
264.035	84.5
264.267	88.5
264.499	85.5
264.732	90.5
264.964	83.5
265.197	86.5
265.429	87.5
265.661	74.5
265.894	96.5
266.126	84.5
266.358	76.5
266.591	75.5
266.823	79.5
267.055	94.5
267.287	89.5
267.52	80.5
267.752	69.5
267.984	79.5
268.216	92.5
268.448	77.5
268.681	87.5
268.913	76.5
269.145	90.5
269.377	90.5
269.609	92.5
269.841	89.5
270.073	81.5
270.306	87.5
270.538	87.5
270.77	77.5
271.002	81.5
271.234	74.5
271.466	69.5
271.698	85.5
271.93	76.5
272.162	88.5
272.394	87.5
272.626	89.5
272.858	86.5
273.09	78.5
273.322	85.5
273.553	89.5
273.785	81.5
274.017	82.5
274.249	83.5
274.481	80.5
274.713	79.5
274.945	85.5
275.176	87.5
275.408	72.5
275.64	78.5
275.872	72.5
276.104	102.5
276.335	93.5
276.567	97.5
276.799	90.5
277.031	77.5
277.262	83.5
277.494	83.5
277.726	79.5
277.957	81.5
278.189	86.5
278.421	87.5
278.652	77.5
278.884	85.5
279.115	91.5
279.347	86.5
279.579	83.5
279.81	92.5
280.042	90.5
280.273	77.5
280.505	81.5
280.736	91.5
280.968	72.5
281.199	81.5
281.431	78.5
281.662	81.5
281.894	86.5
282.125	95.5
282.356	111.5
282.588	119.5
282.819	113.5
283.051	67.5
283.282	91.5
283.513	91.5
283.745	82.5
283.976	90.5
284.207	77.5
284.439	85.5
284.67	99.5
284.901	96.5
285.132	90.5
285.364	69.5
285.595	67.5
285.826	67.5
286.057	82.5
286.288	87.5
286.52	74.5
286.751	96.5
286.982	88.5
287.213	83.5
287.444	86.5
287.675	95.5
287.906	89.5
288.138	73.5
288.369	98.5
288.6	98.5
288.831	78.5
289.062	93.5
289.293	79.5
289.524	86.5
289.755	79.5
289.986	82.5
290.217	85.5
290.448	97.5
290.679	81.5
290.91	84.5
291.141	94.5
291.371	86.5
291.602	89.5
291.833	78.5
292.064	78.5
292.295	81.5
292.526	76.5
292.757	97.5
292.987	75.5
293.218	84.5
293.449	88.5
293.68	77.5
293.91	87.5
294.141	84.5
294.372	79.5
294.603	104.5
294.833	88.5
295.064	87.5
295.295	93.5
295.525	82.5
295.756	106.5
295.987	103.5
296.217	138.5
296.448	119.5
296.679	85.5
296.909	86.5
297.14	88.5
297.37	89.5
297.601	86.5
297.831	74.5
298.062	96.5
298.292	83.5
298.523	89.5
298.753	79.5
298.984	92.5
299.214	88.5
299.445	98.5
299.675	83.5
299.905	92.5
300.136	96.5
300.366	96.5
300.597	89.5
300.827	93.5
301.057	92.5
301.288	100.5
301.518	87.5
301.748	105.5
301.979	97.5
302.209	81.5
302.439	93.5
302.669	85.5
302.9	98.5
303.13	98.5
303.36	69.5
303.59	94.5
303.82	89.5
304.051	90.5
304.281	84.5
304.511	89.5
304.741	98.5
304.971	81.5
305.201	89.5
305.431	77.5
305.661	82.5
305.891	92.5
306.121	88.5
306.352	85.5
306.582	103.5
306.812	104.5
307.042	87.5
307.272	85.5
307.502	93.5
307.731	94.5
307.961	88.5
308.191	90.5
308.421	82.5
308.651	87.5
308.881	91.5
309.111	87.5
309.341	94.5
309.571	93.5
309.8	93.5
310.03	104.5
310.26	93.5
310.49	87.5
310.72	100.5
310.949	106.5
311.179	95.5
311.409	109.5
311.639	86.5
311.868	82.5
312.098	95.5
312.328	93.5
312.557	110.5
312.787	109.5
313.017	104.5
313.246	105.5
313.476	100.5
313.706	97.5
313.935	69.5
314.165	98.5
314.394	103.5
314.624	100.5
314.853	99.5
315.083	82.5
315.312	86.5
315.542	97.5
315.771	94.5
316.001	99.5
316.23	96.5
316.46	76.5
316.689	98.5
316.919	73.5
317.148	93.5
317.377	83.5
317.607	104.5
317.836	82.5
318.065	93.5
318.295	97.5
318.524	64.5
318.753	92.5
318.983	89.5
319.212	92.5
319.441	100.5
319.67	106.5
319.9	91.5
320.129	96.5
320.358	86.5
320.587	94.5
320.816	106.5
321.046	92.5
321.275	93.5
321.504	99.5
321.733	97.5
321.962	111.5
322.191	102.5
322.42	104.5
322.649	94.5
322.878	99.5
323.108	119.5
323.337	126.5
323.566	119.5
323.795	154.5
324.024	203.5
324.253	358.5
324.482	775.5
324.71	1570.5
324.939	2028.5
325.168	762.5
325.397	242.5
325.626	126.5
325.855	111.5
326.084	124.5
326.313	147.5
326.542	155.5
326.77	227.5
326.999	437.5
327.228	869.5
327.457	1603.5
327.686	1271.5
327.914	356.5
328.143	194.5
328.372	159.5
328.6	115.5
328.829	119.5
329.058	125.5
329.287	136.5
329.515	100.5
329.744	99.5
329.972	88.5
330.201	93.5
330.43	97.5
330.658	120.5
330.887	134.5
331.115	112.5
331.344	106.5
331.572	101.5
331.801	96.5
332.03	79.5
332.258	110.5
332.486	99.5
332.715	75.5
332.943	81.5
333.172	93.5
333.4	92.5
333.629	87.5
333.857	118.5
334.085	87.5
334.314	95.5
334.542	97.5
334.771	93.5
334.999	94.5
335.227	97.5
335.455	103.5
335.684	106.5
335.912	91.5
336.14	85.5
336.369	89.5
336.597	91.5
336.825	105.5
337.053	98.5
337.281	97.5
337.51	89.5
337.738	92.5
337.966	90.5
338.194	103.5
338.422	127.5
338.65	108.5
338.878	96.5
339.106	83.5
339.334	94.5
339.562	81.5
339.79	99.5
340.018	94.5
340.246	94.5
340.474	78.5
340.702	99.5
340.93	86.5
341.158	89.5
341.386	82.5
341.614	86.5
341.842	89.5
342.07	73.5
342.298	84.5
342.526	82.5
342.754	87.5
342.981	84.5
343.209	86.5
343.437	103.5
343.665	90.5
343.893	80.5
344.12	97.5
344.348	95.5
344.576	88.5
344.804	85.5
345.031	90.5
345.259	92.5
345.487	95.5
345.714	91.5
345.942	109.5
346.17	98.5
346.397	76.5
346.625	91.5
346.853	97.5
347.08	99.5
347.308	86.5
347.535	98.5
347.763	108.5
347.99	82.5
348.218	103.5
348.445	103.5
348.673	106.5
348.9	103.5
349.128	96.5
349.355	97.5
349.583	82.5
349.81	102.5
350.037	94.5
350.265	93.5
350.492	96.5
350.72	101.5
350.947	102.5
351.174	110.5
351.402	93.5
351.629	104.5
351.856	81.5
352.083	96.5
352.311	108.5
352.538	115.5
352.765	121.5
352.992	98.5
353.22	108.5
353.447	109.5
353.674	103.5
353.901	94.5
354.128	93.5
354.355	93.5
354.583	99.5
354.81	108.5
355.037	85.5
355.264	104.5
355.491	79.5
355.718	85.5
355.945	99.5
356.172	108.5
356.399	111.5
356.626	96.5
356.853	93.5
357.08	100.5
357.307	94.5
357.534	86.5
357.761	97.5
357.988	99.5
358.215	89.5
358.441	82.5
358.668	87.5
358.895	97.5
359.122	97.5
359.349	76.5
359.576	84.5
359.802	90.5
360.029	122.5
360.256	103.5
360.483	91.5
360.709	91.5
360.936	78.5
361.163	83.5
361.39	97.5
361.616	95.5
361.843	80.5
362.07	91.5
362.296	92.5
362.523	86.5
362.749	90.5
362.976	96.5
363.203	110.5
363.429	93.5
363.656	90.5
363.882	81.5
364.109	94.5
364.335	82.5
364.562	89.5
364.788	97.5
365.015	96.5
365.241	94.5
365.468	98.5
365.694	99.5
365.92	91.5
366.147	86.5
366.373	71.5
366.599	90.5
366.826	93.5
367.052	78.5
367.278	89.5
367.505	90.5
367.731	96.5
367.957	87.5
368.184	89.5
368.41	91.5
368.636	120.5
368.862	115.5
369.089	114.5
369.315	91.5
369.541	71.5
369.767	90.5
369.993	83.5
370.219	83.5
370.445	93.5
370.672	83.5
370.898	88.5
371.124	98.5
371.35	82.5
371.576	91.5
371.802	94.5
372.028	81.5
372.254	94.5
372.48	79.5
372.706	86.5
372.932	87.5
373.158	90.5
373.384	91.5
373.61	103.5
373.835	85.5
374.061	81.5
374.287	99.5
374.513	91.5
374.739	89.5
374.965	97.5
375.191	83.5
375.416	86.5
375.642	95.5
375.868	104.5
376.094	104.5
376.319	90.5
376.545	90.5
376.771	75.5
376.997	90.5
377.222	89.5
377.448	99.5
377.674	82.5
377.899	93.5
378.125	99.5
378.35	101.5
378.576	82.5
378.802	89.5
379.027	93.5
379.253	94.5
379.478	75.5
379.704	87.5
379.929	90.5
380.155	78.5
380.38	81.5
380.606	91.5
380.831	86.5
381.057	90.5
381.282	92.5
381.507	92.5
381.733	81.5
381.958	92.5
382.184	90.5
382.409	97.5
382.634	106.5
382.86	94.5
383.085	100.5
383.31	90.5
383.535	92.5
383.761	100.5
383.986	99.5
384.211	107.5
384.436	96.5
384.662	91.5
384.887	96.5
385.112	111.5
385.337	104.5
385.562	102.5
385.787	89.5
386.013	94.5
386.238	110.5
386.463	93.5
386.688	98.5
386.913	97.5
387.138	93.5
387.363	98.5
387.588	109.5
387.813	99.5
388.038	105.5
388.263	100.5
388.488	103.5
388.713	91.5
388.938	105.5
389.163	103.5
389.387	78.5
389.612	87.5
389.837	91.5
390.062	86.5
390.287	83.5
390.512	97.5
390.736	89.5
390.961	98.5
391.186	93.5
391.411	90.5
391.636	77.5
391.86	85.5
392.085	88.5
392.31	101.5
392.534	88.5
392.759	96.5
392.984	78.5
393.208	94.5
393.433	83.5
393.658	85.5
393.882	94.5
394.107	88.5
394.331	94.5
394.556	90.5
394.78	85.5
395.005	76.5
395.229	87.5
395.454	86.5
395.678	79.5
395.903	78.5
396.127	82.5
396.352	70.5
396.576	71.5
396.801	84.5
397.025	85.5
397.249	82.5
397.474	86.5
397.698	76.5
397.922	87.5
398.147	89.5
398.371	91.5
398.595	91.5
398.82	79.5
399.044	91.5
399.268	94.5
399.492	89.5
399.717	92.5
399.941	89.5
400.165	98.5
400.389	97.5
400.613	85.5
400.837	79.5
401.062	82.5
401.286	82.5
401.51	83.5
401.734	84.5
401.958	79.5
402.182	112.5
402.406	147.5
402.63	106.5
402.854	88.5
403.078	90.5
403.302	88.5
403.526	89.5
403.75	85.5
403.974	96.5
404.198	100.5
404.422	83.5
404.645	87.5
404.869	85.5
405.093	82.5
405.317	77.5
405.541	89.5
405.765	86.5
405.988	117.5
406.212	146.5
406.436	201.5
406.66	130.5
406.883	90.5
407.107	87.5
407.331	98.5
407.555	92.5
407.778	90.5
408.002	88.5
408.226	82.5
408.449	87.5
408.673	81.5
408.896	97.5
409.12	82.5
409.344	82.5
409.567	94.5
409.791	87.5
410.014	90.5
410.238	82.5
410.461	83.5
410.685	90.5
410.908	93.5
411.132	96.5
411.355	99.5
411.578	92.5
411.802	79.5
412.025	79.5
412.249	91.5
412.472	110.5
412.695	81.5
412.919	96.5
413.142	89.5
413.365	87.5
413.589	102.5
413.812	82.5
414.035	92.5
414.258	89.5
414.482	94.5
414.705	87.5
414.928	90.5
415.151	96.5
415.374	99.5
415.597	94.5
415.821	80.5
416.044	80.5
416.267	96.5
416.49	89.5
416.713	79.5
416.936	76.5
417.159	91.5
417.382	81.5
417.605	106.5
417.828	105.5
418.051	73.5
418.274	90.5
418.497	86.5
418.72	86.5
418.943	81.5
419.166	77.5
419.389	96.5
419.611	93.5
419.834	91.5
420.057	94.5
420.28	85.5
420.503	79.5
420.726	98.5
420.948	83.5
421.171	91.5
421.394	85.5
421.617	77.5
421.839	87.5
422.062	94.5
422.285	111.5
422.507	101.5
422.73	87.5
422.953	97.5
423.175	82.5
423.398	89.5
423.621	98.5
423.843	94.5
424.066	85.5
424.288	91.5
424.511	74.5
424.733	100.5
424.956	109.5
425.178	78.5
425.401	118.5
425.623	94.5
425.846	94.5
426.068	77.5
426.291	81.5
426.513	90.5
426.735	92.5
426.958	90.5
427.18	100.5
427.402	119.5
427.625	158.5
427.847	122.5
428.069	99.5
428.292	77.5
428.514	93.5
428.736	85.5
428.958	80.5
429.181	82.5
429.403	74.5
429.625	83.5
429.847	88.5
430.069	104.5
430.292	102.5
430.514	81.5
430.736	97.5
430.958	99.5
431.18	83.5
431.402	93.5
431.624	86.5
431.846	97.5
432.068	88.5
432.29	95.5
432.512	79.5
432.734	76.5
432.956	96.5
433.178	100.5
433.4	97.5
433.622	79.5
433.844	91.5
434.066	98.5
434.287	101.5
434.509	82.5
434.731	85.5
434.953	99.5
435.175	93.5
435.397	97.5
435.618	90.5
435.84	99.5
436.062	118.5
436.284	106.5
436.505	105.5
436.727	79.5
436.949	89.5
437.17	94.5
437.392	87.5
437.614	73.5
437.835	105.5
438.057	111.5
438.278	100.5
438.5	85.5
438.721	108.5
438.943	93.5
439.165	106.5
439.386	95.5
439.608	98.5
439.829	98.5
440.05	105.5
440.272	126.5
440.493	76.5
440.715	97.5
440.936	86.5
441.158	76.5
441.379	77.5
441.6	95.5
441.822	96.5
442.043	93.5
442.264	110.5
442.486	111.5
442.707	96.5
442.928	111.5
443.149	115.5
443.371	118.5
443.592	103.5
443.813	120.5
444.034	99.5
444.255	96.5
444.476	72.5
444.698	90.5
444.919	85.5
445.14	125.5
445.361	127.5
445.582	112.5
445.803	133.5
446.024	125.5
446.245	136.5
446.466	106.5
446.687	76.5
446.908	96.5
447.129	81.5
447.35	86.5
447.571	87.5
447.792	91.5
448.013	80.5
448.234	95.5
448.455	92.5
448.675	114.5
448.896	116.5
449.117	114.5
449.338	111.5
449.559	126.5
449.779	115.5
450	99.5
450.221	78.5
450.442	88.5
450.662	96.5
450.883	102.5
451.104	102.5
451.324	102.5
451.545	94.5
451.766	85.5
451.986	84.5
452.207	94.5
452.428	98.5
452.648	90.5
452.869	110.5
453.089	115.5
453.31	121.5
453.53	86.5
453.751	76.5
453.971	109.5
454.192	98.5
454.412	88.5
454.633	96.5
454.853	85.5
455.073	78.5
455.294	85.5
455.514	88.5
455.734	104.5
455.955	87.5
456.175	79.5
456.395	92.5
456.616	81.5
456.836	89.5
457.056	95.5
457.276	81.5
457.497	94.5
457.717	86.5
457.937	72.5
458.157	89.5
458.377	92.5
458.598	111.5
458.818	130.5
459.038	140.5
459.258	94.5
459.478	101.5
459.698	75.5
459.918	75.5
460.138	85.5
460.358	83.5
460.578	82.5
460.798	86.5
461.018	85.5
461.238	66.5
461.458	91.5
461.678	102.5
461.898	86.5
462.118	75.5
462.338	93.5
462.558	83.5
462.777	85.5
462.997	83.5
463.217	69.5
463.437	91.5
463.657	74.5
463.876	99.5
464.096	91.5
464.316	73.5
464.536	89.5
464.755	91.5
464.975	114.5
465.195	148.5
465.414	134.5
465.634	95.5
465.854	82.5
466.073	71.5
466.293	79.5
466.512	80.5
466.732	88.5
466.951	82.5
467.171	79.5
467.391	92.5
467.61	89.5
467.829	104.5
468.049	86.5
468.268	97.5
468.488	77.5
468.707	74.5
468.927	87.5
469.146	83.5
469.365	82.5
469.585	86.5
469.804	83.5
470.023	92.5
470.243	85.5
470.462	102.5
470.681	106.5
470.901	89.5
471.12	92.5
471.339	90.5
471.558	82.5
471.777	93.5
471.997	89.5
472.216	107.5
472.435	91.5
472.654	83.5
472.873	82.5
473.092	98.5
473.311	91.5
473.53	84.5
473.749	92.5
473.968	86.5
474.187	93.5
474.406	88.5
474.625	87.5
474.844	99.5
475.063	78.5
475.282	81.5
475.501	94.5
475.72	81.5
475.939	96.5
476.158	93.5
476.377	99.5
476.596	92.5
476.814	85.5
477.033	99.5
477.252	83.5
477.471	94.5
477.69	92.5
477.908	89.5
478.127	85.5
478.346	86.5
478.564	73.5
478.783	101.5
479.002	95.5
479.22	93.5
479.439	90.5
479.658	94.5
479.876	102.5
480.095	96.5
480.313	95.5
480.532	86.5
480.751	78.5
480.969	93.5
481.188	107.5
481.406	98.5
481.624	89.5
481.843	82.5
482.061	82.5
482.28	89.5
482.498	72.5
482.717	77.5
482.935	93.5
483.153	83.5
483.372	82.5
483.59	81.5
483.808	80.5
484.027	84.5
484.245	93.5
484.463	93.5
484.681	93.5
484.9	95.5
485.118	107.5
485.336	99.5
485.554	102.5
485.772	93.5
485.99	78.5
486.209	101.5
486.427	101.5
486.645	117.5
486.863	104.5
487.081	90.5
487.299	100.5
487.517	105.5
487.735	95.5
487.953	87.5
488.171	102.5
488.389	90.5
488.607	95.5
488.825	81.5
489.043	89.5
489.261	85.5
489.479	86.5
489.696	89.5
489.914	92.5
490.132	86.5
490.35	97.5
490.568	85.5
490.786	89.5
491.003	86.5
491.221	88.5
491.439	86.5
491.657	105.5
491.874	93.5
492.092	94.5
492.31	99.5
492.527	72.5
492.745	92.5
492.963	94.5
493.18	88.5
493.398	94.5
493.615	93.5
493.833	82.5
494.05	85.5
494.268	76.5
494.485	95.5
494.703	93.5
494.92	81.5
495.138	80.5
495.355	87.5
495.573	93.5
495.79	86.5
496.008	83.5
496.225	83.5
496.442	88.5
496.66	100.5
496.877	91.5
497.094	100.5
497.312	97.5
497.529	99.5
497.746	86.5
497.963	82.5
498.181	86.5
498.398	87.5
498.615	107.5
498.832	97.5
499.049	85.5
499.267	98.5
499.484	83.5
499.701	95.5
499.918	86.5
500.135	87.5
500.352	80.5
500.569	85.5
500.786	84.5
501.003	82.5
501.22	95.5
501.437	102.5
501.654	88.5
501.871	99.5
502.088	94.5
502.305	88.5
502.522	88.5
502.739	87.5
502.956	85.5
503.172	76.5
503.389	84.5
503.606	107.5
503.823	102.5
504.04	103.5
504.256	99.5
504.473	82.5
504.69	90.5
504.907	80.5
505.123	77.5
505.34	91.5
505.557	93.5
505.773	93.5
505.99	101.5
506.207	92.5
506.423	91.5
506.64	106.5
506.856	86.5
507.073	78.5
507.289	82.5
507.506	85.5
507.722	103.5
507.939	93.5
508.155	105.5
508.372	97.5
508.588	82.5
508.805	102.5
509.021	100.5
509.238	76.5
509.454	87.5
509.67	94.5
509.887	92.5
510.103	118.5
510.319	196.5
510.536	663.5
510.752	2040.5
510.968	591.5
511.184	143.5
511.401	102.5
511.617	97.5
511.833	98.5
512.049	93.5
512.265	85.5
512.481	84.5
512.698	98.5
512.914	90.5
513.13	92.5
513.346	98.5
513.562	109.5
513.778	91.5
513.994	98.5
514.21	101.5
514.426	124.5
514.642	118.5
514.858	115.5
515.074	152.5
515.29	413.5
515.506	1275.5
515.721	472.5
515.937	152.5
516.153	109.5
516.369	98.5
516.585	87.5
516.801	81.5
517.016	103.5
517.232	94.5
517.448	99.5
517.664	92.5
517.879	91.5
518.095	95.5
518.311	83.5
518.527	87.5
518.742	79.5
518.958	93.5
519.173	100.5
519.389	91.5
519.605	89.5
519.82	99.5
520.036	105.5
520.251	106.5
520.467	108.5
520.682	107.5
520.898	98.5
521.113	115.5
521.329	127.5
521.544	190.5
521.76	503.5
521.975	2122.5
522.19	1243.5
522.406	269.5
522.621	121.5
522.836	95.5
523.052	90.5
523.267	89.5
523.482	96.5
523.698	97.5
523.913	121.5
524.128	74.5
524.343	96.5
524.559	83.5
524.774	96.5
524.989	90.5
525.204	96.5
525.419	97.5
525.634	97.5
525.849	86.5
526.064	88.5
526.28	106.5
526.495	74.5
526.71	96.5
526.925	75.5
527.14	85.5
527.355	88.5
527.57	87.5
527.785	90.5
527.999	82.5
528.214	84.5
528.429	99.5
528.644	91.5
528.859	99.5
529.074	82.5
529.289	121.5
529.503	155.5
529.718	107.5
529.933	84.5
530.148	83.5
530.363	92.5
530.577	82.5
530.792	85.5
531.007	94.5
531.221	113.5
531.436	105.5
531.651	74.5
531.865	81.5
532.08	89.5
532.295	111.5
532.509	97.5
532.724	93.5
532.938	88.5
533.153	94.5
533.367	96.5
533.582	99.5
533.796	81.5
534.011	91.5
534.225	81.5
534.44	98.5
534.654	106.5
534.868	91.5
535.083	101.5
535.297	91.5
535.511	118.5
535.726	97.5
535.94	95.5
536.154	80.5
536.369	97.5
