Data from Uncirc_1996_H10_HRD10591_00025.txt Node
Date: Wed Jan 03 11:32:07 EST 2024
User: Yrep
Spectrometer: HR+D1059
Trigger mode: 1
Integration Time (sec): 1.000000E-1
Scans to average: 1
Electric dark correction enabled: true
Nonlinearity correction enabled: false
Boxcar width: 0
XAxis mode: Wavelengths
Number of Pixels in Spectrum: 2048
>>>>>Begin Spectral Data<<<<<
223.165	-13.25
223.4	-13.25
223.635	-13.25
223.869	-22.25
224.104	-30.25
224.338	-1.25
224.573	-11.25
224.808	-13.25
225.042	-16.25
225.277	-14.25
225.511	-3.25
225.746	-1.25
225.98	15.75
226.215	10.75
226.449	25.75
226.683	17.75
226.918	15.75
227.152	40.75
227.387	32.75
227.621	39.75
227.856	43.75
228.09	46.75
228.324	59.75
228.559	48.75
228.793	57.75
229.027	58.75
229.262	79.75
229.496	72.75
229.73	87.75
229.964	71.75
230.199	71.75
230.433	70.75
230.667	84.75
230.901	85.75
231.136	76.75
231.37	83.75
231.604	82.75
231.838	60.75
232.072	87.75
232.306	76.75
232.541	78.75
232.775	72.75
233.009	79.75
233.243	78.75
233.477	74.75
233.711	71.75
233.945	77.75
234.179	75.75
234.413	84.75
234.647	84.75
234.881	74.75
235.115	78.75
235.349	73.75
235.583	75.75
235.817	86.75
236.051	91.75
236.285	85.75
236.519	76.75
236.753	68.75
236.987	83.75
237.221	76.75
237.455	84.75
237.689	96.75
237.922	75.75
238.156	66.75
238.39	90.75
238.624	73.75
238.858	78.75
239.091	84.75
239.325	79.75
239.559	76.75
239.793	77.75
240.027	90.75
240.26	68.75
240.494	67.75
240.728	78.75
240.961	78.75
241.195	73.75
241.429	75.75
241.662	68.75
241.896	71.75
242.13	83.75
242.363	64.75
242.597	70.75
242.83	95.75
243.064	86.75
243.298	72.75
243.531	73.75
243.765	84.75
243.998	87.75
244.232	82.75
244.465	87.75
244.699	86.75
244.932	77.75
245.166	90.75
245.399	80.75
245.633	76.75
245.866	74.75
246.099	73.75
246.333	78.75
246.566	85.75
246.8	75.75
247.033	85.75
247.266	98.75
247.5	85.75
247.733	74.75
247.966	84.75
248.2	64.75
248.433	84.75
248.666	84.75
248.899	86.75
249.133	85.75
249.366	103.75
249.599	87.75
249.832	95.75
250.066	76.75
250.299	68.75
250.532	82.75
250.765	80.75
250.998	89.75
251.231	80.75
251.465	61.75
251.698	86.75
251.931	79.75
252.164	76.75
252.397	77.75
252.63	81.75
252.863	81.75
253.096	83.75
253.329	86.75
253.562	80.75
253.795	87.75
254.028	73.75
254.261	86.75
254.494	75.75
254.727	78.75
254.96	79.75
255.193	79.75
255.426	64.75
255.659	85.75
255.892	89.75
256.124	84.75
256.357	80.75
256.59	81.75
256.823	82.75
257.056	80.75
257.289	87.75
257.521	74.75
257.754	96.75
257.987	84.75
258.22	79.75
258.452	80.75
258.685	80.75
258.918	78.75
259.151	84.75
259.383	82.75
259.616	75.75
259.849	79.75
260.081	85.75
260.314	66.75
260.547	90.75
260.779	81.75
261.012	65.75
261.244	77.75
261.477	91.75
261.71	88.75
261.942	92.75
262.175	110.75
262.407	87.75
262.64	86.75
262.872	91.75
263.105	78.75
263.337	91.75
263.57	93.75
263.802	76.75
264.035	65.75
264.267	86.75
264.499	66.75
264.732	78.75
264.964	63.75
265.197	82.75
265.429	77.75
265.661	85.75
265.894	85.75
266.126	92.75
266.358	92.75
266.591	82.75
266.823	83.75
267.055	81.75
267.287	84.75
267.52	78.75
267.752	84.75
267.984	88.75
268.216	80.75
268.448	78.75
268.681	87.75
268.913	79.75
269.145	83.75
269.377	77.75
269.609	81.75
269.841	82.75
270.073	87.75
270.306	84.75
270.538	78.75
270.77	88.75
271.002	76.75
271.234	73.75
271.466	80.75
271.698	82.75
271.93	94.75
272.162	73.75
272.394	90.75
272.626	87.75
272.858	91.75
273.09	100.75
273.322	96.75
273.553	77.75
273.785	89.75
274.017	80.75
274.249	80.75
274.481	68.75
274.713	76.75
274.945	86.75
275.176	86.75
275.408	91.75
275.64	83.75
275.872	79.75
276.104	87.75
276.335	89.75
276.567	88.75
276.799	94.75
277.031	91.75
277.262	93.75
277.494	77.75
277.726	91.75
277.957	90.75
278.189	93.75
278.421	83.75
278.652	77.75
278.884	83.75
279.115	83.75
279.347	86.75
279.579	88.75
279.81	86.75
280.042	82.75
280.273	83.75
280.505	84.75
280.736	97.75
280.968	96.75
281.199	90.75
281.431	83.75
281.662	77.75
281.894	94.75
282.125	87.75
282.356	107.75
282.588	132.75
282.819	102.75
283.051	95.75
283.282	82.75
283.513	100.75
283.745	86.75
283.976	83.75
284.207	72.75
284.439	78.75
284.67	80.75
284.901	92.75
285.132	83.75
285.364	95.75
285.595	86.75
285.826	77.75
286.057	87.75
286.288	82.75
286.52	91.75
286.751	89.75
286.982	78.75
287.213	89.75
287.444	104.75
287.675	85.75
287.906	80.75
288.138	91.75
288.369	91.75
288.6	94.75
288.831	87.75
289.062	94.75
289.293	82.75
289.524	89.75
289.755	96.75
289.986	88.75
290.217	100.75
290.448	80.75
290.679	86.75
290.91	83.75
291.141	88.75
291.371	80.75
291.602	93.75
291.833	83.75
292.064	89.75
292.295	83.75
292.526	98.75
292.757	86.75
292.987	103.75
293.218	84.75
293.449	70.75
293.68	84.75
293.91	86.75
294.141	78.75
294.372	80.75
294.603	93.75
294.833	81.75
295.064	94.75
295.295	98.75
295.525	87.75
295.756	96.75
295.987	121.75
296.217	126.75
296.448	113.75
296.679	84.75
296.909	96.75
297.14	79.75
297.37	90.75
297.601	88.75
297.831	92.75
298.062	88.75
298.292	82.75
298.523	90.75
298.753	99.75
298.984	93.75
299.214	73.75
299.445	91.75
299.675	76.75
299.905	83.75
300.136	95.75
300.366	91.75
300.597	95.75
300.827	91.75
301.057	96.75
301.288	96.75
301.518	99.75
301.748	83.75
301.979	98.75
302.209	91.75
302.439	94.75
302.669	73.75
302.9	86.75
303.13	84.75
303.36	97.75
303.59	96.75
303.82	92.75
304.051	101.75
304.281	78.75
304.511	92.75
304.741	83.75
304.971	81.75
305.201	86.75
305.431	90.75
305.661	104.75
305.891	88.75
306.121	93.75
306.352	95.75
306.582	98.75
306.812	81.75
307.042	78.75
307.272	89.75
307.502	100.75
307.731	89.75
307.961	92.75
308.191	100.75
308.421	84.75
308.651	99.75
308.881	83.75
309.111	100.75
309.341	88.75
309.571	87.75
309.8	91.75
310.03	89.75
310.26	99.75
310.49	101.75
310.72	96.75
310.949	101.75
311.179	91.75
311.409	79.75
311.639	88.75
311.868	104.75
312.098	109.75
312.328	86.75
312.557	96.75
312.787	100.75
313.017	91.75
313.246	95.75
313.476	89.75
313.706	80.75
313.935	84.75
314.165	91.75
314.394	98.75
314.624	76.75
314.853	74.75
315.083	88.75
315.312	75.75
315.542	88.75
315.771	87.75
316.001	105.75
316.23	89.75
316.46	83.75
316.689	80.75
316.919	85.75
317.148	87.75
317.377	106.75
317.607	87.75
317.836	73.75
318.065	94.75
318.295	108.75
318.524	82.75
318.753	80.75
318.983	88.75
319.212	108.75
319.441	103.75
319.67	108.75
319.9	83.75
320.129	91.75
320.358	99.75
320.587	93.75
320.816	76.75
321.046	95.75
321.275	94.75
321.504	112.75
321.733	104.75
321.962	92.75
322.191	97.75
322.42	95.75
322.649	90.75
322.878	104.75
323.108	114.75
323.337	127.75
323.566	111.75
323.795	131.75
324.024	189.75
324.253	336.75
324.482	694.75
324.71	1400.75
324.939	1818.75
325.168	679.75
325.397	206.75
325.626	140.75
325.855	122.75
326.084	117.75
326.313	119.75
326.542	148.75
326.77	192.75
326.999	404.75
327.228	821.75
327.457	1442.75
327.686	1167.75
327.914	318.75
328.143	208.75
328.372	160.75
328.6	134.75
328.829	111.75
329.058	121.75
329.287	103.75
329.515	100.75
329.744	105.75
329.972	98.75
330.201	100.75
330.43	97.75
330.658	106.75
330.887	122.75
331.115	102.75
331.344	103.75
331.572	93.75
331.801	105.75
332.03	85.75
332.258	90.75
332.486	93.75
332.715	89.75
332.943	93.75
333.172	93.75
333.4	98.75
333.629	102.75
333.857	94.75
334.085	100.75
334.314	102.75
334.542	88.75
334.771	81.75
334.999	94.75
335.227	94.75
335.455	98.75
335.684	100.75
335.912	83.75
336.14	98.75
336.369	97.75
336.597	102.75
336.825	101.75
337.053	93.75
337.281	88.75
337.51	87.75
337.738	94.75
337.966	105.75
338.194	106.75
338.422	115.75
338.65	92.75
338.878	100.75
339.106	94.75
339.334	88.75
339.562	96.75
339.79	85.75
340.018	79.75
340.246	88.75
340.474	86.75
340.702	111.75
340.93	81.75
341.158	94.75
341.386	94.75
341.614	79.75
341.842	86.75
342.07	90.75
342.298	102.75
342.526	87.75
342.754	102.75
342.981	90.75
343.209	90.75
343.437	83.75
343.665	96.75
343.893	86.75
344.12	89.75
344.348	89.75
344.576	82.75
344.804	92.75
345.031	86.75
345.259	106.75
345.487	90.75
345.714	88.75
345.942	96.75
346.17	90.75
346.397	92.75
346.625	89.75
346.853	89.75
347.08	93.75
347.308	93.75
347.535	84.75
347.763	92.75
347.99	97.75
348.218	111.75
348.445	90.75
348.673	89.75
348.9	98.75
349.128	99.75
349.355	87.75
349.583	82.75
349.81	102.75
350.037	104.75
350.265	98.75
350.492	90.75
350.72	102.75
350.947	101.75
351.174	116.75
351.402	104.75
351.629	94.75
351.856	102.75
352.083	109.75
352.311	88.75
352.538	104.75
352.765	104.75
352.992	102.75
353.22	110.75
353.447	93.75
353.674	96.75
353.901	93.75
354.128	107.75
354.355	111.75
354.583	90.75
354.81	92.75
355.037	95.75
355.264	91.75
355.491	100.75
355.718	95.75
355.945	98.75
356.172	95.75
356.399	87.75
356.626	92.75
356.853	78.75
357.08	83.75
357.307	73.75
357.534	94.75
357.761	86.75
357.988	106.75
358.215	103.75
358.441	91.75
358.668	90.75
358.895	100.75
359.122	76.75
359.349	94.75
359.576	96.75
359.802	99.75
360.029	105.75
360.256	114.75
360.483	98.75
360.709	84.75
360.936	82.75
361.163	97.75
361.39	102.75
361.616	93.75
361.843	98.75
362.07	94.75
362.296	95.75
362.523	83.75
362.749	87.75
362.976	82.75
363.203	87.75
363.429	100.75
363.656	86.75
363.882	88.75
364.109	86.75
364.335	92.75
364.562	90.75
364.788	89.75
365.015	91.75
365.241	95.75
365.468	96.75
365.694	111.75
365.92	93.75
366.147	97.75
366.373	86.75
366.599	77.75
366.826	78.75
367.052	83.75
367.278	104.75
367.505	100.75
367.731	95.75
367.957	90.75
368.184	84.75
368.41	105.75
368.636	106.75
368.862	111.75
369.089	105.75
369.315	94.75
369.541	80.75
369.767	83.75
369.993	85.75
370.219	83.75
370.445	74.75
370.672	85.75
370.898	107.75
371.124	91.75
371.35	89.75
371.576	98.75
371.802	90.75
372.028	84.75
372.254	93.75
372.48	94.75
372.706	89.75
372.932	87.75
373.158	81.75
373.384	94.75
373.61	87.75
373.835	85.75
374.061	84.75
374.287	90.75
374.513	93.75
374.739	95.75
374.965	85.75
375.191	88.75
375.416	89.75
375.642	87.75
375.868	86.75
376.094	98.75
376.319	87.75
376.545	97.75
376.771	89.75
376.997	92.75
377.222	102.75
377.448	88.75
377.674	88.75
377.899	88.75
378.125	91.75
378.35	86.75
378.576	97.75
378.802	96.75
379.027	89.75
379.253	89.75
379.478	98.75
379.704	93.75
379.929	97.75
380.155	86.75
380.38	92.75
380.606	98.75
380.831	94.75
381.057	101.75
381.282	90.75
381.507	95.75
381.733	99.75
381.958	101.75
382.184	93.75
382.409	107.75
382.634	103.75
382.86	98.75
383.085	85.75
383.31	105.75
383.535	103.75
383.761	100.75
383.986	98.75
384.211	99.75
384.436	97.75
384.662	91.75
384.887	107.75
385.112	107.75
385.337	96.75
385.562	99.75
385.787	100.75
386.013	114.75
386.238	111.75
386.463	100.75
386.688	117.75
386.913	102.75
387.138	99.75
387.363	102.75
387.588	115.75
387.813	100.75
388.038	104.75
388.263	109.75
388.488	99.75
388.713	99.75
388.938	107.75
389.163	94.75
389.387	104.75
389.612	100.75
389.837	97.75
390.062	84.75
390.287	77.75
390.512	92.75
390.736	90.75
390.961	98.75
391.186	104.75
391.411	94.75
391.636	94.75
391.86	95.75
392.085	81.75
392.31	91.75
392.534	94.75
392.759	87.75
392.984	96.75
393.208	94.75
393.433	102.75
393.658	104.75
393.882	85.75
394.107	77.75
394.331	75.75
394.556	109.75
394.78	85.75
395.005	98.75
395.229	81.75
395.454	71.75
395.678	82.75
395.903	80.75
396.127	87.75
396.352	85.75
396.576	92.75
396.801	77.75
397.025	94.75
397.249	71.75
397.474	94.75
397.698	88.75
397.922	83.75
398.147	91.75
398.371	74.75
398.595	76.75
398.82	88.75
399.044	91.75
399.268	90.75
399.492	91.75
399.717	84.75
399.941	97.75
400.165	98.75
400.389	98.75
400.613	83.75
400.837	82.75
401.062	101.75
401.286	81.75
401.51	80.75
401.734	77.75
401.958	89.75
402.182	103.75
402.406	128.75
402.63	99.75
402.854	92.75
403.078	96.75
403.302	89.75
403.526	77.75
403.75	88.75
403.974	83.75
404.198	93.75
404.422	92.75
404.645	96.75
404.869	96.75
405.093	87.75
405.317	102.75
405.541	99.75
405.765	79.75
405.988	105.75
406.212	152.75
406.436	191.75
406.66	120.75
406.883	99.75
407.107	93.75
407.331	91.75
407.555	90.75
407.778	110.75
408.002	83.75
408.226	77.75
408.449	93.75
408.673	88.75
408.896	87.75
409.12	103.75
409.344	96.75
409.567	81.75
409.791	91.75
410.014	103.75
410.238	108.75
410.461	102.75
410.685	90.75
410.908	108.75
411.132	105.75
411.355	106.75
411.578	80.75
411.802	87.75
412.025	88.75
412.249	92.75
412.472	91.75
412.695	93.75
412.919	92.75
413.142	82.75
413.365	68.75
413.589	90.75
413.812	82.75
414.035	91.75
414.258	98.75
414.482	88.75
414.705	89.75
414.928	86.75
415.151	88.75
415.374	90.75
415.597	81.75
415.821	98.75
416.044	87.75
416.267	87.75
416.49	91.75
416.713	92.75
416.936	90.75
417.159	91.75
417.382	91.75
417.605	99.75
417.828	83.75
418.051	88.75
418.274	81.75
418.497	86.75
418.72	88.75
418.943	84.75
419.166	75.75
419.389	90.75
419.611	95.75
419.834	83.75
420.057	102.75
420.28	93.75
420.503	86.75
420.726	84.75
420.948	88.75
421.171	85.75
421.394	91.75
421.617	89.75
421.839	85.75
422.062	96.75
422.285	99.75
422.507	80.75
422.73	104.75
422.953	94.75
423.175	81.75
423.398	91.75
423.621	95.75
423.843	80.75
424.066	79.75
424.288	95.75
424.511	91.75
424.733	81.75
424.956	107.75
425.178	90.75
425.401	81.75
425.623	87.75
425.846	84.75
426.068	105.75
426.291	93.75
426.513	85.75
426.735	96.75
426.958	101.75
427.18	116.75
427.402	122.75
427.625	129.75
427.847	113.75
428.069	108.75
428.292	84.75
428.514	85.75
428.736	88.75
428.958	93.75
429.181	95.75
429.403	94.75
429.625	92.75
429.847	92.75
430.069	114.75
430.292	103.75
430.514	88.75
430.736	78.75
430.958	83.75
431.18	92.75
431.402	78.75
431.624	92.75
431.846	80.75
432.068	85.75
432.29	95.75
432.512	98.75
432.734	83.75
432.956	82.75
433.178	107.75
433.4	81.75
433.622	88.75
433.844	72.75
434.066	89.75
434.287	85.75
434.509	91.75
434.731	90.75
434.953	89.75
435.175	95.75
435.397	96.75
435.618	89.75
435.84	96.75
436.062	135.75
436.284	110.75
436.505	108.75
436.727	109.75
436.949	86.75
437.17	95.75
437.392	88.75
437.614	94.75
437.835	96.75
438.057	106.75
438.278	110.75
438.5	100.75
438.721	126.75
438.943	103.75
439.165	77.75
439.386	89.75
439.608	96.75
439.829	92.75
440.05	119.75
440.272	123.75
440.493	103.75
440.715	82.75
440.936	75.75
441.158	75.75
441.379	81.75
441.6	91.75
441.822	93.75
442.043	94.75
442.264	97.75
442.486	97.75
442.707	98.75
442.928	103.75
443.149	127.75
443.371	120.75
443.592	98.75
443.813	110.75
444.034	99.75
444.255	74.75
444.476	79.75
444.698	64.75
444.919	78.75
445.14	130.75
445.361	120.75
445.582	111.75
445.803	123.75
446.024	125.75
446.245	134.75
446.466	105.75
446.687	88.75
446.908	97.75
447.129	90.75
447.35	98.75
447.571	94.75
447.792	88.75
448.013	114.75
448.234	94.75
448.455	108.75
448.675	111.75
448.896	116.75
449.117	102.75
449.338	105.75
449.559	118.75
449.779	120.75
450	114.75
450.221	95.75
450.442	103.75
450.662	87.75
450.883	89.75
451.104	88.75
451.324	90.75
451.545	92.75
451.766	74.75
451.986	94.75
452.207	75.75
452.428	86.75
452.648	84.75
452.869	82.75
453.089	106.75
453.31	106.75
453.53	94.75
453.751	78.75
453.971	96.75
454.192	106.75
454.412	87.75
454.633	103.75
454.853	83.75
455.073	88.75
455.294	86.75
455.514	110.75
455.734	86.75
455.955	74.75
456.175	87.75
456.395	82.75
456.616	88.75
456.836	82.75
457.056	86.75
457.276	87.75
457.497	88.75
457.717	81.75
457.937	79.75
458.157	84.75
458.377	82.75
458.598	109.75
458.818	134.75
459.038	135.75
459.258	95.75
459.478	88.75
459.698	88.75
459.918	77.75
460.138	87.75
460.358	80.75
460.578	90.75
460.798	87.75
461.018	82.75
461.238	84.75
461.458	84.75
461.678	82.75
461.898	86.75
462.118	88.75
462.338	82.75
462.558	80.75
462.777	93.75
462.997	93.75
463.217	90.75
463.437	84.75
463.657	89.75
463.876	95.75
464.096	82.75
464.316	94.75
464.536	92.75
464.755	88.75
464.975	102.75
465.195	130.75
465.414	126.75
465.634	103.75
465.854	75.75
466.073	82.75
466.293	87.75
466.512	86.75
466.732	96.75
466.951	91.75
467.171	113.75
467.391	91.75
467.61	98.75
467.829	85.75
468.049	97.75
468.268	77.75
468.488	78.75
468.707	84.75
468.927	96.75
469.146	85.75
469.365	71.75
469.585	95.75
469.804	92.75
470.023	89.75
470.243	95.75
470.462	99.75
470.681	98.75
470.901	87.75
471.12	83.75
471.339	88.75
471.558	93.75
471.777	95.75
471.997	93.75
472.216	101.75
472.435	100.75
472.654	79.75
472.873	105.75
473.092	91.75
473.311	83.75
473.53	74.75
473.749	92.75
473.968	91.75
474.187	95.75
474.406	94.75
474.625	88.75
474.844	100.75
475.063	84.75
475.282	89.75
475.501	84.75
475.72	88.75
475.939	91.75
476.158	89.75
476.377	96.75
476.596	82.75
476.814	89.75
477.033	94.75
477.252	103.75
477.471	91.75
477.69	90.75
477.908	69.75
478.127	79.75
478.346	87.75
478.564	90.75
478.783	94.75
479.002	86.75
479.22	82.75
479.439	96.75
479.658	99.75
479.876	91.75
480.095	90.75
480.313	89.75
480.532	75.75
480.751	81.75
480.969	86.75
481.188	87.75
481.406	86.75
481.624	89.75
481.843	94.75
482.061	89.75
482.28	79.75
482.498	81.75
482.717	82.75
482.935	82.75
483.153	78.75
483.372	81.75
483.59	93.75
483.808	95.75
484.027	91.75
484.245	83.75
484.463	78.75
484.681	80.75
484.9	94.75
485.118	87.75
485.336	88.75
485.554	99.75
485.772	103.75
485.99	98.75
486.209	111.75
486.427	94.75
486.645	96.75
486.863	108.75
487.081	95.75
487.299	95.75
487.517	91.75
487.735	96.75
487.953	95.75
488.171	98.75
488.389	96.75
488.607	96.75
488.825	93.75
489.043	98.75
489.261	99.75
489.479	80.75
489.696	86.75
489.914	88.75
490.132	107.75
490.35	95.75
490.568	83.75
490.786	84.75
491.003	81.75
491.221	89.75
491.439	104.75
491.657	87.75
491.874	102.75
492.092	79.75
492.31	97.75
492.527	85.75
492.745	95.75
492.963	96.75
493.18	86.75
493.398	100.75
493.615	97.75
493.833	85.75
494.05	86.75
494.268	90.75
494.485	98.75
494.703	91.75
494.92	92.75
495.138	87.75
495.355	73.75
495.573	94.75
495.79	94.75
496.008	112.75
496.225	93.75
496.442	85.75
496.66	89.75
496.877	79.75
497.094	89.75
497.312	95.75
497.529	96.75
497.746	91.75
497.963	88.75
498.181	92.75
498.398	95.75
498.615	105.75
498.832	98.75
499.049	89.75
499.267	101.75
499.484	101.75
499.701	106.75
499.918	96.75
500.135	98.75
500.352	84.75
500.569	101.75
500.786	96.75
501.003	83.75
501.22	88.75
501.437	96.75
501.654	90.75
501.871	100.75
502.088	96.75
502.305	83.75
502.522	84.75
502.739	93.75
502.956	95.75
503.172	84.75
503.389	98.75
503.606	90.75
503.823	99.75
504.04	98.75
504.256	84.75
504.473	86.75
504.69	96.75
504.907	83.75
505.123	90.75
505.34	94.75
505.557	82.75
505.773	84.75
505.99	88.75
506.207	90.75
506.423	82.75
506.64	100.75
506.856	86.75
507.073	97.75
507.289	80.75
507.506	95.75
507.722	103.75
507.939	105.75
508.155	88.75
508.372	87.75
508.588	99.75
508.805	87.75
509.021	92.75
509.238	81.75
509.454	89.75
509.67	85.75
509.887	97.75
510.103	126.75
510.319	178.75
510.536	607.75
510.752	1745.75
510.968	507.75
511.184	136.75
511.401	114.75
511.617	80.75
511.833	91.75
512.049	86.75
512.265	82.75
512.481	93.75
512.698	92.75
512.914	85.75
513.13	100.75
513.346	97.75
513.562	92.75
513.778	88.75
513.994	100.75
514.21	94.75
514.426	112.75
514.642	127.75
514.858	108.75
515.074	145.75
515.29	344.75
515.506	1096.75
515.721	415.75
515.937	128.75
516.153	112.75
516.369	96.75
