Data from Uncirc_1996_H10_HRD10591_00100.txt Node
Date: Wed Jan 03 11:32:22 EST 2024
User: Yrep
Spectrometer: HR+D1059
Trigger mode: 1
Integration Time (sec): 1.000000E-1
Scans to average: 1
Electric dark correction enabled: true
Nonlinearity correction enabled: false
Boxcar width: 0
XAxis mode: Wavelengths
Number of Pixels in Spectrum: 2048
>>>>>Begin Spectral Data<<<<<
223.165	-16.5
223.4	-16.5
223.635	-16.5
223.869	-32.5
224.104	-24.5
224.338	-14.5
224.573	-8.5
224.808	-9.5
225.042	-2.5
225.277	-1.5
225.511	0.5
225.746	3.5
225.98	1.5
226.215	7.5
226.449	13.5
226.683	25.5
226.918	34.5
227.152	23.5
227.387	31.5
227.621	33.5
227.856	49.5
228.09	45.5
228.324	51.5
228.559	56.5
228.793	55.5
229.027	51.5
229.262	86.5
229.496	78.5
229.73	63.5
229.964	77.5
230.199	77.5
230.433	80.5
230.667	90.5
230.901	74.5
231.136	83.5
231.37	76.5
231.604	71.5
231.838	90.5
232.072	70.5
232.306	73.5
232.541	81.5
232.775	87.5
233.009	80.5
233.243	89.5
233.477	85.5
233.711	79.5
233.945	76.5
234.179	64.5
234.413	76.5
234.647	71.5
234.881	86.5
235.115	73.5
235.349	83.5
235.583	86.5
235.817	72.5
236.051	78.5
236.285	82.5
236.519	82.5
236.753	82.5
236.987	61.5
237.221	76.5
237.455	76.5
237.689	92.5
237.922	82.5
238.156	83.5
238.39	62.5
238.624	80.5
238.858	67.5
239.091	72.5
239.325	64.5
239.559	84.5
239.793	81.5
240.027	69.5
240.26	88.5
240.494	70.5
240.728	81.5
240.961	78.5
241.195	90.5
241.429	65.5
241.662	73.5
241.896	64.5
242.13	77.5
242.363	84.5
242.597	75.5
242.83	83.5
243.064	71.5
243.298	81.5
243.531	79.5
243.765	76.5
243.998	63.5
244.232	75.5
244.465	76.5
244.699	87.5
244.932	99.5
245.166	69.5
245.399	69.5
245.633	88.5
245.866	71.5
246.099	80.5
246.333	59.5
246.566	79.5
246.8	77.5
247.033	66.5
247.266	75.5
247.5	82.5
247.733	78.5
247.966	78.5
248.2	79.5
248.433	67.5
248.666	79.5
248.899	81.5
249.133	82.5
249.366	91.5
249.599	90.5
249.832	87.5
250.066	81.5
250.299	89.5
250.532	80.5
250.765	79.5
250.998	72.5
251.231	76.5
251.465	84.5
251.698	82.5
251.931	75.5
252.164	70.5
252.397	81.5
252.63	67.5
252.863	76.5
253.096	90.5
253.329	80.5
253.562	72.5
253.795	79.5
254.028	91.5
254.261	83.5
254.494	70.5
254.727	95.5
254.96	94.5
255.193	76.5
255.426	86.5
255.659	88.5
255.892	100.5
256.124	88.5
256.357	66.5
256.59	78.5
256.823	72.5
257.056	85.5
257.289	86.5
257.521	90.5
257.754	99.5
257.987	89.5
258.22	80.5
258.452	87.5
258.685	79.5
258.918	70.5
259.151	76.5
259.383	85.5
259.616	76.5
259.849	97.5
260.081	99.5
260.314	93.5
260.547	74.5
260.779	81.5
261.012	74.5
261.244	88.5
261.477	89.5
261.71	94.5
261.942	115.5
262.175	99.5
262.407	81.5
262.64	84.5
262.872	87.5
263.105	80.5
263.337	86.5
263.57	99.5
263.802	92.5
264.035	89.5
264.267	83.5
264.499	77.5
264.732	98.5
264.964	81.5
265.197	78.5
265.429	83.5
265.661	93.5
265.894	87.5
266.126	82.5
266.358	89.5
266.591	77.5
266.823	86.5
267.055	95.5
267.287	89.5
267.52	79.5
267.752	89.5
267.984	79.5
268.216	82.5
268.448	86.5
268.681	80.5
268.913	80.5
269.145	77.5
269.377	85.5
269.609	78.5
269.841	76.5
270.073	89.5
270.306	84.5
270.538	90.5
270.77	90.5
271.002	81.5
271.234	77.5
271.466	91.5
271.698	82.5
271.93	90.5
272.162	92.5
272.394	82.5
272.626	82.5
272.858	88.5
273.09	86.5
273.322	95.5
273.553	76.5
273.785	92.5
274.017	83.5
274.249	83.5
274.481	88.5
274.713	85.5
274.945	78.5
275.176	86.5
275.408	88.5
275.64	79.5
275.872	87.5
276.104	96.5
276.335	98.5
276.567	97.5
276.799	99.5
277.031	89.5
277.262	100.5
277.494	80.5
277.726	82.5
277.957	94.5
278.189	89.5
278.421	81.5
278.652	88.5
278.884	88.5
279.115	87.5
279.347	89.5
279.579	85.5
279.81	86.5
280.042	87.5
280.273	95.5
280.505	81.5
280.736	68.5
280.968	94.5
281.199	91.5
281.431	87.5
281.662	91.5
281.894	97.5
282.125	100.5
282.356	107.5
282.588	120.5
282.819	89.5
283.051	97.5
283.282	90.5
283.513	103.5
283.745	80.5
283.976	84.5
284.207	81.5
284.439	94.5
284.67	71.5
284.901	86.5
285.132	83.5
285.364	100.5
285.595	95.5
285.826	89.5
286.057	91.5
286.288	94.5
286.52	96.5
286.751	98.5
286.982	94.5
287.213	87.5
287.444	81.5
287.675	80.5
287.906	90.5
288.138	91.5
288.369	87.5
288.6	83.5
288.831	84.5
289.062	84.5
289.293	97.5
289.524	99.5
289.755	100.5
289.986	90.5
290.217	92.5
290.448	86.5
290.679	89.5
290.91	88.5
291.141	79.5
291.371	96.5
291.602	113.5
291.833	87.5
292.064	86.5
292.295	78.5
292.526	89.5
292.757	91.5
292.987	91.5
293.218	81.5
293.449	86.5
293.68	74.5
293.91	102.5
294.141	77.5
294.372	97.5
294.603	84.5
294.833	92.5
295.064	88.5
295.295	88.5
295.525	94.5
295.756	110.5
295.987	95.5
296.217	124.5
296.448	107.5
296.679	74.5
296.909	84.5
297.14	86.5
297.37	96.5
297.601	81.5
297.831	96.5
298.062	90.5
298.292	78.5
298.523	82.5
298.753	89.5
298.984	76.5
299.214	81.5
299.445	95.5
299.675	88.5
299.905	96.5
300.136	84.5
300.366	76.5
300.597	88.5
300.827	94.5
301.057	82.5
301.288	95.5
301.518	103.5
301.748	89.5
301.979	106.5
302.209	93.5
302.439	99.5
302.669	87.5
302.9	86.5
303.13	87.5
303.36	104.5
303.59	99.5
303.82	93.5
304.051	104.5
304.281	110.5
304.511	103.5
304.741	103.5
304.971	97.5
305.201	97.5
305.431	90.5
305.661	84.5
305.891	84.5
306.121	96.5
306.352	94.5
306.582	94.5
306.812	97.5
307.042	95.5
307.272	76.5
307.502	92.5
307.731	87.5
307.961	98.5
308.191	100.5
308.421	87.5
308.651	104.5
308.881	93.5
309.111	95.5
309.341	90.5
309.571	99.5
309.8	83.5
310.03	97.5
310.26	94.5
310.49	103.5
310.72	88.5
310.949	108.5
311.179	110.5
311.409	79.5
311.639	88.5
311.868	102.5
312.098	79.5
312.328	93.5
312.557	98.5
312.787	103.5
313.017	102.5
313.246	114.5
313.476	107.5
313.706	90.5
313.935	78.5
314.165	94.5
314.394	87.5
314.624	88.5
314.853	93.5
315.083	105.5
315.312	80.5
315.542	97.5
315.771	95.5
316.001	75.5
316.23	96.5
316.46	94.5
316.689	95.5
316.919	100.5
317.148	93.5
317.377	103.5
317.607	85.5
317.836	80.5
318.065	90.5
318.295	92.5
318.524	97.5
318.753	95.5
318.983	90.5
319.212	89.5
319.441	109.5
319.67	108.5
319.9	94.5
320.129	90.5
320.358	78.5
320.587	88.5
320.816	94.5
321.046	98.5
321.275	95.5
321.504	86.5
321.733	108.5
321.962	75.5
322.191	95.5
322.42	95.5
322.649	107.5
322.878	106.5
323.108	103.5
323.337	110.5
323.566	123.5
323.795	142.5
324.024	199.5
324.253	348.5
324.482	726.5
324.71	1452.5
324.939	1872.5
325.168	656.5
325.397	220.5
325.626	138.5
325.855	131.5
326.084	118.5
326.313	107.5
326.542	152.5
326.77	216.5
326.999	390.5
327.228	810.5
327.457	1499.5
327.686	1133.5
327.914	345.5
328.143	172.5
328.372	135.5
328.6	108.5
328.829	109.5
329.058	119.5
329.287	122.5
329.515	104.5
329.744	102.5
329.972	98.5
330.201	106.5
330.43	99.5
330.658	115.5
330.887	119.5
331.115	124.5
331.344	101.5
331.572	98.5
331.801	117.5
332.03	97.5
332.258	99.5
332.486	108.5
332.715	96.5
332.943	104.5
333.172	104.5
333.4	92.5
333.629	103.5
333.857	103.5
334.085	95.5
334.314	96.5
334.542	99.5
334.771	111.5
334.999	103.5
335.227	87.5
335.455	104.5
335.684	97.5
335.912	104.5
336.14	97.5
336.369	99.5
336.597	98.5
336.825	90.5
337.053	98.5
337.281	93.5
337.51	99.5
337.738	89.5
337.966	111.5
338.194	106.5
338.422	97.5
338.65	88.5
338.878	103.5
339.106	89.5
339.334	82.5
339.562	91.5
339.79	99.5
340.018	104.5
340.246	91.5
340.474	94.5
340.702	97.5
340.93	88.5
341.158	94.5
341.386	107.5
341.614	82.5
341.842	85.5
342.07	89.5
342.298	99.5
342.526	93.5
342.754	97.5
342.981	92.5
343.209	94.5
343.437	110.5
343.665	98.5
343.893	89.5
344.12	98.5
344.348	81.5
344.576	83.5
344.804	91.5
345.031	99.5
345.259	97.5
345.487	103.5
345.714	109.5
345.942	92.5
346.17	86.5
346.397	106.5
346.625	99.5
346.853	106.5
347.08	87.5
347.308	94.5
347.535	102.5
347.763	89.5
347.99	90.5
348.218	98.5
348.445	100.5
348.673	97.5
348.9	78.5
349.128	94.5
349.355	86.5
349.583	84.5
349.81	91.5
350.037	99.5
350.265	100.5
350.492	86.5
350.72	97.5
350.947	108.5
351.174	105.5
351.402	104.5
351.629	98.5
351.856	104.5
352.083	99.5
352.311	118.5
352.538	106.5
352.765	114.5
352.992	113.5
353.22	100.5
353.447	104.5
353.674	106.5
353.901	82.5
354.128	88.5
354.355	90.5
354.583	97.5
354.81	99.5
355.037	89.5
355.264	92.5
355.491	91.5
355.718	101.5
355.945	91.5
356.172	96.5
356.399	89.5
356.626	92.5
356.853	96.5
357.08	96.5
357.307	103.5
357.534	89.5
357.761	96.5
357.988	110.5
358.215	86.5
358.441	90.5
358.668	87.5
358.895	104.5
359.122	99.5
359.349	87.5
359.576	100.5
359.802	104.5
360.029	97.5
360.256	106.5
360.483	91.5
360.709	82.5
360.936	87.5
361.163	86.5
361.39	73.5
361.616	106.5
361.843	94.5
362.07	104.5
362.296	95.5
362.523	98.5
362.749	96.5
362.976	94.5
363.203	90.5
363.429	96.5
363.656	100.5
363.882	92.5
364.109	92.5
364.335	100.5
364.562	98.5
364.788	84.5
365.015	90.5
365.241	82.5
365.468	95.5
365.694	95.5
365.92	91.5
366.147	86.5
366.373	80.5
366.599	86.5
366.826	95.5
367.052	72.5
367.278	79.5
367.505	87.5
367.731	84.5
367.957	80.5
368.184	95.5
368.41	102.5
368.636	115.5
368.862	106.5
369.089	96.5
369.315	86.5
369.541	87.5
369.767	110.5
369.993	90.5
370.219	69.5
370.445	86.5
370.672	90.5
370.898	87.5
371.124	81.5
371.35	82.5
371.576	90.5
371.802	104.5
372.028	81.5
372.254	102.5
372.48	88.5
372.706	91.5
372.932	89.5
373.158	82.5
373.384	80.5
373.61	95.5
373.835	94.5
374.061	78.5
374.287	86.5
374.513	82.5
374.739	77.5
374.965	85.5
375.191	91.5
375.416	86.5
375.642	107.5
375.868	86.5
376.094	90.5
376.319	86.5
376.545	92.5
376.771	98.5
376.997	92.5
377.222	104.5
377.448	94.5
377.674	88.5
377.899	98.5
378.125	85.5
378.35	87.5
378.576	89.5
378.802	87.5
379.027	106.5
379.253	104.5
379.478	88.5
379.704	97.5
379.929	89.5
380.155	95.5
380.38	90.5
380.606	88.5
380.831	94.5
381.057	84.5
381.282	88.5
381.507	94.5
381.733	88.5
381.958	91.5
382.184	91.5
382.409	82.5
382.634	120.5
382.86	96.5
383.085	99.5
383.31	96.5
383.535	99.5
383.761	107.5
383.986	104.5
384.211	99.5
384.436	104.5
384.662	104.5
384.887	94.5
385.112	98.5
385.337	99.5
385.562	95.5
385.787	98.5
386.013	110.5
386.238	122.5
386.463	109.5
386.688	118.5
386.913	102.5
387.138	113.5
387.363	107.5
387.588	104.5
387.813	82.5
388.038	98.5
388.263	106.5
388.488	104.5
388.713	99.5
388.938	94.5
389.163	100.5
389.387	104.5
389.612	92.5
389.837	90.5
390.062	100.5
390.287	100.5
390.512	92.5
390.736	92.5
390.961	85.5
391.186	95.5
391.411	94.5
391.636	91.5
391.86	85.5
392.085	90.5
392.31	94.5
392.534	74.5
392.759	75.5
392.984	86.5
393.208	103.5
393.433	103.5
393.658	94.5
393.882	85.5
394.107	90.5
394.331	84.5
394.556	84.5
394.78	95.5
395.005	99.5
395.229	92.5
395.454	79.5
395.678	95.5
395.903	90.5
396.127	84.5
396.352	90.5
396.576	80.5
396.801	85.5
397.025	87.5
397.249	81.5
397.474	99.5
397.698	91.5
397.922	75.5
398.147	79.5
398.371	88.5
398.595	99.5
398.82	75.5
399.044	90.5
399.268	80.5
399.492	79.5
399.717	77.5
399.941	97.5
400.165	94.5
400.389	90.5
400.613	80.5
400.837	94.5
401.062	90.5
401.286	91.5
401.51	90.5
401.734	92.5
401.958	107.5
402.182	120.5
402.406	154.5
402.63	100.5
402.854	82.5
403.078	87.5
403.302	100.5
403.526	98.5
403.75	91.5
403.974	94.5
404.198	95.5
404.422	74.5
404.645	68.5
404.869	90.5
405.093	89.5
405.317	85.5
405.541	99.5
405.765	92.5
405.988	116.5
406.212	159.5
406.436	199.5
406.66	136.5
406.883	81.5
407.107	90.5
407.331	88.5
407.555	101.5
407.778	93.5
408.002	79.5
408.226	90.5
408.449	75.5
408.673	89.5
408.896	92.5
409.12	92.5
409.344	96.5
409.567	97.5
409.791	87.5
410.014	93.5
410.238	103.5
410.461	113.5
410.685	97.5
410.908	99.5
411.132	89.5
411.355	93.5
411.578	79.5
411.802	89.5
412.025	95.5
412.249	104.5
412.472	93.5
412.695	89.5
412.919	88.5
413.142	96.5
413.365	87.5
413.589	92.5
413.812	97.5
414.035	90.5
414.258	86.5
414.482	97.5
414.705	94.5
414.928	95.5
415.151	95.5
415.374	84.5
415.597	79.5
415.821	75.5
416.044	88.5
416.267	91.5
416.49	89.5
416.713	88.5
416.936	91.5
417.159	90.5
417.382	82.5
417.605	72.5
417.828	99.5
418.051	84.5
418.274	95.5
418.497	90.5
418.72	84.5
418.943	96.5
419.166	90.5
419.389	80.5
419.611	78.5
419.834	87.5
420.057	91.5
420.28	82.5
420.503	91.5
420.726	83.5
420.948	98.5
421.171	97.5
421.394	102.5
421.617	99.5
421.839	84.5
422.062	95.5
422.285	99.5
422.507	94.5
422.73	99.5
422.953	96.5
423.175	92.5
423.398	87.5
423.621	81.5
423.843	96.5
424.066	96.5
424.288	96.5
424.511	99.5
424.733	94.5
424.956	105.5
425.178	92.5
425.401	99.5
425.623	96.5
425.846	86.5
426.068	92.5
426.291	86.5
426.513	97.5
426.735	95.5
426.958	89.5
427.18	112.5
427.402	137.5
427.625	150.5
427.847	116.5
428.069	96.5
428.292	90.5
428.514	101.5
428.736	95.5
428.958	94.5
429.181	79.5
429.403	104.5
429.625	89.5
429.847	83.5
430.069	102.5
430.292	90.5
430.514	94.5
430.736	92.5
430.958	84.5
431.18	90.5
431.402	82.5
431.624	89.5
431.846	84.5
432.068	68.5
432.29	95.5
432.512	91.5
432.734	82.5
432.956	107.5
433.178	102.5
433.4	99.5
433.622	83.5
433.844	82.5
434.066	98.5
434.287	94.5
434.509	80.5
434.731	98.5
434.953	83.5
435.175	102.5
435.397	82.5
435.618	92.5
435.84	107.5
436.062	109.5
436.284	108.5
436.505	93.5
436.727	99.5
436.949	98.5
437.17	94.5
437.392	71.5
437.614	87.5
437.835	100.5
438.057	116.5
438.278	95.5
438.5	112.5
438.721	121.5
438.943	97.5
439.165	86.5
439.386	85.5
439.608	79.5
439.829	80.5
440.05	111.5
440.272	134.5
440.493	92.5
440.715	91.5
440.936	82.5
441.158	91.5
441.379	79.5
441.6	88.5
441.822	89.5
442.043	102.5
442.264	104.5
442.486	102.5
442.707	87.5
442.928	109.5
443.149	124.5
443.371	111.5
443.592	111.5
443.813	96.5
444.034	90.5
444.255	91.5
444.476	76.5
444.698	89.5
444.919	91.5
445.14	137.5
445.361	114.5
445.582	114.5
445.803	143.5
446.024	142.5
446.245	135.5
446.466	104.5
446.687	100.5
446.908	93.5
447.129	99.5
447.35	85.5
447.571	84.5
447.792	105.5
448.013	94.5
448.234	97.5
448.455	100.5
448.675	122.5
448.896	102.5
449.117	86.5
449.338	114.5
449.559	140.5
449.779	136.5
450	93.5
450.221	93.5
450.442	92.5
450.662	88.5
450.883	89.5
451.104	108.5
451.324	89.5
451.545	94.5
451.766	91.5
451.986	95.5
452.207	90.5
452.428	103.5
452.648	105.5
452.869	114.5
453.089	116.5
453.31	118.5
453.53	87.5
453.751	94.5
453.971	100.5
454.192	94.5
454.412	91.5
454.633	94.5
454.853	97.5
455.073	85.5
455.294	89.5
455.514	102.5
455.734	103.5
455.955	94.5
456.175	94.5
456.395	98.5
456.616	89.5
456.836	90.5
457.056	92.5
457.276	86.5
457.497	84.5
457.717	70.5
457.937	83.5
458.157	84.5
458.377	79.5
458.598	112.5
458.818	135.5
459.038	158.5
459.258	115.5
459.478	94.5
459.698	92.5
459.918	85.5
460.138	84.5
460.358	88.5
460.578	93.5
460.798	80.5
461.018	94.5
461.238	83.5
461.458	85.5
461.678	70.5
461.898	97.5
462.118	88.5
462.338	87.5
462.558	98.5
462.777	85.5
462.997	89.5
463.217	97.5
463.437	102.5
463.657	89.5
463.876	100.5
464.096	105.5
464.316	79.5
464.536	99.5
464.755	91.5
464.975	102.5
465.195	154.5
465.414	140.5
465.634	94.5
465.854	92.5
466.073	99.5
466.293	88.5
466.512	84.5
466.732	84.5
466.951	91.5
467.171	90.5
467.391	100.5
467.61	101.5
467.829	91.5
468.049	87.5
468.268	82.5
468.488	92.5
468.707	91.5
468.927	97.5
469.146	87.5
469.365	83.5
469.585	92.5
469.804	105.5
470.023	90.5
470.243	82.5
470.462	97.5
470.681	107.5
470.901	85.5
471.12	90.5
471.339	97.5
471.558	82.5
471.777	78.5
471.997	90.5
472.216	86.5
472.435	96.5
472.654	92.5
472.873	90.5
473.092	83.5
473.311	90.5
473.53	91.5
473.749	88.5
473.968	103.5
474.187	119.5
474.406	91.5
474.625	93.5
474.844	76.5
475.063	76.5
475.282	111.5
475.501	86.5
475.72	95.5
475.939	68.5
476.158	80.5
476.377	79.5
476.596	108.5
476.814	103.5
477.033	94.5
477.252	99.5
477.471	90.5
477.69	87.5
477.908	87.5
478.127	91.5
478.346	96.5
478.564	96.5
478.783	83.5
479.002	88.5
479.22	86.5
479.439	85.5
479.658	101.5
479.876	91.5
480.095	104.5
480.313	96.5
480.532	84.5
480.751	98.5
480.969	90.5
481.188	84.5
481.406	82.5
481.624	84.5
481.843	91.5
482.061	97.5
482.28	82.5
482.498	88.5
482.717	78.5
482.935	95.5
483.153	87.5
483.372	91.5
483.59	88.5
483.808	79.5
484.027	86.5
484.245	92.5
484.463	88.5
484.681	107.5
484.9	91.5
485.118	92.5
485.336	86.5
485.554	112.5
485.772	105.5
485.99	98.5
486.209	99.5
486.427	100.5
486.645	107.5
486.863	101.5
487.081	91.5
487.299	90.5
487.517	86.5
487.735	99.5
487.953	91.5
488.171	85.5
488.389	91.5
488.607	97.5
488.825	98.5
489.043	76.5
489.261	104.5
489.479	85.5
489.696	90.5
489.914	90.5
490.132	89.5
490.35	99.5
490.568	105.5
490.786	94.5
491.003	77.5
491.221	81.5
491.439	89.5
491.657	103.5
491.874	93.5
492.092	83.5
492.31	97.5
492.527	92.5
492.745	87.5
492.963	85.5
493.18	74.5
493.398	84.5
493.615	104.5
493.833	94.5
494.05	100.5
494.268	97.5
494.485	99.5
494.703	91.5
494.92	86.5
495.138	80.5
495.355	91.5
495.573	88.5
495.79	102.5
496.008	83.5
496.225	99.5
496.442	91.5
496.66	99.5
496.877	87.5
497.094	81.5
497.312	86.5
497.529	77.5
497.746	70.5
497.963	90.5
498.181	95.5
498.398	104.5
498.615	108.5
498.832	99.5
499.049	89.5
499.267	106.5
499.484	103.5
499.701	89.5
499.918	92.5
500.135	85.5
500.352	92.5
500.569	87.5
500.786	103.5
501.003	82.5
501.22	94.5
501.437	92.5
501.654	97.5
501.871	108.5
502.088	84.5
502.305	89.5
502.522	102.5
502.739	92.5
502.956	97.5
503.172	89.5
503.389	83.5
503.606	94.5
503.823	84.5
504.04	103.5
504.256	94.5
504.473	85.5
504.69	80.5
504.907	89.5
505.123	82.5
505.34	88.5
505.557	84.5
505.773	96.5
505.99	62.5
506.207	86.5
506.423	89.5
506.64	97.5
506.856	101.5
507.073	99.5
507.289	93.5
507.506	104.5
507.722	106.5
507.939	99.5
508.155	82.5
508.372	85.5
508.588	100.5
508.805	88.5
509.021	84.5
509.238	101.5
509.454	90.5
509.67	100.5
509.887	98.5
510.103	131.5
510.319	196.5
510.536	702.5
510.752	2081.5
510.968	598.5
511.184	150.5
511.401	111.5
511.617	95.5
511.833	92.5
512.049	88.5
512.265	90.5
512.481	106.5
512.698	86.5
512.914	100.5
513.13	88.5
513.346	105.5
513.562	98.5
513.778	88.5
513.994	95.5
514.21	94.5
514.426	109.5
514.642	125.5
514.858	121.5
515.074	145.5
515.29	415.5
515.506	1278.5
515.721	475.5
515.937	134.5
516.153	114.5
516.369	104.5
516.585	122.5
516.801	92.5
517.016	91.5
517.232	98.5
517.448	96.5
517.664	88.5
517.879	94.5
518.095	98.5
518.311	97.5
518.527	88.5
518.742	100.5
518.958	92.5
519.173	94.5
519.389	87.5
519.605	117.5
519.82	87.5
520.036	96.5
520.251	106.5
520.467	112.5
520.682	95.5
520.898	104.5
521.113	119.5
521.329	130.5
521.544	173.5
521.76	513.5
521.975	2150.5
522.19	1258.5
522.406	279.5
522.621	95.5
522.836	110.5
523.052	105.5
523.267	94.5
523.482	86.5
523.698	100.5
523.913	110.5
524.128	106.5
524.343	95.5
524.559	90.5
524.774	84.5
524.989	92.5
525.204	97.5
525.419	96.5
525.634	92.5
525.849	95.5
526.064	93.5
526.28	93.5
526.495	78.5
526.71	68.5
526.925	82.5
527.14	92.5
527.355	84.5
527.57	90.5
527.785	86.5
527.999	94.5
528.214	83.5
528.429	79.5
528.644	98.5
528.859	91.5
529.074	84.5
529.289	120.5
529.503	175.5
529.718	100.5
529.933	104.5
530.148	83.5
530.363	76.5
530.577	89.5
530.792	80.5
531.007	85.5
531.221	107.5
531.436	104.5
531.651	85.5
531.865	75.5
532.08	100.5
532.295	90.5
532.509	97.5
532.724	91.5
532.938	92.5
533.153	99.5
533.367	90.5
533.582	101.5
533.796	83.5
534.011	95.5
534.225	84.5
534.44	83.5
534.654	94.5
534.868	88.5
535.083	88.5
535.297	97.5
535.511	93.5
535.726	100.5
