Data from Uncirc_1996_H10_HRD10591_00064.txt Node
Date: Wed Jan 03 11:32:15 EST 2024
User: Yrep
Spectrometer: HR+D1059
Trigger mode: 1
Integration Time (sec): 1.000000E-1
Scans to average: 1
Electric dark correction enabled: true
Nonlinearity correction enabled: false
Boxcar width: 0
XAxis mode: Wavelengths
Number of Pixels in Spectrum: 2048
>>>>>Begin Spectral Data<<<<<
223.165	-30.88
223.4	-30.88
223.635	-30.88
223.869	-12.88
224.104	-17.88
224.338	-21.88
224.573	-14.88
224.808	-0.88
225.042	-7.88
225.277	14.12
225.511	-6.88
225.746	-0.88
225.98	8.12
226.215	3.12
226.449	5.12
226.683	22.12
226.918	23.12
227.152	39.12
227.387	42.12
227.621	53.12
227.856	51.12
228.09	51.12
228.324	47.12
228.559	49.12
228.793	59.12
229.027	74.12
229.262	66.12
229.496	81.12
229.73	79.12
229.964	81.12
230.199	68.12
230.433	72.12
230.667	87.12
230.901	84.12
231.136	71.12
231.37	67.12
231.604	76.12
231.838	95.12
232.072	79.12
232.306	69.12
232.541	79.12
232.775	78.12
233.009	87.12
233.243	61.12
233.477	78.12
233.711	83.12
233.945	88.12
234.179	64.12
234.413	81.12
234.647	83.12
234.881	68.12
235.115	83.12
235.349	87.12
235.583	80.12
235.817	81.12
236.051	77.12
236.285	88.12
236.519	79.12
236.753	80.12
236.987	92.12
237.221	75.12
237.455	98.12
237.689	93.12
237.922	78.12
238.156	61.12
238.39	82.12
238.624	85.12
238.858	82.12
239.091	79.12
239.325	77.12
239.559	91.12
239.793	84.12
240.027	80.12
240.26	63.12
240.494	77.12
240.728	68.12
240.961	89.12
241.195	74.12
241.429	84.12
241.662	81.12
241.896	82.12
242.13	75.12
242.363	79.12
242.597	69.12
242.83	86.12
243.064	80.12
243.298	80.12
243.531	80.12
243.765	84.12
243.998	75.12
244.232	77.12
244.465	95.12
244.699	71.12
244.932	81.12
245.166	79.12
245.399	86.12
245.633	81.12
245.866	84.12
246.099	75.12
246.333	76.12
246.566	80.12
246.8	73.12
247.033	84.12
247.266	101.12
247.5	73.12
247.733	85.12
247.966	91.12
248.2	88.12
248.433	77.12
248.666	83.12
248.899	74.12
249.133	79.12
249.366	97.12
249.599	108.12
249.832	87.12
250.066	96.12
250.299	86.12
250.532	79.12
250.765	87.12
250.998	84.12
251.231	77.12
251.465	81.12
251.698	83.12
251.931	77.12
252.164	77.12
252.397	73.12
252.63	59.12
252.863	73.12
253.096	88.12
253.329	83.12
253.562	72.12
253.795	83.12
254.028	70.12
254.261	81.12
254.494	92.12
254.727	73.12
254.96	83.12
255.193	80.12
255.426	80.12
255.659	84.12
255.892	85.12
256.124	84.12
256.357	90.12
256.59	83.12
256.823	80.12
257.056	76.12
257.289	83.12
257.521	87.12
257.754	81.12
257.987	68.12
258.22	80.12
258.452	83.12
258.685	71.12
258.918	84.12
259.151	92.12
259.383	73.12
259.616	90.12
259.849	87.12
260.081	84.12
260.314	76.12
260.547	89.12
260.779	91.12
261.012	85.12
261.244	79.12
261.477	93.12
261.71	101.12
261.942	100.12
262.175	116.12
262.407	87.12
262.64	87.12
262.872	90.12
263.105	89.12
263.337	88.12
263.57	76.12
263.802	77.12
264.035	84.12
264.267	92.12
264.499	78.12
264.732	89.12
264.964	87.12
265.197	77.12
265.429	87.12
265.661	94.12
265.894	92.12
266.126	81.12
266.358	90.12
266.591	84.12
266.823	86.12
267.055	84.12
267.287	96.12
267.52	87.12
267.752	69.12
267.984	88.12
268.216	90.12
268.448	87.12
268.681	78.12
268.913	84.12
269.145	98.12
269.377	92.12
269.609	88.12
269.841	95.12
270.073	84.12
270.306	88.12
270.538	94.12
270.77	73.12
271.002	82.12
271.234	93.12
271.466	77.12
271.698	86.12
271.93	89.12
272.162	90.12
272.394	105.12
272.626	87.12
272.858	99.12
273.09	78.12
273.322	90.12
273.553	105.12
273.785	101.12
274.017	98.12
274.249	81.12
274.481	77.12
274.713	77.12
274.945	98.12
275.176	90.12
275.408	86.12
275.64	90.12
275.872	89.12
276.104	89.12
276.335	92.12
276.567	82.12
276.799	87.12
277.031	93.12
277.262	93.12
277.494	99.12
277.726	85.12
277.957	95.12
278.189	86.12
278.421	93.12
278.652	79.12
278.884	82.12
279.115	93.12
279.347	94.12
279.579	91.12
279.81	99.12
280.042	86.12
280.273	83.12
280.505	79.12
280.736	80.12
280.968	84.12
281.199	84.12
281.431	82.12
281.662	91.12
281.894	94.12
282.125	101.12
282.356	106.12
282.588	133.12
282.819	108.12
283.051	82.12
283.282	92.12
283.513	105.12
283.745	96.12
283.976	74.12
284.207	87.12
284.439	87.12
284.67	101.12
284.901	81.12
285.132	85.12
285.364	82.12
285.595	84.12
285.826	80.12
286.057	86.12
286.288	81.12
286.52	89.12
286.751	93.12
286.982	86.12
287.213	82.12
287.444	98.12
287.675	82.12
287.906	100.12
288.138	89.12
288.369	91.12
288.6	81.12
288.831	92.12
289.062	99.12
289.293	84.12
289.524	91.12
289.755	91.12
289.986	74.12
290.217	84.12
290.448	97.12
290.679	91.12
290.91	83.12
291.141	91.12
291.371	87.12
291.602	83.12
291.833	89.12
292.064	69.12
292.295	88.12
292.526	93.12
292.757	92.12
292.987	95.12
293.218	92.12
293.449	91.12
293.68	85.12
293.91	96.12
294.141	98.12
294.372	105.12
294.603	100.12
294.833	80.12
295.064	71.12
295.295	70.12
295.525	98.12
295.756	95.12
295.987	113.12
296.217	130.12
296.448	109.12
296.679	101.12
296.909	89.12
297.14	83.12
297.37	77.12
297.601	90.12
297.831	92.12
298.062	87.12
298.292	99.12
298.523	83.12
298.753	96.12
298.984	83.12
299.214	75.12
299.445	90.12
299.675	104.12
299.905	90.12
300.136	84.12
300.366	73.12
300.597	89.12
300.827	85.12
301.057	100.12
301.288	97.12
301.518	94.12
301.748	98.12
301.979	84.12
302.209	96.12
302.439	102.12
302.669	98.12
302.9	81.12
303.13	89.12
303.36	84.12
303.59	81.12
303.82	91.12
304.051	89.12
304.281	91.12
304.511	103.12
304.741	87.12
304.971	77.12
305.201	100.12
305.431	94.12
305.661	79.12
305.891	108.12
306.121	100.12
306.352	115.12
306.582	107.12
306.812	93.12
307.042	90.12
307.272	100.12
307.502	87.12
307.731	92.12
307.961	96.12
308.191	83.12
308.421	81.12
308.651	88.12
308.881	80.12
309.111	92.12
309.341	104.12
309.571	86.12
309.8	91.12
310.03	88.12
310.26	84.12
310.49	99.12
310.72	94.12
310.949	104.12
311.179	99.12
311.409	100.12
311.639	101.12
311.868	108.12
312.098	89.12
312.328	90.12
312.557	88.12
312.787	87.12
313.017	95.12
313.246	85.12
313.476	84.12
313.706	83.12
313.935	89.12
314.165	100.12
314.394	98.12
314.624	95.12
314.853	100.12
315.083	85.12
315.312	84.12
315.542	99.12
315.771	100.12
316.001	97.12
316.23	77.12
316.46	99.12
316.689	96.12
316.919	85.12
317.148	91.12
317.377	101.12
317.607	93.12
317.836	89.12
318.065	99.12
318.295	106.12
318.524	99.12
318.753	108.12
318.983	99.12
319.212	107.12
319.441	84.12
319.67	96.12
319.9	89.12
320.129	103.12
320.358	96.12
320.587	115.12
320.816	107.12
321.046	95.12
321.275	93.12
321.504	101.12
321.733	83.12
321.962	91.12
322.191	102.12
322.42	99.12
322.649	107.12
322.878	118.12
323.108	123.12
323.337	114.12
323.566	123.12
323.795	144.12
324.024	207.12
324.253	357.12
324.482	764.12
324.71	1567.12
324.939	2017.12
325.168	756.12
325.397	247.12
325.626	143.12
325.855	130.12
326.084	124.12
326.313	117.12
326.542	142.12
326.77	214.12
326.999	415.12
327.228	869.12
327.457	1627.12
327.686	1229.12
327.914	346.12
328.143	188.12
328.372	152.12
328.6	112.12
328.829	128.12
329.058	110.12
329.287	129.12
329.515	109.12
329.744	101.12
329.972	105.12
330.201	106.12
330.43	108.12
330.658	122.12
330.887	132.12
331.115	131.12
331.344	93.12
331.572	95.12
331.801	88.12
332.03	97.12
332.258	106.12
332.486	99.12
332.715	102.12
332.943	88.12
333.172	93.12
333.4	94.12
333.629	96.12
333.857	119.12
334.085	116.12
334.314	103.12
334.542	100.12
334.771	105.12
334.999	98.12
335.227	107.12
335.455	104.12
335.684	94.12
335.912	94.12
336.14	93.12
336.369	109.12
336.597	109.12
336.825	90.12
337.053	99.12
337.281	110.12
337.51	99.12
337.738	105.12
337.966	96.12
338.194	106.12
338.422	99.12
338.65	107.12
338.878	97.12
339.106	85.12
339.334	95.12
339.562	83.12
339.79	83.12
340.018	96.12
340.246	97.12
340.474	96.12
340.702	94.12
340.93	90.12
341.158	80.12
341.386	99.12
341.614	110.12
341.842	102.12
342.07	96.12
342.298	113.12
342.526	74.12
342.754	93.12
342.981	98.12
343.209	76.12
343.437	109.12
343.665	93.12
343.893	93.12
344.12	106.12
344.348	94.12
344.576	87.12
344.804	90.12
345.031	100.12
345.259	109.12
345.487	92.12
345.714	89.12
345.942	95.12
346.17	98.12
346.397	106.12
346.625	83.12
346.853	81.12
347.08	90.12
347.308	72.12
347.535	83.12
347.763	103.12
347.99	104.12
348.218	99.12
348.445	107.12
348.673	101.12
348.9	87.12
349.128	95.12
349.355	86.12
349.583	83.12
349.81	94.12
350.037	87.12
350.265	91.12
350.492	84.12
350.72	89.12
350.947	100.12
351.174	100.12
351.402	115.12
351.629	90.12
351.856	106.12
352.083	99.12
352.311	111.12
352.538	113.12
352.765	119.12
352.992	108.12
353.22	130.12
353.447	94.12
353.674	107.12
353.901	114.12
354.128	86.12
354.355	106.12
354.583	99.12
354.81	90.12
355.037	91.12
355.264	88.12
355.491	94.12
355.718	94.12
355.945	103.12
356.172	106.12
356.399	108.12
356.626	98.12
356.853	103.12
357.08	92.12
357.307	95.12
357.534	86.12
357.761	108.12
357.988	94.12
358.215	112.12
358.441	93.12
358.668	93.12
358.895	98.12
359.122	89.12
359.349	89.12
359.576	91.12
359.802	84.12
360.029	103.12
360.256	115.12
360.483	96.12
360.709	80.12
360.936	92.12
361.163	91.12
361.39	81.12
361.616	88.12
361.843	96.12
362.07	99.12
362.296	105.12
362.523	94.12
362.749	90.12
362.976	84.12
363.203	97.12
363.429	83.12
363.656	109.12
363.882	99.12
364.109	91.12
364.335	92.12
364.562	111.12
364.788	93.12
365.015	80.12
365.241	102.12
365.468	107.12
365.694	113.12
365.92	95.12
366.147	92.12
366.373	87.12
366.599	101.12
366.826	89.12
367.052	92.12
367.278	101.12
367.505	103.12
367.731	87.12
367.957	102.12
368.184	105.12
368.41	92.12
368.636	98.12
368.862	112.12
369.089	106.12
369.315	79.12
369.541	92.12
369.767	100.12
369.993	97.12
370.219	71.12
370.445	89.12
370.672	88.12
370.898	92.12
371.124	102.12
371.35	100.12
371.576	100.12
371.802	78.12
372.028	90.12
372.254	87.12
372.48	84.12
372.706	80.12
372.932	82.12
373.158	100.12
373.384	93.12
373.61	94.12
373.835	88.12
374.061	92.12
374.287	92.12
374.513	79.12
374.739	81.12
374.965	80.12
375.191	83.12
375.416	83.12
375.642	92.12
375.868	94.12
376.094	101.12
376.319	98.12
376.545	91.12
376.771	90.12
376.997	86.12
377.222	93.12
377.448	95.12
377.674	103.12
377.899	100.12
378.125	88.12
378.35	82.12
378.576	94.12
378.802	80.12
379.027	88.12
379.253	84.12
379.478	92.12
379.704	107.12
379.929	86.12
380.155	92.12
380.38	91.12
380.606	89.12
380.831	89.12
381.057	99.12
381.282	102.12
381.507	105.12
381.733	102.12
381.958	102.12
382.184	95.12
382.409	102.12
382.634	98.12
382.86	96.12
383.085	98.12
383.31	100.12
383.535	96.12
383.761	92.12
383.986	88.12
384.211	113.12
384.436	96.12
384.662	82.12
384.887	94.12
385.112	100.12
385.337	103.12
385.562	107.12
385.787	96.12
386.013	97.12
386.238	112.12
386.463	78.12
386.688	98.12
386.913	97.12
387.138	94.12
387.363	112.12
387.588	103.12
387.813	95.12
388.038	106.12
388.263	97.12
388.488	98.12
388.713	93.12
388.938	92.12
389.163	88.12
389.387	86.12
389.612	93.12
389.837	101.12
390.062	96.12
390.287	82.12
390.512	91.12
390.736	72.12
390.961	80.12
391.186	97.12
391.411	92.12
391.636	97.12
391.86	85.12
392.085	81.12
392.31	77.12
392.534	94.12
392.759	81.12
392.984	83.12
393.208	95.12
393.433	91.12
393.658	89.12
393.882	84.12
394.107	97.12
394.331	76.12
394.556	98.12
394.78	97.12
395.005	86.12
395.229	80.12
395.454	89.12
395.678	80.12
395.903	98.12
396.127	88.12
396.352	81.12
396.576	91.12
396.801	79.12
397.025	76.12
397.249	87.12
397.474	82.12
397.698	97.12
397.922	94.12
398.147	91.12
398.371	81.12
398.595	81.12
398.82	88.12
399.044	84.12
399.268	96.12
399.492	101.12
399.717	99.12
399.941	87.12
400.165	91.12
400.389	92.12
400.613	88.12
400.837	78.12
401.062	94.12
401.286	98.12
401.51	85.12
401.734	92.12
401.958	113.12
402.182	106.12
402.406	144.12
402.63	112.12
402.854	90.12
403.078	96.12
403.302	93.12
403.526	95.12
403.75	87.12
403.974	88.12
404.198	94.12
404.422	89.12
404.645	99.12
404.869	75.12
405.093	113.12
405.317	87.12
405.541	100.12
405.765	93.12
405.988	108.12
406.212	131.12
406.436	202.12
406.66	124.12
406.883	98.12
407.107	100.12
407.331	84.12
407.555	89.12
407.778	104.12
408.002	89.12
408.226	98.12
408.449	94.12
408.673	93.12
408.896	93.12
409.12	98.12
409.344	95.12
409.567	80.12
409.791	82.12
410.014	87.12
410.238	93.12
410.461	84.12
410.685	83.12
410.908	98.12
411.132	98.12
411.355	100.12
411.578	93.12
411.802	99.12
412.025	89.12
412.249	91.12
412.472	80.12
412.695	87.12
412.919	98.12
413.142	109.12
413.365	89.12
413.589	87.12
413.812	87.12
414.035	99.12
414.258	89.12
414.482	75.12
414.705	81.12
414.928	90.12
415.151	96.12
415.374	97.12
415.597	96.12
415.821	89.12
416.044	91.12
416.267	98.12
416.49	92.12
416.713	93.12
416.936	101.12
417.159	99.12
417.382	91.12
417.605	82.12
417.828	81.12
418.051	89.12
418.274	83.12
418.497	89.12
418.72	89.12
418.943	101.12
419.166	102.12
419.389	82.12
419.611	89.12
419.834	96.12
420.057	94.12
420.28	93.12
420.503	86.12
420.726	97.12
420.948	68.12
421.171	89.12
421.394	89.12
421.617	101.12
421.839	84.12
422.062	93.12
422.285	90.12
422.507	88.12
422.73	87.12
422.953	93.12
423.175	100.12
423.398	86.12
423.621	83.12
423.843	97.12
424.066	71.12
424.288	103.12
424.511	86.12
424.733	103.12
424.956	100.12
425.178	101.12
425.401	91.12
425.623	100.12
425.846	106.12
426.068	86.12
426.291	83.12
426.513	95.12
426.735	108.12
426.958	87.12
427.18	106.12
427.402	140.12
427.625	161.12
427.847	108.12
428.069	99.12
428.292	84.12
428.514	101.12
428.736	88.12
428.958	77.12
429.181	80.12
429.403	90.12
429.625	79.12
429.847	99.12
430.069	98.12
430.292	100.12
430.514	79.12
430.736	78.12
430.958	83.12
431.18	93.12
431.402	94.12
431.624	84.12
431.846	84.12
432.068	88.12
432.29	98.12
432.512	85.12
432.734	87.12
432.956	83.12
433.178	108.12
433.4	99.12
433.622	91.12
433.844	90.12
434.066	82.12
434.287	99.12
434.509	90.12
434.731	99.12
434.953	97.12
435.175	84.12
435.397	91.12
435.618	98.12
435.84	97.12
436.062	106.12
436.284	123.12
436.505	116.12
436.727	107.12
436.949	91.12
437.17	101.12
437.392	83.12
437.614	99.12
437.835	100.12
438.057	129.12
438.278	103.12
438.5	110.12
438.721	130.12
438.943	104.12
439.165	77.12
439.386	96.12
439.608	86.12
439.829	100.12
440.05	126.12
440.272	122.12
440.493	80.12
440.715	87.12
440.936	91.12
441.158	97.12
441.379	89.12
441.6	107.12
441.822	100.12
442.043	92.12
442.264	119.12
442.486	103.12
442.707	82.12
442.928	103.12
443.149	123.12
443.371	126.12
443.592	114.12
443.813	90.12
444.034	113.12
444.255	96.12
444.476	81.12
444.698	101.12
444.919	76.12
445.14	145.12
445.361	133.12
445.582	111.12
445.803	140.12
446.024	134.12
446.245	144.12
446.466	106.12
446.687	103.12
446.908	94.12
447.129	95.12
447.35	92.12
447.571	85.12
447.792	87.12
448.013	100.12
448.234	107.12
448.455	104.12
448.675	119.12
448.896	120.12
449.117	99.12
449.338	114.12
449.559	138.12
449.779	135.12
450	98.12
450.221	89.12
450.442	90.12
450.662	116.12
450.883	99.12
451.104	96.12
451.324	87.12
451.545	95.12
451.766	92.12
451.986	84.12
452.207	95.12
452.428	85.12
452.648	101.12
452.869	99.12
453.089	97.12
453.31	103.12
453.53	89.12
453.751	96.12
453.971	99.12
454.192	105.12
454.412	91.12
454.633	70.12
454.853	96.12
455.073	92.12
455.294	76.12
455.514	83.12
455.734	105.12
455.955	93.12
456.175	95.12
456.395	87.12
456.616	78.12
456.836	91.12
457.056	92.12
457.276	92.12
457.497	94.12
457.717	76.12
457.937	85.12
458.157	107.12
458.377	94.12
458.598	96.12
458.818	130.12
459.038	149.12
459.258	115.12
459.478	105.12
459.698	83.12
459.918	91.12
460.138	81.12
460.358	81.12
460.578	80.12
460.798	87.12
461.018	89.12
461.238	79.12
461.458	107.12
461.678	80.12
461.898	81.12
462.118	83.12
462.338	98.12
462.558	87.12
462.777	78.12
462.997	97.12
463.217	79.12
463.437	99.12
463.657	95.12
463.876	79.12
464.096	79.12
464.316	98.12
464.536	109.12
464.755	92.12
464.975	100.12
465.195	141.12
465.414	143.12
465.634	80.12
465.854	87.12
466.073	93.12
466.293	91.12
466.512	81.12
466.732	83.12
466.951	81.12
467.171	92.12
467.391	89.12
467.61	112.12
467.829	91.12
468.049	88.12
468.268	89.12
468.488	88.12
468.707	99.12
468.927	93.12
469.146	77.12
469.365	77.12
469.585	90.12
469.804	89.12
470.023	90.12
470.243	104.12
470.462	103.12
470.681	108.12
470.901	92.12
471.12	81.12
471.339	93.12
471.558	80.12
471.777	106.12
471.997	91.12
472.216	100.12
472.435	77.12
472.654	98.12
472.873	87.12
473.092	93.12
473.311	89.12
473.53	84.12
473.749	83.12
473.968	90.12
474.187	103.12
474.406	89.12
474.625	80.12
474.844	94.12
475.063	92.12
475.282	84.12
475.501	91.12
475.72	93.12
475.939	89.12
476.158	95.12
476.377	94.12
476.596	90.12
476.814	87.12
477.033	95.12
477.252	99.12
477.471	97.12
477.69	100.12
477.908	101.12
478.127	96.12
478.346	105.12
478.564	92.12
478.783	95.12
479.002	89.12
479.22	76.12
479.439	98.12
479.658	111.12
479.876	77.12
480.095	87.12
480.313	89.12
480.532	107.12
480.751	101.12
480.969	91.12
481.188	99.12
481.406	81.12
481.624	103.12
481.843	81.12
482.061	77.12
482.28	89.12
482.498	87.12
482.717	95.12
482.935	88.12
483.153	91.12
483.372	101.12
483.59	87.12
483.808	94.12
484.027	98.12
484.245	88.12
484.463	87.12
484.681	93.12
484.9	90.12
485.118	88.12
485.336	97.12
485.554	96.12
485.772	104.12
485.99	97.12
486.209	104.12
486.427	98.12
486.645	107.12
486.863	97.12
487.081	101.12
487.299	89.12
487.517	100.12
487.735	80.12
487.953	97.12
488.171	107.12
488.389	102.12
488.607	109.12
488.825	93.12
489.043	107.12
489.261	98.12
489.479	100.12
489.696	89.12
489.914	93.12
490.132	90.12
490.35	94.12
490.568	99.12
490.786	89.12
491.003	92.12
491.221	100.12
491.439	93.12
491.657	90.12
491.874	110.12
492.092	95.12
492.31	90.12
492.527	92.12
492.745	107.12
492.963	98.12
493.18	79.12
493.398	89.12
493.615	88.12
493.833	101.12
494.05	77.12
494.268	92.12
494.485	96.12
494.703	101.12
494.92	94.12
495.138	97.12
495.355	99.12
495.573	84.12
495.79	91.12
496.008	88.12
496.225	84.12
496.442	96.12
496.66	105.12
496.877	95.12
497.094	90.12
497.312	79.12
497.529	94.12
497.746	82.12
497.963	104.12
498.181	107.12
498.398	108.12
498.615	114.12
498.832	101.12
499.049	92.12
499.267	100.12
499.484	83.12
499.701	93.12
499.918	83.12
500.135	94.12
500.352	87.12
500.569	88.12
500.786	94.12
501.003	94.12
501.22	88.12
501.437	106.12
501.654	97.12
501.871	116.12
502.088	85.12
502.305	104.12
502.522	93.12
502.739	100.12
502.956	96.12
503.172	88.12
503.389	94.12
503.606	99.12
503.823	112.12
504.04	107.12
504.256	90.12
504.473	102.12
504.69	79.12
504.907	90.12
505.123	85.12
505.34	84.12
505.557	98.12
505.773	99.12
505.99	92.12
506.207	108.12
506.423	97.12
506.64	96.12
506.856	99.12
507.073	88.12
507.289	84.12
507.506	102.12
507.722	106.12
507.939	99.12
508.155	98.12
508.372	85.12
508.588	86.12
508.805	98.12
509.021	89.12
509.238	98.12
509.454	108.12
509.67	107.12
509.887	121.12
510.103	118.12
510.319	179.12
510.536	631.12
510.752	2015.12
510.968	553.12
511.184	129.12
511.401	99.12
511.617	105.12
511.833	87.12
512.049	92.12
512.265	92.12
512.481	93.12
512.698	84.12
512.914	93.12
513.13	96.12
513.346	90.12
513.562	93.12
513.778	91.12
513.994	101.12
514.21	92.12
514.426	116.12
514.642	120.12
514.858	131.12
515.074	160.12
515.29	402.12
515.506	1223.12
