Data from Uncirc_1996_H10_HRD10591_00084.txt Node
Date: Wed Jan 03 11:32:19 EST 2024
User: Yrep
Spectrometer: HR+D1059
Trigger mode: 1
Integration Time (sec): 1.000000E-1
Scans to average: 1
Electric dark correction enabled: true
Nonlinearity correction enabled: false
Boxcar width: 0
XAxis mode: Wavelengths
Number of Pixels in Spectrum: 2048
>>>>>Begin Spectral Data<<<<<
223.165	-4
223.4	-4
223.635	-4
223.869	-18
224.104	-15
224.338	-13
224.573	1
224.808	-19
225.042	-12
225.277	-1
225.511	-8
225.746	-8
225.98	7
226.215	11
226.449	7
226.683	20
226.918	27
227.152	25
227.387	51
227.621	41
227.856	45
228.09	54
228.324	44
228.559	69
228.793	66
229.027	69
229.262	75
229.496	78
229.73	97
229.964	87
230.199	71
230.433	75
230.667	84
230.901	78
231.136	76
231.37	79
231.604	80
231.838	70
232.072	83
232.306	83
232.541	91
232.775	71
233.009	79
233.243	81
233.477	79
233.711	79
233.945	75
234.179	97
234.413	82
234.647	83
234.881	76
235.115	69
235.349	71
235.583	70
235.817	93
236.051	82
236.285	82
236.519	89
236.753	84
236.987	72
237.221	95
237.455	92
237.689	77
237.922	73
238.156	90
238.39	80
238.624	75
238.858	77
239.091	70
239.325	94
239.559	75
239.793	72
240.027	83
240.26	88
240.494	73
240.728	89
240.961	76
241.195	78
241.429	75
241.662	81
241.896	89
242.13	81
242.363	89
242.597	93
242.83	86
243.064	84
243.298	76
243.531	80
243.765	85
243.998	74
244.232	81
244.465	81
244.699	86
244.932	87
245.166	85
245.399	80
245.633	87
245.866	77
246.099	84
246.333	75
246.566	85
246.8	81
247.033	89
247.266	87
247.5	77
247.733	96
247.966	80
248.2	79
248.433	94
248.666	87
248.899	87
249.133	82
249.366	93
249.599	88
249.832	87
250.066	82
250.299	74
250.532	66
250.765	87
250.998	84
251.231	82
251.465	76
251.698	84
251.931	100
252.164	91
252.397	91
252.63	86
252.863	82
253.096	74
253.329	85
253.562	90
253.795	85
254.028	81
254.261	83
254.494	97
254.727	100
254.96	91
255.193	85
255.426	84
255.659	82
255.892	96
256.124	90
256.357	77
256.59	74
256.823	87
257.056	92
257.289	98
257.521	82
257.754	98
257.987	79
258.22	85
258.452	85
258.685	84
258.918	82
259.151	70
259.383	103
259.616	76
259.849	82
260.081	85
260.314	92
260.547	95
260.779	90
261.012	79
261.244	101
261.477	91
261.71	85
261.942	91
262.175	124
262.407	94
262.64	89
262.872	86
263.105	74
263.337	91
263.57	76
263.802	74
264.035	91
264.267	90
264.499	98
264.732	79
264.964	83
265.197	91
265.429	91
265.661	98
265.894	87
266.126	83
266.358	85
266.591	85
266.823	87
267.055	81
267.287	80
267.52	80
267.752	96
267.984	79
268.216	75
268.448	84
268.681	92
268.913	99
269.145	97
269.377	85
269.609	86
269.841	67
270.073	89
270.306	86
270.538	101
270.77	89
271.002	88
271.234	79
271.466	101
271.698	83
271.93	82
272.162	91
272.394	87
272.626	90
272.858	95
273.09	102
273.322	95
273.553	93
273.785	91
274.017	100
274.249	84
274.481	81
274.713	93
274.945	92
275.176	78
275.408	90
275.64	100
275.872	85
276.104	77
276.335	86
276.567	99
276.799	102
277.031	94
277.262	98
277.494	93
277.726	94
277.957	78
278.189	81
278.421	99
278.652	93
278.884	85
279.115	83
279.347	98
279.579	89
279.81	85
280.042	89
280.273	83
280.505	85
280.736	99
280.968	89
281.199	86
281.431	79
281.662	75
281.894	89
282.125	100
282.356	124
282.588	145
282.819	117
283.051	85
283.282	93
283.513	96
283.745	93
283.976	93
284.207	95
284.439	90
284.67	108
284.901	106
285.132	91
285.364	97
285.595	91
285.826	74
286.057	86
286.288	92
286.52	88
286.751	89
286.982	98
287.213	90
287.444	86
287.675	98
287.906	79
288.138	106
288.369	98
288.6	102
288.831	89
289.062	98
289.293	88
289.524	97
289.755	87
289.986	90
290.217	104
290.448	84
290.679	93
290.91	99
291.141	93
291.371	92
291.602	91
291.833	85
292.064	77
292.295	99
292.526	100
292.757	104
292.987	101
293.218	101
293.449	82
293.68	80
293.91	93
294.141	97
294.372	82
294.603	80
294.833	94
295.064	98
295.295	79
295.525	93
295.756	95
295.987	107
296.217	139
296.448	127
296.679	109
296.909	92
297.14	85
297.37	75
297.601	100
297.831	77
298.062	103
298.292	84
298.523	83
298.753	96
298.984	100
299.214	86
299.445	98
299.675	103
299.905	103
300.136	79
300.366	77
300.597	100
300.827	93
301.057	105
301.288	88
301.518	94
301.748	91
301.979	113
302.209	85
302.439	90
302.669	95
302.9	95
303.13	96
303.36	93
303.59	99
303.82	117
304.051	71
304.281	87
304.511	91
304.741	92
304.971	101
305.201	98
305.431	79
305.661	86
305.891	89
306.121	88
306.352	111
306.582	112
306.812	92
307.042	78
307.272	89
307.502	101
307.731	89
307.961	102
308.191	100
308.421	91
308.651	96
308.881	92
309.111	94
309.341	94
309.571	109
309.8	92
310.03	89
310.26	90
310.49	97
310.72	103
310.949	104
311.179	101
311.409	93
311.639	94
311.868	97
312.098	96
312.328	101
312.557	108
312.787	104
313.017	108
313.246	115
313.476	93
313.706	82
313.935	101
314.165	102
314.394	97
314.624	103
314.853	111
315.083	90
315.312	97
315.542	87
315.771	93
316.001	93
316.23	86
316.46	87
316.689	109
316.919	106
317.148	90
317.377	107
317.607	102
317.836	111
318.065	81
318.295	97
318.524	74
318.753	94
318.983	102
319.212	101
319.441	86
319.67	98
319.9	95
320.129	95
320.358	110
320.587	102
320.816	104
321.046	89
321.275	100
321.504	106
321.733	102
321.962	98
322.191	103
322.42	93
322.649	116
322.878	102
323.108	109
323.337	130
323.566	135
323.795	155
324.024	207
324.253	380
324.482	763
324.71	1575
324.939	2039
325.168	766
325.397	255
325.626	148
325.855	131
326.084	120
326.313	114
326.542	153
326.77	221
326.999	421
327.228	903
327.457	1592
327.686	1249
327.914	349
328.143	197
328.372	125
328.6	113
328.829	104
329.058	120
329.287	114
329.515	114
329.744	107
329.972	108
330.201	114
330.43	106
330.658	123
330.887	148
331.115	116
331.344	100
331.572	107
331.801	91
332.03	92
332.258	108
332.486	90
332.715	105
332.943	89
333.172	96
333.4	101
333.629	108
333.857	111
334.085	92
334.314	107
334.542	100
334.771	81
334.999	100
335.227	103
335.455	112
335.684	100
335.912	95
336.14	96
336.369	101
336.597	105
336.825	98
337.053	90
337.281	101
337.51	90
337.738	103
337.966	99
338.194	104
338.422	100
338.65	101
338.878	109
339.106	101
339.334	101
339.562	93
339.79	86
340.018	85
340.246	99
340.474	85
340.702	93
340.93	89
341.158	93
341.386	102
341.614	93
341.842	94
342.07	81
342.298	93
342.526	87
342.754	91
342.981	81
343.209	97
343.437	110
343.665	97
343.893	91
344.12	91
344.348	98
344.576	99
344.804	95
345.031	101
345.259	92
345.487	99
345.714	97
345.942	94
346.17	88
346.397	97
346.625	103
346.853	106
347.08	95
347.308	103
347.535	101
347.763	105
347.99	101
348.218	109
348.445	97
348.673	93
348.9	114
349.128	95
349.355	107
349.583	97
349.81	92
350.037	96
350.265	98
350.492	107
350.72	91
350.947	91
351.174	98
351.402	111
351.629	97
351.856	102
352.083	101
352.311	107
352.538	117
352.765	112
352.992	115
353.22	120
353.447	105
353.674	111
353.901	105
354.128	98
354.355	119
354.583	96
354.81	111
355.037	99
355.264	100
355.491	100
355.718	104
355.945	90
356.172	87
356.399	103
356.626	93
356.853	84
357.08	95
357.307	100
357.534	90
357.761	98
357.988	99
358.215	93
358.441	98
358.668	101
358.895	88
359.122	96
359.349	81
359.576	81
359.802	104
360.029	107
360.256	115
360.483	90
360.709	90
360.936	110
361.163	98
361.39	89
361.616	102
361.843	95
362.07	92
362.296	102
362.523	103
362.749	95
362.976	95
363.203	109
363.429	107
363.656	99
363.882	87
364.109	105
364.335	92
364.562	89
364.788	94
365.015	97
365.241	95
365.468	105
365.694	107
365.92	109
366.147	100
366.373	97
366.599	77
366.826	98
367.052	88
367.278	90
367.505	92
367.731	92
367.957	88
368.184	97
368.41	109
368.636	113
368.862	114
369.089	105
369.315	94
369.541	106
369.767	97
369.993	88
370.219	84
370.445	101
370.672	93
370.898	95
371.124	96
371.35	86
371.576	93
371.802	100
372.028	92
372.254	91
372.48	94
372.706	89
372.932	92
373.158	96
373.384	87
373.61	96
373.835	84
374.061	95
374.287	109
374.513	102
374.739	91
374.965	81
375.191	85
375.416	86
375.642	82
375.868	98
376.094	107
376.319	84
376.545	93
376.771	93
376.997	97
377.222	90
377.448	102
377.674	82
377.899	89
378.125	99
378.35	94
378.576	107
378.802	95
379.027	85
379.253	94
379.478	96
379.704	89
379.929	90
380.155	102
380.38	94
380.606	84
380.831	99
381.057	97
381.282	107
381.507	98
381.733	95
381.958	98
382.184	93
382.409	95
382.634	92
382.86	103
383.085	115
383.31	94
383.535	96
383.761	87
383.986	97
384.211	101
384.436	107
384.662	109
384.887	90
385.112	108
385.337	96
385.562	112
385.787	90
386.013	96
386.238	113
386.463	118
386.688	103
386.913	87
387.138	99
387.363	94
387.588	93
387.813	100
388.038	111
388.263	114
388.488	90
388.713	97
388.938	111
389.163	85
389.387	96
389.612	101
389.837	102
390.062	82
390.287	90
390.512	96
390.736	96
390.961	101
391.186	95
391.411	99
391.636	102
391.86	90
392.085	84
392.31	90
392.534	94
392.759	80
392.984	106
393.208	92
393.433	94
393.658	108
393.882	95
394.107	87
394.331	86
394.556	101
394.78	94
395.005	95
395.229	79
395.454	90
395.678	87
395.903	93
396.127	96
396.352	93
396.576	86
396.801	87
397.025	100
397.249	85
397.474	87
397.698	91
397.922	87
398.147	83
398.371	95
398.595	99
398.82	93
399.044	90
399.268	85
399.492	87
399.717	84
399.941	74
400.165	96
400.389	87
400.613	100
400.837	84
401.062	92
401.286	97
401.51	97
401.734	101
401.958	97
402.182	128
402.406	161
402.63	121
402.854	99
403.078	83
403.302	93
403.526	93
403.75	94
403.974	109
404.198	85
404.422	87
404.645	96
404.869	93
405.093	84
405.317	91
405.541	107
405.765	89
405.988	108
406.212	172
406.436	214
406.66	135
406.883	86
407.107	82
407.331	102
407.555	107
407.778	114
408.002	101
408.226	101
408.449	97
408.673	103
408.896	102
409.12	106
409.344	93
409.567	81
409.791	94
410.014	94
410.238	97
410.461	88
410.685	92
410.908	101
411.132	109
411.355	108
411.578	90
411.802	98
412.025	93
412.249	101
412.472	95
412.695	92
412.919	81
413.142	86
413.365	100
413.589	99
413.812	91
414.035	98
414.258	87
414.482	96
414.705	87
414.928	94
415.151	84
415.374	88
415.597	94
415.821	97
416.044	92
416.267	102
416.49	92
416.713	78
416.936	85
417.159	77
417.382	89
417.605	91
417.828	98
418.051	98
418.274	103
418.497	94
418.72	90
418.943	93
419.166	91
419.389	93
419.611	83
419.834	106
420.057	99
420.28	88
420.503	98
420.726	80
420.948	87
421.171	85
421.394	94
421.617	97
421.839	101
422.062	94
422.285	94
422.507	100
422.73	95
422.953	100
423.175	87
423.398	95
423.621	103
423.843	89
424.066	89
424.288	94
424.511	91
424.733	107
424.956	109
425.178	107
425.401	99
425.623	107
425.846	105
426.068	98
426.291	91
426.513	82
426.735	78
426.958	89
427.18	101
427.402	126
427.625	182
427.847	126
428.069	114
428.292	105
428.514	95
428.736	95
428.958	92
429.181	83
429.403	95
429.625	88
429.847	78
430.069	106
430.292	103
430.514	90
430.736	86
430.958	95
431.18	78
431.402	95
431.624	91
431.846	93
432.068	78
432.29	99
432.512	83
432.734	91
432.956	96
433.178	113
433.4	104
433.622	97
433.844	94
434.066	92
434.287	87
434.509	84
434.731	93
434.953	85
435.175	71
435.397	81
435.618	97
435.84	107
436.062	130
436.284	101
436.505	94
436.727	109
436.949	84
437.17	100
437.392	82
437.614	100
437.835	97
438.057	115
438.278	113
438.5	105
438.721	124
438.943	108
439.165	114
439.386	99
439.608	94
439.829	110
440.05	130
440.272	124
440.493	123
440.715	77
440.936	79
441.158	108
441.379	80
441.6	95
441.822	106
442.043	108
442.264	111
442.486	103
442.707	107
442.928	115
443.149	118
443.371	130
443.592	113
443.813	112
444.034	119
444.255	83
444.476	93
444.698	80
444.919	81
445.14	141
445.361	131
445.582	120
445.803	127
446.024	131
446.245	138
446.466	120
446.687	101
446.908	114
447.129	73
447.35	99
447.571	91
447.792	81
448.013	108
448.234	116
448.455	103
448.675	119
448.896	129
449.117	109
449.338	99
449.559	133
449.779	144
450	101
450.221	86
450.442	89
450.662	103
450.883	101
451.104	121
451.324	96
451.545	82
451.766	84
451.986	86
452.207	92
452.428	90
452.648	97
452.869	119
453.089	112
453.31	116
453.53	102
453.751	85
453.971	112
454.192	116
454.412	100
454.633	77
454.853	92
455.073	88
455.294	101
455.514	96
455.734	96
455.955	89
456.175	87
456.395	88
456.616	92
456.836	88
457.056	97
457.276	101
457.497	87
457.717	78
457.937	91
458.157	97
458.377	94
458.598	94
458.818	158
459.038	156
459.258	122
459.478	83
459.698	102
459.918	94
460.138	90
460.358	88
460.578	87
460.798	91
461.018	84
461.238	93
461.458	83
461.678	93
461.898	93
462.118	90
462.338	89
462.558	68
462.777	90
462.997	90
463.217	99
463.437	85
463.657	97
463.876	90
464.096	99
464.316	83
464.536	108
464.755	87
464.975	95
465.195	151
465.414	147
465.634	97
465.854	89
466.073	95
466.293	87
466.512	96
466.732	95
466.951	90
467.171	83
467.391	94
467.61	101
467.829	103
468.049	93
468.268	97
468.488	85
468.707	101
468.927	97
469.146	94
469.365	101
469.585	82
469.804	103
470.023	90
470.243	94
470.462	100
470.681	110
470.901	76
471.12	96
471.339	81
471.558	101
471.777	90
471.997	89
472.216	106
472.435	82
472.654	82
472.873	91
473.092	91
473.311	80
473.53	87
473.749	88
473.968	96
474.187	113
474.406	88
474.625	81
474.844	85
475.063	83
475.282	79
475.501	96
475.72	99
475.939	97
476.158	94
476.377	97
476.596	89
476.814	91
477.033	103
477.252	95
477.471	95
477.69	101
477.908	83
478.127	102
478.346	111
478.564	90
478.783	89
479.002	95
479.22	81
479.439	94
479.658	103
479.876	95
480.095	88
480.313	92
480.532	87
480.751	94
480.969	98
481.188	86
481.406	97
481.624	87
481.843	107
482.061	103
482.28	97
482.498	99
482.717	85
482.935	75
483.153	86
483.372	89
483.59	85
483.808	90
484.027	101
484.245	101
484.463	93
484.681	82
484.9	91
485.118	101
485.336	85
485.554	95
485.772	98
485.99	96
486.209	103
486.427	105
486.645	117
486.863	107
487.081	109
487.299	94
487.517	86
487.735	106
487.953	109
488.171	98
488.389	96
488.607	116
488.825	97
489.043	90
489.261	91
489.479	101
489.696	72
489.914	82
490.132	91
490.35	96
490.568	101
490.786	81
491.003	80
491.221	92
491.439	95
491.657	93
491.874	95
492.092	98
492.31	89
492.527	88
492.745	99
492.963	101
493.18	101
493.398	94
493.615	93
493.833	92
494.05	85
494.268	96
494.485	81
494.703	107
494.92	92
495.138	99
495.355	85
495.573	90
495.79	89
496.008	109
496.225	84
496.442	111
496.66	100
496.877	83
497.094	96
497.312	95
497.529	87
497.746	78
497.963	99
498.181	88
498.398	101
498.615	98
498.832	119
499.049	98
499.267	86
499.484	97
499.701	89
499.918	103
500.135	95
500.352	103
500.569	101
500.786	98
501.003	102
501.22	89
501.437	97
501.654	84
501.871	105
502.088	101
502.305	96
502.522	94
502.739	93
502.956	92
503.172	86
503.389	91
503.606	110
503.823	116
504.04	93
504.256	85
504.473	93
504.69	84
504.907	99
505.123	89
505.34	96
505.557	96
505.773	82
505.99	98
506.207	95
506.423	99
506.64	82
506.856	97
507.073	84
507.289	90
507.506	91
507.722	101
507.939	118
508.155	113
508.372	105
508.588	91
508.805	97
509.021	92
509.238	107
509.454	93
509.67	98
509.887	118
510.103	125
510.319	203
510.536	692
510.752	2058
510.968	596
511.184	143
511.401	109
511.617	94
511.833	90
512.049	91
512.265	92
512.481	105
512.698	82
512.914	96
513.13	103
513.346	103
513.562	96
513.778	100
513.994	94
514.21	97
514.426	109
514.642	120
514.858	103
515.074	169
515.29	435
515.506	1277
515.721	473
515.937	135
516.153	110
516.369	116
516.585	104
516.801	82
517.016	90
517.232	102
517.448	94
517.664	105
517.879	111
518.095	109
518.311	86
518.527	86
518.742	96
518.958	96
519.173	93
519.389	86
519.605	93
519.82	99
520.036	102
520.251	116
520.467	104
520.682	101
520.898	102
521.113	106
521.329	140
521.544	195
521.76	510
521.975	2107
522.19	1243
522.406	294
522.621	116
522.836	95
523.052	93
523.267	94
523.482	108
523.698	107
523.913	109
524.128	107
524.343	99
524.559	112
524.774	95
524.989	102
525.204	102
525.419	94
525.634	102
525.849	95
526.064	92
526.28	94
526.495	93
526.71	102
526.925	92
527.14	90
527.355	100
527.57	93
527.785	101
527.999	90
528.214	93
528.429	103
528.644	100
528.859	93
529.074	102
529.289	119
529.503	174
529.718	100
529.933	97
530.148	105
530.363	84
530.577	98
530.792	90
531.007	98
531.221	85
531.436	90
531.651	89
531.865	78
532.08	84
532.295	92
532.509	97
532.724	91
532.938	90
533.153	86
533.367	82
533.582	98
533.796	103
534.011	107
534.225	90
534.44	94
534.654	116
534.868	88
535.083	96
535.297	93
535.511	94
535.726	94
535.94	94
536.154	94
536.369	91
536.583	99
536.797	93
537.011	103
537.225	91
537.44	98
537.654	94
537.868	78
538.082	97
538.296	99
538.51	82
538.724	92
538.938	95
539.153	91
539.367	105
539.581	86
539.795	99
540.009	79
540.222	92
540.436	90
540.65	103
540.864	95
541.078	92
541.292	80
541.506	87
541.72	94
541.934	86
542.147	89
542.361	77
542.575	93
542.789	87
543.002	89
543.216	96
543.43	95
543.644	92
543.857	98
544.071	98
544.285	108
544.498	94
544.712	93
544.925	63
545.139	94
545.352	88
545.566	79
545.779	89
545.993	84
546.206	98
546.42	85
546.633	92
546.847	102
547.06	94
547.274	87
547.487	78
547.7	89
547.914	89
548.127	85
548.34	81
548.554	79
548.767	98
548.98	82
549.193	77
549.407	100
549.62	86
549.833	99
550.046	94
550.259	103
550.473	80
550.686	88
550.899	86
551.112	103
551.325	89
551.538	100
551.751	86
551.964	89
552.177	86
552.39	98
552.603	99
552.816	93
553.029	101
553.242	111
553.455	113
553.667	105
553.88	99
554.093	85
554.306	85
554.519	92
554.732	87
554.944	88
555.157	89
555.37	101
555.583	77
555.795	93
556.008	85
556.221	91
556.433	100
556.646	97
556.859	92
557.071	84
557.284	93
557.496	92
557.709	97
557.921	89
558.134	101
558.346	77
558.559	86
558.771	92
558.984	91
559.196	93
559.409	85
559.621	100
559.833	103
560.046	85
560.258	89
560.47	84
560.683	96
560.895	90
561.107	92
561.32	90
561.532	104
561.744	86
561.956	97
562.168	87
562.381	102
562.593	90
562.805	97
563.017	93
563.229	94
563.441	102
563.653	102
563.865	91
564.077	93
564.289	93
564.501	98
564.713	100
564.925	90
565.137	107
565.349	107
565.561	92
565.773	93
565.985	90
566.197	76
566.408	94
566.62	97
566.832	89
567.044	89
567.255	92
567.467	87
567.679	97
567.891	90
568.102	100
568.314	86
568.526	85
568.737	95
568.949	102
569.161	83
569.372	88
569.584	94
569.795	89
570.007	103
570.218	218
570.43	139
570.641	96
570.853	89
571.064	102
571.276	97
571.487	89
571.698	93
571.91	90
572.121	83
572.333	95
572.544	99
572.755	82
572.966	95
573.178	93
573.389	102
573.6	89
573.811	93
574.023	91
574.234	97
574.445	81
574.656	81
574.867	90
575.078	103
575.289	97
575.501	81
575.712	92
575.923	90
576.134	107
576.345	103
576.556	93
576.767	89
576.978	84
577.188	92
577.399	82
577.61	92
577.821	109
578.032	106
578.243	249
578.454	684
578.665	183
578.875	114
579.086	101
579.297	93
579.508	100
579.718	98
579.929	101
580.14	104
580.35	81
580.561	90
580.772	83
580.982	107
581.193	93
581.403	92
581.614	94
581.825	89
582.035	92
582.246	93
582.456	96
