Data from Uncirc_1996_H10_HRD10591_00039.txt Node
Date: Wed Jan 03 11:32:10 EST 2024
User: Yrep
Spectrometer: HR+D1059
Trigger mode: 1
Integration Time (sec): 1.000000E-1
Scans to average: 1
Electric dark correction enabled: true
Nonlinearity correction enabled: false
Boxcar width: 0
XAxis mode: Wavelengths
Number of Pixels in Spectrum: 2048
>>>>>Begin Spectral Data<<<<<
223.165	-13
223.4	-13
223.635	-13
223.869	-22
224.104	-15
224.338	-14
224.573	-4
224.808	-10
225.042	1
225.277	-13
225.511	-10
225.746	-4
225.98	16
226.215	2
226.449	10
226.683	22
226.918	21
227.152	33
227.387	53
227.621	34
227.856	35
228.09	40
228.324	59
228.559	59
228.793	65
229.027	70
229.262	59
229.496	80
229.73	80
229.964	87
230.199	78
230.433	82
230.667	69
230.901	74
231.136	70
231.37	60
231.604	93
231.838	92
232.072	102
232.306	77
232.541	73
232.775	79
233.009	81
233.243	97
233.477	66
233.711	79
233.945	78
234.179	94
234.413	83
234.647	75
234.881	88
235.115	85
235.349	72
235.583	78
235.817	88
236.051	73
236.285	91
236.519	88
236.753	67
236.987	80
237.221	95
237.455	94
237.689	69
237.922	75
238.156	80
238.39	59
238.624	71
238.858	69
239.091	88
239.325	83
239.559	83
239.793	94
240.027	73
240.26	88
240.494	69
240.728	70
240.961	86
241.195	82
241.429	84
241.662	69
241.896	74
242.13	78
242.363	84
242.597	72
242.83	76
243.064	80
243.298	106
243.531	89
243.765	101
243.998	91
244.232	69
244.465	89
244.699	85
244.932	69
245.166	82
245.399	96
245.633	80
245.866	76
246.099	82
246.333	86
246.566	77
246.8	67
247.033	89
247.266	79
247.5	80
247.733	72
247.966	96
248.2	98
248.433	82
248.666	77
248.899	88
249.133	76
249.366	110
249.599	96
249.832	80
250.066	81
250.299	82
250.532	82
250.765	82
250.998	84
251.231	74
251.465	81
251.698	86
251.931	84
252.164	78
252.397	93
252.63	79
252.863	97
253.096	89
253.329	90
253.562	85
253.795	86
254.028	81
254.261	96
254.494	76
254.727	80
254.96	87
255.193	84
255.426	72
255.659	92
255.892	82
256.124	82
256.357	82
256.59	88
256.823	87
257.056	79
257.289	73
257.521	80
257.754	69
257.987	91
258.22	90
258.452	82
258.685	82
258.918	65
259.151	87
259.383	81
259.616	77
259.849	88
260.081	88
260.314	68
260.547	86
260.779	88
261.012	78
261.244	88
261.477	85
261.71	90
261.942	101
262.175	114
262.407	98
262.64	89
262.872	96
263.105	85
263.337	83
263.57	100
263.802	81
264.035	84
264.267	85
264.499	79
264.732	80
264.964	82
265.197	97
265.429	78
265.661	83
265.894	92
266.126	83
266.358	92
266.591	89
266.823	100
267.055	101
267.287	82
267.52	79
267.752	89
267.984	89
268.216	94
268.448	89
268.681	88
268.913	85
269.145	84
269.377	93
269.609	81
269.841	98
270.073	82
270.306	85
270.538	79
270.77	85
271.002	71
271.234	96
271.466	92
271.698	86
271.93	88
272.162	89
272.394	82
272.626	89
272.858	75
273.09	93
273.322	96
273.553	88
273.785	75
274.017	84
274.249	83
274.481	88
274.713	86
274.945	82
275.176	75
275.408	82
275.64	71
275.872	92
276.104	93
276.335	94
276.567	100
276.799	109
277.031	86
277.262	91
277.494	80
277.726	90
277.957	96
278.189	96
278.421	98
278.652	77
278.884	82
279.115	90
279.347	84
279.579	78
279.81	114
280.042	81
280.273	86
280.505	78
280.736	83
280.968	70
281.199	98
281.431	86
281.662	93
281.894	97
282.125	90
282.356	110
282.588	138
282.819	101
283.051	104
283.282	95
283.513	102
283.745	94
283.976	88
284.207	88
284.439	82
284.67	85
284.901	84
285.132	92
285.364	93
285.595	92
285.826	88
286.057	87
286.288	89
286.52	82
286.751	97
286.982	98
287.213	80
287.444	78
287.675	95
287.906	95
288.138	94
288.369	95
288.6	91
288.831	85
289.062	92
289.293	81
289.524	95
289.755	97
289.986	86
290.217	79
290.448	91
290.679	91
290.91	93
291.141	93
291.371	86
291.602	92
291.833	90
292.064	93
292.295	90
292.526	96
292.757	89
292.987	95
293.218	90
293.449	88
293.68	92
293.91	92
294.141	91
294.372	86
294.603	97
294.833	91
295.064	97
295.295	101
295.525	101
295.756	97
295.987	97
296.217	137
296.448	122
296.679	107
296.909	99
297.14	96
297.37	99
297.601	81
297.831	91
298.062	84
298.292	85
298.523	112
298.753	88
298.984	93
299.214	93
299.445	102
299.675	104
299.905	96
300.136	85
300.366	94
300.597	90
300.827	89
301.057	101
301.288	105
301.518	84
301.748	90
301.979	93
302.209	101
302.439	90
302.669	91
302.9	93
303.13	81
303.36	85
303.59	93
303.82	102
304.051	94
304.281	84
304.511	97
304.741	91
304.971	91
305.201	96
305.431	97
305.661	102
305.891	83
306.121	90
306.352	115
306.582	96
306.812	95
307.042	88
307.272	101
307.502	83
307.731	97
307.961	106
308.191	86
308.421	95
308.651	96
308.881	95
309.111	84
309.341	89
309.571	106
309.8	89
310.03	93
310.26	94
310.49	91
310.72	90
310.949	108
311.179	105
311.409	107
311.639	87
311.868	114
312.098	97
312.328	112
312.557	105
312.787	102
313.017	113
313.246	94
313.476	93
313.706	93
313.935	89
314.165	111
314.394	113
314.624	97
314.853	96
315.083	99
315.312	106
315.542	101
315.771	95
316.001	96
316.23	83
316.46	80
316.689	95
316.919	101
317.148	96
317.377	98
317.607	94
317.836	96
318.065	94
318.295	110
318.524	99
318.753	91
318.983	76
319.212	96
319.441	94
319.67	105
319.9	88
320.129	88
320.358	82
320.587	95
320.816	104
321.046	107
321.275	89
321.504	97
321.733	97
321.962	98
322.191	87
322.42	114
322.649	121
322.878	123
323.108	108
323.337	115
323.566	129
323.795	161
324.024	188
324.253	377
324.482	763
324.71	1601
324.939	2146
325.168	789
325.397	237
325.626	149
325.855	125
326.084	134
326.313	118
326.542	128
326.77	220
326.999	436
327.228	914
327.457	1657
327.686	1326
327.914	373
328.143	208
328.372	164
328.6	128
328.829	117
329.058	108
329.287	118
329.515	118
329.744	104
329.972	89
330.201	92
330.43	109
330.658	104
330.887	142
331.115	113
331.344	99
331.572	92
331.801	101
332.03	106
332.258	98
332.486	99
332.715	96
332.943	89
333.172	108
333.4	90
333.629	112
333.857	103
334.085	113
334.314	84
334.542	91
334.771	104
334.999	89
335.227	95
335.455	90
335.684	104
335.912	94
336.14	115
336.369	82
336.597	114
336.825	111
337.053	85
337.281	89
337.51	76
337.738	97
337.966	103
338.194	116
338.422	128
338.65	86
338.878	88
339.106	102
339.334	87
339.562	92
339.79	97
340.018	97
340.246	87
340.474	103
340.702	85
340.93	89
341.158	101
341.386	94
341.614	98
341.842	104
342.07	81
342.298	85
342.526	101
342.754	93
342.981	72
343.209	84
343.437	117
343.665	85
343.893	96
344.12	103
344.348	93
344.576	98
344.804	87
345.031	109
345.259	85
345.487	100
345.714	96
345.942	93
346.17	101
346.397	107
346.625	100
346.853	102
347.08	80
347.308	98
347.535	109
347.763	90
347.99	101
348.218	113
348.445	94
348.673	100
348.9	92
349.128	88
349.355	83
349.583	92
349.81	90
350.037	96
350.265	115
350.492	98
350.72	103
350.947	101
351.174	102
351.402	94
351.629	93
351.856	99
352.083	110
352.311	110
352.538	108
352.765	104
352.992	121
353.22	115
353.447	99
353.674	108
353.901	102
354.128	102
354.355	105
354.583	100
354.81	99
355.037	101
355.264	108
355.491	104
355.718	102
355.945	99
356.172	109
356.399	90
356.626	94
356.853	95
357.08	95
357.307	90
357.534	91
357.761	80
357.988	98
358.215	90
358.441	98
358.668	107
358.895	99
359.122	91
359.349	90
359.576	100
359.802	95
360.029	112
360.256	118
360.483	108
360.709	79
360.936	94
361.163	94
361.39	101
361.616	101
361.843	95
362.07	86
362.296	105
362.523	90
362.749	91
362.976	97
363.203	88
363.429	86
363.656	91
363.882	102
364.109	93
364.335	95
364.562	97
364.788	92
365.015	96
365.241	104
365.468	94
365.694	121
365.92	95
366.147	91
366.373	94
366.599	88
366.826	96
367.052	98
367.278	108
367.505	91
367.731	98
367.957	93
368.184	104
368.41	110
368.636	112
368.862	120
369.089	106
369.315	84
369.541	85
369.767	92
369.993	92
370.219	93
370.445	100
370.672	86
370.898	81
371.124	89
371.35	93
371.576	92
371.802	97
372.028	89
372.254	85
372.48	94
372.706	91
372.932	83
373.158	107
373.384	98
373.61	105
373.835	106
374.061	112
374.287	80
374.513	100
374.739	82
374.965	102
375.191	86
375.416	92
375.642	97
375.868	112
376.094	102
376.319	85
376.545	93
376.771	84
376.997	97
377.222	92
377.448	85
377.674	100
377.899	100
378.125	89
378.35	89
378.576	102
378.802	96
379.027	93
379.253	109
379.478	89
379.704	100
379.929	96
380.155	95
380.38	78
380.606	100
380.831	93
381.057	84
381.282	91
381.507	97
381.733	103
381.958	90
382.184	106
382.409	96
382.634	100
382.86	105
383.085	69
383.31	106
383.535	112
383.761	108
383.986	98
384.211	88
384.436	100
384.662	114
384.887	100
385.112	103
385.337	112
385.562	107
385.787	100
386.013	100
386.238	118
386.463	115
386.688	109
386.913	105
387.138	112
387.363	110
387.588	91
387.813	123
388.038	116
388.263	111
388.488	91
388.713	99
388.938	95
389.163	103
389.387	96
389.612	108
389.837	107
390.062	94
390.287	98
390.512	101
390.736	83
390.961	95
391.186	90
391.411	90
391.636	112
391.86	86
392.085	80
392.31	100
392.534	98
392.759	84
392.984	90
393.208	96
393.433	101
393.658	89
393.882	93
394.107	86
394.331	107
394.556	93
394.78	86
395.005	88
395.229	95
395.454	96
395.678	119
395.903	105
396.127	88
396.352	99
396.576	95
396.801	85
397.025	84
397.249	85
397.474	82
397.698	69
397.922	76
398.147	100
398.371	92
398.595	84
398.82	74
399.044	83
399.268	93
399.492	84
399.717	90
399.941	87
400.165	91
400.389	89
400.613	99
400.837	86
401.062	90
401.286	90
401.51	108
401.734	96
401.958	120
402.182	124
402.406	155
402.63	117
402.854	99
403.078	96
403.302	88
403.526	87
403.75	92
403.974	89
404.198	89
404.422	89
404.645	95
404.869	86
405.093	88
405.317	92
405.541	105
405.765	102
405.988	112
406.212	159
406.436	212
406.66	147
406.883	116
407.107	90
407.331	104
407.555	103
407.778	88
408.002	96
408.226	99
408.449	83
408.673	85
408.896	88
409.12	92
409.344	98
409.567	92
409.791	80
410.014	91
410.238	86
410.461	100
410.685	91
410.908	97
411.132	103
411.355	101
411.578	106
411.802	88
412.025	94
412.249	88
412.472	96
412.695	91
412.919	83
413.142	97
413.365	99
413.589	84
413.812	107
414.035	109
414.258	99
414.482	96
414.705	90
414.928	102
415.151	94
415.374	102
415.597	80
415.821	101
416.044	72
416.267	90
416.49	96
416.713	100
416.936	92
417.159	69
417.382	84
417.605	91
417.828	97
418.051	91
418.274	106
418.497	88
418.72	104
418.943	91
419.166	94
419.389	92
419.611	95
419.834	92
420.057	87
420.28	93
420.503	89
420.726	89
420.948	94
421.171	102
421.394	95
421.617	91
421.839	91
422.062	101
422.285	99
422.507	97
422.73	110
422.953	100
423.175	83
423.398	94
423.621	93
423.843	93
424.066	89
424.288	97
424.511	79
424.733	97
424.956	108
425.178	102
425.401	102
425.623	112
425.846	77
426.068	102
426.291	114
426.513	94
426.735	98
426.958	93
427.18	116
427.402	140
427.625	158
427.847	125
428.069	101
428.292	94
428.514	83
428.736	96
428.958	77
429.181	94
429.403	99
429.625	91
429.847	100
430.069	102
430.292	93
430.514	95
430.736	83
430.958	96
431.18	99
431.402	87
431.624	101
431.846	81
432.068	97
432.29	97
432.512	70
432.734	95
432.956	89
433.178	94
433.4	109
433.622	88
433.844	96
434.066	99
434.287	85
434.509	97
434.731	91
434.953	91
435.175	90
435.397	93
435.618	87
435.84	120
436.062	112
436.284	118
436.505	108
436.727	94
436.949	87
437.17	94
437.392	72
437.614	96
437.835	122
438.057	116
438.278	111
438.5	100
438.721	126
438.943	107
439.165	99
439.386	91
439.608	84
439.829	97
440.05	126
440.272	146
440.493	105
440.715	91
440.936	80
441.158	87
441.379	92
441.6	94
441.822	94
442.043	105
442.264	100
442.486	95
442.707	103
442.928	104
443.149	127
443.371	117
443.592	108
443.813	124
444.034	107
444.255	96
444.476	88
444.698	85
444.919	90
445.14	137
445.361	124
445.582	121
445.803	123
446.024	130
446.245	121
446.466	109
446.687	94
446.908	83
447.129	97
447.35	93
447.571	99
447.792	96
448.013	97
448.234	112
448.455	95
448.675	108
448.896	114
449.117	99
449.338	98
449.559	145
449.779	133
450	98
450.221	84
450.442	89
450.662	97
450.883	105
451.104	104
451.324	91
451.545	80
451.766	75
451.986	82
452.207	81
452.428	86
452.648	111
452.869	109
453.089	103
453.31	118
453.53	79
453.751	87
453.971	106
454.192	108
454.412	99
454.633	95
454.853	83
455.073	85
455.294	89
455.514	105
455.734	84
455.955	93
456.175	85
456.395	91
456.616	91
456.836	101
457.056	89
457.276	88
457.497	94
457.717	97
457.937	100
458.157	89
458.377	87
458.598	106
458.818	157
459.038	152
459.258	111
459.478	99
459.698	102
459.918	101
460.138	92
460.358	85
460.578	90
460.798	97
461.018	94
461.238	96
461.458	82
461.678	94
461.898	86
462.118	89
462.338	82
462.558	86
462.777	80
462.997	93
463.217	84
463.437	92
463.657	91
463.876	89
464.096	86
464.316	90
464.536	84
464.755	92
464.975	111
465.195	171
465.414	153
465.634	101
465.854	89
466.073	97
466.293	83
466.512	85
466.732	98
466.951	94
467.171	86
467.391	107
467.61	91
467.829	92
468.049	98
468.268	77
468.488	98
468.707	100
468.927	87
469.146	83
469.365	91
469.585	96
469.804	93
470.023	93
470.243	88
470.462	96
470.681	100
470.901	94
471.12	77
471.339	105
471.558	81
471.777	100
471.997	98
472.216	100
472.435	88
472.654	95
472.873	96
473.092	94
473.311	79
473.53	90
473.749	103
473.968	94
474.187	100
474.406	90
474.625	87
474.844	88
475.063	83
475.282	82
475.501	83
475.72	103
475.939	96
476.158	107
476.377	94
476.596	98
476.814	92
477.033	105
477.252	85
477.471	98
477.69	83
477.908	102
478.127	96
478.346	88
478.564	100
478.783	94
479.002	91
479.22	89
479.439	99
479.658	106
479.876	88
480.095	100
480.313	92
480.532	89
480.751	97
480.969	93
481.188	102
481.406	84
481.624	85
481.843	93
482.061	102
482.28	88
482.498	81
482.717	84
482.935	94
483.153	89
483.372	92
483.59	105
483.808	76
484.027	101
484.245	89
484.463	95
484.681	105
484.9	98
485.118	99
485.336	93
485.554	109
485.772	85
485.99	100
486.209	99
486.427	101
486.645	91
486.863	110
487.081	119
487.299	98
487.517	92
487.735	89
487.953	91
488.171	96
488.389	101
488.607	92
488.825	104
489.043	98
489.261	89
489.479	77
489.696	83
489.914	94
490.132	89
490.35	97
490.568	84
490.786	86
491.003	92
491.221	91
491.439	90
491.657	100
491.874	96
492.092	83
492.31	101
492.527	108
492.745	94
492.963	94
493.18	98
493.398	97
493.615	93
493.833	87
494.05	100
494.268	93
494.485	99
494.703	91
494.92	90
495.138	99
495.355	82
495.573	102
495.79	100
496.008	96
496.225	98
496.442	96
496.66	97
496.877	89
497.094	98
497.312	84
497.529	89
497.746	87
497.963	94
498.181	85
498.398	93
498.615	104
498.832	105
499.049	85
499.267	96
499.484	83
499.701	98
499.918	95
500.135	91
500.352	92
500.569	92
500.786	83
501.003	88
501.22	86
501.437	80
501.654	87
501.871	110
502.088	90
502.305	89
502.522	97
502.739	94
502.956	75
503.172	100
503.389	90
503.606	114
503.823	102
504.04	98
504.256	96
504.473	97
504.69	75
504.907	97
505.123	106
505.34	89
505.557	79
505.773	88
505.99	98
506.207	97
506.423	96
506.64	89
506.856	82
507.073	90
507.289	97
507.506	95
507.722	106
507.939	99
508.155	103
508.372	89
508.588	102
508.805	105
509.021	102
509.238	117
509.454	104
509.67	104
509.887	110
510.103	136
510.319	208
510.536	700
510.752	2113
510.968	590
511.184	162
511.401	123
511.617	98
511.833	104
512.049	99
512.265	98
512.481	103
512.698	87
512.914	93
513.13	81
513.346	90
513.562	103
513.778	93
513.994	106
514.21	104
514.426	122
514.642	137
514.858	117
515.074	174
515.29	423
515.506	1341
515.721	510
515.937	154
516.153	111
516.369	99
516.585	94
516.801	91
517.016	106
517.232	90
517.448	92
517.664	80
517.879	89
518.095	74
518.311	100
518.527	88
518.742	89
518.958	102
519.173	114
519.389	101
519.605	96
519.82	101
520.036	104
520.251	117
520.467	113
520.682	90
520.898	106
521.113	120
521.329	128
521.544	209
521.76	524
521.975	2198
522.19	1329
522.406	292
522.621	125
522.836	110
523.052	94
523.267	99
523.482	88
523.698	116
523.913	122
524.128	95
524.343	89
524.559	95
524.774	98
524.989	102
525.204	106
525.419	93
525.634	92
525.849	96
526.064	86
526.28	84
526.495	88
526.71	91
526.925	98
527.14	85
527.355	91
527.57	107
527.785	99
527.999	99
528.214	106
528.429	111
528.644	93
528.859	97
529.074	98
529.289	130
529.503	173
529.718	91
529.933	84
530.148	93
530.363	86
530.577	89
530.792	110
531.007	80
531.221	82
531.436	85
531.651	97
531.865	80
532.08	94
532.295	95
532.509	101
532.724	102
532.938	107
533.153	90
533.367	106
533.582	100
533.796	106
534.011	90
534.225	85
534.44	105
534.654	82
534.868	99
535.083	79
535.297	86
535.511	111
535.726	114
535.94	93
536.154	106
536.369	98
536.583	79
536.797	91
537.011	73
537.225	97
537.44	92
537.654	88
537.868	113
538.082	92
538.296	84
538.51	110
538.724	85
538.938	97
539.153	106
539.367	98
539.581	89
539.795	99
540.009	95
540.222	100
540.436	91
540.65	94
540.864	86
541.078	96
541.292	95
541.506	97
541.72	98
541.934	94
542.147	98
542.361	102
542.575	95
542.789	90
543.002	101
543.216	102
543.43	99
543.644	88
543.857	81
544.071	102
544.285	98
544.498	100
544.712	87
544.925	100
545.139	105
545.352	105
545.566	88
545.779	95
545.993	91
546.206	90
546.42	88
546.633	90
546.847	84
547.06	91
547.274	93
547.487	81
547.7	85
547.914	88
548.127	102
548.34	95
548.554	82
548.767	81
548.98	103
549.193	95
549.407	110
549.62	95
549.833	81
550.046	88
550.259	92
550.473	98
550.686	94
550.899	81
551.112	95
551.325	94
551.538	88
551.751	109
551.964	92
552.177	84
552.39	102
552.603	97
552.816	88
553.029	99
553.242	86
553.455	97
553.667	87
553.88	106
554.093	94
554.306	102
554.519	96
554.732	87
554.944	100
555.157	93
555.37	93
555.583	99
555.795	89
556.008	93
556.221	96
556.433	110
556.646	88
556.859	87
557.071	96
557.284	95
557.496	86
557.709	78
557.921	94
558.134	90
558.346	93
558.559	98
558.771	107
558.984	93
559.196	92
559.409	86
559.621	96
559.833	97
560.046	92
560.258	80
560.47	90
560.683	75
560.895	81
561.107	89
561.32	78
561.532	96
561.744	102
561.956	84
562.168	87
562.381	94
562.593	92
562.805	90
563.017	88
563.229	92
563.441	73
563.653	98
563.865	100
564.077	88
564.289	83
564.501	102
564.713	79
564.925	86
565.137	101
565.349	99
565.561	92
565.773	107
565.985	93
566.197	93
566.408	79
566.62	78
566.832	70
567.044	98
567.255	87
567.467	92
567.679	98
567.891	92
568.102	85
568.314	73
568.526	83
568.737	87
568.949	88
569.161	84
569.372	95
569.584	93
569.795	93
570.007	105
570.218	217
570.43	128
570.641	94
570.853	92
571.064	85
571.276	101
571.487	107
571.698	92
571.91	83
572.121	82
572.333	84
572.544	70
572.755	84
572.966	101
573.178	89
573.389	88
573.6	104
573.811	94
574.023	92
574.234	99
574.445	94
574.656	96
574.867	86
575.078	99
575.289	88
575.501	88
575.712	81
575.923	76
576.134	87
576.345	90
576.556	93
576.767	104
576.978	93
577.188	101
577.399	102
577.61	79
577.821	104
578.032	116
578.243	240
578.454	719
578.665	218
578.875	94
579.086	81
579.297	84
579.508	96
579.718	83
579.929	98
580.14	91
580.35	85
580.561	100
580.772	86
580.982	107
581.193	93
581.403	84
581.614	92
581.825	99
582.035	97
582.246	77
582.456	87
582.667	98
