Data from Uncirc_1996_H10_HRD10591_00008.txt Node
Date: Wed Jan 03 11:32:04 EST 2024
User: Yrep
Spectrometer: HR+D1059
Trigger mode: 1
Integration Time (sec): 1.000000E-1
Scans to average: 1
Electric dark correction enabled: true
Nonlinearity correction enabled: false
Boxcar width: 0
XAxis mode: Wavelengths
Number of Pixels in Spectrum: 2048
>>>>>Begin Spectral Data<<<<<
223.165	-6.69
223.4	-6.69
223.635	-6.69
223.869	-16.69
224.104	-6.69
224.338	-15.69
224.573	-18.69
224.808	-12.69
225.042	-8.69
225.277	-18.69
225.511	9.31
225.746	5.31
225.98	3.31
226.215	9.31
226.449	16.31
226.683	15.31
226.918	27.31
227.152	18.31
227.387	31.31
227.621	38.31
227.856	57.31
228.09	49.31
228.324	54.31
228.559	63.31
228.793	69.31
229.027	73.31
229.262	53.31
229.496	68.31
229.73	76.31
229.964	82.31
230.199	75.31
230.433	81.31
230.667	79.31
230.901	71.31
231.136	81.31
231.37	83.31
231.604	90.31
231.838	92.31
232.072	97.31
232.306	101.31
232.541	76.31
232.775	91.31
233.009	82.31
233.243	77.31
233.477	100.31
233.711	88.31
233.945	77.31
234.179	81.31
234.413	74.31
234.647	89.31
234.881	79.31
235.115	70.31
235.349	83.31
235.583	95.31
235.817	77.31
236.051	78.31
236.285	67.31
236.519	85.31
236.753	89.31
236.987	89.31
237.221	73.31
237.455	88.31
237.689	74.31
237.922	82.31
238.156	87.31
238.39	75.31
238.624	84.31
238.858	83.31
239.091	77.31
239.325	62.31
239.559	86.31
239.793	70.31
240.027	90.31
240.26	82.31
240.494	64.31
240.728	96.31
240.961	89.31
241.195	87.31
241.429	69.31
241.662	65.31
241.896	75.31
242.13	77.31
242.363	86.31
242.597	77.31
242.83	86.31
243.064	80.31
243.298	83.31
243.531	84.31
243.765	92.31
243.998	79.31
244.232	89.31
244.465	92.31
244.699	80.31
244.932	91.31
245.166	93.31
245.399	70.31
245.633	70.31
245.866	73.31
246.099	77.31
246.333	82.31
246.566	67.31
246.8	69.31
247.033	85.31
247.266	76.31
247.5	78.31
247.733	80.31
247.966	89.31
248.2	85.31
248.433	90.31
248.666	85.31
248.899	83.31
249.133	95.31
249.366	101.31
249.599	93.31
249.832	78.31
250.066	83.31
250.299	79.31
250.532	89.31
250.765	83.31
250.998	79.31
251.231	88.31
251.465	77.31
251.698	70.31
251.931	83.31
252.164	82.31
252.397	98.31
252.63	81.31
252.863	93.31
253.096	87.31
253.329	85.31
253.562	92.31
253.795	74.31
254.028	72.31
254.261	78.31
254.494	103.31
254.727	80.31
254.96	93.31
255.193	75.31
255.426	90.31
255.659	82.31
255.892	83.31
256.124	93.31
256.357	86.31
256.59	81.31
256.823	85.31
257.056	78.31
257.289	98.31
257.521	80.31
257.754	77.31
257.987	90.31
258.22	89.31
258.452	87.31
258.685	86.31
258.918	81.31
259.151	78.31
259.383	91.31
259.616	79.31
259.849	78.31
260.081	90.31
260.314	89.31
260.547	85.31
260.779	81.31
261.012	91.31
261.244	84.31
261.477	91.31
261.71	97.31
261.942	109.31
262.175	112.31
262.407	65.31
262.64	89.31
262.872	88.31
263.105	87.31
263.337	100.31
263.57	87.31
263.802	68.31
264.035	91.31
264.267	89.31
264.499	71.31
264.732	100.31
264.964	94.31
265.197	89.31
265.429	97.31
265.661	74.31
265.894	77.31
266.126	82.31
266.358	88.31
266.591	82.31
266.823	92.31
267.055	97.31
267.287	92.31
267.52	79.31
267.752	100.31
267.984	102.31
268.216	68.31
268.448	89.31
268.681	81.31
268.913	90.31
269.145	77.31
269.377	99.31
269.609	99.31
269.841	78.31
270.073	90.31
270.306	75.31
270.538	92.31
270.77	90.31
271.002	86.31
271.234	93.31
271.466	90.31
271.698	99.31
271.93	90.31
272.162	77.31
272.394	96.31
272.626	85.31
272.858	94.31
273.09	81.31
273.322	81.31
273.553	84.31
273.785	83.31
274.017	90.31
274.249	76.31
274.481	93.31
274.713	93.31
274.945	90.31
275.176	77.31
275.408	91.31
275.64	84.31
275.872	81.31
276.104	83.31
276.335	97.31
276.567	87.31
276.799	99.31
277.031	95.31
277.262	81.31
277.494	99.31
277.726	96.31
277.957	86.31
278.189	94.31
278.421	90.31
278.652	79.31
278.884	79.31
279.115	90.31
279.347	80.31
279.579	101.31
279.81	79.31
280.042	87.31
280.273	102.31
280.505	88.31
280.736	89.31
280.968	86.31
281.199	89.31
281.431	87.31
281.662	109.31
281.894	96.31
282.125	90.31
282.356	103.31
282.588	116.31
282.819	110.31
283.051	82.31
283.282	95.31
283.513	73.31
283.745	85.31
283.976	87.31
284.207	80.31
284.439	86.31
284.67	92.31
284.901	94.31
285.132	80.31
285.364	89.31
285.595	81.31
285.826	90.31
286.057	97.31
286.288	98.31
286.52	81.31
286.751	94.31
286.982	84.31
287.213	92.31
287.444	94.31
287.675	86.31
287.906	86.31
288.138	91.31
288.369	93.31
288.6	94.31
288.831	99.31
289.062	81.31
289.293	99.31
289.524	91.31
289.755	98.31
289.986	89.31
290.217	89.31
290.448	94.31
290.679	91.31
290.91	87.31
291.141	101.31
291.371	94.31
291.602	89.31
291.833	85.31
292.064	102.31
292.295	100.31
292.526	82.31
292.757	75.31
292.987	79.31
293.218	86.31
293.449	81.31
293.68	82.31
293.91	98.31
294.141	105.31
294.372	101.31
294.603	99.31
294.833	86.31
295.064	82.31
295.295	96.31
295.525	84.31
295.756	101.31
295.987	104.31
296.217	134.31
296.448	107.31
296.679	104.31
296.909	114.31
297.14	98.31
297.37	86.31
297.601	94.31
297.831	96.31
298.062	93.31
298.292	93.31
298.523	79.31
298.753	88.31
298.984	91.31
299.214	98.31
299.445	85.31
299.675	91.31
299.905	86.31
300.136	98.31
300.366	81.31
300.597	92.31
300.827	87.31
301.057	89.31
301.288	95.31
301.518	98.31
301.748	80.31
301.979	102.31
302.209	85.31
302.439	96.31
302.669	86.31
302.9	97.31
303.13	79.31
303.36	83.31
303.59	116.31
303.82	107.31
304.051	95.31
304.281	98.31
304.511	102.31
304.741	91.31
304.971	86.31
305.201	97.31
305.431	87.31
305.661	79.31
305.891	89.31
306.121	101.31
306.352	111.31
306.582	84.31
306.812	95.31
307.042	86.31
307.272	89.31
307.502	78.31
307.731	89.31
307.961	98.31
308.191	80.31
308.421	87.31
308.651	82.31
308.881	103.31
309.111	93.31
309.341	102.31
309.571	98.31
309.8	93.31
310.03	105.31
310.26	100.31
310.49	85.31
310.72	106.31
310.949	93.31
311.179	97.31
311.409	83.31
311.639	94.31
311.868	90.31
312.098	92.31
312.328	112.31
312.557	112.31
312.787	106.31
313.017	101.31
313.246	100.31
313.476	87.31
313.706	101.31
313.935	99.31
314.165	109.31
314.394	97.31
314.624	93.31
314.853	102.31
315.083	94.31
315.312	86.31
315.542	91.31
315.771	87.31
316.001	106.31
316.23	99.31
316.46	92.31
316.689	94.31
316.919	92.31
317.148	96.31
317.377	88.31
317.607	108.31
317.836	78.31
318.065	92.31
318.295	99.31
318.524	83.31
318.753	79.31
318.983	94.31
319.212	95.31
319.441	95.31
319.67	105.31
319.9	99.31
320.129	109.31
320.358	108.31
320.587	90.31
320.816	109.31
321.046	102.31
321.275	109.31
321.504	86.31
321.733	87.31
321.962	104.31
322.191	107.31
322.42	107.31
322.649	110.31
322.878	111.31
323.108	108.31
323.337	118.31
323.566	120.31
323.795	155.31
324.024	205.31
324.253	346.31
324.482	754.31
324.71	1553.31
324.939	2031.31
325.168	745.31
325.397	241.31
325.626	145.31
325.855	110.31
326.084	124.31
326.313	120.31
326.542	156.31
326.77	226.31
326.999	425.31
327.228	888.31
327.457	1600.31
327.686	1275.31
327.914	375.31
328.143	242.31
328.372	177.31
328.6	118.31
328.829	114.31
329.058	117.31
329.287	134.31
329.515	108.31
329.744	106.31
329.972	98.31
330.201	102.31
330.43	103.31
330.658	118.31
330.887	149.31
331.115	111.31
331.344	105.31
331.572	106.31
331.801	95.31
332.03	104.31
332.258	99.31
332.486	82.31
332.715	96.31
332.943	102.31
333.172	94.31
333.4	99.31
333.629	91.31
333.857	107.31
334.085	113.31
334.314	114.31
334.542	107.31
334.771	100.31
334.999	102.31
335.227	97.31
335.455	115.31
335.684	105.31
335.912	106.31
336.14	103.31
336.369	98.31
336.597	106.31
336.825	95.31
337.053	90.31
337.281	89.31
337.51	95.31
337.738	102.31
337.966	123.31
338.194	106.31
338.422	134.31
338.65	116.31
338.878	96.31
339.106	94.31
339.334	93.31
339.562	87.31
339.79	106.31
340.018	94.31
340.246	92.31
340.474	105.31
340.702	91.31
340.93	99.31
341.158	91.31
341.386	85.31
341.614	99.31
341.842	96.31
342.07	108.31
342.298	106.31
342.526	86.31
342.754	90.31
342.981	89.31
343.209	89.31
343.437	108.31
343.665	93.31
343.893	90.31
344.12	101.31
344.348	92.31
344.576	104.31
344.804	93.31
345.031	91.31
345.259	86.31
345.487	101.31
345.714	94.31
345.942	89.31
346.17	101.31
346.397	82.31
346.625	93.31
346.853	97.31
347.08	94.31
347.308	113.31
347.535	94.31
347.763	95.31
347.99	97.31
348.218	111.31
348.445	119.31
348.673	117.31
348.9	102.31
349.128	93.31
349.355	101.31
349.583	91.31
349.81	89.31
350.037	84.31
350.265	100.31
350.492	108.31
350.72	91.31
350.947	96.31
351.174	102.31
351.402	104.31
351.629	110.31
351.856	106.31
352.083	104.31
352.311	109.31
352.538	111.31
352.765	118.31
352.992	102.31
353.22	115.31
353.447	100.31
353.674	93.31
353.901	87.31
354.128	97.31
354.355	101.31
354.583	110.31
354.81	101.31
355.037	106.31
355.264	105.31
355.491	107.31
355.718	94.31
355.945	101.31
356.172	90.31
356.399	103.31
356.626	101.31
356.853	98.31
357.08	104.31
357.307	96.31
357.534	91.31
357.761	102.31
357.988	107.31
358.215	104.31
358.441	95.31
358.668	90.31
358.895	96.31
359.122	93.31
359.349	94.31
359.576	93.31
359.802	102.31
360.029	115.31
360.256	106.31
360.483	90.31
360.709	93.31
360.936	94.31
361.163	100.31
361.39	91.31
361.616	91.31
361.843	92.31
362.07	107.31
362.296	101.31
362.523	105.31
362.749	86.31
362.976	90.31
363.203	97.31
363.429	100.31
363.656	92.31
363.882	94.31
364.109	87.31
364.335	91.31
364.562	81.31
364.788	103.31
365.015	99.31
365.241	98.31
365.468	106.31
365.694	111.31
365.92	97.31
366.147	89.31
366.373	94.31
366.599	86.31
366.826	96.31
367.052	99.31
367.278	80.31
367.505	93.31
367.731	85.31
367.957	87.31
368.184	109.31
368.41	97.31
368.636	95.31
368.862	119.31
369.089	99.31
369.315	92.31
369.541	90.31
369.767	94.31
369.993	82.31
370.219	92.31
370.445	89.31
370.672	93.31
370.898	93.31
371.124	98.31
371.35	77.31
371.576	90.31
371.802	98.31
372.028	81.31
372.254	91.31
372.48	84.31
372.706	92.31
372.932	96.31
373.158	103.31
373.384	101.31
373.61	93.31
373.835	91.31
374.061	98.31
374.287	99.31
374.513	92.31
374.739	94.31
374.965	90.31
375.191	95.31
375.416	101.31
375.642	89.31
375.868	100.31
376.094	97.31
376.319	96.31
376.545	99.31
376.771	87.31
376.997	98.31
377.222	87.31
377.448	86.31
377.674	100.31
377.899	106.31
378.125	98.31
378.35	78.31
378.576	109.31
378.802	93.31
379.027	100.31
379.253	110.31
379.478	99.31
379.704	96.31
379.929	122.31
380.155	117.31
380.38	100.31
380.606	88.31
380.831	97.31
381.057	110.31
381.282	85.31
381.507	107.31
381.733	101.31
381.958	96.31
382.184	109.31
382.409	93.31
382.634	106.31
382.86	94.31
383.085	97.31
383.31	94.31
383.535	112.31
383.761	100.31
383.986	110.31
384.211	94.31
384.436	95.31
384.662	102.31
384.887	101.31
385.112	111.31
385.337	120.31
385.562	108.31
385.787	106.31
386.013	112.31
386.238	130.31
386.463	116.31
386.688	99.31
386.913	111.31
387.138	115.31
387.363	109.31
387.588	98.31
387.813	110.31
388.038	111.31
388.263	119.31
388.488	110.31
388.713	107.31
388.938	104.31
389.163	89.31
389.387	91.31
389.612	92.31
389.837	90.31
390.062	117.31
390.287	102.31
390.512	103.31
390.736	85.31
390.961	93.31
391.186	110.31
391.411	102.31
391.636	76.31
391.86	91.31
392.085	82.31
392.31	76.31
392.534	91.31
392.759	85.31
392.984	99.31
393.208	100.31
393.433	121.31
393.658	120.31
393.882	95.31
394.107	84.31
394.331	83.31
394.556	81.31
394.78	85.31
395.005	90.31
395.229	89.31
395.454	87.31
395.678	80.31
395.903	89.31
396.127	92.31
396.352	101.31
396.576	99.31
396.801	89.31
397.025	93.31
397.249	94.31
397.474	96.31
397.698	103.31
397.922	109.31
398.147	98.31
398.371	87.31
398.595	96.31
398.82	72.31
399.044	105.31
399.268	85.31
399.492	92.31
399.717	85.31
399.941	91.31
400.165	87.31
400.389	90.31
400.613	91.31
400.837	84.31
401.062	92.31
401.286	86.31
401.51	93.31
401.734	86.31
401.958	89.31
402.182	120.31
402.406	126.31
402.63	113.31
402.854	83.31
403.078	93.31
403.302	96.31
403.526	97.31
403.75	85.31
403.974	101.31
404.198	91.31
404.422	98.31
404.645	92.31
404.869	89.31
405.093	79.31
405.317	106.31
405.541	119.31
405.765	93.31
405.988	120.31
406.212	159.31
406.436	195.31
406.66	129.31
406.883	103.31
407.107	86.31
407.331	92.31
407.555	106.31
407.778	101.31
408.002	89.31
408.226	112.31
408.449	73.31
408.673	92.31
408.896	82.31
409.12	97.31
409.344	89.31
409.567	89.31
409.791	95.31
410.014	91.31
410.238	85.31
410.461	91.31
410.685	105.31
410.908	105.31
411.132	108.31
411.355	101.31
411.578	101.31
411.802	95.31
412.025	103.31
412.249	98.31
412.472	98.31
412.695	88.31
412.919	89.31
413.142	92.31
413.365	84.31
413.589	79.31
413.812	92.31
414.035	97.31
414.258	99.31
414.482	99.31
414.705	107.31
414.928	96.31
415.151	92.31
415.374	104.31
415.597	83.31
415.821	97.31
416.044	78.31
416.267	93.31
416.49	78.31
416.713	88.31
416.936	101.31
417.159	88.31
417.382	94.31
417.605	107.31
417.828	85.31
418.051	105.31
418.274	93.31
418.497	84.31
418.72	83.31
418.943	101.31
419.166	97.31
419.389	89.31
419.611	92.31
419.834	99.31
420.057	94.31
420.28	94.31
420.503	82.31
420.726	99.31
420.948	93.31
421.171	100.31
421.394	94.31
421.617	86.31
421.839	84.31
422.062	81.31
422.285	104.31
422.507	119.31
422.73	100.31
422.953	97.31
423.175	96.31
423.398	87.31
423.621	87.31
423.843	79.31
424.066	89.31
424.288	94.31
424.511	90.31
424.733	92.31
424.956	113.31
425.178	118.31
425.401	102.31
425.623	109.31
425.846	103.31
426.068	104.31
426.291	89.31
426.513	90.31
426.735	89.31
426.958	90.31
427.18	104.31
427.402	134.31
427.625	151.31
427.847	123.31
428.069	85.31
428.292	74.31
428.514	94.31
428.736	93.31
428.958	69.31
429.181	88.31
429.403	95.31
429.625	101.31
429.847	98.31
430.069	102.31
430.292	98.31
430.514	96.31
430.736	85.31
430.958	86.31
431.18	89.31
431.402	87.31
431.624	87.31
431.846	92.31
432.068	92.31
432.29	95.31
432.512	94.31
432.734	69.31
432.956	86.31
433.178	100.31
433.4	110.31
433.622	95.31
433.844	86.31
434.066	91.31
434.287	102.31
434.509	87.31
434.731	96.31
434.953	94.31
435.175	85.31
435.397	100.31
435.618	106.31
435.84	102.31
436.062	115.31
436.284	107.31
436.505	103.31
436.727	103.31
436.949	94.31
437.17	99.31
437.392	100.31
437.614	106.31
437.835	114.31
438.057	119.31
438.278	114.31
438.5	114.31
438.721	118.31
438.943	103.31
439.165	85.31
439.386	89.31
439.608	94.31
439.829	110.31
440.05	115.31
440.272	125.31
440.493	112.31
440.715	93.31
440.936	85.31
441.158	94.31
441.379	90.31
441.6	86.31
441.822	99.31
442.043	85.31
442.264	103.31
442.486	106.31
442.707	101.31
442.928	105.31
443.149	116.31
443.371	122.31
443.592	86.31
443.813	110.31
444.034	108.31
444.255	92.31
444.476	98.31
444.698	86.31
444.919	98.31
445.14	147.31
445.361	124.31
445.582	112.31
445.803	134.31
446.024	141.31
446.245	137.31
446.466	108.31
446.687	65.31
446.908	95.31
447.129	93.31
447.35	87.31
447.571	92.31
447.792	93.31
448.013	112.31
448.234	106.31
448.455	109.31
448.675	129.31
448.896	121.31
449.117	95.31
449.338	118.31
449.559	132.31
449.779	151.31
450	91.31
450.221	84.31
450.442	101.31
450.662	81.31
450.883	106.31
451.104	106.31
451.324	99.31
451.545	105.31
451.766	83.31
451.986	80.31
452.207	95.31
452.428	91.31
452.648	101.31
452.869	110.31
453.089	101.31
453.31	111.31
453.53	90.31
453.751	94.31
453.971	114.31
454.192	107.31
454.412	80.31
454.633	71.31
454.853	93.31
455.073	99.31
455.294	88.31
455.514	91.31
455.734	94.31
455.955	94.31
456.175	92.31
456.395	99.31
456.616	97.31
456.836	87.31
457.056	89.31
457.276	101.31
457.497	94.31
457.717	90.31
457.937	86.31
458.157	80.31
458.377	90.31
458.598	107.31
458.818	139.31
459.038	148.31
459.258	114.31
459.478	84.31
459.698	93.31
459.918	85.31
460.138	81.31
460.358	73.31
460.578	84.31
460.798	100.31
461.018	84.31
461.238	106.31
461.458	83.31
461.678	81.31
461.898	87.31
462.118	89.31
462.338	93.31
462.558	93.31
462.777	89.31
462.997	88.31
463.217	95.31
463.437	89.31
463.657	84.31
463.876	83.31
464.096	86.31
464.316	85.31
464.536	85.31
464.755	100.31
464.975	111.31
465.195	142.31
465.414	147.31
465.634	89.31
465.854	83.31
466.073	89.31
466.293	89.31
466.512	87.31
466.732	97.31
466.951	100.31
467.171	96.31
467.391	103.31
467.61	92.31
467.829	99.31
468.049	89.31
468.268	91.31
468.488	82.31
468.707	91.31
468.927	81.31
469.146	90.31
469.365	87.31
469.585	94.31
469.804	86.31
470.023	95.31
470.243	94.31
470.462	89.31
470.681	115.31
470.901	85.31
471.12	93.31
471.339	110.31
471.558	89.31
471.777	89.31
471.997	90.31
472.216	91.31
472.435	79.31
472.654	98.31
472.873	85.31
473.092	86.31
473.311	86.31
473.53	79.31
473.749	92.31
473.968	92.31
474.187	102.31
474.406	86.31
474.625	70.31
474.844	83.31
475.063	94.31
475.282	103.31
475.501	98.31
475.72	83.31
475.939	94.31
476.158	101.31
476.377	88.31
476.596	84.31
476.814	90.31
477.033	95.31
477.252	97.31
477.471	85.31
477.69	98.31
477.908	93.31
478.127	91.31
478.346	101.31
478.564	89.31
478.783	94.31
479.002	97.31
479.22	102.31
479.439	112.31
479.658	97.31
479.876	96.31
480.095	81.31
480.313	86.31
480.532	91.31
480.751	98.31
480.969	95.31
481.188	93.31
481.406	96.31
481.624	86.31
481.843	94.31
482.061	96.31
482.28	79.31
482.498	89.31
482.717	87.31
482.935	79.31
483.153	90.31
483.372	94.31
483.59	91.31
483.808	98.31
484.027	95.31
484.245	85.31
484.463	92.31
484.681	99.31
484.9	87.31
485.118	90.31
485.336	98.31
485.554	94.31
485.772	103.31
485.99	115.31
486.209	95.31
486.427	112.31
486.645	103.31
486.863	107.31
487.081	96.31
487.299	99.31
487.517	101.31
487.735	96.31
487.953	94.31
488.171	98.31
488.389	110.31
488.607	75.31
488.825	78.31
489.043	91.31
489.261	83.31
489.479	90.31
489.696	79.31
489.914	103.31
490.132	85.31
490.35	89.31
490.568	96.31
490.786	89.31
491.003	95.31
491.221	104.31
491.439	97.31
491.657	95.31
491.874	91.31
492.092	87.31
492.31	97.31
492.527	99.31
492.745	87.31
492.963	83.31
493.18	91.31
493.398	99.31
493.615	95.31
493.833	90.31
494.05	92.31
494.268	96.31
494.485	85.31
494.703	93.31
494.92	89.31
495.138	92.31
495.355	92.31
495.573	95.31
495.79	78.31
496.008	113.31
496.225	101.31
496.442	112.31
496.66	102.31
496.877	100.31
497.094	96.31
497.312	80.31
497.529	97.31
497.746	91.31
497.963	86.31
498.181	90.31
498.398	101.31
498.615	108.31
498.832	109.31
499.049	97.31
499.267	89.31
499.484	106.31
499.701	99.31
499.918	98.31
500.135	96.31
500.352	96.31
500.569	97.31
500.786	102.31
501.003	99.31
501.22	108.31
501.437	106.31
501.654	110.31
501.871	100.31
502.088	89.31
502.305	83.31
502.522	102.31
502.739	97.31
502.956	94.31
503.172	88.31
503.389	89.31
503.606	96.31
503.823	89.31
504.04	103.31
504.256	94.31
504.473	96.31
504.69	94.31
504.907	102.31
505.123	103.31
505.34	84.31
505.557	97.31
505.773	96.31
505.99	102.31
506.207	93.31
506.423	103.31
506.64	88.31
506.856	85.31
507.073	92.31
507.289	89.31
507.506	96.31
507.722	98.31
507.939	109.31
508.155	85.31
508.372	87.31
508.588	88.31
508.805	89.31
509.021	82.31
509.238	107.31
509.454	102.31
509.67	95.31
509.887	120.31
510.103	104.31
510.319	197.31
510.536	591.31
510.752	1770.31
510.968	519.31
511.184	161.31
511.401	105.31
511.617	85.31
511.833	92.31
512.049	99.31
512.265	100.31
512.481	92.31
512.698	89.31
512.914	97.31
513.13	95.31
513.346	86.31
513.562	102.31
513.778	96.31
513.994	89.31
514.21	115.31
514.426	117.31
514.642	114.31
