Data from Uncirc_1996_H10_HRD10591_00026.txt Node
Date: Wed Jan 03 11:32:07 EST 2024
User: Yrep
Spectrometer: HR+D1059
Trigger mode: 1
Integration Time (sec): 1.000000E-1
Scans to average: 1
Electric dark correction enabled: true
Nonlinearity correction enabled: false
Boxcar width: 0
XAxis mode: Wavelengths
Number of Pixels in Spectrum: 2048
>>>>>Begin Spectral Data<<<<<
223.165	-11.69
223.4	-11.69
223.635	-11.69
223.869	-22.69
224.104	-16.69
224.338	-23.69
224.573	-22.69
224.808	-15.69
225.042	0.31
225.277	0.31
225.511	3.31
225.746	14.31
225.98	-1.69
226.215	15.31
226.449	18.31
226.683	7.31
226.918	29.31
227.152	26.31
227.387	26.31
227.621	45.31
227.856	49.31
228.09	44.31
228.324	44.31
228.559	52.31
228.793	58.31
229.027	56.31
229.262	68.31
229.496	71.31
229.73	101.31
229.964	86.31
230.199	75.31
230.433	74.31
230.667	85.31
230.901	67.31
231.136	77.31
231.37	66.31
231.604	67.31
231.838	95.31
232.072	84.31
232.306	75.31
232.541	83.31
232.775	85.31
233.009	83.31
233.243	85.31
233.477	74.31
233.711	75.31
233.945	75.31
234.179	88.31
234.413	77.31
234.647	80.31
234.881	79.31
235.115	64.31
235.349	64.31
235.583	71.31
235.817	83.31
236.051	86.31
236.285	82.31
236.519	71.31
236.753	80.31
236.987	81.31
237.221	92.31
237.455	95.31
237.689	76.31
237.922	82.31
238.156	69.31
238.39	79.31
238.624	87.31
238.858	85.31
239.091	76.31
239.325	67.31
239.559	77.31
239.793	86.31
240.027	64.31
240.26	69.31
240.494	78.31
240.728	75.31
240.961	82.31
241.195	73.31
241.429	73.31
241.662	79.31
241.896	59.31
242.13	76.31
242.363	67.31
242.597	87.31
242.83	71.31
243.064	79.31
243.298	80.31
243.531	80.31
243.765	80.31
243.998	73.31
244.232	90.31
244.465	91.31
244.699	74.31
244.932	90.31
245.166	80.31
245.399	75.31
245.633	85.31
245.866	98.31
246.099	85.31
246.333	72.31
246.566	80.31
246.8	81.31
247.033	78.31
247.266	74.31
247.5	81.31
247.733	89.31
247.966	74.31
248.2	84.31
248.433	81.31
248.666	82.31
248.899	80.31
249.133	94.31
249.366	93.31
249.599	97.31
249.832	82.31
250.066	79.31
250.299	80.31
250.532	77.31
250.765	84.31
250.998	79.31
251.231	79.31
251.465	90.31
251.698	81.31
251.931	77.31
252.164	76.31
252.397	67.31
252.63	83.31
252.863	87.31
253.096	81.31
253.329	73.31
253.562	77.31
253.795	87.31
254.028	92.31
254.261	83.31
254.494	59.31
254.727	84.31
254.96	81.31
255.193	79.31
255.426	79.31
255.659	75.31
255.892	78.31
256.124	88.31
256.357	65.31
256.59	87.31
256.823	73.31
257.056	80.31
257.289	88.31
257.521	86.31
257.754	80.31
257.987	81.31
258.22	84.31
258.452	75.31
258.685	82.31
258.918	76.31
259.151	76.31
259.383	86.31
259.616	94.31
259.849	85.31
260.081	97.31
260.314	96.31
260.547	77.31
260.779	82.31
261.012	79.31
261.244	82.31
261.477	89.31
261.71	98.31
261.942	89.31
262.175	92.31
262.407	101.31
262.64	94.31
262.872	83.31
263.105	76.31
263.337	87.31
263.57	85.31
263.802	81.31
264.035	78.31
264.267	82.31
264.499	97.31
264.732	87.31
264.964	82.31
265.197	94.31
265.429	72.31
265.661	85.31
265.894	77.31
266.126	84.31
266.358	81.31
266.591	78.31
266.823	83.31
267.055	88.31
267.287	79.31
267.52	91.31
267.752	86.31
267.984	90.31
268.216	87.31
268.448	78.31
268.681	87.31
268.913	79.31
269.145	81.31
269.377	87.31
269.609	77.31
269.841	93.31
270.073	80.31
270.306	84.31
270.538	76.31
270.77	97.31
271.002	97.31
271.234	94.31
271.466	91.31
271.698	82.31
271.93	83.31
272.162	84.31
272.394	79.31
272.626	94.31
272.858	88.31
273.09	81.31
273.322	82.31
273.553	79.31
273.785	90.31
274.017	78.31
274.249	80.31
274.481	81.31
274.713	77.31
274.945	83.31
275.176	74.31
275.408	93.31
275.64	74.31
275.872	91.31
276.104	86.31
276.335	83.31
276.567	95.31
276.799	95.31
277.031	104.31
277.262	110.31
277.494	101.31
277.726	90.31
277.957	79.31
278.189	90.31
278.421	92.31
278.652	77.31
278.884	91.31
279.115	77.31
279.347	85.31
279.579	82.31
279.81	83.31
280.042	93.31
280.273	89.31
280.505	68.31
280.736	87.31
280.968	84.31
281.199	103.31
281.431	88.31
281.662	102.31
281.894	66.31
282.125	94.31
282.356	108.31
282.588	123.31
282.819	97.31
283.051	90.31
283.282	75.31
283.513	88.31
283.745	87.31
283.976	90.31
284.207	88.31
284.439	74.31
284.67	80.31
284.901	77.31
285.132	94.31
285.364	98.31
285.595	89.31
285.826	80.31
286.057	78.31
286.288	89.31
286.52	88.31
286.751	78.31
286.982	98.31
287.213	87.31
287.444	91.31
287.675	80.31
287.906	90.31
288.138	82.31
288.369	93.31
288.6	104.31
288.831	108.31
289.062	93.31
289.293	87.31
289.524	82.31
289.755	79.31
289.986	83.31
290.217	90.31
290.448	83.31
290.679	97.31
290.91	96.31
291.141	74.31
291.371	91.31
291.602	72.31
291.833	76.31
292.064	95.31
292.295	84.31
292.526	96.31
292.757	100.31
292.987	91.31
293.218	83.31
293.449	98.31
293.68	89.31
293.91	91.31
294.141	84.31
294.372	84.31
294.603	80.31
294.833	77.31
295.064	95.31
295.295	87.31
295.525	92.31
295.756	87.31
295.987	99.31
296.217	119.31
296.448	118.31
296.679	95.31
296.909	95.31
297.14	98.31
297.37	90.31
297.601	92.31
297.831	84.31
298.062	99.31
298.292	104.31
298.523	89.31
298.753	90.31
298.984	73.31
299.214	81.31
299.445	94.31
299.675	93.31
299.905	87.31
300.136	91.31
300.366	105.31
300.597	101.31
300.827	95.31
301.057	107.31
301.288	107.31
301.518	97.31
301.748	95.31
301.979	89.31
302.209	86.31
302.439	98.31
302.669	85.31
302.9	87.31
303.13	105.31
303.36	101.31
303.59	104.31
303.82	95.31
304.051	93.31
304.281	89.31
304.511	78.31
304.741	76.31
304.971	90.31
305.201	91.31
305.431	91.31
305.661	94.31
305.891	93.31
306.121	97.31
306.352	103.31
306.582	96.31
306.812	101.31
307.042	89.31
307.272	81.31
307.502	92.31
307.731	90.31
307.961	89.31
308.191	92.31
308.421	108.31
308.651	88.31
308.881	92.31
309.111	86.31
309.341	87.31
309.571	100.31
309.8	99.31
310.03	95.31
310.26	96.31
310.49	92.31
310.72	98.31
310.949	87.31
311.179	100.31
311.409	76.31
311.639	99.31
311.868	88.31
312.098	85.31
312.328	92.31
312.557	92.31
312.787	103.31
313.017	106.31
313.246	111.31
313.476	91.31
313.706	88.31
313.935	90.31
314.165	87.31
314.394	94.31
314.624	92.31
314.853	96.31
315.083	82.31
315.312	80.31
315.542	88.31
315.771	81.31
316.001	83.31
316.23	100.31
316.46	94.31
316.689	97.31
316.919	84.31
317.148	100.31
317.377	99.31
317.607	82.31
317.836	104.31
318.065	98.31
318.295	90.31
318.524	87.31
318.753	86.31
318.983	93.31
319.212	95.31
319.441	112.31
319.67	101.31
319.9	104.31
320.129	79.31
320.358	89.31
320.587	115.31
320.816	96.31
321.046	93.31
321.275	89.31
321.504	91.31
321.733	100.31
321.962	96.31
322.191	90.31
322.42	105.31
322.649	121.31
322.878	109.31
323.108	108.31
323.337	104.31
323.566	123.31
323.795	151.31
324.024	182.31
324.253	365.31
324.482	741.31
324.71	1554.31
324.939	1995.31
325.168	742.31
325.397	233.31
325.626	128.31
325.855	121.31
326.084	124.31
326.313	128.31
326.542	152.31
326.77	213.31
326.999	420.31
327.228	858.31
327.457	1603.31
327.686	1228.31
327.914	360.31
328.143	215.31
328.372	163.31
328.6	108.31
328.829	105.31
329.058	116.31
329.287	117.31
329.515	102.31
329.744	97.31
329.972	97.31
330.201	84.31
330.43	111.31
330.658	104.31
330.887	135.31
331.115	115.31
331.344	96.31
331.572	100.31
331.801	101.31
332.03	101.31
332.258	76.31
332.486	83.31
332.715	107.31
332.943	111.31
333.172	97.31
333.4	99.31
333.629	111.31
333.857	102.31
334.085	110.31
334.314	87.31
334.542	106.31
334.771	101.31
334.999	83.31
335.227	107.31
335.455	77.31
335.684	92.31
335.912	85.31
336.14	96.31
336.369	86.31
336.597	108.31
336.825	113.31
337.053	95.31
337.281	102.31
337.51	89.31
337.738	93.31
337.966	106.31
338.194	114.31
338.422	113.31
338.65	95.31
338.878	99.31
339.106	81.31
339.334	90.31
339.562	103.31
339.79	99.31
340.018	92.31
340.246	90.31
340.474	98.31
340.702	85.31
340.93	87.31
341.158	95.31
341.386	92.31
341.614	90.31
341.842	85.31
342.07	83.31
342.298	88.31
342.526	84.31
342.754	78.31
342.981	103.31
343.209	93.31
343.437	95.31
343.665	98.31
343.893	92.31
344.12	84.31
344.348	93.31
344.576	87.31
344.804	102.31
345.031	83.31
345.259	95.31
345.487	83.31
345.714	91.31
345.942	95.31
346.17	103.31
346.397	77.31
346.625	98.31
346.853	87.31
347.08	97.31
347.308	81.31
347.535	79.31
347.763	92.31
347.99	80.31
348.218	99.31
348.445	101.31
348.673	106.31
348.9	104.31
349.128	96.31
349.355	85.31
349.583	97.31
349.81	104.31
350.037	95.31
350.265	92.31
350.492	93.31
350.72	87.31
350.947	93.31
351.174	113.31
351.402	105.31
351.629	99.31
351.856	90.31
352.083	103.31
352.311	105.31
352.538	97.31
352.765	96.31
352.992	105.31
353.22	107.31
353.447	111.31
353.674	107.31
353.901	107.31
354.128	88.31
354.355	100.31
354.583	91.31
354.81	97.31
355.037	99.31
355.264	110.31
355.491	90.31
355.718	90.31
355.945	73.31
356.172	95.31
356.399	101.31
356.626	104.31
356.853	100.31
357.08	87.31
357.307	85.31
357.534	98.31
357.761	82.31
357.988	98.31
358.215	95.31
358.441	95.31
358.668	99.31
358.895	93.31
359.122	94.31
359.349	86.31
359.576	93.31
359.802	93.31
360.029	99.31
360.256	101.31
360.483	101.31
360.709	103.31
360.936	96.31
361.163	93.31
361.39	88.31
361.616	92.31
361.843	98.31
362.07	93.31
362.296	98.31
362.523	91.31
362.749	98.31
362.976	94.31
363.203	100.31
363.429	87.31
363.656	100.31
363.882	94.31
364.109	83.31
364.335	99.31
364.562	91.31
364.788	96.31
365.015	96.31
365.241	101.31
365.468	93.31
365.694	89.31
365.92	99.31
366.147	92.31
366.373	88.31
366.599	90.31
366.826	98.31
367.052	89.31
367.278	103.31
367.505	83.31
367.731	96.31
367.957	83.31
368.184	83.31
368.41	101.31
368.636	114.31
368.862	122.31
369.089	108.31
369.315	111.31
369.541	92.31
369.767	98.31
369.993	76.31
370.219	75.31
370.445	92.31
370.672	83.31
370.898	89.31
371.124	77.31
371.35	85.31
371.576	85.31
371.802	84.31
372.028	93.31
372.254	90.31
372.48	83.31
372.706	79.31
372.932	92.31
373.158	96.31
373.384	94.31
373.61	75.31
373.835	96.31
374.061	93.31
374.287	103.31
374.513	88.31
374.739	89.31
374.965	96.31
375.191	90.31
375.416	81.31
375.642	101.31
375.868	88.31
376.094	103.31
376.319	92.31
376.545	88.31
376.771	81.31
376.997	91.31
377.222	83.31
377.448	96.31
377.674	94.31
377.899	82.31
378.125	84.31
378.35	99.31
378.576	80.31
378.802	98.31
379.027	92.31
379.253	82.31
379.478	82.31
379.704	97.31
379.929	100.31
380.155	99.31
380.38	86.31
380.606	96.31
380.831	83.31
381.057	89.31
381.282	95.31
381.507	92.31
381.733	98.31
381.958	107.31
382.184	103.31
382.409	94.31
382.634	98.31
382.86	98.31
383.085	95.31
383.31	95.31
383.535	96.31
383.761	105.31
383.986	96.31
384.211	110.31
384.436	92.31
384.662	104.31
384.887	109.31
385.112	105.31
385.337	108.31
385.562	102.31
385.787	97.31
386.013	112.31
386.238	101.31
386.463	98.31
386.688	109.31
386.913	94.31
387.138	109.31
387.363	93.31
387.588	83.31
387.813	103.31
388.038	97.31
388.263	115.31
388.488	104.31
388.713	107.31
388.938	105.31
389.163	87.31
389.387	100.31
389.612	95.31
389.837	100.31
390.062	95.31
390.287	93.31
390.512	87.31
390.736	95.31
390.961	98.31
391.186	88.31
391.411	87.31
391.636	99.31
391.86	87.31
392.085	87.31
392.31	88.31
392.534	84.31
392.759	92.31
392.984	88.31
393.208	88.31
393.433	96.31
393.658	101.31
393.882	86.31
394.107	93.31
394.331	73.31
394.556	76.31
394.78	83.31
395.005	87.31
395.229	81.31
395.454	95.31
395.678	77.31
395.903	82.31
396.127	92.31
396.352	95.31
396.576	99.31
396.801	93.31
397.025	92.31
397.249	97.31
397.474	93.31
397.698	89.31
397.922	91.31
398.147	94.31
398.371	82.31
398.595	83.31
398.82	85.31
399.044	93.31
399.268	98.31
399.492	99.31
399.717	87.31
399.941	101.31
400.165	87.31
400.389	90.31
400.613	87.31
400.837	90.31
401.062	84.31
401.286	69.31
401.51	96.31
401.734	91.31
401.958	99.31
402.182	127.31
402.406	140.31
402.63	101.31
402.854	94.31
403.078	81.31
403.302	84.31
403.526	98.31
403.75	98.31
403.974	85.31
404.198	79.31
404.422	70.31
404.645	79.31
404.869	84.31
405.093	100.31
405.317	107.31
405.541	102.31
405.765	88.31
405.988	100.31
406.212	161.31
406.436	210.31
406.66	127.31
406.883	102.31
407.107	83.31
407.331	96.31
407.555	75.31
407.778	106.31
408.002	97.31
408.226	81.31
408.449	92.31
408.673	89.31
408.896	107.31
409.12	113.31
409.344	81.31
409.567	96.31
409.791	81.31
410.014	110.31
410.238	87.31
410.461	96.31
410.685	95.31
410.908	99.31
411.132	104.31
411.355	104.31
411.578	90.31
411.802	93.31
412.025	77.31
412.249	80.31
412.472	97.31
412.695	103.31
412.919	91.31
413.142	72.31
413.365	102.31
413.589	90.31
413.812	80.31
414.035	87.31
414.258	90.31
414.482	93.31
414.705	96.31
414.928	102.31
415.151	86.31
415.374	79.31
415.597	91.31
415.821	99.31
416.044	88.31
416.267	89.31
416.49	88.31
416.713	101.31
416.936	90.31
417.159	86.31
417.382	96.31
417.605	93.31
417.828	91.31
418.051	79.31
418.274	91.31
418.497	91.31
418.72	87.31
418.943	87.31
419.166	77.31
419.389	92.31
419.611	90.31
419.834	94.31
420.057	91.31
420.28	75.31
420.503	84.31
420.726	87.31
420.948	87.31
421.171	100.31
421.394	88.31
421.617	105.31
421.839	91.31
422.062	107.31
422.285	107.31
422.507	105.31
422.73	110.31
422.953	92.31
423.175	89.31
423.398	97.31
423.621	101.31
423.843	86.31
424.066	98.31
424.288	88.31
424.511	91.31
424.733	96.31
424.956	100.31
425.178	96.31
425.401	108.31
425.623	95.31
425.846	84.31
426.068	92.31
426.291	94.31
426.513	88.31
426.735	111.31
426.958	83.31
427.18	116.31
427.402	151.31
427.625	157.31
427.847	123.31
428.069	96.31
428.292	99.31
428.514	93.31
428.736	72.31
428.958	82.31
429.181	94.31
429.403	87.31
429.625	93.31
429.847	85.31
430.069	100.31
430.292	95.31
430.514	81.31
430.736	96.31
430.958	89.31
431.18	77.31
431.402	84.31
431.624	89.31
431.846	86.31
432.068	85.31
432.29	88.31
432.512	68.31
432.734	95.31
432.956	99.31
433.178	94.31
433.4	119.31
433.622	102.31
433.844	90.31
434.066	101.31
434.287	101.31
434.509	93.31
434.731	97.31
434.953	85.31
435.175	93.31
435.397	86.31
435.618	88.31
435.84	101.31
436.062	114.31
436.284	122.31
436.505	98.31
436.727	79.31
436.949	94.31
437.17	91.31
437.392	95.31
437.614	98.31
437.835	89.31
438.057	119.31
438.278	115.31
438.5	95.31
438.721	113.31
438.943	101.31
439.165	86.31
439.386	81.31
439.608	93.31
439.829	101.31
440.05	123.31
440.272	142.31
440.493	92.31
440.715	91.31
440.936	87.31
441.158	78.31
441.379	96.31
441.6	103.31
441.822	100.31
442.043	93.31
442.264	109.31
442.486	93.31
442.707	96.31
442.928	91.31
443.149	116.31
443.371	117.31
443.592	109.31
443.813	117.31
444.034	104.31
444.255	109.31
444.476	92.31
444.698	100.31
444.919	97.31
445.14	148.31
445.361	117.31
445.582	117.31
445.803	132.31
446.024	142.31
446.245	122.31
446.466	101.31
446.687	90.31
446.908	90.31
447.129	89.31
447.35	85.31
447.571	101.31
447.792	91.31
448.013	106.31
448.234	110.31
448.455	89.31
448.675	120.31
448.896	115.31
449.117	109.31
449.338	121.31
449.559	132.31
449.779	137.31
450	103.31
450.221	87.31
450.442	82.31
450.662	99.31
450.883	100.31
451.104	110.31
451.324	96.31
451.545	79.31
451.766	89.31
451.986	67.31
452.207	89.31
452.428	82.31
452.648	103.31
452.869	104.31
453.089	116.31
453.31	118.31
453.53	83.31
453.751	106.31
453.971	87.31
454.192	117.31
454.412	99.31
454.633	105.31
454.853	89.31
455.073	97.31
455.294	84.31
455.514	94.31
455.734	91.31
455.955	80.31
456.175	80.31
456.395	85.31
456.616	97.31
456.836	83.31
457.056	78.31
457.276	73.31
457.497	87.31
457.717	92.31
457.937	91.31
458.157	83.31
458.377	96.31
458.598	100.31
458.818	144.31
459.038	147.31
459.258	111.31
459.478	80.31
459.698	77.31
459.918	85.31
460.138	79.31
460.358	85.31
460.578	91.31
460.798	76.31
461.018	91.31
461.238	89.31
461.458	84.31
461.678	89.31
461.898	76.31
462.118	105.31
462.338	89.31
462.558	92.31
462.777	77.31
462.997	82.31
463.217	84.31
463.437	85.31
463.657	95.31
463.876	83.31
464.096	94.31
464.316	89.31
464.536	104.31
464.755	95.31
464.975	101.31
465.195	134.31
465.414	153.31
465.634	101.31
465.854	92.31
466.073	98.31
466.293	80.31
466.512	90.31
466.732	91.31
466.951	86.31
467.171	96.31
467.391	97.31
467.61	115.31
467.829	95.31
468.049	104.31
468.268	93.31
468.488	85.31
468.707	75.31
468.927	84.31
469.146	72.31
469.365	79.31
469.585	101.31
469.804	96.31
470.023	100.31
470.243	84.31
470.462	98.31
470.681	105.31
470.901	96.31
471.12	95.31
471.339	87.31
471.558	69.31
471.777	93.31
471.997	93.31
472.216	90.31
472.435	84.31
472.654	74.31
472.873	87.31
473.092	76.31
473.311	82.31
473.53	109.31
473.749	87.31
473.968	83.31
474.187	96.31
474.406	99.31
474.625	85.31
474.844	76.31
475.063	94.31
475.282	93.31
475.501	89.31
475.72	95.31
475.939	74.31
476.158	80.31
476.377	93.31
476.596	99.31
476.814	81.31
477.033	92.31
477.252	76.31
477.471	83.31
477.69	84.31
477.908	96.31
478.127	92.31
478.346	89.31
478.564	83.31
478.783	106.31
479.002	93.31
479.22	97.31
479.439	106.31
479.658	98.31
479.876	86.31
480.095	96.31
480.313	91.31
480.532	91.31
480.751	91.31
480.969	92.31
481.188	104.31
481.406	102.31
481.624	90.31
481.843	92.31
482.061	91.31
482.28	89.31
482.498	82.31
482.717	97.31
482.935	96.31
483.153	76.31
483.372	85.31
483.59	77.31
483.808	97.31
484.027	86.31
484.245	106.31
484.463	85.31
484.681	85.31
484.9	93.31
485.118	112.31
485.336	92.31
485.554	89.31
485.772	91.31
485.99	88.31
486.209	104.31
486.427	110.31
486.645	105.31
486.863	108.31
487.081	119.31
487.299	87.31
487.517	91.31
487.735	96.31
487.953	105.31
488.171	81.31
488.389	80.31
488.607	106.31
488.825	92.31
489.043	94.31
489.261	80.31
489.479	96.31
489.696	96.31
489.914	100.31
490.132	77.31
490.35	90.31
490.568	77.31
490.786	84.31
491.003	89.31
491.221	81.31
491.439	91.31
491.657	92.31
491.874	91.31
492.092	89.31
492.31	97.31
492.527	89.31
492.745	87.31
492.963	87.31
493.18	93.31
493.398	80.31
493.615	103.31
493.833	109.31
494.05	104.31
494.268	83.31
494.485	82.31
494.703	90.31
494.92	95.31
495.138	100.31
495.355	110.31
495.573	92.31
495.79	91.31
496.008	89.31
496.225	83.31
496.442	97.31
496.66	87.31
496.877	76.31
497.094	107.31
497.312	87.31
497.529	92.31
497.746	106.31
497.963	105.31
498.181	87.31
498.398	86.31
498.615	116.31
498.832	99.31
499.049	104.31
499.267	86.31
499.484	71.31
499.701	106.31
499.918	99.31
500.135	92.31
500.352	94.31
500.569	98.31
500.786	98.31
501.003	84.31
501.22	91.31
501.437	87.31
501.654	97.31
501.871	98.31
502.088	83.31
502.305	101.31
502.522	88.31
502.739	79.31
502.956	97.31
503.172	83.31
503.389	111.31
503.606	107.31
503.823	98.31
504.04	92.31
504.256	93.31
504.473	92.31
504.69	96.31
504.907	87.31
505.123	83.31
505.34	105.31
505.557	89.31
505.773	84.31
505.99	91.31
506.207	80.31
506.423	95.31
506.64	101.31
506.856	87.31
507.073	95.31
507.289	76.31
507.506	93.31
507.722	115.31
507.939	101.31
508.155	105.31
508.372	99.31
508.588	99.31
508.805	94.31
509.021	83.31
509.238	99.31
509.454	94.31
509.67	115.31
509.887	126.31
510.103	129.31
510.319	195.31
510.536	655.31
510.752	1985.31
510.968	563.31
511.184	130.31
511.401	98.31
511.617	93.31
511.833	101.31
512.049	87.31
512.265	92.31
512.481	95.31
512.698	83.31
512.914	92.31
513.13	91.31
513.346	84.31
513.562	82.31
513.778	91.31
513.994	94.31
514.21	112.31
514.426	103.31
514.642	115.31
514.858	130.31
515.074	151.31
515.29	387.31
515.506	1265.31
515.721	463.31
