Data from Uncirc_1996_H10_HRD10591_00055.txt Node
Date: Wed Jan 03 11:32:13 EST 2024
User: Yrep
Spectrometer: HR+D1059
Trigger mode: 1
Integration Time (sec): 1.000000E-1
Scans to average: 1
Electric dark correction enabled: true
Nonlinearity correction enabled: false
Boxcar width: 0
XAxis mode: Wavelengths
Number of Pixels in Spectrum: 2048
>>>>>Begin Spectral Data<<<<<
223.165	-27.62
223.4	-27.62
223.635	-27.62
223.869	-5.62
224.104	-36.62
224.338	-5.62
224.573	-7.62
224.808	-24.62
225.042	-3.62
225.277	-6.62
225.511	-1.62
225.746	6.38
225.98	3.38
226.215	9.38
226.449	15.38
226.683	34.38
226.918	28.38
227.152	22.38
227.387	39.38
227.621	26.38
227.856	51.38
228.09	43.38
228.324	59.38
228.559	65.38
228.793	54.38
229.027	46.38
229.262	63.38
229.496	70.38
229.73	87.38
229.964	63.38
230.199	63.38
230.433	65.38
230.667	65.38
230.901	66.38
231.136	74.38
231.37	85.38
231.604	86.38
231.838	75.38
232.072	67.38
232.306	81.38
232.541	66.38
232.775	73.38
233.009	66.38
233.243	73.38
233.477	63.38
233.711	67.38
233.945	68.38
234.179	84.38
234.413	75.38
234.647	61.38
234.881	74.38
235.115	82.38
235.349	76.38
235.583	78.38
235.817	66.38
236.051	68.38
236.285	77.38
236.519	58.38
236.753	75.38
236.987	85.38
237.221	85.38
237.455	79.38
237.689	61.38
237.922	85.38
238.156	92.38
238.39	74.38
238.624	69.38
238.858	83.38
239.091	71.38
239.325	70.38
239.559	87.38
239.793	77.38
240.027	73.38
240.26	81.38
240.494	78.38
240.728	60.38
240.961	74.38
241.195	75.38
241.429	69.38
241.662	59.38
241.896	74.38
242.13	60.38
242.363	71.38
242.597	77.38
242.83	78.38
243.064	81.38
243.298	73.38
243.531	65.38
243.765	84.38
243.998	95.38
244.232	77.38
244.465	92.38
244.699	64.38
244.932	72.38
245.166	66.38
245.399	88.38
245.633	72.38
245.866	65.38
246.099	78.38
246.333	82.38
246.566	86.38
246.8	87.38
247.033	66.38
247.266	80.38
247.5	78.38
247.733	73.38
247.966	73.38
248.2	71.38
248.433	68.38
248.666	76.38
248.899	84.38
249.133	78.38
249.366	97.38
249.599	93.38
249.832	86.38
250.066	73.38
250.299	61.38
250.532	69.38
250.765	76.38
250.998	82.38
251.231	79.38
251.465	73.38
251.698	72.38
251.931	66.38
252.164	81.38
252.397	81.38
252.63	67.38
252.863	72.38
253.096	80.38
253.329	83.38
253.562	79.38
253.795	70.38
254.028	68.38
254.261	72.38
254.494	76.38
254.727	71.38
254.96	79.38
255.193	66.38
255.426	84.38
255.659	89.38
255.892	79.38
256.124	71.38
256.357	64.38
256.59	75.38
256.823	76.38
257.056	76.38
257.289	70.38
257.521	62.38
257.754	63.38
257.987	83.38
258.22	78.38
258.452	82.38
258.685	89.38
258.918	69.38
259.151	65.38
259.383	67.38
259.616	71.38
259.849	67.38
260.081	88.38
260.314	73.38
260.547	83.38
260.779	73.38
261.012	73.38
261.244	88.38
261.477	76.38
261.71	94.38
261.942	103.38
262.175	91.38
262.407	79.38
262.64	82.38
262.872	73.38
263.105	66.38
263.337	77.38
263.57	67.38
263.802	70.38
264.035	78.38
264.267	80.38
264.499	74.38
264.732	87.38
264.964	84.38
265.197	85.38
265.429	87.38
265.661	76.38
265.894	78.38
266.126	89.38
266.358	97.38
266.591	69.38
266.823	77.38
267.055	58.38
267.287	71.38
267.52	77.38
267.752	77.38
267.984	77.38
268.216	77.38
268.448	78.38
268.681	82.38
268.913	81.38
269.145	78.38
269.377	72.38
269.609	76.38
269.841	80.38
270.073	75.38
270.306	71.38
270.538	98.38
270.77	81.38
271.002	75.38
271.234	78.38
271.466	105.38
271.698	81.38
271.93	70.38
272.162	82.38
272.394	82.38
272.626	74.38
272.858	85.38
273.09	86.38
273.322	88.38
273.553	100.38
273.785	83.38
274.017	89.38
274.249	74.38
274.481	82.38
274.713	81.38
274.945	88.38
275.176	79.38
275.408	84.38
275.64	89.38
275.872	86.38
276.104	80.38
276.335	94.38
276.567	92.38
276.799	110.38
277.031	98.38
277.262	89.38
277.494	86.38
277.726	85.38
277.957	72.38
278.189	60.38
278.421	81.38
278.652	77.38
278.884	86.38
279.115	90.38
279.347	91.38
279.579	97.38
279.81	73.38
280.042	74.38
280.273	98.38
280.505	75.38
280.736	91.38
280.968	86.38
281.199	87.38
281.431	80.38
281.662	92.38
281.894	90.38
282.125	93.38
282.356	101.38
282.588	117.38
282.819	99.38
283.051	90.38
283.282	87.38
283.513	83.38
283.745	81.38
283.976	79.38
284.207	90.38
284.439	74.38
284.67	77.38
284.901	81.38
285.132	83.38
285.364	77.38
285.595	69.38
285.826	81.38
286.057	82.38
286.288	97.38
286.52	73.38
286.751	80.38
286.982	89.38
287.213	67.38
287.444	79.38
287.675	93.38
287.906	93.38
288.138	70.38
288.369	80.38
288.6	95.38
288.831	88.38
289.062	75.38
289.293	82.38
289.524	87.38
289.755	91.38
289.986	84.38
290.217	74.38
290.448	91.38
290.679	98.38
290.91	89.38
291.141	78.38
291.371	79.38
291.602	85.38
291.833	79.38
292.064	76.38
292.295	92.38
292.526	87.38
292.757	87.38
292.987	87.38
293.218	92.38
293.449	90.38
293.68	80.38
293.91	94.38
294.141	83.38
294.372	92.38
294.603	86.38
294.833	83.38
295.064	65.38
295.295	82.38
295.525	93.38
295.756	86.38
295.987	93.38
296.217	128.38
296.448	103.38
296.679	76.38
296.909	98.38
297.14	81.38
297.37	95.38
297.601	93.38
297.831	89.38
298.062	87.38
298.292	83.38
298.523	68.38
298.753	75.38
298.984	84.38
299.214	84.38
299.445	87.38
299.675	89.38
299.905	79.38
300.136	94.38
300.366	68.38
300.597	97.38
300.827	91.38
301.057	106.38
301.288	89.38
301.518	83.38
301.748	95.38
301.979	103.38
302.209	80.38
302.439	91.38
302.669	86.38
302.9	69.38
303.13	76.38
303.36	89.38
303.59	104.38
303.82	82.38
304.051	86.38
304.281	87.38
304.511	95.38
304.741	100.38
304.971	82.38
305.201	91.38
305.431	91.38
305.661	91.38
305.891	91.38
306.121	82.38
306.352	98.38
306.582	98.38
306.812	97.38
307.042	92.38
307.272	78.38
307.502	82.38
307.731	84.38
307.961	80.38
308.191	84.38
308.421	75.38
308.651	92.38
308.881	92.38
309.111	105.38
309.341	94.38
309.571	107.38
309.8	88.38
310.03	83.38
310.26	77.38
310.49	91.38
310.72	93.38
310.949	87.38
311.179	91.38
311.409	92.38
311.639	97.38
311.868	88.38
312.098	92.38
312.328	83.38
312.557	90.38
312.787	103.38
313.017	90.38
313.246	99.38
313.476	84.38
313.706	93.38
313.935	83.38
314.165	88.38
314.394	86.38
314.624	77.38
314.853	78.38
315.083	91.38
315.312	87.38
315.542	91.38
315.771	107.38
316.001	80.38
316.23	80.38
316.46	83.38
316.689	74.38
316.919	82.38
317.148	86.38
317.377	83.38
317.607	86.38
317.836	90.38
318.065	86.38
318.295	73.38
318.524	75.38
318.753	85.38
318.983	97.38
319.212	95.38
319.441	94.38
319.67	96.38
319.9	103.38
320.129	76.38
320.358	101.38
320.587	86.38
320.816	97.38
321.046	100.38
321.275	86.38
321.504	86.38
321.733	97.38
321.962	95.38
322.191	95.38
322.42	91.38
322.649	111.38
322.878	93.38
323.108	105.38
323.337	106.38
323.566	121.38
323.795	130.38
324.024	179.38
324.253	335.38
324.482	691.38
324.71	1451.38
324.939	1916.38
325.168	686.38
325.397	233.38
325.626	147.38
325.855	124.38
326.084	105.38
326.313	120.38
326.542	131.38
326.77	209.38
326.999	386.38
327.228	798.38
327.457	1441.38
327.686	1195.38
327.914	335.38
328.143	210.38
328.372	137.38
328.6	123.38
328.829	103.38
329.058	115.38
329.287	117.38
329.515	93.38
329.744	106.38
329.972	103.38
330.201	93.38
330.43	97.38
330.658	107.38
330.887	98.38
331.115	99.38
331.344	86.38
331.572	98.38
331.801	89.38
332.03	91.38
332.258	98.38
332.486	94.38
332.715	82.38
332.943	87.38
333.172	90.38
333.4	90.38
333.629	91.38
333.857	87.38
334.085	103.38
334.314	99.38
334.542	90.38
334.771	82.38
334.999	89.38
335.227	90.38
335.455	80.38
335.684	89.38
335.912	86.38
336.14	94.38
336.369	94.38
336.597	97.38
336.825	84.38
337.053	81.38
337.281	93.38
337.51	87.38
337.738	94.38
337.966	92.38
338.194	90.38
338.422	105.38
338.65	92.38
338.878	75.38
339.106	78.38
339.334	88.38
339.562	83.38
339.79	86.38
340.018	85.38
340.246	72.38
340.474	75.38
340.702	78.38
340.93	82.38
341.158	86.38
341.386	82.38
341.614	83.38
341.842	80.38
342.07	88.38
342.298	78.38
342.526	90.38
342.754	80.38
342.981	85.38
343.209	92.38
343.437	90.38
343.665	89.38
343.893	90.38
344.12	79.38
344.348	87.38
344.576	90.38
344.804	89.38
345.031	84.38
345.259	99.38
345.487	85.38
345.714	89.38
345.942	85.38
346.17	77.38
346.397	80.38
346.625	77.38
346.853	99.38
347.08	79.38
347.308	86.38
347.535	85.38
347.763	85.38
347.99	98.38
348.218	89.38
348.445	82.38
348.673	81.38
348.9	90.38
349.128	96.38
349.355	102.38
349.583	83.38
349.81	101.38
350.037	89.38
350.265	80.38
350.492	89.38
350.72	95.38
350.947	91.38
351.174	101.38
351.402	103.38
351.629	104.38
351.856	104.38
352.083	98.38
352.311	102.38
352.538	85.38
352.765	93.38
352.992	97.38
353.22	92.38
353.447	84.38
353.674	91.38
353.901	100.38
354.128	89.38
354.355	71.38
354.583	87.38
354.81	93.38
355.037	86.38
355.264	94.38
355.491	93.38
355.718	91.38
355.945	90.38
356.172	95.38
356.399	91.38
356.626	99.38
356.853	101.38
357.08	100.38
357.307	99.38
357.534	70.38
357.761	94.38
357.988	90.38
358.215	91.38
358.441	88.38
358.668	92.38
358.895	100.38
359.122	89.38
359.349	84.38
359.576	89.38
359.802	90.38
360.029	97.38
360.256	101.38
360.483	91.38
360.709	83.38
360.936	94.38
361.163	87.38
361.39	65.38
361.616	81.38
361.843	84.38
362.07	81.38
362.296	81.38
362.523	91.38
362.749	91.38
362.976	86.38
363.203	100.38
363.429	78.38
363.656	78.38
363.882	80.38
364.109	93.38
364.335	82.38
364.562	81.38
364.788	80.38
365.015	76.38
365.241	89.38
365.468	94.38
365.694	99.38
365.92	95.38
366.147	82.38
366.373	81.38
366.599	84.38
366.826	76.38
367.052	88.38
367.278	64.38
367.505	74.38
367.731	85.38
367.957	67.38
368.184	93.38
368.41	90.38
368.636	110.38
368.862	106.38
369.089	101.38
369.315	77.38
369.541	79.38
369.767	87.38
369.993	77.38
370.219	87.38
370.445	82.38
370.672	79.38
370.898	82.38
371.124	73.38
371.35	71.38
371.576	68.38
371.802	85.38
372.028	73.38
372.254	95.38
372.48	87.38
372.706	75.38
372.932	88.38
373.158	87.38
373.384	92.38
373.61	91.38
373.835	96.38
374.061	71.38
374.287	79.38
374.513	95.38
374.739	93.38
374.965	88.38
375.191	110.38
375.416	95.38
375.642	82.38
375.868	72.38
376.094	85.38
376.319	68.38
376.545	74.38
376.771	72.38
376.997	80.38
377.222	73.38
377.448	89.38
377.674	82.38
377.899	85.38
378.125	79.38
378.35	75.38
378.576	69.38
378.802	79.38
379.027	78.38
379.253	81.38
379.478	95.38
379.704	79.38
379.929	87.38
380.155	95.38
380.38	77.38
380.606	78.38
380.831	76.38
381.057	105.38
381.282	86.38
381.507	98.38
381.733	82.38
381.958	88.38
382.184	100.38
382.409	79.38
382.634	93.38
382.86	86.38
383.085	82.38
383.31	107.38
383.535	89.38
383.761	93.38
383.986	91.38
384.211	85.38
384.436	85.38
384.662	70.38
384.887	94.38
385.112	98.38
385.337	83.38
385.562	99.38
385.787	96.38
386.013	100.38
386.238	103.38
386.463	100.38
386.688	98.38
386.913	101.38
387.138	100.38
387.363	94.38
387.588	92.38
387.813	85.38
388.038	88.38
388.263	86.38
388.488	102.38
388.713	76.38
388.938	81.38
389.163	94.38
389.387	87.38
389.612	83.38
389.837	83.38
390.062	69.38
390.287	95.38
390.512	89.38
390.736	80.38
390.961	81.38
391.186	78.38
391.411	74.38
391.636	81.38
391.86	87.38
392.085	76.38
392.31	85.38
392.534	78.38
392.759	77.38
392.984	94.38
393.208	79.38
393.433	81.38
393.658	81.38
393.882	80.38
394.107	78.38
394.331	74.38
394.556	80.38
394.78	81.38
395.005	88.38
395.229	81.38
395.454	70.38
395.678	83.38
395.903	72.38
396.127	77.38
396.352	79.38
396.576	71.38
396.801	72.38
397.025	84.38
397.249	87.38
397.474	76.38
397.698	82.38
397.922	91.38
398.147	86.38
398.371	85.38
398.595	74.38
398.82	84.38
399.044	87.38
399.268	97.38
399.492	82.38
399.717	77.38
399.941	78.38
400.165	88.38
400.389	84.38
400.613	76.38
400.837	87.38
401.062	90.38
401.286	81.38
401.51	81.38
401.734	91.38
401.958	105.38
402.182	121.38
402.406	141.38
402.63	118.38
402.854	97.38
403.078	82.38
403.302	86.38
403.526	86.38
403.75	62.38
403.974	75.38
404.198	81.38
404.422	91.38
404.645	81.38
404.869	95.38
405.093	82.38
405.317	81.38
405.541	77.38
405.765	88.38
405.988	94.38
406.212	139.38
406.436	185.38
406.66	125.38
406.883	114.38
407.107	89.38
407.331	88.38
407.555	85.38
407.778	88.38
408.002	71.38
408.226	81.38
408.449	85.38
408.673	87.38
408.896	86.38
409.12	80.38
409.344	87.38
409.567	78.38
409.791	71.38
410.014	86.38
410.238	84.38
410.461	94.38
410.685	84.38
410.908	99.38
411.132	95.38
411.355	83.38
411.578	92.38
411.802	70.38
412.025	79.38
412.249	81.38
412.472	83.38
412.695	82.38
412.919	95.38
413.142	72.38
413.365	80.38
413.589	93.38
413.812	89.38
414.035	78.38
414.258	74.38
414.482	78.38
414.705	94.38
414.928	95.38
415.151	84.38
415.374	85.38
415.597	75.38
415.821	94.38
416.044	83.38
416.267	89.38
416.49	76.38
416.713	87.38
416.936	69.38
417.159	88.38
417.382	75.38
417.605	88.38
417.828	99.38
418.051	85.38
418.274	81.38
418.497	77.38
418.72	79.38
418.943	77.38
419.166	95.38
419.389	76.38
419.611	65.38
419.834	86.38
420.057	83.38
420.28	72.38
420.503	82.38
420.726	89.38
420.948	91.38
421.171	92.38
421.394	61.38
421.617	81.38
421.839	78.38
422.062	91.38
422.285	91.38
422.507	89.38
422.73	88.38
422.953	83.38
423.175	87.38
423.398	94.38
423.621	79.38
423.843	76.38
424.066	85.38
424.288	84.38
424.511	86.38
424.733	103.38
424.956	89.38
425.178	80.38
425.401	83.38
425.623	93.38
425.846	95.38
426.068	96.38
426.291	100.38
426.513	85.38
426.735	83.38
426.958	73.38
427.18	78.38
427.402	120.38
427.625	127.38
427.847	107.38
428.069	92.38
428.292	74.38
428.514	82.38
428.736	82.38
428.958	76.38
429.181	84.38
429.403	79.38
429.625	85.38
429.847	89.38
430.069	91.38
430.292	89.38
430.514	83.38
430.736	78.38
430.958	76.38
431.18	81.38
431.402	79.38
431.624	99.38
431.846	78.38
432.068	92.38
432.29	91.38
432.512	85.38
432.734	89.38
432.956	89.38
433.178	87.38
433.4	93.38
433.622	83.38
433.844	85.38
434.066	80.38
434.287	79.38
434.509	87.38
434.731	78.38
434.953	81.38
435.175	78.38
435.397	77.38
435.618	83.38
435.84	103.38
436.062	104.38
436.284	105.38
436.505	103.38
436.727	81.38
436.949	89.38
437.17	75.38
437.392	72.38
437.614	77.38
437.835	101.38
438.057	111.38
438.278	101.38
438.5	88.38
438.721	103.38
438.943	85.38
439.165	91.38
439.386	67.38
439.608	86.38
439.829	94.38
440.05	106.38
440.272	123.38
440.493	87.38
440.715	88.38
440.936	78.38
441.158	65.38
441.379	79.38
441.6	77.38
441.822	90.38
442.043	92.38
442.264	100.38
442.486	92.38
442.707	87.38
442.928	91.38
443.149	120.38
443.371	114.38
443.592	99.38
443.813	98.38
444.034	95.38
444.255	69.38
444.476	88.38
444.698	93.38
444.919	79.38
445.14	122.38
445.361	106.38
445.582	92.38
445.803	127.38
446.024	130.38
446.245	118.38
446.466	99.38
446.687	74.38
446.908	91.38
447.129	82.38
447.35	95.38
447.571	75.38
447.792	83.38
448.013	99.38
448.234	110.38
448.455	98.38
448.675	95.38
448.896	121.38
449.117	93.38
449.338	93.38
449.559	107.38
449.779	106.38
450	90.38
450.221	88.38
450.442	79.38
450.662	84.38
450.883	101.38
451.104	100.38
451.324	90.38
451.545	101.38
451.766	77.38
451.986	83.38
452.207	82.38
452.428	83.38
452.648	75.38
452.869	95.38
453.089	102.38
453.31	93.38
453.53	82.38
453.751	82.38
453.971	90.38
454.192	89.38
454.412	93.38
454.633	82.38
454.853	73.38
455.073	79.38
455.294	75.38
455.514	85.38
455.734	82.38
455.955	69.38
456.175	75.38
456.395	72.38
456.616	83.38
456.836	90.38
457.056	71.38
457.276	89.38
457.497	73.38
457.717	75.38
457.937	76.38
458.157	86.38
458.377	86.38
458.598	91.38
458.818	130.38
459.038	135.38
459.258	95.38
459.478	81.38
459.698	71.38
459.918	83.38
460.138	85.38
460.358	76.38
460.578	80.38
460.798	93.38
461.018	77.38
461.238	83.38
461.458	91.38
461.678	71.38
461.898	85.38
462.118	81.38
462.338	82.38
462.558	89.38
462.777	78.38
462.997	78.38
463.217	84.38
463.437	83.38
463.657	73.38
463.876	78.38
464.096	91.38
464.316	69.38
464.536	81.38
464.755	73.38
464.975	105.38
465.195	141.38
465.414	143.38
465.634	84.38
465.854	73.38
466.073	81.38
466.293	79.38
466.512	110.38
466.732	83.38
466.951	72.38
467.171	77.38
467.391	76.38
467.61	75.38
467.829	90.38
468.049	63.38
468.268	91.38
468.488	91.38
468.707	81.38
468.927	67.38
469.146	76.38
469.365	84.38
469.585	74.38
469.804	75.38
470.023	77.38
470.243	81.38
470.462	80.38
470.681	104.38
470.901	81.38
471.12	72.38
471.339	70.38
471.558	71.38
471.777	82.38
471.997	76.38
472.216	77.38
472.435	78.38
472.654	79.38
472.873	80.38
473.092	85.38
473.311	83.38
473.53	85.38
473.749	80.38
473.968	93.38
474.187	100.38
474.406	93.38
474.625	87.38
474.844	78.38
475.063	89.38
475.282	86.38
475.501	86.38
475.72	85.38
475.939	78.38
476.158	75.38
476.377	77.38
476.596	74.38
476.814	95.38
477.033	78.38
477.252	84.38
477.471	75.38
477.69	82.38
477.908	96.38
478.127	80.38
478.346	76.38
478.564	72.38
478.783	106.38
479.002	89.38
479.22	84.38
479.439	86.38
479.658	100.38
479.876	88.38
480.095	86.38
480.313	94.38
480.532	68.38
480.751	87.38
480.969	81.38
481.188	86.38
481.406	83.38
481.624	83.38
481.843	86.38
482.061	79.38
482.28	88.38
482.498	89.38
482.717	85.38
482.935	63.38
483.153	83.38
483.372	79.38
483.59	91.38
483.808	90.38
484.027	97.38
484.245	85.38
484.463	78.38
484.681	94.38
484.9	86.38
485.118	79.38
485.336	81.38
485.554	86.38
485.772	82.38
485.99	98.38
486.209	95.38
486.427	99.38
486.645	85.38
486.863	97.38
487.081	82.38
487.299	83.38
487.517	72.38
487.735	90.38
487.953	94.38
488.171	93.38
488.389	90.38
488.607	88.38
488.825	78.38
489.043	78.38
489.261	94.38
489.479	98.38
489.696	79.38
489.914	77.38
490.132	91.38
490.35	91.38
490.568	74.38
490.786	83.38
491.003	81.38
491.221	86.38
491.439	79.38
491.657	95.38
491.874	89.38
492.092	85.38
492.31	86.38
492.527	69.38
492.745	71.38
492.963	89.38
493.18	91.38
493.398	79.38
493.615	85.38
493.833	69.38
494.05	81.38
494.268	83.38
494.485	77.38
494.703	69.38
494.92	84.38
495.138	84.38
495.355	78.38
495.573	94.38
495.79	87.38
496.008	79.38
496.225	92.38
496.442	87.38
496.66	83.38
496.877	90.38
497.094	85.38
497.312	93.38
497.529	93.38
497.746	95.38
497.963	87.38
498.181	86.38
498.398	90.38
498.615	95.38
498.832	104.38
499.049	83.38
499.267	76.38
499.484	77.38
499.701	77.38
499.918	88.38
500.135	81.38
500.352	81.38
500.569	86.38
500.786	79.38
501.003	76.38
501.22	77.38
501.437	90.38
501.654	95.38
501.871	103.38
502.088	74.38
502.305	90.38
502.522	69.38
502.739	81.38
502.956	88.38
503.172	85.38
503.389	85.38
503.606	89.38
503.823	96.38
504.04	94.38
504.256	80.38
504.473	86.38
504.69	100.38
504.907	90.38
505.123	88.38
505.34	90.38
505.557	93.38
505.773	78.38
505.99	86.38
506.207	89.38
506.423	82.38
506.64	89.38
506.856	87.38
507.073	71.38
507.289	80.38
507.506	82.38
507.722	96.38
507.939	101.38
508.155	88.38
508.372	86.38
508.588	79.38
508.805	99.38
509.021	91.38
509.238	90.38
509.454	98.38
509.67	101.38
509.887	106.38
510.103	123.38
510.319	205.38
510.536	663.38
510.752	2087.38
510.968	596.38
511.184	150.38
511.401	101.38
511.617	83.38
511.833	94.38
512.049	93.38
512.265	85.38
512.481	76.38
512.698	78.38
512.914	80.38
513.13	87.38
513.346	79.38
513.562	78.38
513.778	84.38
513.994	89.38
514.21	103.38
514.426	116.38
514.642	105.38
514.858	113.38
515.074	159.38
515.29	395.38
515.506	1296.38
515.721	459.38
515.937	143.38
516.153	107.38
516.369	99.38
516.585	94.38
516.801	87.38
517.016	87.38
517.232	89.38
517.448	92.38
517.664	92.38
517.879	81.38
