Data from Uncirc_1996_H10_HRD10591_00005.txt Node
Date: Wed Jan 03 11:32:03 EST 2024
User: Yrep
Spectrometer: HR+D1059
Trigger mode: 1
Integration Time (sec): 1.000000E-1
Scans to average: 1
Electric dark correction enabled: true
Nonlinearity correction enabled: false
Boxcar width: 0
XAxis mode: Wavelengths
Number of Pixels in Spectrum: 2048
>>>>>Begin Spectral Data<<<<<
223.165	-11.69
223.4	-11.69
223.635	-11.69
223.869	-20.69
224.104	-20.69
224.338	-20.69
224.573	-22.69
224.808	-19.69
225.042	-17.69
225.277	-7.69
225.511	3.31
225.746	18.31
225.98	-1.69
226.215	9.31
226.449	29.31
226.683	26.31
226.918	33.31
227.152	23.31
227.387	35.31
227.621	38.31
227.856	52.31
228.09	56.31
228.324	60.31
228.559	61.31
228.793	63.31
229.027	64.31
229.262	65.31
229.496	73.31
229.73	71.31
229.964	79.31
230.199	73.31
230.433	60.31
230.667	91.31
230.901	97.31
231.136	87.31
231.37	87.31
231.604	70.31
231.838	80.31
232.072	65.31
232.306	81.31
232.541	86.31
232.775	73.31
233.009	88.31
233.243	69.31
233.477	87.31
233.711	85.31
233.945	82.31
234.179	87.31
234.413	84.31
234.647	73.31
234.881	77.31
235.115	82.31
235.349	75.31
235.583	74.31
235.817	79.31
236.051	89.31
236.285	77.31
236.519	75.31
236.753	77.31
236.987	85.31
237.221	89.31
237.455	80.31
237.689	75.31
237.922	80.31
238.156	79.31
238.39	72.31
238.624	84.31
238.858	73.31
239.091	87.31
239.325	74.31
239.559	76.31
239.793	69.31
240.027	87.31
240.26	82.31
240.494	91.31
240.728	92.31
240.961	84.31
241.195	79.31
241.429	77.31
241.662	81.31
241.896	80.31
242.13	68.31
242.363	74.31
242.597	74.31
242.83	79.31
243.064	75.31
243.298	87.31
243.531	89.31
243.765	84.31
243.998	73.31
244.232	93.31
244.465	97.31
244.699	93.31
244.932	91.31
245.166	82.31
245.399	79.31
245.633	81.31
245.866	84.31
246.099	84.31
246.333	92.31
246.566	84.31
246.8	75.31
247.033	82.31
247.266	73.31
247.5	84.31
247.733	82.31
247.966	82.31
248.2	77.31
248.433	71.31
248.666	83.31
248.899	87.31
249.133	96.31
249.366	103.31
249.599	97.31
249.832	78.31
250.066	91.31
250.299	85.31
250.532	75.31
250.765	78.31
250.998	71.31
251.231	89.31
251.465	75.31
251.698	67.31
251.931	87.31
252.164	81.31
252.397	76.31
252.63	87.31
252.863	73.31
253.096	84.31
253.329	82.31
253.562	93.31
253.795	75.31
254.028	68.31
254.261	83.31
254.494	87.31
254.727	79.31
254.96	94.31
255.193	83.31
255.426	81.31
255.659	84.31
255.892	91.31
256.124	80.31
256.357	97.31
256.59	86.31
256.823	99.31
257.056	97.31
257.289	94.31
257.521	77.31
257.754	93.31
257.987	75.31
258.22	95.31
258.452	71.31
258.685	95.31
258.918	83.31
259.151	84.31
259.383	77.31
259.616	82.31
259.849	84.31
260.081	88.31
260.314	82.31
260.547	79.31
260.779	90.31
261.012	90.31
261.244	83.31
261.477	84.31
261.71	85.31
261.942	93.31
262.175	103.31
262.407	89.31
262.64	87.31
262.872	84.31
263.105	82.31
263.337	80.31
263.57	82.31
263.802	76.31
264.035	80.31
264.267	93.31
264.499	80.31
264.732	68.31
264.964	75.31
265.197	77.31
265.429	94.31
265.661	82.31
265.894	86.31
266.126	84.31
266.358	83.31
266.591	79.31
266.823	96.31
267.055	89.31
267.287	80.31
267.52	78.31
267.752	86.31
267.984	83.31
268.216	90.31
268.448	91.31
268.681	87.31
268.913	95.31
269.145	93.31
269.377	90.31
269.609	83.31
269.841	66.31
270.073	97.31
270.306	99.31
270.538	93.31
270.77	82.31
271.002	88.31
271.234	89.31
271.466	71.31
271.698	93.31
271.93	85.31
272.162	82.31
272.394	89.31
272.626	82.31
272.858	83.31
273.09	74.31
273.322	74.31
273.553	82.31
273.785	81.31
274.017	66.31
274.249	83.31
274.481	82.31
274.713	100.31
274.945	87.31
275.176	76.31
275.408	89.31
275.64	86.31
275.872	90.31
276.104	89.31
276.335	81.31
276.567	92.31
276.799	96.31
277.031	84.31
277.262	90.31
277.494	97.31
277.726	86.31
277.957	87.31
278.189	107.31
278.421	86.31
278.652	89.31
278.884	80.31
279.115	77.31
279.347	80.31
279.579	82.31
279.81	85.31
280.042	90.31
280.273	80.31
280.505	79.31
280.736	80.31
280.968	93.31
281.199	100.31
281.431	93.31
281.662	79.31
281.894	96.31
282.125	93.31
282.356	101.31
282.588	115.31
282.819	95.31
283.051	86.31
283.282	87.31
283.513	74.31
283.745	92.31
283.976	87.31
284.207	84.31
284.439	82.31
284.67	99.31
284.901	76.31
285.132	94.31
285.364	81.31
285.595	85.31
285.826	81.31
286.057	80.31
286.288	87.31
286.52	88.31
286.751	88.31
286.982	103.31
287.213	89.31
287.444	84.31
287.675	89.31
287.906	96.31
288.138	85.31
288.369	79.31
288.6	84.31
288.831	81.31
289.062	85.31
289.293	96.31
289.524	92.31
289.755	88.31
289.986	87.31
290.217	95.31
290.448	76.31
290.679	84.31
290.91	89.31
291.141	87.31
291.371	90.31
291.602	86.31
291.833	97.31
292.064	92.31
292.295	84.31
292.526	94.31
292.757	85.31
292.987	83.31
293.218	78.31
293.449	80.31
293.68	90.31
293.91	95.31
294.141	89.31
294.372	100.31
294.603	97.31
294.833	83.31
295.064	92.31
295.295	100.31
295.525	103.31
295.756	96.31
295.987	108.31
296.217	111.31
296.448	106.31
296.679	81.31
296.909	97.31
297.14	86.31
297.37	87.31
297.601	79.31
297.831	82.31
298.062	90.31
298.292	93.31
298.523	98.31
298.753	99.31
298.984	92.31
299.214	82.31
299.445	104.31
299.675	84.31
299.905	96.31
300.136	83.31
300.366	89.31
300.597	81.31
300.827	100.31
301.057	90.31
301.288	90.31
301.518	90.31
301.748	89.31
301.979	95.31
302.209	88.31
302.439	90.31
302.669	83.31
302.9	86.31
303.13	88.31
303.36	93.31
303.59	101.31
303.82	95.31
304.051	81.31
304.281	95.31
304.511	90.31
304.741	92.31
304.971	101.31
305.201	82.31
305.431	90.31
305.661	83.31
305.891	88.31
306.121	86.31
306.352	113.31
306.582	109.31
306.812	82.31
307.042	90.31
307.272	86.31
307.502	93.31
307.731	96.31
307.961	76.31
308.191	101.31
308.421	86.31
308.651	85.31
308.881	73.31
309.111	94.31
309.341	88.31
309.571	95.31
309.8	103.31
310.03	94.31
310.26	101.31
310.49	94.31
310.72	97.31
310.949	100.31
311.179	94.31
311.409	81.31
311.639	95.31
311.868	92.31
312.098	88.31
312.328	89.31
312.557	104.31
312.787	106.31
313.017	97.31
313.246	96.31
313.476	96.31
313.706	84.31
313.935	84.31
314.165	81.31
314.394	83.31
314.624	82.31
314.853	93.31
315.083	97.31
315.312	93.31
315.542	84.31
315.771	79.31
316.001	75.31
316.23	94.31
316.46	102.31
316.689	95.31
316.919	85.31
317.148	86.31
317.377	91.31
317.607	87.31
317.836	97.31
318.065	90.31
318.295	87.31
318.524	85.31
318.753	84.31
318.983	85.31
319.212	94.31
319.441	95.31
319.67	99.31
319.9	99.31
320.129	95.31
320.358	92.31
320.587	99.31
320.816	100.31
321.046	106.31
321.275	101.31
321.504	89.31
321.733	96.31
321.962	89.31
322.191	103.31
322.42	101.31
322.649	103.31
322.878	125.31
323.108	121.31
323.337	110.31
323.566	119.31
323.795	143.31
324.024	164.31
324.253	332.31
324.482	675.31
324.71	1354.31
324.939	1809.31
325.168	664.31
325.397	199.31
325.626	121.31
325.855	103.31
326.084	116.31
326.313	118.31
326.542	144.31
326.77	214.31
326.999	392.31
327.228	801.31
327.457	1444.31
327.686	1131.31
327.914	337.31
328.143	215.31
328.372	168.31
328.6	118.31
328.829	118.31
329.058	101.31
329.287	100.31
329.515	108.31
329.744	88.31
329.972	89.31
330.201	82.31
330.43	86.31
330.658	111.31
330.887	119.31
331.115	107.31
331.344	96.31
331.572	91.31
331.801	101.31
332.03	102.31
332.258	91.31
332.486	83.31
332.715	88.31
332.943	100.31
333.172	87.31
333.4	104.31
333.629	106.31
333.857	104.31
334.085	96.31
334.314	95.31
334.542	86.31
334.771	94.31
334.999	103.31
335.227	93.31
335.455	82.31
335.684	87.31
335.912	107.31
336.14	95.31
336.369	119.31
336.597	100.31
336.825	68.31
337.053	88.31
337.281	92.31
337.51	95.31
337.738	101.31
337.966	105.31
338.194	123.31
338.422	153.31
338.65	112.31
338.878	88.31
339.106	89.31
339.334	95.31
339.562	81.31
339.79	91.31
340.018	86.31
340.246	88.31
340.474	89.31
340.702	88.31
340.93	100.31
341.158	88.31
341.386	98.31
341.614	104.31
341.842	88.31
342.07	101.31
342.298	87.31
342.526	95.31
342.754	91.31
342.981	82.31
343.209	91.31
343.437	105.31
343.665	96.31
343.893	89.31
344.12	82.31
344.348	89.31
344.576	115.31
344.804	97.31
345.031	86.31
345.259	80.31
345.487	109.31
345.714	99.31
345.942	98.31
346.17	91.31
346.397	94.31
346.625	91.31
346.853	100.31
347.08	87.31
347.308	85.31
347.535	95.31
347.763	100.31
347.99	96.31
348.218	97.31
348.445	107.31
348.673	96.31
348.9	98.31
349.128	91.31
349.355	86.31
349.583	98.31
349.81	94.31
350.037	91.31
350.265	93.31
350.492	88.31
350.72	96.31
350.947	91.31
351.174	104.31
351.402	101.31
351.629	102.31
351.856	100.31
352.083	106.31
352.311	114.31
352.538	114.31
352.765	122.31
352.992	111.31
353.22	109.31
353.447	104.31
353.674	91.31
353.901	111.31
354.128	102.31
354.355	96.31
354.583	106.31
354.81	93.31
355.037	109.31
355.264	95.31
355.491	92.31
355.718	101.31
355.945	97.31
356.172	99.31
356.399	85.31
356.626	91.31
356.853	82.31
357.08	100.31
357.307	95.31
357.534	88.31
357.761	98.31
357.988	91.31
358.215	100.31
358.441	83.31
358.668	102.31
358.895	93.31
359.122	92.31
359.349	95.31
359.576	80.31
359.802	105.31
360.029	113.31
360.256	107.31
360.483	105.31
360.709	96.31
360.936	96.31
361.163	81.31
361.39	105.31
361.616	88.31
361.843	86.31
362.07	99.31
362.296	91.31
362.523	90.31
362.749	101.31
362.976	80.31
363.203	95.31
363.429	94.31
363.656	94.31
363.882	97.31
364.109	72.31
364.335	96.31
364.562	96.31
364.788	90.31
365.015	102.31
365.241	101.31
365.468	98.31
365.694	106.31
365.92	97.31
366.147	88.31
366.373	91.31
366.599	92.31
366.826	85.31
367.052	90.31
367.278	99.31
367.505	89.31
367.731	92.31
367.957	80.31
368.184	95.31
368.41	100.31
368.636	101.31
368.862	111.31
369.089	97.31
369.315	87.31
369.541	85.31
369.767	103.31
369.993	101.31
370.219	101.31
370.445	87.31
370.672	79.31
370.898	75.31
371.124	107.31
371.35	85.31
371.576	92.31
371.802	101.31
372.028	77.31
372.254	93.31
372.48	102.31
372.706	89.31
372.932	80.31
373.158	93.31
373.384	90.31
373.61	109.31
373.835	97.31
374.061	81.31
374.287	75.31
374.513	115.31
374.739	105.31
374.965	93.31
375.191	100.31
375.416	75.31
375.642	93.31
375.868	80.31
376.094	83.31
376.319	99.31
376.545	91.31
376.771	76.31
376.997	91.31
377.222	84.31
377.448	90.31
377.674	93.31
377.899	91.31
378.125	91.31
378.35	84.31
378.576	84.31
378.802	84.31
379.027	80.31
379.253	99.31
379.478	93.31
379.704	97.31
379.929	96.31
380.155	89.31
380.38	98.31
380.606	103.31
380.831	95.31
381.057	97.31
381.282	97.31
381.507	104.31
381.733	88.31
381.958	98.31
382.184	92.31
382.409	106.31
382.634	101.31
382.86	107.31
383.085	101.31
383.31	95.31
383.535	106.31
383.761	103.31
383.986	112.31
384.211	103.31
384.436	95.31
384.662	105.31
384.887	98.31
385.112	88.31
385.337	109.31
385.562	104.31
385.787	120.31
386.013	110.31
386.238	117.31
386.463	107.31
386.688	107.31
386.913	115.31
387.138	116.31
387.363	119.31
387.588	106.31
387.813	95.31
388.038	111.31
388.263	120.31
388.488	121.31
388.713	103.31
388.938	105.31
389.163	94.31
389.387	95.31
389.612	99.31
389.837	84.31
390.062	91.31
390.287	98.31
390.512	93.31
390.736	91.31
390.961	82.31
391.186	95.31
391.411	106.31
391.636	109.31
391.86	97.31
392.085	76.31
392.31	69.31
392.534	84.31
392.759	85.31
392.984	87.31
393.208	96.31
393.433	101.31
393.658	96.31
393.882	84.31
394.107	90.31
394.331	96.31
394.556	99.31
394.78	94.31
395.005	99.31
395.229	83.31
395.454	95.31
395.678	107.31
395.903	73.31
396.127	92.31
396.352	95.31
396.576	89.31
396.801	96.31
397.025	97.31
397.249	92.31
397.474	89.31
397.698	93.31
397.922	89.31
398.147	95.31
398.371	84.31
398.595	100.31
398.82	83.31
399.044	84.31
399.268	93.31
399.492	98.31
399.717	92.31
399.941	98.31
400.165	97.31
400.389	101.31
400.613	85.31
400.837	80.31
401.062	81.31
401.286	81.31
401.51	100.31
401.734	87.31
401.958	108.31
402.182	105.31
402.406	135.31
402.63	99.31
402.854	87.31
403.078	101.31
403.302	98.31
403.526	103.31
403.75	90.31
403.974	88.31
404.198	82.31
404.422	89.31
404.645	68.31
404.869	76.31
405.093	86.31
405.317	85.31
405.541	95.31
405.765	98.31
405.988	109.31
406.212	153.31
406.436	185.31
406.66	125.31
406.883	111.31
407.107	89.31
407.331	96.31
407.555	90.31
407.778	91.31
408.002	88.31
408.226	101.31
408.449	106.31
408.673	91.31
408.896	96.31
409.12	99.31
409.344	96.31
409.567	94.31
409.791	91.31
410.014	84.31
410.238	99.31
410.461	95.31
410.685	108.31
410.908	104.31
411.132	107.31
411.355	106.31
411.578	100.31
411.802	82.31
412.025	85.31
412.249	83.31
412.472	98.31
412.695	92.31
412.919	94.31
413.142	95.31
413.365	107.31
413.589	95.31
413.812	97.31
414.035	92.31
414.258	85.31
414.482	98.31
414.705	85.31
414.928	90.31
415.151	100.31
415.374	84.31
415.597	102.31
415.821	83.31
416.044	94.31
416.267	96.31
416.49	98.31
416.713	84.31
416.936	98.31
417.159	99.31
417.382	92.31
417.605	92.31
417.828	100.31
418.051	97.31
418.274	87.31
418.497	87.31
418.72	98.31
418.943	109.31
419.166	89.31
419.389	88.31
419.611	93.31
419.834	93.31
420.057	78.31
420.28	83.31
420.503	89.31
420.726	93.31
420.948	86.31
421.171	88.31
421.394	96.31
421.617	101.31
421.839	101.31
422.062	89.31
422.285	81.31
422.507	104.31
422.73	96.31
422.953	92.31
423.175	94.31
423.398	84.31
423.621	83.31
423.843	100.31
424.066	92.31
424.288	88.31
424.511	85.31
424.733	111.31
424.956	92.31
425.178	93.31
425.401	94.31
425.623	104.31
425.846	81.31
426.068	84.31
426.291	82.31
426.513	96.31
426.735	83.31
426.958	97.31
427.18	110.31
427.402	119.31
427.625	146.31
427.847	114.31
428.069	98.31
428.292	93.31
428.514	85.31
428.736	81.31
428.958	79.31
429.181	82.31
429.403	93.31
429.625	77.31
429.847	82.31
430.069	86.31
430.292	90.31
430.514	92.31
430.736	69.31
430.958	92.31
431.18	74.31
431.402	88.31
431.624	84.31
431.846	99.31
432.068	98.31
432.29	79.31
432.512	77.31
432.734	71.31
432.956	98.31
433.178	96.31
433.4	104.31
433.622	87.31
433.844	97.31
434.066	96.31
434.287	93.31
434.509	96.31
434.731	105.31
434.953	92.31
435.175	94.31
435.397	87.31
435.618	94.31
435.84	112.31
436.062	109.31
436.284	113.31
436.505	97.31
436.727	101.31
436.949	80.31
437.17	96.31
437.392	101.31
437.614	86.31
437.835	94.31
438.057	120.31
438.278	128.31
438.5	108.31
438.721	137.31
438.943	109.31
439.165	91.31
439.386	86.31
439.608	84.31
439.829	107.31
440.05	128.31
440.272	116.31
440.493	89.31
440.715	88.31
440.936	65.31
441.158	85.31
441.379	83.31
441.6	88.31
441.822	97.31
442.043	86.31
442.264	100.31
442.486	81.31
442.707	92.31
442.928	107.31
443.149	103.31
443.371	105.31
443.592	101.31
443.813	120.31
444.034	108.31
444.255	95.31
444.476	84.31
444.698	88.31
444.919	104.31
445.14	128.31
445.361	120.31
445.582	100.31
445.803	126.31
446.024	122.31
446.245	133.31
446.466	107.31
446.687	104.31
446.908	89.31
447.129	89.31
447.35	84.31
447.571	81.31
447.792	88.31
448.013	101.31
448.234	104.31
448.455	96.31
448.675	105.31
448.896	121.31
449.117	94.31
449.338	114.31
449.559	136.31
449.779	141.31
450	114.31
450.221	84.31
450.442	90.31
450.662	78.31
450.883	93.31
451.104	100.31
451.324	88.31
451.545	69.31
451.766	79.31
451.986	95.31
452.207	88.31
452.428	106.31
452.648	97.31
452.869	112.31
453.089	100.31
453.31	110.31
453.53	100.31
453.751	109.31
453.971	105.31
454.192	99.31
454.412	104.31
454.633	89.31
454.853	90.31
455.073	99.31
455.294	91.31
455.514	90.31
455.734	87.31
455.955	82.31
456.175	93.31
456.395	95.31
456.616	78.31
456.836	96.31
457.056	77.31
457.276	85.31
457.497	88.31
457.717	92.31
457.937	97.31
458.157	87.31
458.377	87.31
458.598	103.31
458.818	125.31
459.038	132.31
459.258	103.31
459.478	80.31
459.698	99.31
459.918	109.31
460.138	79.31
460.358	79.31
460.578	92.31
460.798	96.31
461.018	84.31
461.238	75.31
461.458	98.31
461.678	99.31
461.898	95.31
462.118	100.31
462.338	83.31
462.558	80.31
462.777	88.31
462.997	95.31
463.217	72.31
463.437	90.31
463.657	99.31
463.876	90.31
464.096	94.31
464.316	78.31
464.536	95.31
464.755	103.31
464.975	99.31
465.195	131.31
465.414	137.31
465.634	92.31
465.854	89.31
466.073	95.31
466.293	91.31
466.512	75.31
466.732	96.31
466.951	82.31
467.171	94.31
467.391	99.31
467.61	116.31
467.829	95.31
468.049	84.31
468.268	93.31
468.488	81.31
468.707	94.31
468.927	84.31
469.146	82.31
469.365	100.31
469.585	91.31
469.804	81.31
470.023	80.31
470.243	89.31
470.462	100.31
470.681	104.31
470.901	91.31
471.12	77.31
471.339	91.31
471.558	93.31
471.777	84.31
471.997	95.31
472.216	101.31
472.435	88.31
472.654	75.31
472.873	98.31
473.092	95.31
473.311	88.31
473.53	92.31
473.749	82.31
473.968	92.31
474.187	99.31
474.406	80.31
474.625	84.31
474.844	82.31
475.063	82.31
475.282	74.31
475.501	83.31
475.72	104.31
475.939	99.31
476.158	97.31
476.377	95.31
476.596	83.31
476.814	91.31
477.033	96.31
477.252	98.31
477.471	87.31
477.69	92.31
477.908	89.31
478.127	97.31
478.346	80.31
478.564	88.31
478.783	93.31
479.002	89.31
479.22	88.31
479.439	97.31
479.658	87.31
479.876	98.31
480.095	86.31
480.313	101.31
480.532	95.31
480.751	87.31
480.969	91.31
481.188	82.31
481.406	89.31
481.624	108.31
481.843	82.31
482.061	88.31
482.28	94.31
482.498	97.31
482.717	96.31
482.935	91.31
483.153	100.31
483.372	89.31
483.59	105.31
483.808	76.31
484.027	98.31
484.245	106.31
484.463	86.31
484.681	106.31
484.9	104.31
485.118	100.31
485.336	94.31
485.554	91.31
485.772	98.31
485.99	108.31
486.209	100.31
486.427	105.31
486.645	127.31
486.863	111.31
487.081	110.31
487.299	114.31
487.517	99.31
487.735	85.31
487.953	89.31
488.171	82.31
488.389	94.31
488.607	93.31
488.825	89.31
489.043	80.31
489.261	97.31
489.479	100.31
489.696	102.31
489.914	93.31
490.132	86.31
490.35	94.31
490.568	91.31
490.786	91.31
491.003	92.31
491.221	95.31
491.439	84.31
491.657	88.31
491.874	96.31
492.092	99.31
492.31	95.31
492.527	96.31
492.745	104.31
492.963	97.31
493.18	100.31
493.398	91.31
493.615	96.31
493.833	96.31
494.05	92.31
494.268	93.31
494.485	94.31
494.703	91.31
494.92	80.31
495.138	93.31
495.355	100.31
495.573	92.31
495.79	107.31
496.008	87.31
496.225	99.31
496.442	92.31
496.66	110.31
496.877	82.31
497.094	99.31
497.312	92.31
497.529	90.31
497.746	91.31
497.963	91.31
498.181	89.31
498.398	91.31
498.615	95.31
498.832	83.31
499.049	99.31
499.267	98.31
499.484	84.31
499.701	99.31
499.918	97.31
500.135	87.31
500.352	103.31
500.569	99.31
500.786	100.31
501.003	84.31
501.22	97.31
501.437	83.31
501.654	87.31
501.871	90.31
502.088	94.31
502.305	91.31
502.522	90.31
502.739	81.31
502.956	97.31
503.172	87.31
503.389	93.31
503.606	95.31
503.823	97.31
504.04	95.31
504.256	103.31
504.473	97.31
504.69	94.31
504.907	87.31
505.123	73.31
505.34	93.31
505.557	93.31
505.773	107.31
505.99	84.31
506.207	99.31
506.423	106.31
506.64	102.31
506.856	91.31
507.073	91.31
507.289	99.31
507.506	88.31
507.722	111.31
507.939	98.31
508.155	82.31
508.372	89.31
508.588	91.31
508.805	101.31
509.021	83.31
509.238	85.31
509.454	92.31
509.67	82.31
509.887	93.31
510.103	127.31
510.319	171.31
510.536	496.31
510.752	1455.31
510.968	459.31
511.184	132.31
511.401	92.31
511.617	96.31
511.833	98.31
512.049	107.31
512.265	95.31
512.481	99.31
512.698	87.31
512.914	82.31
513.13	106.31
513.346	96.31
513.562	92.31
513.778	98.31
513.994	90.31
514.21	97.31
514.426	99.31
514.642	109.31
514.858	105.31
515.074	125.31
515.29	313.31
515.506	908.31
515.721	361.31
