Data from Uncirc_1996_H10_HRD10591_00048.txt Node
Date: Wed Jan 03 11:32:12 EST 2024
User: Yrep
Spectrometer: HR+D1059
Trigger mode: 1
Integration Time (sec): 1.000000E-1
Scans to average: 1
Electric dark correction enabled: true
Nonlinearity correction enabled: false
Boxcar width: 0
XAxis mode: Wavelengths
Number of Pixels in Spectrum: 2048
>>>>>Begin Spectral Data<<<<<
223.165	-18.75
223.4	-18.75
223.635	-18.75
223.869	-8.75
224.104	-21.75
224.338	-13.75
224.573	-4.75
224.808	-12.75
225.042	-15.75
225.277	-12.75
225.511	-12.75
225.746	-1.75
225.98	-5.75
226.215	13.25
226.449	22.25
226.683	36.25
226.918	16.25
227.152	41.25
227.387	34.25
227.621	50.25
227.856	56.25
228.09	48.25
228.324	46.25
228.559	58.25
228.793	62.25
229.027	69.25
229.262	78.25
229.496	88.25
229.73	74.25
229.964	91.25
230.199	68.25
230.433	78.25
230.667	80.25
230.901	70.25
231.136	87.25
231.37	61.25
231.604	82.25
231.838	78.25
232.072	87.25
232.306	75.25
232.541	78.25
232.775	89.25
233.009	101.25
233.243	97.25
233.477	75.25
233.711	89.25
233.945	75.25
234.179	79.25
234.413	67.25
234.647	80.25
234.881	92.25
235.115	75.25
235.349	89.25
235.583	82.25
235.817	78.25
236.051	80.25
236.285	69.25
236.519	78.25
236.753	78.25
236.987	82.25
237.221	80.25
237.455	82.25
237.689	85.25
237.922	96.25
238.156	70.25
238.39	74.25
238.624	72.25
238.858	76.25
239.091	89.25
239.325	62.25
239.559	79.25
239.793	88.25
240.027	82.25
240.26	89.25
240.494	68.25
240.728	85.25
240.961	77.25
241.195	76.25
241.429	78.25
241.662	89.25
241.896	77.25
242.13	77.25
242.363	77.25
242.597	67.25
242.83	79.25
243.064	92.25
243.298	90.25
243.531	85.25
243.765	88.25
243.998	92.25
244.232	84.25
244.465	73.25
244.699	70.25
244.932	75.25
245.166	72.25
245.399	97.25
245.633	98.25
245.866	74.25
246.099	81.25
246.333	76.25
246.566	80.25
246.8	75.25
247.033	78.25
247.266	95.25
247.5	82.25
247.733	92.25
247.966	79.25
248.2	77.25
248.433	82.25
248.666	79.25
248.899	76.25
249.133	104.25
249.366	97.25
249.599	106.25
249.832	76.25
250.066	89.25
250.299	87.25
250.532	83.25
250.765	87.25
250.998	98.25
251.231	73.25
251.465	81.25
251.698	86.25
251.931	93.25
252.164	66.25
252.397	98.25
252.63	73.25
252.863	98.25
253.096	77.25
253.329	88.25
253.562	87.25
253.795	67.25
254.028	88.25
254.261	82.25
254.494	86.25
254.727	78.25
254.96	81.25
255.193	86.25
255.426	66.25
255.659	76.25
255.892	76.25
256.124	69.25
256.357	84.25
256.59	76.25
256.823	86.25
257.056	79.25
257.289	75.25
257.521	84.25
257.754	85.25
257.987	96.25
258.22	78.25
258.452	77.25
258.685	97.25
258.918	86.25
259.151	69.25
259.383	91.25
259.616	72.25
259.849	91.25
260.081	84.25
260.314	80.25
260.547	75.25
260.779	94.25
261.012	79.25
261.244	88.25
261.477	89.25
261.71	88.25
261.942	114.25
262.175	110.25
262.407	89.25
262.64	75.25
262.872	72.25
263.105	81.25
263.337	85.25
263.57	85.25
263.802	88.25
264.035	86.25
264.267	97.25
264.499	84.25
264.732	84.25
264.964	93.25
265.197	100.25
265.429	90.25
265.661	83.25
265.894	84.25
266.126	82.25
266.358	84.25
266.591	76.25
266.823	70.25
267.055	89.25
267.287	96.25
267.52	80.25
267.752	85.25
267.984	77.25
268.216	89.25
268.448	95.25
268.681	85.25
268.913	90.25
269.145	81.25
269.377	88.25
269.609	92.25
269.841	94.25
270.073	89.25
270.306	92.25
270.538	95.25
270.77	72.25
271.002	72.25
271.234	105.25
271.466	88.25
271.698	83.25
271.93	85.25
272.162	74.25
272.394	93.25
272.626	104.25
272.858	96.25
273.09	76.25
273.322	91.25
273.553	83.25
273.785	82.25
274.017	82.25
274.249	78.25
274.481	78.25
274.713	84.25
274.945	93.25
275.176	85.25
275.408	87.25
275.64	76.25
275.872	97.25
276.104	84.25
276.335	96.25
276.567	103.25
276.799	96.25
277.031	98.25
277.262	97.25
277.494	81.25
277.726	84.25
277.957	96.25
278.189	78.25
278.421	95.25
278.652	100.25
278.884	85.25
279.115	91.25
279.347	80.25
279.579	94.25
279.81	80.25
280.042	92.25
280.273	86.25
280.505	78.25
280.736	85.25
280.968	97.25
281.199	87.25
281.431	86.25
281.662	92.25
281.894	102.25
282.125	99.25
282.356	115.25
282.588	134.25
282.819	119.25
283.051	83.25
283.282	90.25
283.513	78.25
283.745	90.25
283.976	95.25
284.207	90.25
284.439	88.25
284.67	88.25
284.901	84.25
285.132	83.25
285.364	85.25
285.595	107.25
285.826	97.25
286.057	85.25
286.288	91.25
286.52	82.25
286.751	88.25
286.982	82.25
287.213	78.25
287.444	93.25
287.675	87.25
287.906	95.25
288.138	92.25
288.369	95.25
288.6	92.25
288.831	102.25
289.062	89.25
289.293	92.25
289.524	74.25
289.755	93.25
289.986	94.25
290.217	89.25
290.448	93.25
290.679	89.25
290.91	86.25
291.141	76.25
291.371	99.25
291.602	86.25
291.833	93.25
292.064	90.25
292.295	69.25
292.526	95.25
292.757	97.25
292.987	93.25
293.218	100.25
293.449	100.25
293.68	96.25
293.91	85.25
294.141	93.25
294.372	94.25
294.603	92.25
294.833	85.25
295.064	67.25
295.295	91.25
295.525	89.25
295.756	107.25
295.987	116.25
296.217	118.25
296.448	125.25
296.679	109.25
296.909	92.25
297.14	92.25
297.37	88.25
297.601	86.25
297.831	105.25
298.062	96.25
298.292	85.25
298.523	93.25
298.753	79.25
298.984	78.25
299.214	85.25
299.445	95.25
299.675	90.25
299.905	104.25
300.136	91.25
300.366	87.25
300.597	92.25
300.827	93.25
301.057	91.25
301.288	102.25
301.518	98.25
301.748	78.25
301.979	86.25
302.209	84.25
302.439	93.25
302.669	86.25
302.9	88.25
303.13	91.25
303.36	88.25
303.59	87.25
303.82	101.25
304.051	92.25
304.281	89.25
304.511	97.25
304.741	100.25
304.971	86.25
305.201	99.25
305.431	95.25
305.661	97.25
305.891	98.25
306.121	91.25
306.352	86.25
306.582	98.25
306.812	98.25
307.042	100.25
307.272	95.25
307.502	81.25
307.731	80.25
307.961	102.25
308.191	90.25
308.421	92.25
308.651	87.25
308.881	98.25
309.111	86.25
309.341	104.25
309.571	102.25
309.8	113.25
310.03	94.25
310.26	97.25
310.49	92.25
310.72	94.25
310.949	112.25
311.179	92.25
311.409	97.25
311.639	93.25
311.868	97.25
312.098	102.25
312.328	101.25
312.557	102.25
312.787	124.25
313.017	97.25
313.246	94.25
313.476	94.25
313.706	81.25
313.935	94.25
314.165	100.25
314.394	118.25
314.624	94.25
314.853	93.25
315.083	97.25
315.312	104.25
315.542	97.25
315.771	102.25
316.001	93.25
316.23	98.25
316.46	91.25
316.689	92.25
316.919	99.25
317.148	93.25
317.377	86.25
317.607	99.25
317.836	98.25
318.065	90.25
318.295	95.25
318.524	99.25
318.753	82.25
318.983	106.25
319.212	109.25
319.441	88.25
319.67	113.25
319.9	92.25
320.129	90.25
320.358	101.25
320.587	88.25
320.816	99.25
321.046	106.25
321.275	92.25
321.504	101.25
321.733	91.25
321.962	99.25
322.191	105.25
322.42	106.25
322.649	115.25
322.878	115.25
323.108	116.25
323.337	112.25
323.566	116.25
323.795	145.25
324.024	185.25
324.253	357.25
324.482	813.25
324.71	1667.25
324.939	2184.25
325.168	789.25
325.397	246.25
325.626	146.25
325.855	133.25
326.084	136.25
326.313	123.25
326.542	151.25
326.77	233.25
326.999	437.25
327.228	930.25
327.457	1724.25
327.686	1336.25
327.914	367.25
328.143	219.25
328.372	168.25
328.6	117.25
328.829	114.25
329.058	120.25
329.287	106.25
329.515	104.25
329.744	117.25
329.972	96.25
330.201	113.25
330.43	108.25
330.658	114.25
330.887	133.25
331.115	117.25
331.344	83.25
331.572	97.25
331.801	105.25
332.03	86.25
332.258	102.25
332.486	89.25
332.715	93.25
332.943	96.25
333.172	89.25
333.4	98.25
333.629	115.25
333.857	109.25
334.085	107.25
334.314	102.25
334.542	99.25
334.771	98.25
334.999	97.25
335.227	94.25
335.455	103.25
335.684	88.25
335.912	98.25
336.14	99.25
336.369	117.25
336.597	104.25
336.825	96.25
337.053	94.25
337.281	95.25
337.51	88.25
337.738	98.25
337.966	101.25
338.194	107.25
338.422	115.25
338.65	90.25
338.878	104.25
339.106	92.25
339.334	95.25
339.562	76.25
339.79	75.25
340.018	91.25
340.246	86.25
340.474	97.25
340.702	84.25
340.93	88.25
341.158	96.25
341.386	91.25
341.614	96.25
341.842	101.25
342.07	96.25
342.298	96.25
342.526	89.25
342.754	105.25
342.981	91.25
343.209	90.25
343.437	101.25
343.665	94.25
343.893	88.25
344.12	100.25
344.348	107.25
344.576	104.25
344.804	94.25
345.031	93.25
345.259	105.25
345.487	105.25
345.714	100.25
345.942	92.25
346.17	94.25
346.397	84.25
346.625	84.25
346.853	92.25
347.08	91.25
347.308	105.25
347.535	110.25
347.763	101.25
347.99	104.25
348.218	95.25
348.445	99.25
348.673	100.25
348.9	106.25
349.128	94.25
349.355	96.25
349.583	98.25
349.81	87.25
350.037	95.25
350.265	81.25
350.492	90.25
350.72	96.25
350.947	107.25
351.174	108.25
351.402	105.25
351.629	106.25
351.856	109.25
352.083	102.25
352.311	119.25
352.538	113.25
352.765	111.25
352.992	110.25
353.22	104.25
353.447	108.25
353.674	87.25
353.901	93.25
354.128	89.25
354.355	89.25
354.583	101.25
354.81	102.25
355.037	92.25
355.264	103.25
355.491	103.25
355.718	98.25
355.945	92.25
356.172	80.25
356.399	97.25
356.626	92.25
356.853	96.25
357.08	109.25
357.307	96.25
357.534	93.25
357.761	101.25
357.988	113.25
358.215	103.25
358.441	89.25
358.668	98.25
358.895	95.25
359.122	62.25
359.349	89.25
359.576	86.25
359.802	92.25
360.029	109.25
360.256	112.25
360.483	92.25
360.709	93.25
360.936	104.25
361.163	93.25
361.39	98.25
361.616	83.25
361.843	80.25
362.07	85.25
362.296	82.25
362.523	89.25
362.749	95.25
362.976	93.25
363.203	84.25
363.429	86.25
363.656	92.25
363.882	73.25
364.109	97.25
364.335	97.25
364.562	95.25
364.788	85.25
365.015	89.25
365.241	90.25
365.468	102.25
365.694	114.25
365.92	96.25
366.147	88.25
366.373	89.25
366.599	89.25
366.826	93.25
367.052	104.25
367.278	105.25
367.505	91.25
367.731	92.25
367.957	95.25
368.184	95.25
368.41	99.25
368.636	109.25
368.862	113.25
369.089	112.25
369.315	85.25
369.541	92.25
369.767	98.25
369.993	88.25
370.219	100.25
370.445	90.25
370.672	90.25
370.898	94.25
371.124	93.25
371.35	97.25
371.576	82.25
371.802	108.25
372.028	104.25
372.254	88.25
372.48	100.25
372.706	85.25
372.932	85.25
373.158	82.25
373.384	95.25
373.61	93.25
373.835	89.25
374.061	87.25
374.287	95.25
374.513	85.25
374.739	88.25
374.965	79.25
375.191	92.25
375.416	93.25
375.642	79.25
375.868	92.25
376.094	95.25
376.319	97.25
376.545	93.25
376.771	77.25
376.997	76.25
377.222	104.25
377.448	93.25
377.674	108.25
377.899	101.25
378.125	89.25
378.35	83.25
378.576	93.25
378.802	85.25
379.027	96.25
379.253	88.25
379.478	95.25
379.704	98.25
379.929	90.25
380.155	88.25
380.38	86.25
380.606	91.25
380.831	101.25
381.057	90.25
381.282	98.25
381.507	94.25
381.733	100.25
381.958	84.25
382.184	93.25
382.409	95.25
382.634	103.25
382.86	101.25
383.085	106.25
383.31	106.25
383.535	96.25
383.761	109.25
383.986	104.25
384.211	89.25
384.436	96.25
384.662	86.25
384.887	96.25
385.112	125.25
385.337	113.25
385.562	110.25
385.787	105.25
386.013	109.25
386.238	125.25
386.463	103.25
386.688	104.25
386.913	96.25
387.138	88.25
387.363	107.25
387.588	114.25
387.813	90.25
388.038	107.25
388.263	108.25
388.488	108.25
388.713	97.25
388.938	112.25
389.163	110.25
389.387	94.25
389.612	100.25
389.837	78.25
390.062	100.25
390.287	95.25
390.512	93.25
390.736	90.25
390.961	82.25
391.186	89.25
391.411	86.25
391.636	91.25
391.86	100.25
392.085	89.25
392.31	92.25
392.534	101.25
392.759	83.25
392.984	88.25
393.208	96.25
393.433	96.25
393.658	102.25
393.882	77.25
394.107	85.25
394.331	81.25
394.556	86.25
394.78	95.25
395.005	85.25
395.229	82.25
395.454	84.25
395.678	88.25
395.903	103.25
396.127	86.25
396.352	104.25
396.576	83.25
396.801	83.25
397.025	91.25
397.249	100.25
397.474	74.25
397.698	91.25
397.922	88.25
398.147	93.25
398.371	94.25
398.595	82.25
398.82	84.25
399.044	80.25
399.268	89.25
399.492	94.25
399.717	82.25
399.941	97.25
400.165	107.25
400.389	100.25
400.613	95.25
400.837	97.25
401.062	78.25
401.286	97.25
401.51	91.25
401.734	88.25
401.958	96.25
402.182	123.25
402.406	144.25
402.63	103.25
402.854	84.25
403.078	80.25
403.302	98.25
403.526	84.25
403.75	98.25
403.974	76.25
404.198	87.25
404.422	86.25
404.645	96.25
404.869	78.25
405.093	101.25
405.317	97.25
405.541	101.25
405.765	98.25
405.988	114.25
406.212	172.25
406.436	208.25
406.66	120.25
406.883	96.25
407.107	94.25
407.331	106.25
407.555	97.25
407.778	94.25
408.002	101.25
408.226	92.25
408.449	83.25
408.673	89.25
408.896	97.25
409.12	108.25
409.344	88.25
409.567	99.25
409.791	92.25
410.014	109.25
410.238	89.25
410.461	93.25
410.685	85.25
410.908	97.25
411.132	102.25
411.355	86.25
411.578	85.25
411.802	89.25
412.025	85.25
412.249	83.25
412.472	79.25
412.695	95.25
412.919	90.25
413.142	88.25
413.365	98.25
413.589	102.25
413.812	88.25
414.035	82.25
414.258	89.25
414.482	90.25
414.705	95.25
414.928	89.25
415.151	101.25
415.374	93.25
415.597	89.25
415.821	91.25
416.044	83.25
416.267	99.25
416.49	88.25
416.713	84.25
416.936	92.25
417.159	90.25
417.382	88.25
417.605	93.25
417.828	92.25
418.051	89.25
418.274	90.25
418.497	89.25
418.72	100.25
418.943	83.25
419.166	92.25
419.389	85.25
419.611	83.25
419.834	91.25
420.057	79.25
420.28	100.25
420.503	96.25
420.726	89.25
420.948	89.25
421.171	111.25
421.394	96.25
421.617	85.25
421.839	84.25
422.062	93.25
422.285	94.25
422.507	107.25
422.73	113.25
422.953	107.25
423.175	89.25
423.398	76.25
423.621	100.25
423.843	89.25
424.066	84.25
424.288	86.25
424.511	84.25
424.733	92.25
424.956	104.25
425.178	89.25
425.401	96.25
425.623	95.25
425.846	76.25
426.068	85.25
426.291	98.25
426.513	84.25
426.735	70.25
426.958	94.25
427.18	102.25
427.402	128.25
427.625	166.25
427.847	133.25
428.069	108.25
428.292	92.25
428.514	96.25
428.736	81.25
428.958	84.25
429.181	78.25
429.403	88.25
429.625	85.25
429.847	96.25
430.069	93.25
430.292	100.25
430.514	78.25
430.736	74.25
430.958	92.25
431.18	97.25
431.402	87.25
431.624	82.25
431.846	91.25
432.068	80.25
432.29	80.25
432.512	104.25
432.734	97.25
432.956	101.25
433.178	98.25
433.4	106.25
433.622	89.25
433.844	101.25
434.066	93.25
434.287	92.25
434.509	104.25
434.731	90.25
434.953	85.25
435.175	89.25
435.397	98.25
435.618	76.25
435.84	96.25
436.062	108.25
436.284	120.25
436.505	114.25
436.727	101.25
436.949	95.25
437.17	84.25
437.392	83.25
437.614	79.25
437.835	97.25
438.057	111.25
438.278	111.25
438.5	106.25
438.721	122.25
438.943	106.25
439.165	78.25
439.386	90.25
439.608	83.25
439.829	82.25
440.05	116.25
440.272	148.25
440.493	112.25
440.715	85.25
440.936	96.25
441.158	83.25
441.379	88.25
441.6	90.25
441.822	104.25
442.043	97.25
442.264	101.25
442.486	105.25
442.707	97.25
442.928	98.25
443.149	126.25
443.371	122.25
443.592	109.25
443.813	108.25
444.034	103.25
444.255	84.25
444.476	89.25
444.698	88.25
444.919	90.25
445.14	128.25
445.361	124.25
445.582	104.25
445.803	131.25
446.024	154.25
446.245	146.25
446.466	116.25
446.687	87.25
446.908	98.25
447.129	107.25
447.35	93.25
447.571	81.25
447.792	89.25
448.013	107.25
448.234	114.25
448.455	104.25
448.675	110.25
448.896	127.25
449.117	102.25
449.338	112.25
449.559	115.25
449.779	147.25
450	107.25
450.221	110.25
450.442	76.25
450.662	96.25
450.883	105.25
451.104	112.25
451.324	104.25
451.545	95.25
451.766	80.25
451.986	83.25
452.207	83.25
452.428	101.25
452.648	95.25
452.869	113.25
453.089	92.25
453.31	105.25
453.53	91.25
453.751	83.25
453.971	93.25
454.192	106.25
454.412	78.25
454.633	89.25
454.853	94.25
455.073	98.25
455.294	78.25
455.514	103.25
455.734	89.25
455.955	85.25
456.175	94.25
456.395	96.25
456.616	100.25
456.836	90.25
457.056	91.25
457.276	83.25
457.497	86.25
457.717	88.25
457.937	95.25
458.157	87.25
458.377	93.25
458.598	115.25
458.818	139.25
459.038	155.25
459.258	126.25
459.478	91.25
459.698	83.25
459.918	89.25
460.138	90.25
460.358	87.25
460.578	90.25
460.798	91.25
461.018	92.25
461.238	85.25
461.458	89.25
461.678	89.25
461.898	89.25
462.118	85.25
462.338	89.25
462.558	88.25
462.777	100.25
462.997	85.25
463.217	86.25
463.437	90.25
463.657	84.25
463.876	87.25
464.096	84.25
464.316	92.25
464.536	96.25
464.755	94.25
464.975	107.25
465.195	159.25
465.414	168.25
465.634	91.25
465.854	82.25
466.073	80.25
466.293	79.25
466.512	85.25
466.732	81.25
466.951	87.25
467.171	98.25
467.391	84.25
467.61	107.25
467.829	101.25
468.049	92.25
468.268	89.25
468.488	89.25
468.707	86.25
468.927	88.25
469.146	85.25
469.365	86.25
469.585	92.25
469.804	111.25
470.023	89.25
470.243	85.25
470.462	100.25
470.681	111.25
470.901	93.25
471.12	101.25
471.339	94.25
471.558	84.25
471.777	92.25
471.997	90.25
472.216	100.25
472.435	88.25
472.654	92.25
472.873	101.25
473.092	72.25
473.311	99.25
473.53	101.25
473.749	90.25
473.968	89.25
474.187	112.25
474.406	90.25
474.625	90.25
474.844	87.25
475.063	97.25
475.282	90.25
475.501	89.25
475.72	93.25
475.939	86.25
476.158	90.25
476.377	83.25
476.596	88.25
476.814	106.25
477.033	92.25
477.252	81.25
477.471	79.25
477.69	94.25
477.908	86.25
478.127	89.25
478.346	86.25
478.564	93.25
478.783	98.25
479.002	96.25
479.22	90.25
479.439	95.25
479.658	91.25
479.876	98.25
480.095	99.25
480.313	89.25
480.532	87.25
480.751	86.25
480.969	82.25
481.188	93.25
481.406	97.25
481.624	88.25
481.843	84.25
482.061	99.25
482.28	94.25
482.498	74.25
482.717	90.25
482.935	98.25
483.153	92.25
483.372	82.25
483.59	83.25
483.808	102.25
484.027	99.25
484.245	90.25
484.463	88.25
484.681	88.25
484.9	86.25
485.118	113.25
485.336	103.25
485.554	95.25
485.772	99.25
485.99	95.25
486.209	104.25
486.427	92.25
486.645	84.25
486.863	119.25
487.081	97.25
487.299	101.25
487.517	109.25
487.735	102.25
487.953	91.25
488.171	96.25
488.389	98.25
488.607	93.25
488.825	107.25
489.043	92.25
489.261	83.25
489.479	86.25
489.696	84.25
489.914	94.25
490.132	83.25
490.35	86.25
490.568	80.25
490.786	85.25
491.003	93.25
491.221	86.25
491.439	92.25
491.657	98.25
491.874	101.25
492.092	96.25
492.31	98.25
492.527	93.25
492.745	101.25
492.963	83.25
493.18	75.25
493.398	83.25
493.615	97.25
493.833	89.25
494.05	100.25
494.268	108.25
494.485	93.25
494.703	104.25
494.92	93.25
495.138	98.25
495.355	84.25
495.573	101.25
495.79	97.25
496.008	101.25
496.225	108.25
496.442	95.25
496.66	93.25
496.877	95.25
497.094	97.25
497.312	94.25
497.529	100.25
497.746	98.25
497.963	95.25
498.181	97.25
498.398	94.25
498.615	104.25
498.832	116.25
499.049	84.25
499.267	82.25
499.484	84.25
499.701	92.25
499.918	88.25
500.135	90.25
500.352	91.25
500.569	94.25
500.786	92.25
501.003	89.25
501.22	88.25
501.437	106.25
501.654	96.25
501.871	96.25
502.088	102.25
502.305	88.25
502.522	98.25
502.739	88.25
502.956	83.25
503.172	93.25
503.389	89.25
503.606	105.25
503.823	99.25
504.04	93.25
504.256	111.25
504.473	81.25
504.69	88.25
504.907	103.25
505.123	78.25
505.34	95.25
505.557	100.25
505.773	101.25
505.99	100.25
506.207	87.25
506.423	86.25
506.64	85.25
506.856	86.25
507.073	97.25
507.289	106.25
507.506	82.25
507.722	96.25
507.939	101.25
508.155	92.25
508.372	82.25
508.588	90.25
508.805	88.25
509.021	96.25
509.238	102.25
509.454	97.25
509.67	108.25
509.887	100.25
510.103	131.25
510.319	185.25
510.536	682.25
510.752	2058.25
510.968	573.25
511.184	153.25
511.401	113.25
511.617	84.25
511.833	85.25
512.049	90.25
512.265	94.25
512.481	85.25
512.698	94.25
512.914	92.25
513.13	89.25
513.346	90.25
513.562	95.25
513.778	97.25
513.994	105.25
514.21	107.25
514.426	114.25
514.642	117.25
514.858	108.25
515.074	148.25
515.29	414.25
