Data from Uncirc_1996_H10_HRD10591_00075.txt Node
Date: Wed Jan 03 11:32:17 EST 2024
User: Yrep
Spectrometer: HR+D1059
Trigger mode: 1
Integration Time (sec): 1.000000E-1
Scans to average: 1
Electric dark correction enabled: true
Nonlinearity correction enabled: false
Boxcar width: 0
XAxis mode: Wavelengths
Number of Pixels in Spectrum: 2048
>>>>>Begin Spectral Data<<<<<
223.165	-19.81
223.4	-19.81
223.635	-19.81
223.869	-9.81
224.104	-18.81
224.338	-8.81
224.573	-18.81
224.808	-7.81
225.042	-19.81
225.277	-4.81
225.511	-7.81
225.746	12.19
225.98	7.19
226.215	22.19
226.449	12.19
226.683	8.19
226.918	27.19
227.152	27.19
227.387	35.19
227.621	32.19
227.856	39.19
228.09	33.19
228.324	61.19
228.559	63.19
228.793	67.19
229.027	64.19
229.262	73.19
229.496	79.19
229.73	78.19
229.964	75.19
230.199	69.19
230.433	75.19
230.667	71.19
230.901	64.19
231.136	66.19
231.37	78.19
231.604	82.19
231.838	79.19
232.072	78.19
232.306	80.19
232.541	91.19
232.775	94.19
233.009	92.19
233.243	87.19
233.477	68.19
233.711	97.19
233.945	86.19
234.179	93.19
234.413	92.19
234.647	74.19
234.881	71.19
235.115	76.19
235.349	81.19
235.583	74.19
235.817	75.19
236.051	76.19
236.285	68.19
236.519	66.19
236.753	78.19
236.987	76.19
237.221	67.19
237.455	79.19
237.689	85.19
237.922	74.19
238.156	77.19
238.39	81.19
238.624	84.19
238.858	76.19
239.091	79.19
239.325	87.19
239.559	90.19
239.793	67.19
240.027	83.19
240.26	86.19
240.494	68.19
240.728	65.19
240.961	80.19
241.195	79.19
241.429	73.19
241.662	80.19
241.896	79.19
242.13	92.19
242.363	72.19
242.597	96.19
242.83	71.19
243.064	73.19
243.298	72.19
243.531	72.19
243.765	79.19
243.998	91.19
244.232	79.19
244.465	96.19
244.699	85.19
244.932	99.19
245.166	73.19
245.399	75.19
245.633	81.19
245.866	74.19
246.099	95.19
246.333	85.19
246.566	72.19
246.8	77.19
247.033	87.19
247.266	85.19
247.5	77.19
247.733	78.19
247.966	89.19
248.2	76.19
248.433	88.19
248.666	92.19
248.899	75.19
249.133	85.19
249.366	97.19
249.599	85.19
249.832	84.19
250.066	88.19
250.299	89.19
250.532	88.19
250.765	92.19
250.998	76.19
251.231	76.19
251.465	84.19
251.698	91.19
251.931	84.19
252.164	97.19
252.397	74.19
252.63	79.19
252.863	95.19
253.096	89.19
253.329	96.19
253.562	69.19
253.795	75.19
254.028	82.19
254.261	78.19
254.494	87.19
254.727	85.19
254.96	91.19
255.193	85.19
255.426	99.19
255.659	89.19
255.892	80.19
256.124	89.19
256.357	70.19
256.59	81.19
256.823	85.19
257.056	78.19
257.289	80.19
257.521	83.19
257.754	75.19
257.987	75.19
258.22	85.19
258.452	71.19
258.685	80.19
258.918	80.19
259.151	79.19
259.383	85.19
259.616	75.19
259.849	80.19
260.081	91.19
260.314	84.19
260.547	84.19
260.779	101.19
261.012	80.19
261.244	84.19
261.477	89.19
261.71	98.19
261.942	103.19
262.175	114.19
262.407	114.19
262.64	82.19
262.872	83.19
263.105	72.19
263.337	89.19
263.57	68.19
263.802	86.19
264.035	78.19
264.267	87.19
264.499	84.19
264.732	82.19
264.964	94.19
265.197	77.19
265.429	84.19
265.661	79.19
265.894	87.19
266.126	82.19
266.358	84.19
266.591	81.19
266.823	88.19
267.055	80.19
267.287	98.19
267.52	75.19
267.752	83.19
267.984	85.19
268.216	94.19
268.448	98.19
268.681	89.19
268.913	87.19
269.145	85.19
269.377	66.19
269.609	79.19
269.841	88.19
270.073	84.19
270.306	69.19
270.538	89.19
270.77	94.19
271.002	92.19
271.234	89.19
271.466	83.19
271.698	77.19
271.93	90.19
272.162	88.19
272.394	97.19
272.626	98.19
272.858	98.19
273.09	91.19
273.322	96.19
273.553	81.19
273.785	83.19
274.017	91.19
274.249	84.19
274.481	92.19
274.713	88.19
274.945	92.19
275.176	91.19
275.408	83.19
275.64	97.19
275.872	78.19
276.104	82.19
276.335	98.19
276.567	102.19
276.799	105.19
277.031	95.19
277.262	95.19
277.494	82.19
277.726	92.19
277.957	95.19
278.189	81.19
278.421	90.19
278.652	82.19
278.884	88.19
279.115	77.19
279.347	76.19
279.579	85.19
279.81	93.19
280.042	74.19
280.273	99.19
280.505	80.19
280.736	96.19
280.968	80.19
281.199	94.19
281.431	106.19
281.662	77.19
281.894	83.19
282.125	97.19
282.356	115.19
282.588	114.19
282.819	108.19
283.051	92.19
283.282	91.19
283.513	91.19
283.745	87.19
283.976	94.19
284.207	96.19
284.439	95.19
284.67	77.19
284.901	92.19
285.132	89.19
285.364	100.19
285.595	80.19
285.826	88.19
286.057	84.19
286.288	86.19
286.52	83.19
286.751	94.19
286.982	87.19
287.213	89.19
287.444	72.19
287.675	86.19
287.906	82.19
288.138	91.19
288.369	93.19
288.6	95.19
288.831	88.19
289.062	95.19
289.293	92.19
289.524	80.19
289.755	83.19
289.986	87.19
290.217	84.19
290.448	73.19
290.679	89.19
290.91	94.19
291.141	93.19
291.371	96.19
291.602	109.19
291.833	93.19
292.064	95.19
292.295	74.19
292.526	75.19
292.757	81.19
292.987	101.19
293.218	68.19
293.449	85.19
293.68	94.19
293.91	97.19
294.141	89.19
294.372	93.19
294.603	90.19
294.833	90.19
295.064	81.19
295.295	95.19
295.525	96.19
295.756	106.19
295.987	101.19
296.217	122.19
296.448	114.19
296.679	96.19
296.909	89.19
297.14	88.19
297.37	84.19
297.601	81.19
297.831	77.19
298.062	97.19
298.292	95.19
298.523	98.19
298.753	97.19
298.984	99.19
299.214	80.19
299.445	99.19
299.675	85.19
299.905	76.19
300.136	93.19
300.366	88.19
300.597	84.19
300.827	96.19
301.057	95.19
301.288	109.19
301.518	91.19
301.748	92.19
301.979	93.19
302.209	98.19
302.439	87.19
302.669	95.19
302.9	85.19
303.13	93.19
303.36	92.19
303.59	100.19
303.82	105.19
304.051	85.19
304.281	92.19
304.511	98.19
304.741	89.19
304.971	96.19
305.201	95.19
305.431	97.19
305.661	76.19
305.891	93.19
306.121	101.19
306.352	111.19
306.582	107.19
306.812	106.19
307.042	93.19
307.272	85.19
307.502	80.19
307.731	94.19
307.961	86.19
308.191	86.19
308.421	81.19
308.651	95.19
308.881	108.19
309.111	111.19
309.341	104.19
309.571	95.19
309.8	99.19
310.03	108.19
310.26	84.19
310.49	102.19
310.72	113.19
310.949	101.19
311.179	96.19
311.409	88.19
311.639	91.19
311.868	96.19
312.098	93.19
312.328	91.19
312.557	96.19
312.787	105.19
313.017	93.19
313.246	82.19
313.476	98.19
313.706	87.19
313.935	102.19
314.165	96.19
314.394	99.19
314.624	92.19
314.853	89.19
315.083	88.19
315.312	90.19
315.542	91.19
315.771	98.19
316.001	84.19
316.23	82.19
316.46	74.19
316.689	96.19
316.919	90.19
317.148	90.19
317.377	106.19
317.607	79.19
317.836	92.19
318.065	97.19
318.295	78.19
318.524	90.19
318.753	91.19
318.983	96.19
319.212	104.19
319.441	88.19
319.67	105.19
319.9	98.19
320.129	93.19
320.358	90.19
320.587	94.19
320.816	94.19
321.046	103.19
321.275	95.19
321.504	94.19
321.733	87.19
321.962	87.19
322.191	96.19
322.42	102.19
322.649	93.19
322.878	107.19
323.108	101.19
323.337	121.19
323.566	131.19
323.795	155.19
324.024	186.19
324.253	365.19
324.482	749.19
324.71	1506.19
324.939	1983.19
325.168	743.19
325.397	238.19
325.626	132.19
325.855	133.19
326.084	117.19
326.313	129.19
326.542	156.19
326.77	213.19
326.999	417.19
327.228	849.19
327.457	1549.19
327.686	1261.19
327.914	361.19
328.143	170.19
328.372	153.19
328.6	111.19
328.829	112.19
329.058	137.19
329.287	123.19
329.515	97.19
329.744	100.19
329.972	106.19
330.201	95.19
330.43	114.19
330.658	122.19
330.887	130.19
331.115	108.19
331.344	112.19
331.572	101.19
331.801	85.19
332.03	101.19
332.258	95.19
332.486	96.19
332.715	93.19
332.943	101.19
333.172	84.19
333.4	107.19
333.629	106.19
333.857	96.19
334.085	99.19
334.314	98.19
334.542	89.19
334.771	91.19
334.999	102.19
335.227	93.19
335.455	91.19
335.684	87.19
335.912	87.19
336.14	95.19
336.369	89.19
336.597	93.19
336.825	98.19
337.053	92.19
337.281	84.19
337.51	106.19
337.738	91.19
337.966	96.19
338.194	107.19
338.422	95.19
338.65	92.19
338.878	100.19
339.106	97.19
339.334	94.19
339.562	93.19
339.79	103.19
340.018	101.19
340.246	99.19
340.474	100.19
340.702	83.19
340.93	99.19
341.158	82.19
341.386	103.19
341.614	111.19
341.842	99.19
342.07	95.19
342.298	95.19
342.526	98.19
342.754	88.19
342.981	84.19
343.209	97.19
343.437	90.19
343.665	91.19
343.893	98.19
344.12	98.19
344.348	92.19
344.576	96.19
344.804	90.19
345.031	92.19
345.259	92.19
345.487	97.19
345.714	90.19
345.942	107.19
346.17	97.19
346.397	80.19
346.625	105.19
346.853	106.19
347.08	114.19
347.308	104.19
347.535	89.19
347.763	92.19
347.99	103.19
348.218	103.19
348.445	99.19
348.673	107.19
348.9	92.19
349.128	97.19
349.355	91.19
349.583	85.19
349.81	98.19
350.037	100.19
350.265	94.19
350.492	108.19
350.72	104.19
350.947	109.19
351.174	118.19
351.402	112.19
351.629	91.19
351.856	111.19
352.083	99.19
352.311	101.19
352.538	107.19
352.765	125.19
352.992	125.19
353.22	109.19
353.447	114.19
353.674	106.19
353.901	86.19
354.128	93.19
354.355	103.19
354.583	88.19
354.81	106.19
355.037	98.19
355.264	63.19
355.491	103.19
355.718	97.19
355.945	104.19
356.172	91.19
356.399	93.19
356.626	101.19
356.853	106.19
357.08	84.19
357.307	105.19
357.534	79.19
357.761	88.19
357.988	93.19
358.215	83.19
358.441	92.19
358.668	92.19
358.895	97.19
359.122	98.19
359.349	100.19
359.576	101.19
359.802	106.19
360.029	90.19
360.256	98.19
360.483	96.19
360.709	94.19
360.936	79.19
361.163	99.19
361.39	97.19
361.616	109.19
361.843	91.19
362.07	110.19
362.296	98.19
362.523	92.19
362.749	86.19
362.976	108.19
363.203	97.19
363.429	88.19
363.656	84.19
363.882	76.19
364.109	80.19
364.335	91.19
364.562	94.19
364.788	96.19
365.015	87.19
365.241	93.19
365.468	107.19
365.694	95.19
365.92	97.19
366.147	100.19
366.373	83.19
366.599	101.19
366.826	99.19
367.052	87.19
367.278	90.19
367.505	99.19
367.731	99.19
367.957	92.19
368.184	98.19
368.41	89.19
368.636	114.19
368.862	104.19
369.089	104.19
369.315	98.19
369.541	99.19
369.767	85.19
369.993	100.19
370.219	91.19
370.445	88.19
370.672	92.19
370.898	79.19
371.124	80.19
371.35	84.19
371.576	106.19
371.802	79.19
372.028	91.19
372.254	87.19
372.48	97.19
372.706	87.19
372.932	95.19
373.158	83.19
373.384	90.19
373.61	88.19
373.835	83.19
374.061	81.19
374.287	99.19
374.513	97.19
374.739	87.19
374.965	91.19
375.191	90.19
375.416	104.19
375.642	94.19
375.868	75.19
376.094	85.19
376.319	94.19
376.545	102.19
376.771	74.19
376.997	97.19
377.222	100.19
377.448	75.19
377.674	84.19
377.899	78.19
378.125	103.19
378.35	94.19
378.576	88.19
378.802	92.19
379.027	95.19
379.253	85.19
379.478	98.19
379.704	105.19
379.929	99.19
380.155	99.19
380.38	93.19
380.606	91.19
380.831	92.19
381.057	99.19
381.282	98.19
381.507	98.19
381.733	103.19
381.958	100.19
382.184	92.19
382.409	93.19
382.634	113.19
382.86	102.19
383.085	104.19
383.31	91.19
383.535	98.19
383.761	94.19
383.986	106.19
384.211	87.19
384.436	114.19
384.662	108.19
384.887	92.19
385.112	93.19
385.337	95.19
385.562	101.19
385.787	98.19
386.013	99.19
386.238	105.19
386.463	106.19
386.688	106.19
386.913	107.19
387.138	115.19
387.363	100.19
387.588	107.19
387.813	102.19
388.038	106.19
388.263	119.19
388.488	101.19
388.713	97.19
388.938	91.19
389.163	105.19
389.387	98.19
389.612	85.19
389.837	83.19
390.062	97.19
390.287	88.19
390.512	85.19
390.736	92.19
390.961	87.19
391.186	103.19
391.411	103.19
391.636	94.19
391.86	86.19
392.085	83.19
392.31	71.19
392.534	93.19
392.759	93.19
392.984	98.19
393.208	82.19
393.433	82.19
393.658	92.19
393.882	85.19
394.107	81.19
394.331	91.19
394.556	93.19
394.78	106.19
395.005	107.19
395.229	94.19
395.454	91.19
395.678	89.19
395.903	92.19
396.127	93.19
396.352	93.19
396.576	102.19
396.801	94.19
397.025	74.19
397.249	92.19
397.474	88.19
397.698	77.19
397.922	89.19
398.147	102.19
398.371	84.19
398.595	87.19
398.82	87.19
399.044	81.19
399.268	79.19
399.492	82.19
399.717	89.19
399.941	88.19
400.165	100.19
400.389	95.19
400.613	91.19
400.837	97.19
401.062	79.19
401.286	80.19
401.51	102.19
401.734	96.19
401.958	103.19
402.182	102.19
402.406	146.19
402.63	103.19
402.854	97.19
403.078	89.19
403.302	83.19
403.526	93.19
403.75	99.19
403.974	87.19
404.198	92.19
404.422	94.19
404.645	92.19
404.869	94.19
405.093	101.19
405.317	89.19
405.541	92.19
405.765	100.19
405.988	110.19
406.212	154.19
406.436	186.19
406.66	129.19
406.883	105.19
407.107	105.19
407.331	92.19
407.555	103.19
407.778	83.19
408.002	79.19
408.226	90.19
408.449	110.19
408.673	105.19
408.896	95.19
409.12	93.19
409.344	81.19
409.567	98.19
409.791	94.19
410.014	96.19
410.238	85.19
410.461	75.19
410.685	84.19
410.908	100.19
411.132	116.19
411.355	105.19
411.578	101.19
411.802	94.19
412.025	100.19
412.249	90.19
412.472	98.19
412.695	83.19
412.919	96.19
413.142	87.19
413.365	82.19
413.589	93.19
413.812	81.19
414.035	82.19
414.258	92.19
414.482	107.19
414.705	88.19
414.928	97.19
415.151	96.19
415.374	92.19
415.597	89.19
415.821	84.19
416.044	93.19
416.267	87.19
416.49	84.19
416.713	79.19
416.936	96.19
417.159	99.19
417.382	99.19
417.605	83.19
417.828	91.19
418.051	93.19
418.274	78.19
418.497	75.19
418.72	93.19
418.943	71.19
419.166	95.19
419.389	78.19
419.611	79.19
419.834	75.19
420.057	96.19
420.28	85.19
420.503	89.19
420.726	89.19
420.948	89.19
421.171	97.19
421.394	82.19
421.617	95.19
421.839	99.19
422.062	94.19
422.285	99.19
422.507	102.19
422.73	99.19
422.953	91.19
423.175	88.19
423.398	90.19
423.621	99.19
423.843	100.19
424.066	93.19
424.288	86.19
424.511	81.19
424.733	91.19
424.956	100.19
425.178	101.19
425.401	87.19
425.623	104.19
425.846	98.19
426.068	95.19
426.291	98.19
426.513	92.19
426.735	92.19
426.958	95.19
427.18	123.19
427.402	119.19
427.625	147.19
427.847	113.19
428.069	112.19
428.292	89.19
428.514	97.19
428.736	92.19
428.958	93.19
429.181	82.19
429.403	87.19
429.625	105.19
429.847	93.19
430.069	115.19
430.292	81.19
430.514	99.19
430.736	83.19
430.958	81.19
431.18	84.19
431.402	94.19
431.624	82.19
431.846	97.19
432.068	81.19
432.29	85.19
432.512	91.19
432.734	81.19
432.956	88.19
433.178	96.19
433.4	97.19
433.622	92.19
433.844	82.19
434.066	100.19
434.287	98.19
434.509	91.19
434.731	100.19
434.953	100.19
435.175	85.19
435.397	83.19
435.618	101.19
435.84	104.19
436.062	123.19
436.284	109.19
436.505	83.19
436.727	102.19
436.949	103.19
437.17	85.19
437.392	82.19
437.614	90.19
437.835	100.19
438.057	104.19
438.278	113.19
438.5	107.19
438.721	121.19
438.943	110.19
439.165	105.19
439.386	87.19
439.608	93.19
439.829	93.19
440.05	132.19
440.272	135.19
440.493	103.19
440.715	96.19
440.936	87.19
441.158	100.19
441.379	88.19
441.6	94.19
441.822	104.19
442.043	96.19
442.264	99.19
442.486	97.19
442.707	93.19
442.928	116.19
443.149	129.19
443.371	126.19
443.592	102.19
443.813	108.19
444.034	97.19
444.255	97.19
444.476	90.19
444.698	85.19
444.919	102.19
445.14	144.19
445.361	125.19
445.582	113.19
445.803	121.19
446.024	121.19
446.245	134.19
446.466	107.19
446.687	85.19
446.908	92.19
447.129	76.19
447.35	68.19
447.571	96.19
447.792	101.19
448.013	84.19
448.234	113.19
448.455	95.19
448.675	108.19
448.896	109.19
449.117	96.19
449.338	96.19
449.559	128.19
449.779	121.19
450	83.19
450.221	78.19
450.442	77.19
450.662	92.19
450.883	84.19
451.104	91.19
451.324	89.19
451.545	97.19
451.766	90.19
451.986	78.19
452.207	93.19
452.428	83.19
452.648	117.19
452.869	107.19
453.089	113.19
453.31	107.19
453.53	89.19
453.751	91.19
453.971	96.19
454.192	111.19
454.412	86.19
454.633	91.19
454.853	85.19
455.073	92.19
455.294	99.19
455.514	106.19
455.734	84.19
455.955	91.19
456.175	100.19
456.395	88.19
456.616	89.19
456.836	87.19
457.056	96.19
457.276	85.19
457.497	88.19
457.717	92.19
457.937	100.19
458.157	98.19
458.377	97.19
458.598	105.19
458.818	131.19
459.038	128.19
459.258	110.19
459.478	80.19
459.698	87.19
459.918	98.19
460.138	102.19
460.358	100.19
460.578	75.19
460.798	98.19
461.018	92.19
461.238	73.19
461.458	93.19
461.678	88.19
461.898	94.19
462.118	79.19
462.338	93.19
462.558	85.19
462.777	84.19
462.997	91.19
463.217	93.19
463.437	85.19
463.657	87.19
463.876	95.19
464.096	98.19
464.316	96.19
464.536	101.19
464.755	77.19
464.975	100.19
465.195	143.19
465.414	137.19
465.634	106.19
465.854	85.19
466.073	92.19
466.293	65.19
466.512	79.19
466.732	61.19
466.951	80.19
467.171	73.19
467.391	86.19
467.61	100.19
467.829	81.19
468.049	84.19
468.268	85.19
468.488	85.19
468.707	82.19
468.927	88.19
469.146	80.19
469.365	92.19
469.585	83.19
469.804	96.19
470.023	92.19
470.243	94.19
470.462	97.19
470.681	97.19
470.901	95.19
471.12	85.19
471.339	106.19
471.558	71.19
471.777	72.19
471.997	84.19
472.216	93.19
472.435	99.19
472.654	105.19
472.873	104.19
473.092	98.19
473.311	92.19
473.53	87.19
473.749	92.19
473.968	105.19
474.187	106.19
474.406	90.19
474.625	95.19
474.844	77.19
475.063	65.19
475.282	89.19
475.501	90.19
475.72	92.19
475.939	111.19
476.158	96.19
476.377	93.19
476.596	91.19
476.814	80.19
477.033	86.19
477.252	85.19
477.471	83.19
477.69	97.19
477.908	112.19
478.127	88.19
478.346	92.19
478.564	84.19
478.783	73.19
479.002	96.19
479.22	101.19
479.439	107.19
479.658	90.19
479.876	99.19
480.095	95.19
480.313	92.19
480.532	93.19
480.751	87.19
480.969	95.19
481.188	92.19
481.406	91.19
481.624	80.19
481.843	95.19
482.061	73.19
482.28	92.19
482.498	93.19
482.717	95.19
482.935	92.19
483.153	96.19
483.372	96.19
483.59	89.19
483.808	94.19
484.027	93.19
484.245	88.19
484.463	81.19
484.681	89.19
484.9	92.19
485.118	93.19
485.336	109.19
485.554	97.19
485.772	112.19
485.99	109.19
486.209	101.19
486.427	95.19
486.645	115.19
486.863	112.19
487.081	100.19
487.299	96.19
487.517	90.19
487.735	91.19
487.953	88.19
488.171	89.19
488.389	82.19
488.607	107.19
488.825	77.19
489.043	89.19
489.261	83.19
489.479	83.19
489.696	93.19
489.914	87.19
490.132	84.19
490.35	81.19
490.568	87.19
490.786	98.19
491.003	93.19
491.221	87.19
491.439	84.19
491.657	88.19
491.874	91.19
492.092	94.19
492.31	101.19
492.527	79.19
492.745	109.19
492.963	100.19
493.18	78.19
493.398	91.19
493.615	96.19
493.833	105.19
494.05	77.19
494.268	96.19
494.485	77.19
494.703	104.19
494.92	93.19
495.138	80.19
495.355	91.19
495.573	81.19
495.79	89.19
496.008	94.19
496.225	93.19
496.442	85.19
496.66	103.19
496.877	92.19
497.094	99.19
497.312	83.19
497.529	84.19
497.746	91.19
497.963	90.19
498.181	88.19
498.398	96.19
498.615	108.19
498.832	96.19
499.049	97.19
499.267	97.19
499.484	100.19
499.701	83.19
499.918	108.19
500.135	99.19
500.352	107.19
500.569	94.19
500.786	100.19
501.003	92.19
501.22	89.19
501.437	101.19
501.654	98.19
501.871	101.19
502.088	79.19
502.305	114.19
502.522	89.19
502.739	86.19
502.956	94.19
503.172	80.19
503.389	107.19
503.606	100.19
503.823	97.19
504.04	97.19
504.256	101.19
504.473	101.19
504.69	97.19
504.907	93.19
505.123	95.19
505.34	95.19
505.557	89.19
505.773	92.19
505.99	95.19
506.207	86.19
506.423	99.19
506.64	101.19
506.856	84.19
507.073	90.19
507.289	93.19
507.506	101.19
507.722	111.19
507.939	100.19
508.155	97.19
508.372	95.19
508.588	95.19
508.805	100.19
509.021	105.19
509.238	105.19
509.454	73.19
509.67	104.19
509.887	107.19
510.103	128.19
510.319	196.19
510.536	648.19
510.752	1987.19
510.968	555.19
511.184	153.19
511.401	112.19
511.617	97.19
511.833	101.19
512.049	103.19
512.265	95.19
512.481	87.19
512.698	97.19
512.914	92.19
513.13	99.19
513.346	94.19
513.562	89.19
513.778	87.19
513.994	86.19
514.21	100.19
514.426	117.19
514.642	123.19
514.858	124.19
515.074	160.19
515.29	380.19
515.506	1195.19
