Data from Uncirc_1996_H10_HRD10591_00006.txt Node
Date: Wed Jan 03 11:32:03 EST 2024
User: Yrep
Spectrometer: HR+D1059
Trigger mode: 1
Integration Time (sec): 1.000000E-1
Scans to average: 1
Electric dark correction enabled: true
Nonlinearity correction enabled: false
Boxcar width: 0
XAxis mode: Wavelengths
Number of Pixels in Spectrum: 2048
>>>>>Begin Spectral Data<<<<<
223.165	-8.62
223.4	-8.62
223.635	-8.62
223.869	-4.62
224.104	-18.62
224.338	-16.62
224.573	-16.62
224.808	-14.62
225.042	-9.62
225.277	-13.62
225.511	3.38
225.746	-2.62
225.98	3.38
226.215	2.38
226.449	28.38
226.683	20.38
226.918	27.38
227.152	20.38
227.387	29.38
227.621	36.38
227.856	45.38
228.09	69.38
228.324	63.38
228.559	77.38
228.793	63.38
229.027	45.38
229.262	80.38
229.496	77.38
229.73	84.38
229.964	88.38
230.199	73.38
230.433	72.38
230.667	73.38
230.901	85.38
231.136	78.38
231.37	77.38
231.604	86.38
231.838	81.38
232.072	88.38
232.306	78.38
232.541	101.38
232.775	81.38
233.009	73.38
233.243	75.38
233.477	68.38
233.711	85.38
233.945	78.38
234.179	89.38
234.413	81.38
234.647	92.38
234.881	79.38
235.115	75.38
235.349	68.38
235.583	88.38
235.817	80.38
236.051	96.38
236.285	78.38
236.519	83.38
236.753	71.38
236.987	88.38
237.221	84.38
237.455	89.38
237.689	85.38
237.922	74.38
238.156	65.38
238.39	79.38
238.624	79.38
238.858	65.38
239.091	74.38
239.325	81.38
239.559	83.38
239.793	92.38
240.027	75.38
240.26	95.38
240.494	75.38
240.728	68.38
240.961	75.38
241.195	86.38
241.429	76.38
241.662	85.38
241.896	80.38
242.13	73.38
242.363	82.38
242.597	74.38
242.83	67.38
243.064	85.38
243.298	67.38
243.531	68.38
243.765	64.38
243.998	80.38
244.232	87.38
244.465	76.38
244.699	78.38
244.932	81.38
245.166	71.38
245.399	85.38
245.633	80.38
245.866	76.38
246.099	80.38
246.333	83.38
246.566	71.38
246.8	85.38
247.033	71.38
247.266	82.38
247.5	80.38
247.733	92.38
247.966	92.38
248.2	91.38
248.433	89.38
248.666	64.38
248.899	87.38
249.133	81.38
249.366	83.38
249.599	85.38
249.832	105.38
250.066	83.38
250.299	75.38
250.532	82.38
250.765	86.38
250.998	85.38
251.231	93.38
251.465	77.38
251.698	87.38
251.931	89.38
252.164	79.38
252.397	67.38
252.63	83.38
252.863	81.38
253.096	80.38
253.329	72.38
253.562	87.38
253.795	83.38
254.028	81.38
254.261	77.38
254.494	85.38
254.727	84.38
254.96	66.38
255.193	86.38
255.426	86.38
255.659	88.38
255.892	86.38
256.124	92.38
256.357	71.38
256.59	89.38
256.823	88.38
257.056	79.38
257.289	71.38
257.521	96.38
257.754	79.38
257.987	84.38
258.22	89.38
258.452	79.38
258.685	89.38
258.918	77.38
259.151	92.38
259.383	99.38
259.616	83.38
259.849	92.38
260.081	78.38
260.314	78.38
260.547	79.38
260.779	79.38
261.012	75.38
261.244	80.38
261.477	84.38
261.71	87.38
261.942	84.38
262.175	105.38
262.407	96.38
262.64	92.38
262.872	75.38
263.105	76.38
263.337	79.38
263.57	84.38
263.802	92.38
264.035	83.38
264.267	87.38
264.499	104.38
264.732	89.38
264.964	88.38
265.197	89.38
265.429	83.38
265.661	73.38
265.894	82.38
266.126	75.38
266.358	79.38
266.591	84.38
266.823	85.38
267.055	72.38
267.287	78.38
267.52	75.38
267.752	98.38
267.984	92.38
268.216	78.38
268.448	79.38
268.681	101.38
268.913	84.38
269.145	85.38
269.377	79.38
269.609	89.38
269.841	91.38
270.073	79.38
270.306	89.38
270.538	83.38
270.77	85.38
271.002	83.38
271.234	87.38
271.466	89.38
271.698	83.38
271.93	93.38
272.162	80.38
272.394	89.38
272.626	95.38
272.858	80.38
273.09	87.38
273.322	83.38
273.553	92.38
273.785	96.38
274.017	81.38
274.249	80.38
274.481	80.38
274.713	95.38
274.945	88.38
275.176	85.38
275.408	85.38
275.64	88.38
275.872	102.38
276.104	83.38
276.335	97.38
276.567	91.38
276.799	99.38
277.031	97.38
277.262	88.38
277.494	75.38
277.726	93.38
277.957	81.38
278.189	87.38
278.421	89.38
278.652	98.38
278.884	77.38
279.115	84.38
279.347	85.38
279.579	90.38
279.81	82.38
280.042	74.38
280.273	89.38
280.505	93.38
280.736	90.38
280.968	85.38
281.199	74.38
281.431	80.38
281.662	90.38
281.894	105.38
282.125	99.38
282.356	110.38
282.588	128.38
282.819	107.38
283.051	81.38
283.282	85.38
283.513	88.38
283.745	94.38
283.976	77.38
284.207	98.38
284.439	92.38
284.67	97.38
284.901	88.38
285.132	79.38
285.364	91.38
285.595	94.38
285.826	94.38
286.057	92.38
286.288	90.38
286.52	89.38
286.751	76.38
286.982	86.38
287.213	84.38
287.444	83.38
287.675	85.38
287.906	87.38
288.138	86.38
288.369	103.38
288.6	82.38
288.831	95.38
289.062	89.38
289.293	77.38
289.524	99.38
289.755	84.38
289.986	82.38
290.217	85.38
290.448	82.38
290.679	87.38
290.91	84.38
291.141	81.38
291.371	92.38
291.602	89.38
291.833	82.38
292.064	85.38
292.295	88.38
292.526	84.38
292.757	81.38
292.987	88.38
293.218	76.38
293.449	97.38
293.68	78.38
293.91	95.38
294.141	88.38
294.372	89.38
294.603	90.38
294.833	89.38
295.064	95.38
295.295	78.38
295.525	97.38
295.756	90.38
295.987	120.38
296.217	122.38
296.448	111.38
296.679	87.38
296.909	82.38
297.14	85.38
297.37	86.38
297.601	89.38
297.831	86.38
298.062	83.38
298.292	84.38
298.523	97.38
298.753	73.38
298.984	83.38
299.214	95.38
299.445	73.38
299.675	82.38
299.905	101.38
300.136	89.38
300.366	86.38
300.597	95.38
300.827	95.38
301.057	91.38
301.288	84.38
301.518	87.38
301.748	87.38
301.979	113.38
302.209	79.38
302.439	83.38
302.669	91.38
302.9	94.38
303.13	79.38
303.36	95.38
303.59	88.38
303.82	101.38
304.051	101.38
304.281	96.38
304.511	99.38
304.741	92.38
304.971	83.38
305.201	87.38
305.431	82.38
305.661	85.38
305.891	90.38
306.121	99.38
306.352	100.38
306.582	99.38
306.812	93.38
307.042	90.38
307.272	114.38
307.502	99.38
307.731	99.38
307.961	92.38
308.191	83.38
308.421	94.38
308.651	100.38
308.881	105.38
309.111	83.38
309.341	83.38
309.571	106.38
309.8	96.38
310.03	90.38
310.26	85.38
310.49	92.38
310.72	97.38
310.949	101.38
311.179	107.38
311.409	91.38
311.639	100.38
311.868	84.38
312.098	106.38
312.328	106.38
312.557	93.38
312.787	116.38
313.017	99.38
313.246	85.38
313.476	72.38
313.706	98.38
313.935	96.38
314.165	108.38
314.394	83.38
314.624	94.38
314.853	100.38
315.083	92.38
315.312	90.38
315.542	90.38
315.771	91.38
316.001	82.38
316.23	106.38
316.46	95.38
316.689	90.38
316.919	93.38
317.148	95.38
317.377	86.38
317.607	100.38
317.836	99.38
318.065	78.38
318.295	87.38
318.524	99.38
318.753	94.38
318.983	95.38
319.212	89.38
319.441	97.38
319.67	100.38
319.9	91.38
320.129	94.38
320.358	88.38
320.587	80.38
320.816	96.38
321.046	80.38
321.275	92.38
321.504	99.38
321.733	82.38
321.962	111.38
322.191	98.38
322.42	91.38
322.649	97.38
322.878	124.38
323.108	113.38
323.337	113.38
323.566	118.38
323.795	150.38
324.024	188.38
324.253	337.38
324.482	725.38
324.71	1447.38
324.939	1952.38
325.168	693.38
325.397	213.38
325.626	149.38
325.855	119.38
326.084	124.38
326.313	125.38
326.542	138.38
326.77	197.38
326.999	412.38
327.228	856.38
327.457	1521.38
327.686	1220.38
327.914	350.38
328.143	227.38
328.372	169.38
328.6	121.38
328.829	113.38
329.058	111.38
329.287	116.38
329.515	94.38
329.744	105.38
329.972	90.38
330.201	102.38
330.43	108.38
330.658	107.38
330.887	129.38
331.115	116.38
331.344	107.38
331.572	100.38
331.801	96.38
332.03	91.38
332.258	98.38
332.486	88.38
332.715	99.38
332.943	106.38
333.172	98.38
333.4	90.38
333.629	94.38
333.857	109.38
334.085	94.38
334.314	87.38
334.542	95.38
334.771	93.38
334.999	91.38
335.227	87.38
335.455	77.38
335.684	104.38
335.912	92.38
336.14	103.38
336.369	98.38
336.597	84.38
336.825	110.38
337.053	91.38
337.281	77.38
337.51	98.38
337.738	96.38
337.966	100.38
338.194	118.38
338.422	124.38
338.65	128.38
338.878	103.38
339.106	88.38
339.334	97.38
339.562	96.38
339.79	89.38
340.018	99.38
340.246	97.38
340.474	83.38
340.702	92.38
340.93	94.38
341.158	96.38
341.386	95.38
341.614	113.38
341.842	87.38
342.07	87.38
342.298	99.38
342.526	105.38
342.754	84.38
342.981	78.38
343.209	101.38
343.437	96.38
343.665	87.38
343.893	99.38
344.12	88.38
344.348	102.38
344.576	88.38
344.804	96.38
345.031	86.38
345.259	99.38
345.487	89.38
345.714	95.38
345.942	93.38
346.17	84.38
346.397	83.38
346.625	97.38
346.853	93.38
347.08	95.38
347.308	94.38
347.535	83.38
347.763	106.38
347.99	99.38
348.218	104.38
348.445	101.38
348.673	112.38
348.9	100.38
349.128	87.38
349.355	91.38
349.583	93.38
349.81	89.38
350.037	99.38
350.265	109.38
350.492	96.38
350.72	99.38
350.947	94.38
351.174	105.38
351.402	119.38
351.629	109.38
351.856	107.38
352.083	80.38
352.311	107.38
352.538	114.38
352.765	104.38
352.992	106.38
353.22	112.38
353.447	96.38
353.674	96.38
353.901	89.38
354.128	101.38
354.355	100.38
354.583	100.38
354.81	91.38
355.037	96.38
355.264	83.38
355.491	97.38
355.718	100.38
355.945	113.38
356.172	106.38
356.399	91.38
356.626	96.38
356.853	89.38
357.08	86.38
357.307	101.38
357.534	94.38
357.761	92.38
357.988	98.38
358.215	100.38
358.441	79.38
358.668	91.38
358.895	92.38
359.122	102.38
359.349	68.38
359.576	90.38
359.802	90.38
360.029	98.38
360.256	105.38
360.483	95.38
360.709	86.38
360.936	98.38
361.163	79.38
361.39	90.38
361.616	104.38
361.843	87.38
362.07	100.38
362.296	94.38
362.523	88.38
362.749	98.38
362.976	90.38
363.203	92.38
363.429	77.38
363.656	92.38
363.882	75.38
364.109	93.38
364.335	81.38
364.562	100.38
364.788	96.38
365.015	88.38
365.241	116.38
365.468	105.38
365.694	111.38
365.92	96.38
366.147	90.38
366.373	84.38
366.599	89.38
366.826	94.38
367.052	96.38
367.278	80.38
367.505	99.38
367.731	101.38
367.957	97.38
368.184	95.38
368.41	91.38
368.636	94.38
368.862	106.38
369.089	77.38
369.315	91.38
369.541	107.38
369.767	108.38
369.993	96.38
370.219	88.38
370.445	83.38
370.672	91.38
370.898	101.38
371.124	93.38
371.35	103.38
371.576	97.38
371.802	94.38
372.028	93.38
372.254	84.38
372.48	92.38
372.706	83.38
372.932	85.38
373.158	75.38
373.384	77.38
373.61	83.38
373.835	90.38
374.061	109.38
374.287	101.38
374.513	83.38
374.739	73.38
374.965	92.38
375.191	82.38
375.416	92.38
375.642	105.38
375.868	87.38
376.094	89.38
376.319	99.38
376.545	92.38
376.771	99.38
376.997	88.38
377.222	84.38
377.448	78.38
377.674	94.38
377.899	77.38
378.125	90.38
378.35	84.38
378.576	80.38
378.802	98.38
379.027	93.38
379.253	87.38
379.478	86.38
379.704	79.38
379.929	97.38
380.155	96.38
380.38	94.38
380.606	95.38
380.831	90.38
381.057	84.38
381.282	91.38
381.507	90.38
381.733	95.38
381.958	102.38
382.184	102.38
382.409	104.38
382.634	110.38
382.86	103.38
383.085	96.38
383.31	116.38
383.535	109.38
383.761	115.38
383.986	107.38
384.211	91.38
384.436	113.38
384.662	94.38
384.887	107.38
385.112	111.38
385.337	105.38
385.562	111.38
385.787	108.38
386.013	108.38
386.238	115.38
386.463	111.38
386.688	104.38
386.913	95.38
387.138	104.38
387.363	100.38
387.588	93.38
387.813	107.38
388.038	115.38
388.263	105.38
388.488	119.38
388.713	100.38
388.938	85.38
389.163	104.38
389.387	95.38
389.612	99.38
389.837	82.38
390.062	105.38
390.287	83.38
390.512	98.38
390.736	94.38
390.961	91.38
391.186	101.38
391.411	100.38
391.636	93.38
391.86	90.38
392.085	109.38
392.31	89.38
392.534	90.38
392.759	85.38
392.984	107.38
393.208	99.38
393.433	116.38
393.658	99.38
393.882	88.38
394.107	91.38
394.331	95.38
394.556	75.38
394.78	107.38
395.005	88.38
395.229	82.38
395.454	85.38
395.678	87.38
395.903	93.38
396.127	79.38
396.352	97.38
396.576	87.38
396.801	88.38
397.025	92.38
397.249	101.38
397.474	95.38
397.698	99.38
397.922	96.38
398.147	84.38
398.371	94.38
398.595	88.38
398.82	87.38
399.044	93.38
399.268	86.38
399.492	99.38
399.717	111.38
399.941	112.38
400.165	100.38
400.389	95.38
400.613	85.38
400.837	84.38
401.062	85.38
401.286	91.38
401.51	85.38
401.734	87.38
401.958	76.38
402.182	111.38
402.406	121.38
402.63	109.38
402.854	99.38
403.078	95.38
403.302	83.38
403.526	85.38
403.75	68.38
403.974	99.38
404.198	89.38
404.422	94.38
404.645	82.38
404.869	110.38
405.093	109.38
405.317	99.38
405.541	97.38
405.765	99.38
405.988	106.38
406.212	141.38
406.436	190.38
406.66	132.38
406.883	106.38
407.107	77.38
407.331	93.38
407.555	112.38
407.778	102.38
408.002	81.38
408.226	97.38
408.449	110.38
408.673	105.38
408.896	104.38
409.12	109.38
409.344	104.38
409.567	101.38
409.791	107.38
410.014	112.38
410.238	93.38
410.461	106.38
410.685	96.38
410.908	103.38
411.132	107.38
411.355	106.38
411.578	84.38
411.802	88.38
412.025	97.38
412.249	105.38
412.472	100.38
412.695	88.38
412.919	95.38
413.142	92.38
413.365	86.38
413.589	94.38
413.812	99.38
414.035	73.38
414.258	79.38
414.482	95.38
414.705	96.38
414.928	89.38
415.151	106.38
415.374	108.38
415.597	95.38
415.821	90.38
416.044	82.38
416.267	95.38
416.49	96.38
416.713	96.38
416.936	97.38
417.159	98.38
417.382	99.38
417.605	97.38
417.828	95.38
418.051	102.38
418.274	83.38
418.497	95.38
418.72	99.38
418.943	87.38
419.166	99.38
419.389	101.38
419.611	96.38
419.834	92.38
420.057	99.38
420.28	86.38
420.503	80.38
420.726	92.38
420.948	86.38
421.171	91.38
421.394	106.38
421.617	90.38
421.839	81.38
422.062	91.38
422.285	95.38
422.507	113.38
422.73	108.38
422.953	107.38
423.175	96.38
423.398	92.38
423.621	91.38
423.843	99.38
424.066	87.38
424.288	101.38
424.511	106.38
424.733	117.38
424.956	100.38
425.178	99.38
425.401	106.38
425.623	98.38
425.846	88.38
426.068	107.38
426.291	93.38
426.513	105.38
426.735	96.38
426.958	100.38
427.18	93.38
427.402	121.38
427.625	145.38
427.847	87.38
428.069	86.38
428.292	90.38
428.514	95.38
428.736	97.38
428.958	87.38
429.181	94.38
429.403	93.38
429.625	99.38
429.847	97.38
430.069	98.38
430.292	89.38
430.514	86.38
430.736	84.38
430.958	93.38
431.18	91.38
431.402	79.38
431.624	78.38
431.846	84.38
432.068	87.38
432.29	79.38
432.512	89.38
432.734	90.38
432.956	101.38
433.178	90.38
433.4	101.38
433.622	109.38
433.844	88.38
434.066	97.38
434.287	99.38
434.509	77.38
434.731	93.38
434.953	91.38
435.175	92.38
435.397	79.38
435.618	101.38
435.84	120.38
436.062	127.38
436.284	123.38
436.505	100.38
436.727	106.38
436.949	106.38
437.17	100.38
437.392	81.38
437.614	98.38
437.835	98.38
438.057	119.38
438.278	97.38
438.5	106.38
438.721	123.38
438.943	107.38
439.165	88.38
439.386	89.38
439.608	108.38
439.829	106.38
440.05	125.38
440.272	152.38
440.493	89.38
440.715	93.38
440.936	81.38
441.158	74.38
441.379	84.38
441.6	97.38
441.822	98.38
442.043	97.38
442.264	110.38
442.486	80.38
442.707	87.38
442.928	94.38
443.149	114.38
443.371	131.38
443.592	108.38
443.813	117.38
444.034	96.38
444.255	83.38
444.476	95.38
444.698	92.38
444.919	87.38
445.14	120.38
445.361	122.38
445.582	116.38
445.803	128.38
446.024	124.38
446.245	134.38
446.466	116.38
446.687	89.38
446.908	75.38
447.129	79.38
447.35	92.38
447.571	87.38
447.792	97.38
448.013	89.38
448.234	103.38
448.455	87.38
448.675	108.38
448.896	115.38
449.117	89.38
449.338	95.38
449.559	133.38
449.779	132.38
450	96.38
450.221	83.38
450.442	94.38
450.662	100.38
450.883	104.38
451.104	105.38
451.324	101.38
451.545	82.38
451.766	94.38
451.986	84.38
452.207	105.38
452.428	90.38
452.648	91.38
452.869	103.38
453.089	104.38
453.31	90.38
453.53	93.38
453.751	96.38
453.971	92.38
454.192	96.38
454.412	91.38
454.633	90.38
454.853	82.38
455.073	71.38
455.294	85.38
455.514	115.38
455.734	93.38
455.955	97.38
456.175	102.38
456.395	93.38
456.616	94.38
456.836	94.38
457.056	85.38
457.276	78.38
457.497	111.38
457.717	105.38
457.937	87.38
458.157	91.38
458.377	101.38
458.598	101.38
458.818	125.38
459.038	154.38
459.258	104.38
459.478	91.38
459.698	81.38
459.918	92.38
460.138	82.38
460.358	89.38
460.578	105.38
460.798	91.38
461.018	96.38
461.238	86.38
461.458	83.38
461.678	97.38
461.898	84.38
462.118	91.38
462.338	87.38
462.558	84.38
462.777	63.38
462.997	96.38
463.217	81.38
463.437	89.38
463.657	99.38
463.876	93.38
464.096	88.38
464.316	82.38
464.536	101.38
464.755	101.38
464.975	103.38
465.195	132.38
465.414	128.38
465.634	98.38
465.854	98.38
466.073	81.38
466.293	103.38
466.512	93.38
466.732	98.38
466.951	93.38
467.171	96.38
467.391	84.38
467.61	93.38
467.829	95.38
468.049	77.38
468.268	87.38
468.488	90.38
468.707	92.38
468.927	86.38
469.146	86.38
469.365	76.38
469.585	84.38
469.804	80.38
470.023	101.38
470.243	86.38
470.462	86.38
470.681	114.38
470.901	99.38
471.12	79.38
471.339	93.38
471.558	87.38
471.777	79.38
471.997	80.38
472.216	91.38
472.435	94.38
472.654	80.38
472.873	84.38
473.092	80.38
473.311	95.38
473.53	85.38
473.749	85.38
473.968	98.38
474.187	105.38
474.406	98.38
474.625	95.38
474.844	76.38
475.063	89.38
475.282	91.38
475.501	76.38
475.72	92.38
475.939	93.38
476.158	94.38
476.377	98.38
476.596	92.38
476.814	95.38
477.033	83.38
477.252	95.38
477.471	95.38
477.69	94.38
477.908	83.38
478.127	71.38
478.346	96.38
478.564	93.38
478.783	91.38
479.002	99.38
479.22	81.38
479.439	77.38
479.658	100.38
479.876	96.38
480.095	79.38
480.313	96.38
480.532	89.38
480.751	96.38
480.969	74.38
481.188	105.38
481.406	97.38
481.624	99.38
481.843	92.38
482.061	92.38
482.28	82.38
482.498	84.38
482.717	89.38
482.935	92.38
483.153	88.38
483.372	103.38
483.59	93.38
483.808	99.38
484.027	83.38
484.245	96.38
484.463	111.38
484.681	95.38
484.9	96.38
485.118	81.38
485.336	79.38
485.554	93.38
485.772	102.38
485.99	106.38
486.209	102.38
486.427	116.38
486.645	102.38
486.863	100.38
487.081	113.38
487.299	118.38
487.517	89.38
487.735	106.38
487.953	106.38
488.171	79.38
488.389	95.38
488.607	108.38
488.825	100.38
489.043	97.38
489.261	81.38
489.479	75.38
489.696	101.38
489.914	94.38
490.132	94.38
490.35	105.38
490.568	87.38
490.786	85.38
491.003	93.38
491.221	102.38
491.439	98.38
491.657	99.38
491.874	102.38
492.092	82.38
492.31	99.38
492.527	86.38
492.745	97.38
492.963	87.38
493.18	94.38
493.398	93.38
493.615	107.38
493.833	100.38
494.05	86.38
494.268	91.38
494.485	98.38
494.703	99.38
494.92	92.38
495.138	88.38
495.355	92.38
495.573	83.38
495.79	93.38
496.008	103.38
496.225	103.38
496.442	101.38
496.66	95.38
496.877	94.38
497.094	95.38
497.312	97.38
497.529	91.38
497.746	85.38
497.963	96.38
498.181	118.38
498.398	105.38
498.615	101.38
498.832	89.38
499.049	83.38
499.267	95.38
499.484	83.38
499.701	84.38
499.918	93.38
500.135	100.38
500.352	92.38
500.569	90.38
500.786	94.38
501.003	115.38
501.22	95.38
501.437	94.38
501.654	93.38
501.871	92.38
502.088	82.38
502.305	93.38
502.522	106.38
502.739	105.38
502.956	88.38
503.172	91.38
503.389	92.38
503.606	100.38
503.823	95.38
504.04	101.38
504.256	105.38
504.473	102.38
504.69	81.38
504.907	85.38
505.123	80.38
505.34	95.38
505.557	95.38
505.773	86.38
505.99	88.38
506.207	81.38
506.423	89.38
506.64	84.38
506.856	102.38
507.073	91.38
507.289	94.38
507.506	111.38
507.722	103.38
507.939	121.38
508.155	93.38
508.372	100.38
508.588	103.38
508.805	97.38
509.021	108.38
509.238	99.38
509.454	96.38
509.67	100.38
509.887	113.38
510.103	122.38
510.319	177.38
510.536	592.38
510.752	1699.38
510.968	491.38
511.184	128.38
511.401	113.38
511.617	99.38
511.833	95.38
512.049	92.38
512.265	102.38
512.481	82.38
512.698	107.38
512.914	88.38
513.13	96.38
513.346	91.38
513.562	93.38
513.778	91.38
513.994	91.38
514.21	92.38
514.426	101.38
514.642	119.38
514.858	115.38
515.074	146.38
515.29	361.38
515.506	1067.38
