Data from Uncirc_1996_H10_HRD10591_00070.txt Node
Date: Wed Jan 03 11:32:16 EST 2024
User: Yrep
Spectrometer: HR+D1059
Trigger mode: 1
Integration Time (sec): 1.000000E-1
Scans to average: 1
Electric dark correction enabled: true
Nonlinearity correction enabled: false
Boxcar width: 0
XAxis mode: Wavelengths
Number of Pixels in Spectrum: 2048
>>>>>Begin Spectral Data<<<<<
223.165	-13.44
223.4	-13.44
223.635	-13.44
223.869	-23.44
224.104	-28.44
224.338	-18.44
224.573	-25.44
224.808	-12.44
225.042	-3.44
225.277	-11.44
225.511	-0.44
225.746	5.56
225.98	13.56
226.215	10.56
226.449	21.56
226.683	24.56
226.918	30.56
227.152	30.56
227.387	40.56
227.621	37.56
227.856	42.56
228.09	61.56
228.324	48.56
228.559	54.56
228.793	58.56
229.027	48.56
229.262	68.56
229.496	66.56
229.73	86.56
229.964	84.56
230.199	68.56
230.433	71.56
230.667	62.56
230.901	77.56
231.136	78.56
231.37	82.56
231.604	74.56
231.838	73.56
232.072	95.56
232.306	69.56
232.541	73.56
232.775	67.56
233.009	82.56
233.243	91.56
233.477	66.56
233.711	83.56
233.945	81.56
234.179	79.56
234.413	81.56
234.647	80.56
234.881	66.56
235.115	79.56
235.349	82.56
235.583	78.56
235.817	81.56
236.051	75.56
236.285	78.56
236.519	78.56
236.753	61.56
236.987	67.56
237.221	87.56
237.455	88.56
237.689	70.56
237.922	82.56
238.156	56.56
238.39	63.56
238.624	72.56
238.858	80.56
239.091	64.56
239.325	78.56
239.559	78.56
239.793	76.56
240.027	74.56
240.26	69.56
240.494	85.56
240.728	76.56
240.961	66.56
241.195	72.56
241.429	71.56
241.662	63.56
241.896	78.56
242.13	70.56
242.363	76.56
242.597	70.56
242.83	74.56
243.064	75.56
243.298	82.56
243.531	77.56
243.765	70.56
243.998	61.56
244.232	68.56
244.465	76.56
244.699	67.56
244.932	76.56
245.166	90.56
245.399	85.56
245.633	78.56
245.866	86.56
246.099	71.56
246.333	78.56
246.566	80.56
246.8	61.56
247.033	79.56
247.266	68.56
247.5	74.56
247.733	84.56
247.966	64.56
248.2	73.56
248.433	85.56
248.666	78.56
248.899	68.56
249.133	90.56
249.366	85.56
249.599	96.56
249.832	88.56
250.066	84.56
250.299	79.56
250.532	88.56
250.765	85.56
250.998	61.56
251.231	82.56
251.465	75.56
251.698	80.56
251.931	76.56
252.164	80.56
252.397	73.56
252.63	80.56
252.863	70.56
253.096	82.56
253.329	74.56
253.562	75.56
253.795	77.56
254.028	71.56
254.261	59.56
254.494	77.56
254.727	79.56
254.96	67.56
255.193	69.56
255.426	70.56
255.659	85.56
255.892	91.56
256.124	75.56
256.357	79.56
256.59	80.56
256.823	74.56
257.056	85.56
257.289	64.56
257.521	70.56
257.754	55.56
257.987	66.56
258.22	66.56
258.452	88.56
258.685	88.56
258.918	75.56
259.151	72.56
259.383	82.56
259.616	83.56
259.849	76.56
260.081	66.56
260.314	75.56
260.547	82.56
260.779	76.56
261.012	79.56
261.244	91.56
261.477	81.56
261.71	100.56
261.942	103.56
262.175	96.56
262.407	73.56
262.64	81.56
262.872	75.56
263.105	77.56
263.337	74.56
263.57	80.56
263.802	77.56
264.035	88.56
264.267	82.56
264.499	83.56
264.732	85.56
264.964	73.56
265.197	66.56
265.429	71.56
265.661	81.56
265.894	83.56
266.126	76.56
266.358	69.56
266.591	83.56
266.823	92.56
267.055	70.56
267.287	85.56
267.52	77.56
267.752	78.56
267.984	75.56
268.216	70.56
268.448	78.56
268.681	81.56
268.913	67.56
269.145	73.56
269.377	76.56
269.609	81.56
269.841	78.56
270.073	90.56
270.306	77.56
270.538	96.56
270.77	90.56
271.002	88.56
271.234	79.56
271.466	70.56
271.698	90.56
271.93	88.56
272.162	88.56
272.394	88.56
272.626	78.56
272.858	85.56
273.09	75.56
273.322	77.56
273.553	66.56
273.785	69.56
274.017	71.56
274.249	87.56
274.481	77.56
274.713	89.56
274.945	88.56
275.176	90.56
275.408	89.56
275.64	76.56
275.872	86.56
276.104	102.56
276.335	92.56
276.567	84.56
276.799	87.56
277.031	87.56
277.262	76.56
277.494	75.56
277.726	86.56
277.957	68.56
278.189	75.56
278.421	73.56
278.652	80.56
278.884	91.56
279.115	71.56
279.347	72.56
279.579	92.56
279.81	78.56
280.042	70.56
280.273	87.56
280.505	88.56
280.736	83.56
280.968	92.56
281.199	88.56
281.431	82.56
281.662	75.56
281.894	92.56
282.125	93.56
282.356	118.56
282.588	140.56
282.819	113.56
283.051	92.56
283.282	68.56
283.513	78.56
283.745	90.56
283.976	89.56
284.207	83.56
284.439	95.56
284.67	73.56
284.901	84.56
285.132	86.56
285.364	95.56
285.595	96.56
285.826	83.56
286.057	94.56
286.288	74.56
286.52	73.56
286.751	74.56
286.982	92.56
287.213	81.56
287.444	96.56
287.675	87.56
287.906	70.56
288.138	93.56
288.369	85.56
288.6	85.56
288.831	86.56
289.062	80.56
289.293	95.56
289.524	86.56
289.755	73.56
289.986	68.56
290.217	82.56
290.448	85.56
290.679	88.56
290.91	79.56
291.141	82.56
291.371	89.56
291.602	88.56
291.833	77.56
292.064	90.56
292.295	78.56
292.526	92.56
292.757	93.56
292.987	83.56
293.218	76.56
293.449	78.56
293.68	97.56
293.91	72.56
294.141	82.56
294.372	84.56
294.603	82.56
294.833	90.56
295.064	83.56
295.295	78.56
295.525	79.56
295.756	87.56
295.987	101.56
296.217	134.56
296.448	120.56
296.679	80.56
296.909	77.56
297.14	72.56
297.37	82.56
297.601	79.56
297.831	91.56
298.062	76.56
298.292	85.56
298.523	95.56
298.753	85.56
298.984	101.56
299.214	85.56
299.445	97.56
299.675	84.56
299.905	79.56
300.136	84.56
300.366	89.56
300.597	85.56
300.827	79.56
301.057	100.56
301.288	84.56
301.518	80.56
301.748	78.56
301.979	95.56
302.209	91.56
302.439	73.56
302.669	87.56
302.9	100.56
303.13	82.56
303.36	82.56
303.59	71.56
303.82	90.56
304.051	90.56
304.281	85.56
304.511	98.56
304.741	82.56
304.971	87.56
305.201	78.56
305.431	94.56
305.661	96.56
305.891	98.56
306.121	85.56
306.352	99.56
306.582	110.56
306.812	88.56
307.042	108.56
307.272	96.56
307.502	84.56
307.731	100.56
307.961	70.56
308.191	67.56
308.421	93.56
308.651	88.56
308.881	97.56
309.111	89.56
309.341	87.56
309.571	94.56
309.8	106.56
310.03	90.56
310.26	90.56
310.49	101.56
310.72	98.56
310.949	97.56
311.179	94.56
311.409	87.56
311.639	94.56
311.868	78.56
312.098	86.56
312.328	104.56
312.557	93.56
312.787	104.56
313.017	86.56
313.246	88.56
313.476	77.56
313.706	83.56
313.935	87.56
314.165	86.56
314.394	74.56
314.624	82.56
314.853	98.56
315.083	96.56
315.312	102.56
315.542	86.56
315.771	86.56
316.001	93.56
316.23	70.56
316.46	92.56
316.689	92.56
316.919	96.56
317.148	96.56
317.377	85.56
317.607	91.56
317.836	85.56
318.065	84.56
318.295	98.56
318.524	85.56
318.753	87.56
318.983	91.56
319.212	94.56
319.441	96.56
319.67	130.56
319.9	90.56
320.129	87.56
320.358	107.56
320.587	91.56
320.816	105.56
321.046	104.56
321.275	87.56
321.504	94.56
321.733	79.56
321.962	90.56
322.191	100.56
322.42	102.56
322.649	99.56
322.878	106.56
323.108	109.56
323.337	122.56
323.566	131.56
323.795	138.56
324.024	192.56
324.253	367.56
324.482	736.56
324.71	1573.56
324.939	2013.56
325.168	773.56
325.397	234.56
325.626	130.56
325.855	122.56
326.084	112.56
326.313	130.56
326.542	140.56
326.77	215.56
326.999	416.56
327.228	886.56
327.457	1540.56
327.686	1236.56
327.914	362.56
328.143	189.56
328.372	139.56
328.6	135.56
328.829	126.56
329.058	125.56
329.287	108.56
329.515	109.56
329.744	92.56
329.972	90.56
330.201	93.56
330.43	94.56
330.658	118.56
330.887	130.56
331.115	101.56
331.344	82.56
331.572	87.56
331.801	108.56
332.03	107.56
332.258	90.56
332.486	88.56
332.715	90.56
332.943	93.56
333.172	92.56
333.4	94.56
333.629	109.56
333.857	103.56
334.085	99.56
334.314	91.56
334.542	81.56
334.771	74.56
334.999	96.56
335.227	97.56
335.455	89.56
335.684	96.56
335.912	98.56
336.14	96.56
336.369	86.56
336.597	87.56
336.825	86.56
337.053	94.56
337.281	81.56
337.51	80.56
337.738	95.56
337.966	72.56
338.194	86.56
338.422	110.56
338.65	92.56
338.878	95.56
339.106	87.56
339.334	89.56
339.562	80.56
339.79	75.56
340.018	99.56
340.246	101.56
340.474	91.56
340.702	92.56
340.93	86.56
341.158	82.56
341.386	94.56
341.614	98.56
341.842	84.56
342.07	94.56
342.298	77.56
342.526	91.56
342.754	86.56
342.981	103.56
343.209	89.56
343.437	79.56
343.665	81.56
343.893	88.56
344.12	87.56
344.348	82.56
344.576	77.56
344.804	91.56
345.031	78.56
345.259	106.56
345.487	88.56
345.714	87.56
345.942	89.56
346.17	89.56
346.397	85.56
346.625	90.56
346.853	84.56
347.08	86.56
347.308	107.56
347.535	76.56
347.763	86.56
347.99	97.56
348.218	90.56
348.445	96.56
348.673	87.56
348.9	97.56
349.128	84.56
349.355	75.56
349.583	87.56
349.81	90.56
350.037	79.56
350.265	90.56
350.492	100.56
350.72	84.56
350.947	95.56
351.174	115.56
351.402	116.56
351.629	93.56
351.856	110.56
352.083	84.56
352.311	102.56
352.538	106.56
352.765	104.56
352.992	114.56
353.22	100.56
353.447	98.56
353.674	113.56
353.901	96.56
354.128	86.56
354.355	82.56
354.583	107.56
354.81	90.56
355.037	96.56
355.264	100.56
355.491	93.56
355.718	93.56
355.945	102.56
356.172	88.56
356.399	84.56
356.626	74.56
356.853	90.56
357.08	72.56
357.307	91.56
357.534	86.56
357.761	89.56
357.988	84.56
358.215	90.56
358.441	83.56
358.668	82.56
358.895	85.56
359.122	78.56
359.349	92.56
359.576	92.56
359.802	95.56
360.029	111.56
360.256	99.56
360.483	88.56
360.709	83.56
360.936	86.56
361.163	87.56
361.39	90.56
361.616	71.56
361.843	57.56
362.07	89.56
362.296	95.56
362.523	93.56
362.749	74.56
362.976	87.56
363.203	76.56
363.429	106.56
363.656	94.56
363.882	87.56
364.109	92.56
364.335	83.56
364.562	80.56
364.788	93.56
365.015	103.56
365.241	95.56
365.468	102.56
365.694	101.56
365.92	82.56
366.147	80.56
366.373	80.56
366.599	95.56
366.826	94.56
367.052	83.56
367.278	94.56
367.505	90.56
367.731	89.56
367.957	80.56
368.184	89.56
368.41	100.56
368.636	98.56
368.862	110.56
369.089	106.56
369.315	84.56
369.541	82.56
369.767	83.56
369.993	92.56
370.219	96.56
370.445	82.56
370.672	92.56
370.898	90.56
371.124	98.56
371.35	92.56
371.576	69.56
371.802	76.56
372.028	86.56
372.254	90.56
372.48	93.56
372.706	70.56
372.932	84.56
373.158	87.56
373.384	80.56
373.61	97.56
373.835	72.56
374.061	87.56
374.287	95.56
374.513	94.56
374.739	89.56
374.965	86.56
375.191	102.56
375.416	73.56
375.642	75.56
375.868	81.56
376.094	93.56
376.319	84.56
376.545	86.56
376.771	82.56
376.997	82.56
377.222	74.56
377.448	80.56
377.674	86.56
377.899	101.56
378.125	86.56
378.35	92.56
378.576	89.56
378.802	92.56
379.027	68.56
379.253	95.56
379.478	78.56
379.704	81.56
379.929	90.56
380.155	90.56
380.38	78.56
380.606	95.56
380.831	71.56
381.057	85.56
381.282	83.56
381.507	88.56
381.733	101.56
381.958	100.56
382.184	100.56
382.409	102.56
382.634	100.56
382.86	79.56
383.085	99.56
383.31	80.56
383.535	88.56
383.761	84.56
383.986	106.56
384.211	86.56
384.436	97.56
384.662	101.56
384.887	86.56
385.112	92.56
385.337	97.56
385.562	110.56
385.787	99.56
386.013	101.56
386.238	115.56
386.463	101.56
386.688	98.56
386.913	104.56
387.138	101.56
387.363	94.56
387.588	96.56
387.813	114.56
388.038	116.56
388.263	101.56
388.488	90.56
388.713	106.56
388.938	87.56
389.163	88.56
389.387	99.56
389.612	82.56
389.837	75.56
390.062	86.56
390.287	86.56
390.512	84.56
390.736	96.56
390.961	83.56
391.186	90.56
391.411	100.56
391.636	79.56
391.86	89.56
392.085	79.56
392.31	67.56
392.534	87.56
392.759	82.56
392.984	94.56
393.208	82.56
393.433	82.56
393.658	73.56
393.882	77.56
394.107	83.56
394.331	80.56
394.556	86.56
394.78	90.56
395.005	91.56
395.229	90.56
395.454	88.56
395.678	77.56
395.903	85.56
396.127	79.56
396.352	94.56
396.576	94.56
396.801	91.56
397.025	95.56
397.249	74.56
397.474	85.56
397.698	82.56
397.922	89.56
398.147	76.56
398.371	87.56
398.595	88.56
398.82	82.56
399.044	84.56
399.268	88.56
399.492	84.56
399.717	109.56
399.941	89.56
400.165	90.56
400.389	74.56
400.613	90.56
400.837	85.56
401.062	92.56
401.286	87.56
401.51	85.56
401.734	96.56
401.958	94.56
402.182	123.56
402.406	159.56
402.63	121.56
402.854	88.56
403.078	78.56
403.302	81.56
403.526	88.56
403.75	93.56
403.974	78.56
404.198	86.56
404.422	95.56
404.645	71.56
404.869	88.56
405.093	102.56
405.317	105.56
405.541	99.56
405.765	81.56
405.988	128.56
406.212	158.56
406.436	195.56
406.66	137.56
406.883	95.56
407.107	102.56
407.331	88.56
407.555	110.56
407.778	77.56
408.002	89.56
408.226	93.56
408.449	96.56
408.673	84.56
408.896	96.56
409.12	82.56
409.344	80.56
409.567	87.56
409.791	88.56
410.014	103.56
410.238	98.56
410.461	97.56
410.685	89.56
410.908	88.56
411.132	104.56
411.355	98.56
411.578	100.56
411.802	94.56
412.025	79.56
412.249	74.56
412.472	81.56
412.695	81.56
412.919	91.56
413.142	82.56
413.365	79.56
413.589	86.56
413.812	88.56
414.035	80.56
414.258	80.56
414.482	86.56
414.705	99.56
414.928	85.56
415.151	89.56
415.374	79.56
415.597	77.56
415.821	85.56
416.044	78.56
416.267	93.56
416.49	77.56
416.713	86.56
416.936	94.56
417.159	80.56
417.382	82.56
417.605	99.56
417.828	92.56
418.051	99.56
418.274	89.56
418.497	70.56
418.72	86.56
418.943	103.56
419.166	113.56
419.389	86.56
419.611	82.56
419.834	81.56
420.057	94.56
420.28	94.56
420.503	61.56
420.726	89.56
420.948	90.56
421.171	79.56
421.394	103.56
421.617	78.56
421.839	80.56
422.062	78.56
422.285	91.56
422.507	99.56
422.73	96.56
422.953	96.56
423.175	93.56
423.398	84.56
423.621	90.56
423.843	93.56
424.066	74.56
424.288	88.56
424.511	95.56
424.733	100.56
424.956	91.56
425.178	92.56
425.401	90.56
425.623	95.56
425.846	99.56
426.068	93.56
426.291	76.56
426.513	76.56
426.735	91.56
426.958	89.56
427.18	101.56
427.402	123.56
427.625	155.56
427.847	124.56
428.069	102.56
428.292	85.56
428.514	97.56
428.736	83.56
428.958	79.56
429.181	94.56
429.403	70.56
429.625	99.56
429.847	89.56
430.069	93.56
430.292	98.56
430.514	88.56
430.736	70.56
430.958	77.56
431.18	76.56
431.402	78.56
431.624	80.56
431.846	73.56
432.068	71.56
432.29	93.56
432.512	95.56
432.734	81.56
432.956	85.56
433.178	99.56
433.4	85.56
433.622	83.56
433.844	78.56
434.066	71.56
434.287	90.56
434.509	85.56
434.731	99.56
434.953	98.56
435.175	83.56
435.397	90.56
435.618	87.56
435.84	103.56
436.062	117.56
436.284	93.56
436.505	92.56
436.727	86.56
436.949	94.56
437.17	95.56
437.392	93.56
437.614	81.56
437.835	99.56
438.057	103.56
438.278	118.56
438.5	122.56
438.721	122.56
438.943	88.56
439.165	86.56
439.386	91.56
439.608	86.56
439.829	100.56
440.05	120.56
440.272	126.56
440.493	99.56
440.715	81.56
440.936	79.56
441.158	108.56
441.379	75.56
441.6	97.56
441.822	90.56
442.043	99.56
442.264	107.56
442.486	103.56
442.707	103.56
442.928	96.56
443.149	135.56
443.371	116.56
443.592	102.56
443.813	92.56
444.034	103.56
444.255	92.56
444.476	91.56
444.698	71.56
444.919	88.56
445.14	127.56
445.361	123.56
445.582	110.56
445.803	140.56
446.024	114.56
446.245	122.56
446.466	119.56
446.687	81.56
446.908	84.56
447.129	87.56
447.35	93.56
447.571	83.56
447.792	97.56
448.013	92.56
448.234	105.56
448.455	96.56
448.675	93.56
448.896	115.56
449.117	97.56
449.338	107.56
449.559	124.56
449.779	135.56
450	95.56
450.221	89.56
450.442	95.56
450.662	88.56
450.883	101.56
451.104	116.56
451.324	96.56
451.545	76.56
451.766	71.56
451.986	84.56
452.207	101.56
452.428	94.56
452.648	100.56
452.869	92.56
453.089	101.56
453.31	109.56
453.53	92.56
453.751	88.56
453.971	94.56
454.192	93.56
454.412	90.56
454.633	75.56
454.853	79.56
455.073	87.56
455.294	90.56
455.514	95.56
455.734	93.56
455.955	86.56
456.175	81.56
456.395	88.56
456.616	91.56
456.836	86.56
457.056	74.56
457.276	74.56
457.497	79.56
457.717	90.56
457.937	72.56
458.157	78.56
458.377	83.56
458.598	109.56
458.818	147.56
459.038	146.56
459.258	114.56
459.478	78.56
459.698	86.56
459.918	71.56
460.138	90.56
460.358	85.56
460.578	80.56
460.798	85.56
461.018	83.56
461.238	90.56
461.458	91.56
461.678	77.56
461.898	75.56
462.118	96.56
462.338	80.56
462.558	66.56
462.777	77.56
462.997	64.56
463.217	94.56
463.437	72.56
463.657	85.56
463.876	89.56
464.096	92.56
464.316	93.56
464.536	103.56
464.755	107.56
464.975	85.56
465.195	163.56
465.414	136.56
465.634	110.56
465.854	94.56
466.073	80.56
466.293	87.56
466.512	83.56
466.732	76.56
466.951	84.56
467.171	82.56
467.391	77.56
467.61	88.56
467.829	103.56
468.049	87.56
468.268	76.56
468.488	91.56
468.707	91.56
468.927	75.56
469.146	89.56
469.365	82.56
469.585	83.56
469.804	93.56
470.023	89.56
470.243	84.56
470.462	89.56
470.681	95.56
470.901	91.56
471.12	77.56
471.339	91.56
471.558	79.56
471.777	96.56
471.997	96.56
472.216	84.56
472.435	99.56
472.654	88.56
472.873	89.56
473.092	84.56
473.311	85.56
473.53	84.56
473.749	74.56
473.968	89.56
474.187	97.56
474.406	78.56
474.625	80.56
474.844	84.56
475.063	79.56
475.282	98.56
475.501	82.56
475.72	81.56
475.939	85.56
476.158	91.56
476.377	77.56
476.596	79.56
476.814	83.56
477.033	94.56
477.252	98.56
477.471	84.56
477.69	88.56
477.908	87.56
478.127	93.56
478.346	88.56
478.564	89.56
478.783	93.56
479.002	83.56
479.22	88.56
479.439	102.56
479.658	89.56
479.876	93.56
480.095	87.56
480.313	86.56
480.532	94.56
480.751	90.56
480.969	80.56
481.188	89.56
481.406	97.56
481.624	90.56
481.843	87.56
482.061	77.56
482.28	71.56
482.498	93.56
482.717	74.56
482.935	96.56
483.153	70.56
483.372	100.56
483.59	97.56
483.808	69.56
484.027	92.56
484.245	92.56
484.463	75.56
484.681	93.56
484.9	91.56
485.118	95.56
485.336	88.56
485.554	85.56
485.772	100.56
485.99	96.56
486.209	93.56
486.427	91.56
486.645	94.56
486.863	105.56
487.081	94.56
487.299	91.56
487.517	96.56
487.735	94.56
487.953	108.56
488.171	94.56
488.389	76.56
488.607	94.56
488.825	84.56
489.043	74.56
489.261	94.56
489.479	85.56
489.696	79.56
489.914	95.56
490.132	77.56
490.35	75.56
490.568	88.56
490.786	96.56
491.003	87.56
491.221	89.56
491.439	86.56
491.657	86.56
491.874	86.56
492.092	86.56
492.31	86.56
492.527	95.56
492.745	96.56
492.963	82.56
493.18	94.56
493.398	93.56
493.615	85.56
493.833	96.56
494.05	94.56
494.268	90.56
494.485	90.56
494.703	87.56
494.92	74.56
495.138	84.56
495.355	88.56
495.573	77.56
495.79	91.56
496.008	102.56
496.225	89.56
496.442	79.56
496.66	95.56
496.877	85.56
497.094	95.56
497.312	84.56
497.529	83.56
497.746	94.56
497.963	84.56
498.181	105.56
498.398	93.56
498.615	98.56
498.832	100.56
499.049	85.56
499.267	89.56
499.484	81.56
499.701	102.56
499.918	85.56
500.135	86.56
500.352	88.56
500.569	82.56
500.786	87.56
501.003	89.56
501.22	86.56
501.437	96.56
501.654	84.56
501.871	103.56
502.088	90.56
502.305	75.56
502.522	99.56
502.739	88.56
502.956	89.56
503.172	91.56
503.389	92.56
503.606	102.56
503.823	98.56
504.04	89.56
504.256	91.56
504.473	81.56
504.69	90.56
504.907	96.56
505.123	99.56
505.34	77.56
505.557	89.56
505.773	86.56
505.99	82.56
506.207	86.56
506.423	93.56
506.64	89.56
506.856	75.56
507.073	85.56
507.289	94.56
507.506	96.56
507.722	111.56
507.939	107.56
508.155	90.56
508.372	90.56
508.588	87.56
508.805	71.56
509.021	101.56
509.238	94.56
509.454	97.56
509.67	99.56
509.887	101.56
510.103	127.56
510.319	190.56
510.536	689.56
510.752	2224.56
510.968	624.56
511.184	150.56
511.401	107.56
511.617	106.56
511.833	93.56
512.049	87.56
512.265	91.56
512.481	90.56
512.698	89.56
512.914	78.56
513.13	98.56
513.346	83.56
513.562	92.56
513.778	85.56
513.994	96.56
514.21	103.56
514.426	112.56
514.642	132.56
514.858	123.56
515.074	160.56
515.29	440.56
515.506	1376.56
515.721	498.56
515.937	150.56
516.153	110.56
516.369	86.56
516.585	78.56
516.801	82.56
517.016	97.56
