Data from Uncirc_1996_H10_HRD10591_00089.txt Node
Date: Wed Jan 03 11:32:20 EST 2024
User: Yrep
Spectrometer: HR+D1059
Trigger mode: 1
Integration Time (sec): 1.000000E-1
Scans to average: 1
Electric dark correction enabled: true
Nonlinearity correction enabled: false
Boxcar width: 0
XAxis mode: Wavelengths
Number of Pixels in Spectrum: 2048
>>>>>Begin Spectral Data<<<<<
223.165	-18.19
223.4	-18.19
223.635	-18.19
223.869	-11.19
224.104	-25.19
224.338	-15.19
224.573	-1.19
224.808	-30.19
225.042	-9.19
225.277	-4.19
225.511	-2.19
225.746	10.81
225.98	12.81
226.215	3.81
226.449	27.81
226.683	18.81
226.918	12.81
227.152	29.81
227.387	29.81
227.621	26.81
227.856	53.81
228.09	41.81
228.324	43.81
228.559	46.81
228.793	58.81
229.027	59.81
229.262	62.81
229.496	71.81
229.73	76.81
229.964	87.81
230.199	59.81
230.433	79.81
230.667	90.81
230.901	79.81
231.136	89.81
231.37	72.81
231.604	69.81
231.838	86.81
232.072	77.81
232.306	78.81
232.541	96.81
232.775	82.81
233.009	74.81
233.243	78.81
233.477	74.81
233.711	86.81
233.945	74.81
234.179	78.81
234.413	82.81
234.647	79.81
234.881	66.81
235.115	62.81
235.349	74.81
235.583	66.81
235.817	67.81
236.051	72.81
236.285	86.81
236.519	70.81
236.753	68.81
236.987	84.81
237.221	83.81
237.455	86.81
237.689	76.81
237.922	89.81
238.156	79.81
238.39	76.81
238.624	61.81
238.858	66.81
239.091	87.81
239.325	82.81
239.559	80.81
239.793	99.81
240.027	83.81
240.26	86.81
240.494	82.81
240.728	83.81
240.961	68.81
241.195	75.81
241.429	82.81
241.662	90.81
241.896	61.81
242.13	69.81
242.363	66.81
242.597	82.81
242.83	96.81
243.064	92.81
243.298	75.81
243.531	67.81
243.765	84.81
243.998	70.81
244.232	83.81
244.465	77.81
244.699	79.81
244.932	83.81
245.166	86.81
245.399	86.81
245.633	74.81
245.866	89.81
246.099	72.81
246.333	87.81
246.566	65.81
246.8	68.81
247.033	73.81
247.266	86.81
247.5	75.81
247.733	70.81
247.966	84.81
248.2	78.81
248.433	86.81
248.666	83.81
248.899	83.81
249.133	90.81
249.366	97.81
249.599	92.81
249.832	90.81
250.066	75.81
250.299	76.81
250.532	97.81
250.765	86.81
250.998	66.81
251.231	65.81
251.465	83.81
251.698	61.81
251.931	80.81
252.164	78.81
252.397	72.81
252.63	78.81
252.863	89.81
253.096	82.81
253.329	89.81
253.562	75.81
253.795	80.81
254.028	90.81
254.261	86.81
254.494	76.81
254.727	86.81
254.96	81.81
255.193	83.81
255.426	77.81
255.659	81.81
255.892	69.81
256.124	86.81
256.357	87.81
256.59	72.81
256.823	86.81
257.056	83.81
257.289	75.81
257.521	71.81
257.754	80.81
257.987	83.81
258.22	93.81
258.452	78.81
258.685	81.81
258.918	82.81
259.151	78.81
259.383	92.81
259.616	71.81
259.849	90.81
260.081	90.81
260.314	72.81
260.547	95.81
260.779	72.81
261.012	79.81
261.244	101.81
261.477	96.81
261.71	99.81
261.942	111.81
262.175	102.81
262.407	99.81
262.64	77.81
262.872	94.81
263.105	98.81
263.337	89.81
263.57	79.81
263.802	88.81
264.035	96.81
264.267	86.81
264.499	87.81
264.732	95.81
264.964	92.81
265.197	83.81
265.429	80.81
265.661	94.81
265.894	76.81
266.126	95.81
266.358	86.81
266.591	81.81
266.823	70.81
267.055	77.81
267.287	81.81
267.52	92.81
267.752	78.81
267.984	76.81
268.216	81.81
268.448	95.81
268.681	89.81
268.913	79.81
269.145	95.81
269.377	82.81
269.609	83.81
269.841	77.81
270.073	78.81
270.306	80.81
270.538	84.81
270.77	91.81
271.002	83.81
271.234	85.81
271.466	102.81
271.698	90.81
271.93	87.81
272.162	90.81
272.394	86.81
272.626	83.81
272.858	74.81
273.09	93.81
273.322	75.81
273.553	93.81
273.785	81.81
274.017	88.81
274.249	92.81
274.481	82.81
274.713	91.81
274.945	91.81
275.176	85.81
275.408	97.81
275.64	88.81
275.872	97.81
276.104	94.81
276.335	99.81
276.567	97.81
276.799	100.81
277.031	106.81
277.262	89.81
277.494	100.81
277.726	96.81
277.957	104.81
278.189	87.81
278.421	83.81
278.652	78.81
278.884	82.81
279.115	91.81
279.347	84.81
279.579	90.81
279.81	81.81
280.042	86.81
280.273	99.81
280.505	80.81
280.736	81.81
280.968	84.81
281.199	88.81
281.431	74.81
281.662	85.81
281.894	77.81
282.125	93.81
282.356	96.81
282.588	123.81
282.819	108.81
283.051	87.81
283.282	82.81
283.513	87.81
283.745	87.81
283.976	76.81
284.207	90.81
284.439	86.81
284.67	82.81
284.901	95.81
285.132	93.81
285.364	92.81
285.595	100.81
285.826	107.81
286.057	102.81
286.288	85.81
286.52	87.81
286.751	83.81
286.982	90.81
287.213	81.81
287.444	86.81
287.675	93.81
287.906	84.81
288.138	84.81
288.369	89.81
288.6	88.81
288.831	76.81
289.062	82.81
289.293	95.81
289.524	79.81
289.755	85.81
289.986	87.81
290.217	71.81
290.448	71.81
290.679	83.81
290.91	84.81
291.141	84.81
291.371	90.81
291.602	81.81
291.833	95.81
292.064	99.81
292.295	92.81
292.526	96.81
292.757	98.81
292.987	90.81
293.218	93.81
293.449	90.81
293.68	90.81
293.91	87.81
294.141	87.81
294.372	82.81
294.603	92.81
294.833	79.81
295.064	80.81
295.295	85.81
295.525	105.81
295.756	117.81
295.987	107.81
296.217	125.81
296.448	111.81
296.679	89.81
296.909	80.81
297.14	94.81
297.37	73.81
297.601	85.81
297.831	92.81
298.062	90.81
298.292	86.81
298.523	89.81
298.753	89.81
298.984	79.81
299.214	95.81
299.445	96.81
299.675	100.81
299.905	99.81
300.136	93.81
300.366	96.81
300.597	92.81
300.827	95.81
301.057	96.81
301.288	100.81
301.518	93.81
301.748	95.81
301.979	97.81
302.209	100.81
302.439	80.81
302.669	94.81
302.9	96.81
303.13	86.81
303.36	93.81
303.59	101.81
303.82	97.81
304.051	92.81
304.281	90.81
304.511	87.81
304.741	83.81
304.971	86.81
305.201	77.81
305.431	93.81
305.661	97.81
305.891	100.81
306.121	106.81
306.352	106.81
306.582	95.81
306.812	93.81
307.042	86.81
307.272	87.81
307.502	91.81
307.731	82.81
307.961	92.81
308.191	87.81
308.421	100.81
308.651	84.81
308.881	87.81
309.111	81.81
309.341	89.81
309.571	104.81
309.8	88.81
310.03	113.81
310.26	105.81
310.49	110.81
310.72	104.81
310.949	103.81
311.179	99.81
311.409	86.81
311.639	96.81
311.868	81.81
312.098	105.81
312.328	91.81
312.557	99.81
312.787	102.81
313.017	92.81
313.246	98.81
313.476	106.81
313.706	77.81
313.935	96.81
314.165	100.81
314.394	94.81
314.624	107.81
314.853	106.81
315.083	99.81
315.312	98.81
315.542	83.81
315.771	90.81
316.001	88.81
316.23	97.81
316.46	93.81
316.689	97.81
316.919	100.81
317.148	94.81
317.377	87.81
317.607	97.81
317.836	84.81
318.065	89.81
318.295	87.81
318.524	97.81
318.753	88.81
318.983	78.81
319.212	84.81
319.441	116.81
319.67	92.81
319.9	95.81
320.129	98.81
320.358	93.81
320.587	103.81
320.816	100.81
321.046	110.81
321.275	102.81
321.504	87.81
321.733	84.81
321.962	105.81
322.191	111.81
322.42	92.81
322.649	91.81
322.878	117.81
323.108	118.81
323.337	121.81
323.566	120.81
323.795	165.81
324.024	188.81
324.253	338.81
324.482	726.81
324.71	1486.81
324.939	1972.81
325.168	726.81
325.397	229.81
325.626	150.81
325.855	117.81
326.084	132.81
326.313	126.81
326.542	148.81
326.77	222.81
326.999	427.81
327.228	850.81
327.457	1543.81
327.686	1214.81
327.914	368.81
328.143	195.81
328.372	135.81
328.6	123.81
328.829	126.81
329.058	118.81
329.287	122.81
329.515	116.81
329.744	90.81
329.972	96.81
330.201	100.81
330.43	107.81
330.658	105.81
330.887	151.81
331.115	112.81
331.344	101.81
331.572	101.81
331.801	101.81
332.03	91.81
332.258	96.81
332.486	100.81
332.715	110.81
332.943	92.81
333.172	91.81
333.4	89.81
333.629	98.81
333.857	108.81
334.085	110.81
334.314	94.81
334.542	82.81
334.771	88.81
334.999	108.81
335.227	101.81
335.455	92.81
335.684	103.81
335.912	110.81
336.14	95.81
336.369	97.81
336.597	95.81
336.825	94.81
337.053	102.81
337.281	96.81
337.51	97.81
337.738	94.81
337.966	91.81
338.194	108.81
338.422	102.81
338.65	96.81
338.878	86.81
339.106	96.81
339.334	104.81
339.562	95.81
339.79	95.81
340.018	88.81
340.246	90.81
340.474	106.81
340.702	97.81
340.93	100.81
341.158	83.81
341.386	89.81
341.614	98.81
341.842	104.81
342.07	95.81
342.298	99.81
342.526	92.81
342.754	87.81
342.981	96.81
343.209	90.81
343.437	81.81
343.665	99.81
343.893	92.81
344.12	87.81
344.348	82.81
344.576	92.81
344.804	92.81
345.031	104.81
345.259	94.81
345.487	85.81
345.714	92.81
345.942	106.81
346.17	94.81
346.397	80.81
346.625	101.81
346.853	91.81
347.08	80.81
347.308	86.81
347.535	97.81
347.763	96.81
347.99	92.81
348.218	86.81
348.445	116.81
348.673	94.81
348.9	94.81
349.128	89.81
349.355	87.81
349.583	106.81
349.81	91.81
350.037	104.81
350.265	96.81
350.492	94.81
350.72	98.81
350.947	92.81
351.174	90.81
351.402	101.81
351.629	106.81
351.856	100.81
352.083	104.81
352.311	108.81
352.538	99.81
352.765	114.81
352.992	122.81
353.22	110.81
353.447	100.81
353.674	106.81
353.901	111.81
354.128	103.81
354.355	97.81
354.583	86.81
354.81	97.81
355.037	108.81
355.264	90.81
355.491	75.81
355.718	98.81
355.945	93.81
356.172	97.81
356.399	105.81
356.626	90.81
356.853	102.81
357.08	103.81
357.307	100.81
357.534	98.81
357.761	91.81
357.988	96.81
358.215	109.81
358.441	74.81
358.668	77.81
358.895	102.81
359.122	101.81
359.349	91.81
359.576	87.81
359.802	102.81
360.029	106.81
360.256	108.81
360.483	103.81
360.709	89.81
360.936	80.81
361.163	90.81
361.39	95.81
361.616	96.81
361.843	107.81
362.07	86.81
362.296	86.81
362.523	91.81
362.749	84.81
362.976	88.81
363.203	103.81
363.429	104.81
363.656	100.81
363.882	96.81
364.109	90.81
364.335	99.81
364.562	92.81
364.788	95.81
365.015	78.81
365.241	101.81
365.468	105.81
365.694	102.81
365.92	100.81
366.147	90.81
366.373	89.81
366.599	98.81
366.826	104.81
367.052	88.81
367.278	99.81
367.505	103.81
367.731	100.81
367.957	96.81
368.184	92.81
368.41	92.81
368.636	95.81
368.862	108.81
369.089	98.81
369.315	89.81
369.541	86.81
369.767	80.81
369.993	102.81
370.219	95.81
370.445	86.81
370.672	93.81
370.898	108.81
371.124	90.81
371.35	84.81
371.576	96.81
371.802	86.81
372.028	90.81
372.254	93.81
372.48	77.81
372.706	75.81
372.932	86.81
373.158	96.81
373.384	89.81
373.61	90.81
373.835	96.81
374.061	79.81
374.287	98.81
374.513	74.81
374.739	72.81
374.965	78.81
375.191	86.81
375.416	79.81
375.642	89.81
375.868	90.81
376.094	84.81
376.319	91.81
376.545	83.81
376.771	98.81
376.997	99.81
377.222	93.81
377.448	91.81
377.674	98.81
377.899	87.81
378.125	104.81
378.35	82.81
378.576	85.81
378.802	78.81
379.027	99.81
379.253	85.81
379.478	94.81
379.704	93.81
379.929	103.81
380.155	85.81
380.38	89.81
380.606	91.81
380.831	95.81
381.057	103.81
381.282	85.81
381.507	90.81
381.733	94.81
381.958	84.81
382.184	85.81
382.409	111.81
382.634	90.81
382.86	93.81
383.085	96.81
383.31	89.81
383.535	100.81
383.761	96.81
383.986	101.81
384.211	89.81
384.436	90.81
384.662	109.81
384.887	89.81
385.112	114.81
385.337	91.81
385.562	94.81
385.787	103.81
386.013	99.81
386.238	113.81
386.463	99.81
386.688	114.81
386.913	94.81
387.138	102.81
387.363	107.81
387.588	92.81
387.813	97.81
388.038	105.81
388.263	111.81
388.488	90.81
388.713	90.81
388.938	76.81
389.163	93.81
389.387	104.81
389.612	98.81
389.837	97.81
390.062	100.81
390.287	109.81
390.512	84.81
390.736	96.81
390.961	87.81
391.186	102.81
391.411	95.81
391.636	101.81
391.86	86.81
392.085	92.81
392.31	82.81
392.534	78.81
392.759	96.81
392.984	75.81
393.208	84.81
393.433	93.81
393.658	86.81
393.882	93.81
394.107	94.81
394.331	87.81
394.556	77.81
394.78	92.81
395.005	94.81
395.229	76.81
395.454	76.81
395.678	87.81
395.903	89.81
396.127	86.81
396.352	84.81
396.576	77.81
396.801	88.81
397.025	81.81
397.249	82.81
397.474	86.81
397.698	89.81
397.922	90.81
398.147	92.81
398.371	88.81
398.595	90.81
398.82	92.81
399.044	91.81
399.268	99.81
399.492	74.81
399.717	91.81
399.941	93.81
400.165	95.81
400.389	79.81
400.613	85.81
400.837	84.81
401.062	75.81
401.286	83.81
401.51	81.81
401.734	85.81
401.958	98.81
402.182	122.81
402.406	139.81
402.63	101.81
402.854	94.81
403.078	88.81
403.302	102.81
403.526	89.81
403.75	88.81
403.974	79.81
404.198	82.81
404.422	94.81
404.645	92.81
404.869	85.81
405.093	95.81
405.317	95.81
405.541	100.81
405.765	104.81
405.988	114.81
406.212	169.81
406.436	203.81
406.66	146.81
406.883	96.81
407.107	97.81
407.331	93.81
407.555	107.81
407.778	101.81
408.002	74.81
408.226	83.81
408.449	82.81
408.673	77.81
408.896	88.81
409.12	99.81
409.344	103.81
409.567	95.81
409.791	73.81
410.014	93.81
410.238	75.81
410.461	95.81
410.685	91.81
410.908	97.81
411.132	116.81
411.355	112.81
411.578	72.81
411.802	82.81
412.025	97.81
412.249	81.81
412.472	83.81
412.695	83.81
412.919	87.81
413.142	89.81
413.365	83.81
413.589	90.81
413.812	93.81
414.035	94.81
414.258	79.81
414.482	85.81
414.705	86.81
414.928	90.81
415.151	90.81
415.374	102.81
415.597	81.81
415.821	94.81
416.044	94.81
416.267	84.81
416.49	84.81
416.713	95.81
416.936	91.81
417.159	74.81
417.382	92.81
417.605	94.81
417.828	95.81
418.051	94.81
418.274	84.81
418.497	78.81
418.72	87.81
418.943	91.81
419.166	94.81
419.389	89.81
419.611	94.81
419.834	78.81
420.057	91.81
420.28	84.81
420.503	98.81
420.726	95.81
420.948	78.81
421.171	76.81
421.394	95.81
421.617	83.81
421.839	95.81
422.062	76.81
422.285	86.81
422.507	90.81
422.73	100.81
422.953	88.81
423.175	80.81
423.398	102.81
423.621	93.81
423.843	81.81
424.066	90.81
424.288	76.81
424.511	94.81
424.733	97.81
424.956	115.81
425.178	81.81
425.401	91.81
425.623	98.81
425.846	96.81
426.068	89.81
426.291	91.81
426.513	94.81
426.735	84.81
426.958	93.81
427.18	109.81
427.402	115.81
427.625	146.81
427.847	113.81
428.069	91.81
428.292	92.81
428.514	83.81
428.736	78.81
428.958	90.81
429.181	85.81
429.403	83.81
429.625	91.81
429.847	85.81
430.069	87.81
430.292	83.81
430.514	100.81
430.736	77.81
430.958	92.81
431.18	88.81
431.402	75.81
431.624	66.81
431.846	83.81
432.068	91.81
432.29	79.81
432.512	75.81
432.734	81.81
432.956	84.81
433.178	110.81
433.4	94.81
433.622	85.81
433.844	94.81
434.066	90.81
434.287	89.81
434.509	82.81
434.731	78.81
434.953	83.81
435.175	92.81
435.397	84.81
435.618	101.81
435.84	99.81
436.062	112.81
436.284	121.81
436.505	107.81
436.727	111.81
436.949	93.81
437.17	73.81
437.392	79.81
437.614	80.81
437.835	97.81
438.057	113.81
438.278	98.81
438.5	123.81
438.721	132.81
438.943	110.81
439.165	74.81
439.386	91.81
439.608	82.81
439.829	92.81
440.05	116.81
440.272	127.81
440.493	84.81
440.715	80.81
440.936	91.81
441.158	75.81
441.379	83.81
441.6	65.81
441.822	89.81
442.043	91.81
442.264	108.81
442.486	93.81
442.707	92.81
442.928	108.81
443.149	123.81
443.371	135.81
443.592	101.81
443.813	109.81
444.034	86.81
444.255	88.81
444.476	87.81
444.698	90.81
444.919	76.81
445.14	144.81
445.361	115.81
445.582	104.81
445.803	119.81
446.024	123.81
446.245	117.81
446.466	115.81
446.687	92.81
446.908	99.81
447.129	84.81
447.35	82.81
447.571	98.81
447.792	92.81
448.013	88.81
448.234	114.81
448.455	97.81
448.675	115.81
448.896	103.81
449.117	105.81
449.338	93.81
449.559	129.81
449.779	123.81
450	92.81
450.221	90.81
450.442	80.81
450.662	85.81
450.883	102.81
451.104	110.81
451.324	89.81
451.545	92.81
451.766	84.81
451.986	91.81
452.207	93.81
452.428	85.81
452.648	92.81
452.869	101.81
453.089	117.81
453.31	110.81
453.53	92.81
453.751	87.81
453.971	90.81
454.192	112.81
454.412	91.81
454.633	84.81
454.853	77.81
455.073	91.81
455.294	99.81
455.514	98.81
455.734	84.81
455.955	98.81
456.175	85.81
456.395	94.81
456.616	97.81
456.836	75.81
457.056	71.81
457.276	79.81
457.497	80.81
457.717	74.81
457.937	99.81
458.157	87.81
458.377	82.81
458.598	111.81
458.818	151.81
459.038	149.81
459.258	107.81
459.478	86.81
459.698	100.81
459.918	89.81
460.138	86.81
460.358	80.81
460.578	85.81
460.798	87.81
461.018	80.81
461.238	78.81
461.458	76.81
461.678	76.81
461.898	86.81
462.118	90.81
462.338	84.81
462.558	68.81
462.777	83.81
462.997	80.81
463.217	80.81
463.437	102.81
463.657	100.81
463.876	75.81
464.096	76.81
464.316	85.81
464.536	93.81
464.755	98.81
464.975	115.81
465.195	154.81
465.414	136.81
465.634	102.81
465.854	87.81
466.073	74.81
466.293	80.81
466.512	80.81
466.732	90.81
466.951	74.81
467.171	100.81
467.391	94.81
467.61	110.81
467.829	97.81
468.049	82.81
468.268	63.81
468.488	86.81
468.707	88.81
468.927	95.81
469.146	89.81
469.365	93.81
469.585	86.81
469.804	101.81
470.023	102.81
470.243	94.81
470.462	95.81
470.681	110.81
470.901	85.81
471.12	94.81
471.339	87.81
471.558	93.81
471.777	80.81
471.997	95.81
472.216	93.81
472.435	80.81
472.654	83.81
472.873	94.81
473.092	87.81
473.311	91.81
473.53	93.81
473.749	85.81
473.968	108.81
474.187	100.81
474.406	93.81
474.625	98.81
474.844	84.81
475.063	81.81
475.282	86.81
475.501	96.81
475.72	84.81
475.939	79.81
476.158	88.81
476.377	88.81
476.596	76.81
476.814	81.81
477.033	80.81
477.252	95.81
477.471	81.81
477.69	90.81
477.908	78.81
478.127	68.81
478.346	89.81
478.564	88.81
478.783	87.81
479.002	100.81
479.22	102.81
479.439	100.81
479.658	92.81
479.876	93.81
480.095	90.81
480.313	104.81
480.532	86.81
480.751	87.81
480.969	91.81
481.188	97.81
481.406	94.81
481.624	79.81
481.843	79.81
482.061	94.81
482.28	87.81
482.498	90.81
482.717	87.81
482.935	84.81
483.153	92.81
483.372	79.81
483.59	86.81
483.808	76.81
484.027	80.81
484.245	84.81
484.463	94.81
484.681	92.81
484.9	72.81
485.118	87.81
485.336	83.81
485.554	88.81
485.772	108.81
485.99	93.81
486.209	93.81
486.427	98.81
486.645	106.81
486.863	104.81
487.081	104.81
487.299	95.81
487.517	91.81
487.735	88.81
487.953	92.81
488.171	100.81
488.389	108.81
488.607	97.81
488.825	96.81
489.043	88.81
489.261	90.81
489.479	91.81
489.696	95.81
489.914	85.81
490.132	93.81
490.35	100.81
490.568	80.81
490.786	97.81
491.003	100.81
491.221	82.81
491.439	91.81
491.657	82.81
491.874	92.81
492.092	94.81
492.31	96.81
492.527	95.81
492.745	88.81
492.963	80.81
493.18	79.81
493.398	92.81
493.615	95.81
493.833	83.81
494.05	93.81
494.268	96.81
494.485	83.81
494.703	86.81
494.92	79.81
495.138	94.81
495.355	93.81
495.573	88.81
495.79	88.81
496.008	114.81
496.225	95.81
496.442	92.81
496.66	108.81
496.877	94.81
497.094	104.81
497.312	86.81
497.529	99.81
497.746	92.81
497.963	100.81
498.181	98.81
498.398	101.81
498.615	107.81
498.832	95.81
499.049	94.81
499.267	79.81
499.484	82.81
499.701	91.81
499.918	93.81
500.135	99.81
500.352	91.81
500.569	76.81
500.786	102.81
501.003	90.81
501.22	75.81
501.437	74.81
501.654	96.81
501.871	100.81
502.088	94.81
502.305	79.81
502.522	81.81
502.739	88.81
502.956	82.81
503.172	90.81
503.389	104.81
503.606	108.81
503.823	92.81
504.04	88.81
504.256	95.81
504.473	76.81
504.69	84.81
504.907	95.81
505.123	98.81
505.34	78.81
505.557	101.81
505.773	97.81
505.99	92.81
506.207	95.81
506.423	90.81
506.64	94.81
506.856	84.81
507.073	94.81
507.289	93.81
507.506	97.81
507.722	100.81
507.939	115.81
508.155	90.81
508.372	82.81
508.588	83.81
508.805	96.81
509.021	106.81
509.238	89.81
509.454	100.81
509.67	107.81
509.887	111.81
510.103	144.81
510.319	214.81
510.536	651.81
510.752	2022.81
510.968	586.81
511.184	160.81
511.401	108.81
511.617	95.81
511.833	86.81
512.049	104.81
512.265	78.81
512.481	87.81
512.698	91.81
512.914	87.81
513.13	105.81
513.346	87.81
513.562	78.81
513.778	70.81
513.994	85.81
514.21	110.81
514.426	115.81
514.642	115.81
514.858	107.81
515.074	156.81
515.29	390.81
515.506	1274.81
515.721	458.81
515.937	127.81
