Data from Uncirc_1996_H10_HRD10591_00034.txt Node
Date: Wed Jan 03 11:32:09 EST 2024
User: Yrep
Spectrometer: HR+D1059
Trigger mode: 1
Integration Time (sec): 1.000000E-1
Scans to average: 1
Electric dark correction enabled: true
Nonlinearity correction enabled: false
Boxcar width: 0
XAxis mode: Wavelengths
Number of Pixels in Spectrum: 2048
>>>>>Begin Spectral Data<<<<<
223.165	-13.81
223.4	-13.81
223.635	-13.81
223.869	-15.81
224.104	-18.81
224.338	-23.81
224.573	-4.81
224.808	-24.81
225.042	-1.81
225.277	-5.81
225.511	-3.81
225.746	-5.81
225.98	0.19
226.215	5.19
226.449	24.19
226.683	27.19
226.918	23.19
227.152	39.19
227.387	43.19
227.621	38.19
227.856	38.19
228.09	46.19
228.324	39.19
228.559	60.19
228.793	165.19
229.027	450.19
229.262	526.19
229.496	622.19
229.73	799.19
229.964	788.19
230.199	535.19
230.433	492.19
230.667	484.19
230.901	477.19
231.136	460.19
231.37	457.19
231.604	449.19
231.838	444.19
232.072	445.19
232.306	479.19
232.541	470.19
232.775	477.19
233.009	462.19
233.243	477.19
233.477	465.19
233.711	508.19
233.945	512.19
234.179	511.19
234.413	494.19
234.647	525.19
234.881	528.19
235.115	529.19
235.349	536.19
235.583	567.19
235.817	590.19
236.051	632.19
236.285	607.19
236.519	616.19
236.753	716.19
236.987	900.19
237.221	1430.19
237.455	1540.19
237.689	888.19
237.922	735.19
238.156	719.19
238.39	680.19
238.624	648.19
238.858	649.19
239.091	651.19
239.325	662.19
239.559	673.19
239.793	691.19
240.027	742.19
240.26	934.19
240.494	958.19
240.728	965.19
240.961	903.19
241.195	805.19
241.429	785.19
241.662	767.19
241.896	772.19
242.13	775.19
242.363	784.19
242.597	787.19
242.83	836.19
243.064	801.19
243.298	824.19
243.531	852.19
243.765	854.19
243.998	854.19
244.232	853.19
244.465	865.19
244.699	902.19
244.932	904.19
245.166	906.19
245.399	903.19
245.633	906.19
245.866	934.19
246.099	929.19
246.333	958.19
246.566	953.19
246.8	1009.19
247.033	1006.19
247.266	1071.19
247.5	1087.19
247.733	1156.19
247.966	1175.19
248.2	1160.19
248.433	1146.19
248.666	1226.19
248.899	1373.19
249.133	1438.19
249.366	1437.19
249.599	1333.19
249.832	1226.19
250.066	1201.19
250.299	1277.19
250.532	1325.19
250.765	1504.19
250.998	1698.19
251.231	1650.19
251.465	1494.19
251.698	1432.19
251.931	1425.19
252.164	1424.19
252.397	1461.19
252.63	1474.19
252.863	1552.19
253.096	1719.19
253.329	1754.19
253.562	1654.19
253.795	1571.19
254.028	1597.19
254.261	1647.19
254.494	1864.19
254.727	2173.19
254.96	2266.19
255.193	1999.19
255.426	1724.19
255.659	1622.19
255.892	1596.19
256.124	1535.19
256.357	1496.19
256.59	1482.19
256.823	1491.19
257.056	1501.19
257.289	1533.19
257.521	1549.19
257.754	1541.19
257.987	1501.19
258.22	1547.19
258.452	1546.19
258.685	1564.19
258.918	1638.19
259.151	1643.19
259.383	1668.19
259.616	1707.19
259.849	1812.19
260.081	1962.19
260.314	2096.19
260.547	2035.19
260.779	1872.19
261.012	1759.19
261.244	1736.19
261.477	1702.19
261.71	1729.19
261.942	1759.19
262.175	1790.19
262.407	1704.19
262.64	1686.19
262.872	1674.19
263.105	1653.19
263.337	1658.19
263.57	1657.19
263.802	1677.19
264.035	1646.19
264.267	1720.19
264.499	1712.19
264.732	1701.19
264.964	1684.19
265.197	1744.19
265.429	1755.19
265.661	1728.19
265.894	1751.19
266.126	1755.19
266.358	1769.19
266.591	1817.19
266.823	1924.19
267.055	1848.19
267.287	1865.19
267.52	1874.19
267.752	1894.19
267.984	1890.19
268.216	1915.19
268.448	1971.19
268.681	2034.19
268.913	2175.19
269.145	2333.19
269.377	2428.19
269.609	2366.19
269.841	2347.19
270.073	2449.19
270.306	2664.19
270.538	2882.19
270.77	2671.19
271.002	2535.19
271.234	2476.19
271.466	2631.19
271.698	2798.19
271.93	2810.19
272.162	2757.19
272.394	2702.19
272.626	2545.19
272.858	2391.19
273.09	2314.19
273.322	2320.19
273.553	2262.19
273.785	2250.19
274.017	2255.19
274.249	2269.19
274.481	2256.19
274.713	2285.19
274.945	2302.19
275.176	2284.19
275.408	2322.19
275.64	2305.19
275.872	2286.19
276.104	2304.19
276.335	2328.19
276.567	2415.19
276.799	2577.19
277.031	2836.19
277.262	2958.19
277.494	2742.19
277.726	2609.19
277.957	2470.19
278.189	2455.19
278.421	2434.19
278.652	2366.19
278.884	2407.19
279.115	2382.19
279.347	2401.19
279.579	2365.19
279.81	2391.19
280.042	2363.19
280.273	2392.19
280.505	2412.19
280.736	2425.19
280.968	2440.19
281.199	2440.19
281.431	2487.19
281.662	2524.19
281.894	2479.19
282.125	2541.19
282.356	2716.19
282.588	2807.19
282.819	2710.19
283.051	2589.19
283.282	2561.19
283.513	2620.19
283.745	2606.19
283.976	2678.19
284.207	2670.19
284.439	2677.19
284.67	2638.19
284.901	2699.19
285.132	2654.19
285.364	2659.19
285.595	2662.19
285.826	2635.19
286.057	2684.19
286.288	2666.19
286.52	2710.19
286.751	2724.19
286.982	2749.19
287.213	2767.19
287.444	2721.19
287.675	2881.19
287.906	2938.19
288.138	2961.19
288.369	2976.19
288.6	2911.19
288.831	2892.19
289.062	2841.19
289.293	2864.19
289.524	2883.19
289.755	2834.19
289.986	2827.19
290.217	2823.19
290.448	2832.19
290.679	2854.19
290.91	2861.19
291.141	2885.19
291.371	2884.19
291.602	2879.19
291.833	2841.19
292.064	2885.19
292.295	2949.19
292.526	2878.19
292.757	2913.19
292.987	2844.19
293.218	2825.19
293.449	2887.19
293.68	2841.19
293.91	2815.19
294.141	2840.19
294.372	2900.19
294.603	2920.19
294.833	2906.19
295.064	2974.19
295.295	2974.19
295.525	2861.19
295.756	2988.19
295.987	3013.19
296.217	3228.19
296.448	3118.19
296.679	2999.19
296.909	3002.19
297.14	3023.19
297.37	3086.19
297.601	3028.19
297.831	3086.19
298.062	3051.19
298.292	3127.19
298.523	3144.19
298.753	3165.19
298.984	3118.19
299.214	3131.19
299.445	3170.19
299.675	3198.19
299.905	3213.19
300.136	3183.19
300.366	3201.19
300.597	3188.19
300.827	3267.19
301.057	3410.19
301.288	3412.19
301.518	3376.19
301.748	3396.19
301.979	3468.19
302.209	3428.19
302.439	3454.19
302.669	3416.19
302.9	3329.19
303.13	3352.19
303.36	3423.19
303.59	3392.19
303.82	3422.19
304.051	3417.19
304.281	3362.19
304.511	3332.19
304.741	3270.19
304.971	3319.19
305.201	3303.19
305.431	3359.19
305.661	3338.19
305.891	3279.19
306.121	3363.19
306.352	3356.19
306.582	3326.19
306.812	3270.19
307.042	3315.19
307.272	3309.19
307.502	3328.19
307.731	3316.19
307.961	3304.19
308.191	3314.19
308.421	3342.19
308.651	3414.19
308.881	3359.19
309.111	3399.19
309.341	3413.19
309.571	3438.19
309.8	3582.19
310.03	3624.19
310.26	3646.19
310.49	3576.19
310.72	3708.19
310.949	3781.19
311.179	3802.19
311.409	3656.19
311.639	3666.19
311.868	3682.19
312.098	3800.19
312.328	3790.19
312.557	3888.19
312.787	4032.19
313.017	3893.19
313.246	3814.19
313.476	3773.19
313.706	3781.19
313.935	3902.19
314.165	3963.19
314.394	4040.19
314.624	4011.19
314.853	3856.19
315.083	3801.19
315.312	3819.19
315.542	3754.19
315.771	3705.19
316.001	3671.19
316.23	3730.19
316.46	3754.19
316.689	3791.19
316.919	3816.19
317.148	3826.19
317.377	3757.19
317.607	3728.19
317.836	3724.19
318.065	3717.19
318.295	3679.19
318.524	3713.19
318.753	3656.19
318.983	3726.19
319.212	3669.19
319.441	3770.19
319.67	3811.19
319.9	3740.19
320.129	3753.19
320.358	3790.19
320.587	3800.19
320.816	3840.19
321.046	3887.19
321.275	3872.19
321.504	3892.19
321.733	3922.19
321.962	3947.19
322.191	4032.19
322.42	4131.19
322.649	4248.19
322.878	4247.19
323.108	4351.19
323.337	4554.19
323.566	4709.19
323.795	4942.19
324.024	5483.19
324.253	7167.19
324.482	10653.19
324.71	15037.19
324.939	15618.19
325.168	12838.19
325.397	6565.19
325.626	5303.19
325.855	4831.19
326.084	4726.19
326.313	4820.19
326.542	4878.19
326.77	5509.19
326.999	6847.19
327.228	10024.19
327.457	14227.19
327.686	13491.19
327.914	7309.19
328.143	5916.19
328.372	5467.19
328.6	5192.19
328.829	5273.19
329.058	5312.19
329.287	5241.19
329.515	4928.19
329.744	4763.19
329.972	4762.19
330.201	4852.19
330.43	5104.19
330.658	5366.19
330.887	5753.19
331.115	5336.19
331.344	4939.19
331.572	4870.19
331.801	5063.19
332.03	4968.19
332.258	4952.19
332.486	4965.19
332.715	5113.19
332.943	5212.19
333.172	5356.19
333.4	5511.19
333.629	5624.19
333.857	5624.19
334.085	5526.19
334.314	5450.19
334.542	5353.19
334.771	5396.19
334.999	5332.19
335.227	5204.19
335.455	5205.19
335.684	5095.19
335.912	5055.19
336.14	4977.19
336.369	5011.19
336.597	5068.19
336.825	4967.19
337.053	4918.19
337.281	4788.19
337.51	4844.19
337.738	4736.19
337.966	4734.19
338.194	4799.19
338.422	4765.19
338.65	4587.19
338.878	4650.19
339.106	4616.19
339.334	4541.19
339.562	4469.19
339.79	4444.19
340.018	4435.19
340.246	4474.19
340.474	4472.19
340.702	4503.19
340.93	4438.19
341.158	4476.19
341.386	4457.19
341.614	4533.19
341.842	4417.19
342.07	4424.19
342.298	4361.19
342.526	4367.19
342.754	4361.19
342.981	4353.19
343.209	4461.19
343.437	4710.19
343.665	5029.19
343.893	5169.19
344.12	5201.19
344.348	5010.19
344.576	4854.19
344.804	4849.19
345.031	4703.19
345.259	4686.19
345.487	4451.19
345.714	4350.19
345.942	4309.19
346.17	4303.19
346.397	4222.19
346.625	4278.19
346.853	4221.19
347.08	4245.19
347.308	4273.19
347.535	4313.19
347.763	4400.19
347.99	4343.19
348.218	4351.19
348.445	4394.19
348.673	4317.19
348.9	4214.19
349.128	4208.19
349.355	4115.19
349.583	4137.19
349.81	4155.19
350.037	4059.19
350.265	4059.19
350.492	4064.19
350.72	4128.19
350.947	4144.19
351.174	4280.19
351.402	4276.19
351.629	4159.19
351.856	4221.19
352.083	4303.19
352.311	4264.19
352.538	4326.19
352.765	4296.19
352.992	4254.19
353.22	4134.19
353.447	4087.19
353.674	4103.19
353.901	4028.19
354.128	4027.19
354.355	3948.19
354.583	4008.19
354.81	3989.19
355.037	4018.19
355.264	4009.19
355.491	3992.19
355.718	3982.19
355.945	3926.19
356.172	4024.19
356.399	4036.19
356.626	4024.19
356.853	4055.19
357.08	4001.19
357.307	3971.19
357.534	4081.19
357.761	4009.19
357.988	4015.19
358.215	3982.19
358.441	4018.19
358.668	4021.19
358.895	4066.19
359.122	4145.19
359.349	4170.19
359.576	4323.19
359.802	4518.19
360.029	4613.19
360.256	4641.19
360.483	4414.19
360.709	4241.19
360.936	4273.19
361.163	4270.19
361.39	4248.19
361.616	4237.19
361.843	4219.19
362.07	4265.19
362.296	4336.19
362.523	4215.19
362.749	4233.19
362.976	4210.19
363.203	4150.19
363.429	4056.19
363.656	4161.19
363.882	4098.19
364.109	4065.19
364.335	4064.19
364.562	4087.19
364.788	4112.19
365.015	4086.19
365.241	4126.19
365.468	4145.19
365.694	4138.19
365.92	4171.19
366.147	4103.19
366.373	4066.19
366.599	4064.19
366.826	4053.19
367.052	4064.19
367.278	4067.19
367.505	4102.19
367.731	4113.19
367.957	4108.19
368.184	4157.19
368.41	4238.19
368.636	4273.19
368.862	4313.19
369.089	4234.19
369.315	4180.19
369.541	4202.19
369.767	4176.19
369.993	4235.19
370.219	4234.19
370.445	4268.19
370.672	4282.19
370.898	4310.19
371.124	4340.19
371.35	4374.19
371.576	4354.19
371.802	4394.19
372.028	4395.19
372.254	4346.19
372.48	4402.19
372.706	4488.19
372.932	4542.19
373.158	4405.19
373.384	4421.19
373.61	4422.19
373.835	4434.19
374.061	4435.19
374.287	4550.19
374.513	4570.19
374.739	4731.19
374.965	4751.19
375.191	4796.19
375.416	4752.19
375.642	4616.19
375.868	4564.19
376.094	4500.19
376.319	4449.19
376.545	4429.19
376.771	4413.19
376.997	4398.19
377.222	4408.19
377.448	4361.19
377.674	4345.19
377.899	4385.19
378.125	4316.19
378.35	4294.19
378.576	4318.19
378.802	4350.19
379.027	4297.19
379.253	4328.19
379.478	4334.19
379.704	4357.19
379.929	4353.19
380.155	4340.19
380.38	4324.19
380.606	4377.19
380.831	4402.19
381.057	4442.19
381.282	4428.19
381.507	4424.19
381.733	4531.19
381.958	4474.19
382.184	4556.19
382.409	4584.19
382.634	4624.19
382.86	4672.19
383.085	4727.19
383.31	4719.19
383.535	4796.19
383.761	4881.19
383.986	4888.19
384.211	5055.19
384.436	5170.19
384.662	5137.19
384.887	5198.19
385.112	5189.19
385.337	5346.19
385.562	5306.19
385.787	5344.19
386.013	5408.19
386.238	5413.19
386.463	5304.19
386.688	5370.19
386.913	5224.19
387.138	5256.19
387.363	5186.19
387.588	5165.19
387.813	5187.19
388.038	5277.19
388.263	5212.19
388.488	5258.19
388.713	5211.19
388.938	5153.19
389.163	5264.19
389.387	5173.19
389.612	5116.19
389.837	5180.19
390.062	5135.19
390.287	5172.19
390.512	5142.19
390.736	5257.19
390.961	5399.19
391.186	5400.19
391.411	5582.19
391.636	5620.19
391.86	5880.19
392.085	5895.19
392.31	5722.19
392.534	5706.19
392.759	5560.19
392.984	5506.19
393.208	5477.19
393.433	5524.19
393.658	5477.19
393.882	5460.19
394.107	5512.19
394.331	5476.19
394.556	5463.19
394.78	5601.19
395.005	5576.19
395.229	5638.19
395.454	5855.19
395.678	5881.19
395.903	5870.19
396.127	5918.19
396.352	5845.19
396.576	5610.19
396.801	5592.19
397.025	5686.19
397.249	5817.19
397.474	5916.19
397.698	5982.19
397.922	6101.19
398.147	6184.19
398.371	6248.19
398.595	6415.19
398.82	6705.19
399.044	7259.19
399.268	7937.19
399.492	9116.19
399.717	9724.19
399.941	9439.19
400.165	8944.19
400.389	8210.19
400.613	7355.19
400.837	7036.19
401.062	6791.19
401.286	6634.19
401.51	6590.19
401.734	6529.19
401.958	6738.19
402.182	6818.19
402.406	6840.19
402.63	7015.19
402.854	7094.19
403.078	7183.19
403.302	7357.19
403.526	7428.19
403.75	7445.19
403.974	7641.19
404.198	7449.19
404.422	7639.19
404.645	7493.19
404.869	7339.19
405.093	7536.19
405.317	7644.19
405.541	7642.19
405.765	7324.19
405.988	7300.19
406.212	7493.19
406.436	7642.19
406.66	7818.19
406.883	7765.19
407.107	8411.19
407.331	9050.19
407.555	9525.19
407.778	9240.19
408.002	8354.19
408.226	8058.19
408.449	7921.19
408.673	7783.19
408.896	7894.19
409.12	8118.19
409.344	7658.19
409.567	7284.19
409.791	7264.19
410.014	7244.19
410.238	7067.19
410.461	7143.19
410.685	7138.19
410.908	7214.19
411.132	7479.19
411.355	7415.19
411.578	7056.19
411.802	6892.19
412.025	6815.19
412.249	6846.19
412.472	6934.19
412.695	6703.19
412.919	6490.19
413.142	6569.19
413.365	6477.19
413.589	6545.19
413.812	6419.19
414.035	6345.19
414.258	6436.19
414.482	6492.19
414.705	6605.19
414.928	6539.19
415.151	6513.19
415.374	6479.19
415.597	6424.19
415.821	6332.19
416.044	6363.19
416.267	6333.19
416.49	6280.19
416.713	6231.19
416.936	6373.19
417.159	6281.19
417.382	6472.19
417.605	6468.19
417.828	6651.19
418.051	6785.19
418.274	6644.19
418.497	6497.19
418.72	6638.19
418.943	6517.19
419.166	6966.19
419.389	7334.19
419.611	7285.19
419.834	7057.19
420.057	6895.19
420.28	6623.19
420.503	6466.19
420.726	6494.19
420.948	6756.19
421.171	7209.19
421.394	7163.19
421.617	6694.19
421.839	6722.19
422.062	6720.19
422.285	6875.19
422.507	7580.19
422.73	8139.19
422.953	7458.19
423.175	7090.19
423.398	7222.19
423.621	7167.19
423.843	7438.19
424.066	7331.19
424.288	7261.19
424.511	7451.19
424.733	7993.19
424.956	8376.19
425.178	7947.19
425.401	8056.19
425.623	7933.19
425.846	6932.19
426.068	6746.19
426.291	6644.19
426.513	6630.19
426.735	6875.19
426.958	7221.19
427.18	8055.19
427.402	9182.19
427.625	9226.19
427.847	7694.19
428.069	6824.19
428.292	6507.19
428.514	6193.19
428.736	6131.19
428.958	6088.19
429.181	5866.19
429.403	5891.19
429.625	6091.19
429.847	6410.19
430.069	6998.19
430.292	6541.19
430.514	5916.19
430.736	5893.19
430.958	5832.19
431.18	5756.19
431.402	5764.19
431.624	5802.19
431.846	5818.19
432.068	5818.19
432.29	5918.19
432.512	5811.19
432.734	5953.19
432.956	5876.19
433.178	5928.19
433.4	5902.19
433.622	5853.19
433.844	5870.19
434.066	5863.19
434.287	5966.19
434.509	6222.19
434.731	6491.19
434.953	6549.19
435.175	6716.19
435.397	6871.19
435.618	6735.19
435.84	7205.19
436.062	7998.19
436.284	7936.19
436.505	6629.19
436.727	6332.19
436.949	6049.19
437.17	5932.19
437.392	5886.19
437.614	6089.19
437.835	6483.19
438.057	7510.19
438.278	8158.19
438.5	8081.19
438.721	8992.19
438.943	7746.19
439.165	6559.19
439.386	6406.19
439.608	6475.19
439.829	6526.19
440.05	6833.19
440.272	7206.19
440.493	6548.19
440.715	6256.19
440.936	6202.19
441.158	6300.19
441.379	6421.19
441.6	6749.19
441.822	6954.19
442.043	7336.19
442.264	8152.19
442.486	7875.19
442.707	7026.19
442.928	6842.19
443.149	7015.19
443.371	7226.19
443.592	7795.19
443.813	8808.19
444.034	8794.19
444.255	7713.19
444.476	7480.19
444.698	7701.19
444.919	7763.19
445.14	7523.19
445.361	7326.19
445.582	7574.19
445.803	8140.19
446.024	8932.19
446.245	8433.19
446.466	7609.19
446.687	6522.19
446.908	6252.19
447.129	5976.19
447.35	5836.19
447.571	5728.19
447.792	5644.19
448.013	5701.19
448.234	5971.19
448.455	6713.19
448.675	7905.19
448.896	8389.19
449.117	6884.19
449.338	7078.19
449.559	8509.19
449.779	8672.19
450	6623.19
450.221	5948.19
450.442	5632.19
450.662	5528.19
450.883	5673.19
451.104	5745.19
451.324	5524.19
451.545	5411.19
451.766	5321.19
451.986	5201.19
452.207	5201.19
452.428	5096.19
452.648	5171.19
452.869	5254.19
453.089	5359.19
453.31	5345.19
453.53	5146.19
453.751	5067.19
453.971	5125.19
454.192	5326.19
454.412	5051.19
454.633	5034.19
454.853	4948.19
455.073	5006.19
455.294	5492.19
455.514	6062.19
455.734	5482.19
455.955	4948.19
456.175	4779.19
456.395	4717.19
456.616	4705.19
456.836	4714.19
457.056	4701.19
457.276	4685.19
457.497	4842.19
457.717	4805.19
457.937	4877.19
458.157	4956.19
458.377	4966.19
458.598	5396.19
458.818	6067.19
459.038	6798.19
459.258	6785.19
459.478	6025.19
459.698	5961.19
459.918	6058.19
460.138	6204.19
460.358	6481.19
460.578	6465.19
460.798	6466.19
461.018	6397.19
461.238	6378.19
461.458	6264.19
461.678	6326.19
461.898	6388.19
462.118	6501.19
462.338	6858.19
462.558	6973.19
462.777	7248.19
462.997	7858.19
463.217	8276.19
463.437	8020.19
463.657	7435.19
463.876	7245.19
464.096	7332.19
464.316	7309.19
464.536	7330.19
464.755	7050.19
464.975	6985.19
465.195	7077.19
465.414	7094.19
465.634	6253.19
465.854	5915.19
466.073	5753.19
466.293	5589.19
466.512	5465.19
466.732	5329.19
466.951	5288.19
467.171	5317.19
467.391	5392.19
467.61	5402.19
467.829	5364.19
468.049	5288.19
468.268	5064.19
468.488	5083.19
468.707	5016.19
468.927	5036.19
469.146	5070.19
469.365	5139.19
469.585	5174.19
469.804	5397.19
470.023	5528.19
470.243	5547.19
470.462	5597.19
470.681	5665.19
470.901	5602.19
471.12	5485.19
471.339	5411.19
471.558	5332.19
471.777	5250.19
471.997	5083.19
472.216	5022.19
472.435	5097.19
472.654	4995.19
472.873	4968.19
473.092	5028.19
473.311	5032.19
473.53	5122.19
473.749	5200.19
473.968	5723.19
474.187	6841.19
474.406	6332.19
474.625	5368.19
474.844	5170.19
475.063	5046.19
475.282	5193.19
475.501	5164.19
475.72	5222.19
475.939	5203.19
476.158	5272.19
476.377	5264.19
476.596	5300.19
476.814	5440.19
477.033	5494.19
477.252	5577.19
477.471	5613.19
477.69	5641.19
477.908	5836.19
478.127	6003.19
478.346	6095.19
478.564	6146.19
478.783	6221.19
479.002	6392.19
479.22	6435.19
479.439	6452.19
479.658	6665.19
479.876	6666.19
480.095	6890.19
480.313	7302.19
480.532	7112.19
480.751	7007.19
480.969	6946.19
481.188	6690.19
481.406	6533.19
481.624	6326.19
481.843	6159.19
482.061	6118.19
482.28	6072.19
482.498	5987.19
482.717	5969.19
482.935	5902.19
483.153	5928.19
483.372	5935.19
483.59	5987.19
483.808	5869.19
484.027	6049.19
484.245	6048.19
484.463	6064.19
484.681	6172.19
484.9	6166.19
485.118	6199.19
485.336	6267.19
485.554	6319.19
485.772	6370.19
485.99	6358.19
486.209	6431.19
486.427	6404.19
486.645	6456.19
486.863	6592.19
487.081	6469.19
487.299	6478.19
487.517	6369.19
487.735	6399.19
