Data from Uncirc_1996_H10_HRD10591_00040.txt Node
Date: Wed Jan 03 11:32:10 EST 2024
User: Yrep
Spectrometer: HR+D1059
Trigger mode: 1
Integration Time (sec): 1.000000E-1
Scans to average: 1
Electric dark correction enabled: true
Nonlinearity correction enabled: false
Boxcar width: 0
XAxis mode: Wavelengths
Number of Pixels in Spectrum: 2048
>>>>>Begin Spectral Data<<<<<
223.165	-18.62
223.4	-18.62
223.635	-18.62
223.869	-14.62
224.104	-21.62
224.338	-25.62
224.573	-23.62
224.808	-11.62
225.042	-4.62
225.277	1.38
225.511	-7.62
225.746	8.38
225.98	-3.62
226.215	-0.62
226.449	31.38
226.683	24.38
226.918	35.38
227.152	31.38
227.387	31.38
227.621	45.38
227.856	46.38
228.09	40.38
228.324	46.38
228.559	45.38
228.793	53.38
229.027	73.38
229.262	68.38
229.496	69.38
229.73	90.38
229.964	90.38
230.199	68.38
230.433	82.38
230.667	83.38
230.901	76.38
231.136	84.38
231.37	81.38
231.604	74.38
231.838	88.38
232.072	86.38
232.306	80.38
232.541	69.38
232.775	73.38
233.009	82.38
233.243	80.38
233.477	85.38
233.711	75.38
233.945	80.38
234.179	85.38
234.413	96.38
234.647	82.38
234.881	78.38
235.115	69.38
235.349	78.38
235.583	77.38
235.817	81.38
236.051	74.38
236.285	85.38
236.519	84.38
236.753	72.38
236.987	71.38
237.221	85.38
237.455	96.38
237.689	73.38
237.922	84.38
238.156	60.38
238.39	88.38
238.624	76.38
238.858	68.38
239.091	73.38
239.325	73.38
239.559	71.38
239.793	70.38
240.027	69.38
240.26	71.38
240.494	80.38
240.728	81.38
240.961	72.38
241.195	83.38
241.429	78.38
241.662	80.38
241.896	69.38
242.13	65.38
242.363	70.38
242.597	86.38
242.83	93.38
243.064	82.38
243.298	86.38
243.531	76.38
243.765	68.38
243.998	80.38
244.232	73.38
244.465	80.38
244.699	68.38
244.932	64.38
245.166	75.38
245.399	82.38
245.633	89.38
245.866	66.38
246.099	71.38
246.333	80.38
246.566	84.38
246.8	70.38
247.033	59.38
247.266	88.38
247.5	84.38
247.733	74.38
247.966	85.38
248.2	91.38
248.433	90.38
248.666	81.38
248.899	92.38
249.133	89.38
249.366	103.38
249.599	91.38
249.832	72.38
250.066	87.38
250.299	71.38
250.532	78.38
250.765	78.38
250.998	84.38
251.231	80.38
251.465	80.38
251.698	78.38
251.931	77.38
252.164	72.38
252.397	74.38
252.63	82.38
252.863	78.38
253.096	72.38
253.329	86.38
253.562	69.38
253.795	78.38
254.028	89.38
254.261	82.38
254.494	77.38
254.727	80.38
254.96	90.38
255.193	80.38
255.426	73.38
255.659	80.38
255.892	86.38
256.124	76.38
256.357	81.38
256.59	91.38
256.823	70.38
257.056	93.38
257.289	86.38
257.521	81.38
257.754	70.38
257.987	72.38
258.22	95.38
258.452	86.38
258.685	74.38
258.918	86.38
259.151	76.38
259.383	88.38
259.616	85.38
259.849	80.38
260.081	83.38
260.314	74.38
260.547	92.38
260.779	81.38
261.012	70.38
261.244	88.38
261.477	83.38
261.71	74.38
261.942	101.38
262.175	109.38
262.407	89.38
262.64	102.38
262.872	86.38
263.105	85.38
263.337	68.38
263.57	79.38
263.802	79.38
264.035	78.38
264.267	84.38
264.499	63.38
264.732	72.38
264.964	76.38
265.197	85.38
265.429	87.38
265.661	70.38
265.894	87.38
266.126	95.38
266.358	89.38
266.591	79.38
266.823	74.38
267.055	76.38
267.287	69.38
267.52	85.38
267.752	77.38
267.984	73.38
268.216	89.38
268.448	89.38
268.681	84.38
268.913	74.38
269.145	79.38
269.377	88.38
269.609	105.38
269.841	85.38
270.073	92.38
270.306	82.38
270.538	85.38
270.77	83.38
271.002	78.38
271.234	82.38
271.466	87.38
271.698	66.38
271.93	90.38
272.162	94.38
272.394	99.38
272.626	82.38
272.858	77.38
273.09	88.38
273.322	85.38
273.553	86.38
273.785	98.38
274.017	93.38
274.249	85.38
274.481	69.38
274.713	90.38
274.945	85.38
275.176	93.38
275.408	72.38
275.64	81.38
275.872	79.38
276.104	89.38
276.335	95.38
276.567	97.38
276.799	112.38
277.031	97.38
277.262	86.38
277.494	89.38
277.726	87.38
277.957	97.38
278.189	74.38
278.421	92.38
278.652	74.38
278.884	83.38
279.115	86.38
279.347	92.38
279.579	84.38
279.81	81.38
280.042	78.38
280.273	99.38
280.505	92.38
280.736	78.38
280.968	86.38
281.199	93.38
281.431	93.38
281.662	88.38
281.894	85.38
282.125	77.38
282.356	109.38
282.588	122.38
282.819	107.38
283.051	89.38
283.282	97.38
283.513	81.38
283.745	87.38
283.976	89.38
284.207	90.38
284.439	93.38
284.67	86.38
284.901	85.38
285.132	72.38
285.364	83.38
285.595	84.38
285.826	92.38
286.057	85.38
286.288	81.38
286.52	85.38
286.751	86.38
286.982	79.38
287.213	77.38
287.444	102.38
287.675	77.38
287.906	84.38
288.138	103.38
288.369	99.38
288.6	80.38
288.831	83.38
289.062	93.38
289.293	80.38
289.524	77.38
289.755	86.38
289.986	72.38
290.217	82.38
290.448	87.38
290.679	74.38
290.91	94.38
291.141	74.38
291.371	92.38
291.602	92.38
291.833	76.38
292.064	81.38
292.295	88.38
292.526	90.38
292.757	85.38
292.987	75.38
293.218	95.38
293.449	82.38
293.68	81.38
293.91	92.38
294.141	81.38
294.372	86.38
294.603	96.38
294.833	93.38
295.064	75.38
295.295	70.38
295.525	87.38
295.756	96.38
295.987	102.38
296.217	136.38
296.448	106.38
296.679	103.38
296.909	96.38
297.14	89.38
297.37	84.38
297.601	78.38
297.831	97.38
298.062	89.38
298.292	92.38
298.523	74.38
298.753	82.38
298.984	83.38
299.214	80.38
299.445	85.38
299.675	82.38
299.905	91.38
300.136	93.38
300.366	85.38
300.597	81.38
300.827	86.38
301.057	100.38
301.288	98.38
301.518	95.38
301.748	73.38
301.979	81.38
302.209	85.38
302.439	102.38
302.669	98.38
302.9	97.38
303.13	89.38
303.36	97.38
303.59	98.38
303.82	106.38
304.051	97.38
304.281	96.38
304.511	95.38
304.741	94.38
304.971	69.38
305.201	85.38
305.431	87.38
305.661	85.38
305.891	74.38
306.121	93.38
306.352	105.38
306.582	92.38
306.812	88.38
307.042	84.38
307.272	91.38
307.502	95.38
307.731	89.38
307.961	84.38
308.191	92.38
308.421	92.38
308.651	102.38
308.881	98.38
309.111	98.38
309.341	94.38
309.571	79.38
309.8	84.38
310.03	106.38
310.26	84.38
310.49	88.38
310.72	102.38
310.949	98.38
311.179	105.38
311.409	92.38
311.639	106.38
311.868	91.38
312.098	113.38
312.328	96.38
312.557	88.38
312.787	108.38
313.017	86.38
313.246	90.38
313.476	101.38
313.706	96.38
313.935	102.38
314.165	100.38
314.394	94.38
314.624	79.38
314.853	88.38
315.083	86.38
315.312	91.38
315.542	98.38
315.771	87.38
316.001	80.38
316.23	93.38
316.46	89.38
316.689	104.38
316.919	100.38
317.148	85.38
317.377	96.38
317.607	89.38
317.836	94.38
318.065	99.38
318.295	100.38
318.524	84.38
318.753	92.38
318.983	89.38
319.212	105.38
319.441	101.38
319.67	108.38
319.9	101.38
320.129	95.38
320.358	99.38
320.587	94.38
320.816	72.38
321.046	98.38
321.275	102.38
321.504	98.38
321.733	96.38
321.962	98.38
322.191	104.38
322.42	111.38
322.649	92.38
322.878	105.38
323.108	106.38
323.337	121.38
323.566	122.38
323.795	148.38
324.024	196.38
324.253	406.38
324.482	806.38
324.71	1673.38
324.939	2166.38
325.168	796.38
325.397	235.38
325.626	139.38
325.855	119.38
326.084	123.38
326.313	116.38
326.542	140.38
326.77	219.38
326.999	442.38
327.228	913.38
327.457	1701.38
327.686	1288.38
327.914	374.38
328.143	208.38
328.372	168.38
328.6	121.38
328.829	111.38
329.058	126.38
329.287	121.38
329.515	112.38
329.744	103.38
329.972	95.38
330.201	104.38
330.43	93.38
330.658	109.38
330.887	142.38
331.115	117.38
331.344	118.38
331.572	110.38
331.801	93.38
332.03	91.38
332.258	89.38
332.486	89.38
332.715	86.38
332.943	94.38
333.172	103.38
333.4	87.38
333.629	102.38
333.857	110.38
334.085	112.38
334.314	106.38
334.542	102.38
334.771	93.38
334.999	96.38
335.227	95.38
335.455	86.38
335.684	89.38
335.912	102.38
336.14	96.38
336.369	88.38
336.597	103.38
336.825	101.38
337.053	89.38
337.281	100.38
337.51	92.38
337.738	92.38
337.966	96.38
338.194	107.38
338.422	94.38
338.65	114.38
338.878	80.38
339.106	83.38
339.334	88.38
339.562	92.38
339.79	83.38
340.018	82.38
340.246	85.38
340.474	81.38
340.702	97.38
340.93	70.38
341.158	84.38
341.386	90.38
341.614	91.38
341.842	95.38
342.07	83.38
342.298	101.38
342.526	73.38
342.754	75.38
342.981	92.38
343.209	97.38
343.437	97.38
343.665	91.38
343.893	103.38
344.12	92.38
344.348	81.38
344.576	84.38
344.804	97.38
345.031	106.38
345.259	91.38
345.487	86.38
345.714	86.38
345.942	94.38
346.17	82.38
346.397	103.38
346.625	95.38
346.853	101.38
347.08	81.38
347.308	88.38
347.535	108.38
347.763	93.38
347.99	89.38
348.218	106.38
348.445	89.38
348.673	97.38
348.9	90.38
349.128	87.38
349.355	101.38
349.583	92.38
349.81	93.38
350.037	82.38
350.265	100.38
350.492	89.38
350.72	92.38
350.947	87.38
351.174	107.38
351.402	114.38
351.629	99.38
351.856	96.38
352.083	107.38
352.311	88.38
352.538	104.38
352.765	90.38
352.992	102.38
353.22	103.38
353.447	111.38
353.674	91.38
353.901	90.38
354.128	102.38
354.355	97.38
354.583	109.38
354.81	97.38
355.037	95.38
355.264	89.38
355.491	97.38
355.718	93.38
355.945	97.38
356.172	88.38
356.399	86.38
356.626	94.38
356.853	83.38
357.08	97.38
357.307	86.38
357.534	86.38
357.761	78.38
357.988	101.38
358.215	88.38
358.441	98.38
358.668	105.38
358.895	89.38
359.122	82.38
359.349	88.38
359.576	92.38
359.802	86.38
360.029	107.38
360.256	88.38
360.483	97.38
360.709	79.38
360.936	84.38
361.163	100.38
361.39	93.38
361.616	91.38
361.843	72.38
362.07	89.38
362.296	95.38
362.523	84.38
362.749	93.38
362.976	74.38
363.203	90.38
363.429	88.38
363.656	85.38
363.882	74.38
364.109	92.38
364.335	91.38
364.562	89.38
364.788	92.38
365.015	95.38
365.241	81.38
365.468	96.38
365.694	96.38
365.92	96.38
366.147	91.38
366.373	90.38
366.599	83.38
366.826	99.38
367.052	78.38
367.278	94.38
367.505	96.38
367.731	79.38
367.957	85.38
368.184	90.38
368.41	93.38
368.636	112.38
368.862	92.38
369.089	93.38
369.315	103.38
369.541	96.38
369.767	86.38
369.993	90.38
370.219	84.38
370.445	97.38
370.672	82.38
370.898	76.38
371.124	91.38
371.35	71.38
371.576	87.38
371.802	85.38
372.028	86.38
372.254	89.38
372.48	91.38
372.706	82.38
372.932	83.38
373.158	83.38
373.384	87.38
373.61	94.38
373.835	88.38
374.061	95.38
374.287	94.38
374.513	86.38
374.739	96.38
374.965	90.38
375.191	86.38
375.416	85.38
375.642	107.38
375.868	85.38
376.094	96.38
376.319	89.38
376.545	82.38
376.771	88.38
376.997	80.38
377.222	80.38
377.448	98.38
377.674	74.38
377.899	86.38
378.125	77.38
378.35	86.38
378.576	96.38
378.802	87.38
379.027	79.38
379.253	105.38
379.478	106.38
379.704	88.38
379.929	104.38
380.155	95.38
380.38	98.38
380.606	96.38
380.831	98.38
381.057	94.38
381.282	93.38
381.507	85.38
381.733	93.38
381.958	100.38
382.184	93.38
382.409	98.38
382.634	96.38
382.86	92.38
383.085	92.38
383.31	92.38
383.535	106.38
383.761	97.38
383.986	95.38
384.211	107.38
384.436	94.38
384.662	96.38
384.887	98.38
385.112	94.38
385.337	105.38
385.562	102.38
385.787	88.38
386.013	111.38
386.238	104.38
386.463	99.38
386.688	103.38
386.913	111.38
387.138	109.38
387.363	105.38
387.588	104.38
387.813	102.38
388.038	105.38
388.263	104.38
388.488	107.38
388.713	92.38
388.938	89.38
389.163	100.38
389.387	98.38
389.612	97.38
389.837	88.38
390.062	90.38
390.287	82.38
390.512	77.38
390.736	88.38
390.961	84.38
391.186	96.38
391.411	99.38
391.636	77.38
391.86	79.38
392.085	76.38
392.31	95.38
392.534	86.38
392.759	85.38
392.984	95.38
393.208	95.38
393.433	92.38
393.658	79.38
393.882	78.38
394.107	82.38
394.331	74.38
394.556	70.38
394.78	98.38
395.005	90.38
395.229	89.38
395.454	86.38
395.678	93.38
395.903	80.38
396.127	76.38
396.352	87.38
396.576	97.38
396.801	97.38
397.025	106.38
397.249	95.38
397.474	84.38
397.698	82.38
397.922	78.38
398.147	77.38
398.371	78.38
398.595	94.38
398.82	89.38
399.044	82.38
399.268	96.38
399.492	97.38
399.717	89.38
399.941	77.38
400.165	96.38
400.389	94.38
400.613	97.38
400.837	89.38
401.062	81.38
401.286	78.38
401.51	96.38
401.734	94.38
401.958	109.38
402.182	118.38
402.406	140.38
402.63	120.38
402.854	85.38
403.078	93.38
403.302	74.38
403.526	79.38
403.75	90.38
403.974	86.38
404.198	95.38
404.422	95.38
404.645	90.38
404.869	94.38
405.093	96.38
405.317	103.38
405.541	87.38
405.765	86.38
405.988	90.38
406.212	153.38
406.436	202.38
406.66	129.38
406.883	82.38
407.107	87.38
407.331	97.38
407.555	90.38
407.778	91.38
408.002	94.38
408.226	83.38
408.449	84.38
408.673	95.38
408.896	87.38
409.12	92.38
409.344	84.38
409.567	84.38
409.791	82.38
410.014	97.38
410.238	100.38
410.461	76.38
410.685	95.38
410.908	117.38
411.132	111.38
411.355	89.38
411.578	80.38
411.802	95.38
412.025	104.38
412.249	82.38
412.472	92.38
412.695	103.38
412.919	96.38
413.142	78.38
413.365	87.38
413.589	78.38
413.812	87.38
414.035	93.38
414.258	85.38
414.482	95.38
414.705	89.38
414.928	89.38
415.151	73.38
415.374	88.38
415.597	80.38
415.821	89.38
416.044	80.38
416.267	90.38
416.49	81.38
416.713	78.38
416.936	87.38
417.159	99.38
417.382	97.38
417.605	83.38
417.828	90.38
418.051	88.38
418.274	79.38
418.497	75.38
418.72	88.38
418.943	89.38
419.166	90.38
419.389	78.38
419.611	89.38
419.834	90.38
420.057	87.38
420.28	89.38
420.503	87.38
420.726	96.38
420.948	100.38
421.171	84.38
421.394	87.38
421.617	92.38
421.839	92.38
422.062	80.38
422.285	103.38
422.507	93.38
422.73	93.38
422.953	86.38
423.175	90.38
423.398	77.38
423.621	86.38
423.843	89.38
424.066	91.38
424.288	96.38
424.511	94.38
424.733	87.38
424.956	101.38
425.178	109.38
425.401	97.38
425.623	110.38
425.846	81.38
426.068	86.38
426.291	100.38
426.513	87.38
426.735	90.38
426.958	93.38
427.18	99.38
427.402	137.38
427.625	160.38
427.847	119.38
428.069	93.38
428.292	101.38
428.514	80.38
428.736	88.38
428.958	81.38
429.181	73.38
429.403	75.38
429.625	84.38
429.847	79.38
430.069	94.38
430.292	86.38
430.514	72.38
430.736	80.38
430.958	97.38
431.18	90.38
431.402	66.38
431.624	66.38
431.846	71.38
432.068	81.38
432.29	90.38
432.512	73.38
432.734	85.38
432.956	102.38
433.178	94.38
433.4	94.38
433.622	81.38
433.844	92.38
434.066	78.38
434.287	81.38
434.509	97.38
434.731	78.38
434.953	80.38
435.175	80.38
435.397	92.38
435.618	90.38
435.84	94.38
436.062	110.38
436.284	116.38
436.505	104.38
436.727	86.38
436.949	86.38
437.17	94.38
437.392	110.38
437.614	96.38
437.835	107.38
438.057	109.38
438.278	96.38
438.5	113.38
438.721	120.38
438.943	95.38
439.165	95.38
439.386	78.38
439.608	91.38
439.829	92.38
440.05	125.38
440.272	127.38
440.493	103.38
440.715	105.38
440.936	89.38
441.158	90.38
441.379	90.38
441.6	81.38
441.822	92.38
442.043	81.38
442.264	93.38
442.486	103.38
442.707	79.38
442.928	88.38
443.149	112.38
443.371	114.38
443.592	106.38
443.813	108.38
444.034	114.38
444.255	81.38
444.476	78.38
444.698	92.38
444.919	76.38
445.14	124.38
445.361	111.38
445.582	102.38
445.803	141.38
446.024	144.38
446.245	137.38
446.466	109.38
446.687	90.38
446.908	95.38
447.129	73.38
447.35	88.38
447.571	85.38
447.792	97.38
448.013	114.38
448.234	95.38
448.455	101.38
448.675	102.38
448.896	120.38
449.117	90.38
449.338	88.38
449.559	118.38
449.779	142.38
450	109.38
450.221	92.38
450.442	97.38
450.662	98.38
450.883	99.38
451.104	104.38
451.324	95.38
451.545	92.38
451.766	70.38
451.986	85.38
452.207	83.38
452.428	101.38
452.648	101.38
452.869	95.38
453.089	103.38
453.31	118.38
453.53	89.38
453.751	84.38
453.971	102.38
454.192	110.38
454.412	102.38
454.633	80.38
454.853	82.38
455.073	85.38
455.294	86.38
455.514	101.38
455.734	94.38
455.955	83.38
456.175	82.38
456.395	71.38
456.616	87.38
456.836	90.38
457.056	89.38
457.276	86.38
457.497	89.38
457.717	81.38
457.937	92.38
458.157	85.38
458.377	97.38
458.598	101.38
458.818	144.38
459.038	160.38
459.258	112.38
459.478	97.38
459.698	84.38
459.918	82.38
460.138	91.38
460.358	77.38
460.578	82.38
460.798	79.38
461.018	97.38
461.238	82.38
461.458	83.38
461.678	86.38
461.898	74.38
462.118	93.38
462.338	88.38
462.558	81.38
462.777	107.38
462.997	89.38
463.217	92.38
463.437	80.38
463.657	83.38
463.876	81.38
464.096	95.38
464.316	85.38
464.536	102.38
464.755	97.38
464.975	94.38
465.195	156.38
465.414	142.38
465.634	80.38
465.854	77.38
466.073	89.38
466.293	72.38
466.512	88.38
466.732	86.38
466.951	81.38
467.171	72.38
467.391	96.38
467.61	115.38
467.829	92.38
468.049	81.38
468.268	84.38
468.488	93.38
468.707	82.38
468.927	71.38
469.146	86.38
469.365	88.38
469.585	94.38
469.804	78.38
470.023	81.38
470.243	85.38
470.462	101.38
470.681	98.38
470.901	92.38
471.12	75.38
471.339	96.38
471.558	104.38
471.777	82.38
471.997	88.38
472.216	87.38
472.435	82.38
472.654	87.38
472.873	98.38
473.092	86.38
473.311	87.38
473.53	86.38
473.749	86.38
473.968	90.38
474.187	98.38
474.406	97.38
474.625	74.38
474.844	86.38
475.063	77.38
475.282	84.38
475.501	73.38
475.72	65.38
475.939	85.38
476.158	81.38
476.377	79.38
476.596	92.38
476.814	80.38
477.033	82.38
477.252	91.38
477.471	84.38
477.69	89.38
477.908	98.38
478.127	93.38
478.346	90.38
478.564	93.38
478.783	92.38
479.002	93.38
479.22	90.38
479.439	90.38
479.658	92.38
479.876	110.38
480.095	87.38
480.313	93.38
480.532	83.38
480.751	87.38
480.969	91.38
481.188	96.38
481.406	92.38
481.624	82.38
481.843	88.38
482.061	92.38
482.28	92.38
482.498	84.38
482.717	85.38
482.935	94.38
483.153	94.38
483.372	86.38
483.59	93.38
483.808	75.38
484.027	90.38
484.245	96.38
484.463	77.38
484.681	95.38
484.9	93.38
485.118	88.38
485.336	96.38
485.554	100.38
485.772	95.38
485.99	117.38
486.209	97.38
486.427	96.38
486.645	95.38
486.863	105.38
487.081	98.38
487.299	107.38
487.517	76.38
487.735	88.38
487.953	90.38
488.171	91.38
488.389	93.38
488.607	100.38
488.825	77.38
489.043	89.38
489.261	84.38
489.479	86.38
489.696	74.38
489.914	93.38
490.132	89.38
490.35	82.38
490.568	71.38
490.786	85.38
491.003	82.38
491.221	95.38
491.439	76.38
491.657	103.38
491.874	86.38
492.092	93.38
492.31	96.38
492.527	106.38
492.745	97.38
492.963	93.38
493.18	94.38
493.398	81.38
493.615	92.38
493.833	105.38
494.05	84.38
494.268	97.38
494.485	86.38
494.703	87.38
494.92	86.38
495.138	90.38
495.355	90.38
495.573	89.38
495.79	79.38
496.008	98.38
496.225	85.38
496.442	97.38
496.66	105.38
496.877	95.38
497.094	88.38
497.312	93.38
497.529	101.38
497.746	81.38
497.963	97.38
498.181	90.38
498.398	104.38
498.615	108.38
498.832	87.38
499.049	68.38
499.267	94.38
499.484	86.38
499.701	97.38
499.918	95.38
500.135	87.38
500.352	89.38
500.569	80.38
500.786	85.38
501.003	80.38
501.22	80.38
501.437	93.38
501.654	97.38
501.871	102.38
502.088	99.38
502.305	81.38
502.522	85.38
502.739	87.38
502.956	82.38
503.172	93.38
503.389	79.38
503.606	105.38
503.823	90.38
504.04	87.38
504.256	90.38
504.473	73.38
504.69	87.38
504.907	89.38
505.123	91.38
505.34	91.38
505.557	89.38
505.773	98.38
505.99	92.38
506.207	98.38
506.423	83.38
506.64	84.38
506.856	92.38
507.073	95.38
507.289	88.38
507.506	109.38
507.722	101.38
507.939	110.38
508.155	97.38
508.372	86.38
508.588	89.38
508.805	91.38
509.021	85.38
509.238	74.38
509.454	81.38
509.67	88.38
509.887	91.38
510.103	124.38
510.319	183.38
510.536	683.38
510.752	2125.38
510.968	582.38
511.184	148.38
511.401	119.38
511.617	108.38
511.833	81.38
512.049	74.38
512.265	96.38
512.481	105.38
512.698	88.38
512.914	76.38
513.13	90.38
513.346	92.38
513.562	88.38
513.778	96.38
513.994	90.38
514.21	99.38
514.426	116.38
514.642	127.38
514.858	115.38
515.074	164.38
515.29	425.38
515.506	1336.38
515.721	504.38
515.937	148.38
516.153	102.38
516.369	92.38
516.585	98.38
