Data from Uncirc_1996_H10_HRD10591_00080.txt Node
Date: Wed Jan 03 11:32:18 EST 2024
User: Yrep
Spectrometer: HR+D1059
Trigger mode: 1
Integration Time (sec): 1.000000E-1
Scans to average: 1
Electric dark correction enabled: true
Nonlinearity correction enabled: false
Boxcar width: 0
XAxis mode: Wavelengths
Number of Pixels in Spectrum: 2048
>>>>>Begin Spectral Data<<<<<
223.165	-6.06
223.4	-6.06
223.635	-6.06
223.869	-13.06
224.104	-22.06
224.338	-22.06
224.573	-26.06
224.808	-21.06
225.042	-11.06
225.277	-1.06
225.511	-5.06
225.746	-0.06
225.98	8.94
226.215	11.94
226.449	12.94
226.683	28.94
226.918	30.94
227.152	33.94
227.387	41.94
227.621	27.94
227.856	33.94
228.09	49.94
228.324	58.94
228.559	47.94
228.793	63.94
229.027	65.94
229.262	61.94
229.496	69.94
229.73	87.94
229.964	77.94
230.199	81.94
230.433	75.94
230.667	57.94
230.901	79.94
231.136	74.94
231.37	72.94
231.604	78.94
231.838	76.94
232.072	71.94
232.306	88.94
232.541	88.94
232.775	86.94
233.009	96.94
233.243	80.94
233.477	96.94
233.711	75.94
233.945	79.94
234.179	80.94
234.413	77.94
234.647	90.94
234.881	71.94
235.115	78.94
235.349	81.94
235.583	74.94
235.817	75.94
236.051	86.94
236.285	85.94
236.519	98.94
236.753	87.94
236.987	96.94
237.221	85.94
237.455	87.94
237.689	71.94
237.922	74.94
238.156	65.94
238.39	77.94
238.624	75.94
238.858	76.94
239.091	79.94
239.325	83.94
239.559	55.94
239.793	64.94
240.027	76.94
240.26	81.94
240.494	86.94
240.728	89.94
240.961	77.94
241.195	83.94
241.429	71.94
241.662	77.94
241.896	71.94
242.13	72.94
242.363	71.94
242.597	84.94
242.83	81.94
243.064	83.94
243.298	75.94
243.531	82.94
243.765	86.94
243.998	89.94
244.232	76.94
244.465	85.94
244.699	79.94
244.932	66.94
245.166	79.94
245.399	106.94
245.633	81.94
245.866	69.94
246.099	74.94
246.333	91.94
246.566	79.94
246.8	82.94
247.033	88.94
247.266	75.94
247.5	56.94
247.733	81.94
247.966	74.94
248.2	72.94
248.433	86.94
248.666	83.94
248.899	86.94
249.133	79.94
249.366	80.94
249.599	102.94
249.832	86.94
250.066	77.94
250.299	71.94
250.532	72.94
250.765	79.94
250.998	77.94
251.231	96.94
251.465	85.94
251.698	78.94
251.931	85.94
252.164	70.94
252.397	78.94
252.63	71.94
252.863	63.94
253.096	75.94
253.329	105.94
253.562	82.94
253.795	72.94
254.028	77.94
254.261	80.94
254.494	91.94
254.727	79.94
254.96	77.94
255.193	78.94
255.426	87.94
255.659	74.94
255.892	86.94
256.124	71.94
256.357	86.94
256.59	82.94
256.823	84.94
257.056	88.94
257.289	89.94
257.521	66.94
257.754	75.94
257.987	79.94
258.22	76.94
258.452	62.94
258.685	73.94
258.918	84.94
259.151	105.94
259.383	81.94
259.616	86.94
259.849	96.94
260.081	83.94
260.314	73.94
260.547	95.94
260.779	78.94
261.012	89.94
261.244	88.94
261.477	88.94
261.71	88.94
261.942	106.94
262.175	115.94
262.407	66.94
262.64	74.94
262.872	72.94
263.105	74.94
263.337	91.94
263.57	84.94
263.802	82.94
264.035	86.94
264.267	88.94
264.499	83.94
264.732	72.94
264.964	82.94
265.197	95.94
265.429	79.94
265.661	79.94
265.894	93.94
266.126	74.94
266.358	81.94
266.591	93.94
266.823	90.94
267.055	85.94
267.287	86.94
267.52	79.94
267.752	85.94
267.984	71.94
268.216	86.94
268.448	89.94
268.681	91.94
268.913	67.94
269.145	82.94
269.377	87.94
269.609	86.94
269.841	86.94
270.073	81.94
270.306	81.94
270.538	90.94
270.77	67.94
271.002	89.94
271.234	86.94
271.466	80.94
271.698	84.94
271.93	87.94
272.162	82.94
272.394	83.94
272.626	61.94
272.858	85.94
273.09	77.94
273.322	75.94
273.553	85.94
273.785	89.94
274.017	81.94
274.249	86.94
274.481	77.94
274.713	75.94
274.945	91.94
275.176	81.94
275.408	87.94
275.64	92.94
275.872	80.94
276.104	94.94
276.335	82.94
276.567	96.94
276.799	96.94
277.031	85.94
277.262	78.94
277.494	84.94
277.726	75.94
277.957	81.94
278.189	81.94
278.421	93.94
278.652	91.94
278.884	69.94
279.115	97.94
279.347	83.94
279.579	96.94
279.81	91.94
280.042	105.94
280.273	87.94
280.505	72.94
280.736	83.94
280.968	86.94
281.199	83.94
281.431	86.94
281.662	87.94
281.894	92.94
282.125	98.94
282.356	128.94
282.588	142.94
282.819	120.94
283.051	101.94
283.282	85.94
283.513	93.94
283.745	88.94
283.976	84.94
284.207	81.94
284.439	81.94
284.67	74.94
284.901	82.94
285.132	89.94
285.364	81.94
285.595	86.94
285.826	82.94
286.057	90.94
286.288	82.94
286.52	94.94
286.751	79.94
286.982	97.94
287.213	93.94
287.444	75.94
287.675	93.94
287.906	78.94
288.138	78.94
288.369	82.94
288.6	84.94
288.831	91.94
289.062	84.94
289.293	81.94
289.524	88.94
289.755	92.94
289.986	106.94
290.217	72.94
290.448	91.94
290.679	78.94
290.91	84.94
291.141	91.94
291.371	94.94
291.602	83.94
291.833	102.94
292.064	90.94
292.295	94.94
292.526	96.94
292.757	84.94
292.987	100.94
293.218	101.94
293.449	86.94
293.68	104.94
293.91	86.94
294.141	86.94
294.372	86.94
294.603	100.94
294.833	78.94
295.064	91.94
295.295	94.94
295.525	85.94
295.756	89.94
295.987	116.94
296.217	116.94
296.448	106.94
296.679	99.94
296.909	79.94
297.14	96.94
297.37	82.94
297.601	83.94
297.831	86.94
298.062	96.94
298.292	81.94
298.523	90.94
298.753	72.94
298.984	91.94
299.214	89.94
299.445	88.94
299.675	98.94
299.905	77.94
300.136	76.94
300.366	83.94
300.597	97.94
300.827	88.94
301.057	110.94
301.288	98.94
301.518	85.94
301.748	91.94
301.979	103.94
302.209	89.94
302.439	87.94
302.669	64.94
302.9	88.94
303.13	79.94
303.36	90.94
303.59	98.94
303.82	106.94
304.051	83.94
304.281	93.94
304.511	77.94
304.741	91.94
304.971	81.94
305.201	98.94
305.431	77.94
305.661	91.94
305.891	87.94
306.121	105.94
306.352	97.94
306.582	107.94
306.812	75.94
307.042	87.94
307.272	85.94
307.502	87.94
307.731	101.94
307.961	80.94
308.191	79.94
308.421	79.94
308.651	75.94
308.881	91.94
309.111	96.94
309.341	95.94
309.571	82.94
309.8	97.94
310.03	91.94
310.26	98.94
310.49	81.94
310.72	90.94
310.949	102.94
311.179	104.94
311.409	92.94
311.639	91.94
311.868	109.94
312.098	94.94
312.328	91.94
312.557	105.94
312.787	94.94
313.017	101.94
313.246	86.94
313.476	101.94
313.706	90.94
313.935	90.94
314.165	106.94
314.394	90.94
314.624	99.94
314.853	91.94
315.083	89.94
315.312	88.94
315.542	87.94
315.771	94.94
316.001	101.94
316.23	85.94
316.46	85.94
316.689	95.94
316.919	105.94
317.148	74.94
317.377	97.94
317.607	110.94
317.836	88.94
318.065	85.94
318.295	95.94
318.524	93.94
318.753	100.94
318.983	99.94
319.212	108.94
319.441	109.94
319.67	99.94
319.9	99.94
320.129	78.94
320.358	96.94
320.587	85.94
320.816	86.94
321.046	96.94
321.275	99.94
321.504	95.94
321.733	111.94
321.962	86.94
322.191	99.94
322.42	101.94
322.649	97.94
322.878	87.94
323.108	109.94
323.337	114.94
323.566	137.94
323.795	153.94
324.024	193.94
324.253	388.94
324.482	745.94
324.71	1561.94
324.939	2030.94
325.168	746.94
325.397	222.94
325.626	156.94
325.855	112.94
326.084	126.94
326.313	117.94
326.542	143.94
326.77	210.94
326.999	406.94
327.228	858.94
327.457	1569.94
327.686	1239.94
327.914	357.94
328.143	177.94
328.372	146.94
328.6	122.94
328.829	122.94
329.058	131.94
329.287	128.94
329.515	105.94
329.744	112.94
329.972	101.94
330.201	104.94
330.43	95.94
330.658	109.94
330.887	137.94
331.115	112.94
331.344	101.94
331.572	98.94
331.801	108.94
332.03	75.94
332.258	81.94
332.486	94.94
332.715	116.94
332.943	87.94
333.172	96.94
333.4	92.94
333.629	98.94
333.857	110.94
334.085	108.94
334.314	101.94
334.542	95.94
334.771	101.94
334.999	94.94
335.227	82.94
335.455	91.94
335.684	96.94
335.912	89.94
336.14	99.94
336.369	112.94
336.597	120.94
336.825	93.94
337.053	92.94
337.281	94.94
337.51	97.94
337.738	94.94
337.966	88.94
338.194	102.94
338.422	101.94
338.65	110.94
338.878	88.94
339.106	90.94
339.334	99.94
339.562	96.94
339.79	73.94
340.018	89.94
340.246	101.94
340.474	99.94
340.702	104.94
340.93	90.94
341.158	93.94
341.386	91.94
341.614	89.94
341.842	103.94
342.07	104.94
342.298	90.94
342.526	80.94
342.754	84.94
342.981	85.94
343.209	86.94
343.437	98.94
343.665	87.94
343.893	86.94
344.12	92.94
344.348	91.94
344.576	80.94
344.804	85.94
345.031	100.94
345.259	98.94
345.487	87.94
345.714	91.94
345.942	97.94
346.17	94.94
346.397	81.94
346.625	82.94
346.853	93.94
347.08	107.94
347.308	90.94
347.535	98.94
347.763	89.94
347.99	102.94
348.218	103.94
348.445	106.94
348.673	103.94
348.9	102.94
349.128	91.94
349.355	91.94
349.583	88.94
349.81	88.94
350.037	94.94
350.265	100.94
350.492	76.94
350.72	95.94
350.947	96.94
351.174	107.94
351.402	103.94
351.629	88.94
351.856	95.94
352.083	96.94
352.311	103.94
352.538	109.94
352.765	108.94
352.992	93.94
353.22	118.94
353.447	98.94
353.674	114.94
353.901	118.94
354.128	94.94
354.355	92.94
354.583	94.94
354.81	95.94
355.037	90.94
355.264	94.94
355.491	95.94
355.718	91.94
355.945	86.94
356.172	72.94
356.399	105.94
356.626	93.94
356.853	88.94
357.08	102.94
357.307	91.94
357.534	97.94
357.761	99.94
357.988	102.94
358.215	97.94
358.441	101.94
358.668	83.94
358.895	100.94
359.122	93.94
359.349	97.94
359.576	89.94
359.802	90.94
360.029	96.94
360.256	104.94
360.483	108.94
360.709	93.94
360.936	78.94
361.163	81.94
361.39	94.94
361.616	91.94
361.843	94.94
362.07	88.94
362.296	91.94
362.523	92.94
362.749	83.94
362.976	95.94
363.203	90.94
363.429	90.94
363.656	98.94
363.882	86.94
364.109	88.94
364.335	95.94
364.562	89.94
364.788	88.94
365.015	107.94
365.241	98.94
365.468	93.94
365.694	111.94
365.92	108.94
366.147	93.94
366.373	93.94
366.599	78.94
366.826	85.94
367.052	82.94
367.278	87.94
367.505	101.94
367.731	75.94
367.957	98.94
368.184	93.94
368.41	97.94
368.636	102.94
368.862	117.94
369.089	101.94
369.315	106.94
369.541	85.94
369.767	81.94
369.993	100.94
370.219	86.94
370.445	86.94
370.672	86.94
370.898	82.94
371.124	94.94
371.35	91.94
371.576	99.94
371.802	85.94
372.028	84.94
372.254	82.94
372.48	97.94
372.706	81.94
372.932	97.94
373.158	75.94
373.384	91.94
373.61	98.94
373.835	90.94
374.061	102.94
374.287	103.94
374.513	88.94
374.739	85.94
374.965	80.94
375.191	85.94
375.416	89.94
375.642	88.94
375.868	87.94
376.094	83.94
376.319	96.94
376.545	89.94
376.771	89.94
376.997	101.94
377.222	93.94
377.448	103.94
377.674	77.94
377.899	73.94
378.125	94.94
378.35	81.94
378.576	84.94
378.802	93.94
379.027	92.94
379.253	99.94
379.478	97.94
379.704	93.94
379.929	89.94
380.155	111.94
380.38	82.94
380.606	94.94
380.831	78.94
381.057	96.94
381.282	96.94
381.507	87.94
381.733	99.94
381.958	102.94
382.184	100.94
382.409	99.94
382.634	103.94
382.86	94.94
383.085	90.94
383.31	95.94
383.535	102.94
383.761	89.94
383.986	100.94
384.211	105.94
384.436	82.94
384.662	89.94
384.887	81.94
385.112	103.94
385.337	98.94
385.562	102.94
385.787	104.94
386.013	105.94
386.238	120.94
386.463	103.94
386.688	101.94
386.913	98.94
387.138	117.94
387.363	104.94
387.588	101.94
387.813	109.94
388.038	110.94
388.263	102.94
388.488	103.94
388.713	80.94
388.938	97.94
389.163	86.94
389.387	98.94
389.612	102.94
389.837	89.94
390.062	105.94
390.287	93.94
390.512	83.94
390.736	96.94
390.961	93.94
391.186	96.94
391.411	90.94
391.636	92.94
391.86	82.94
392.085	73.94
392.31	91.94
392.534	93.94
392.759	86.94
392.984	100.94
393.208	86.94
393.433	89.94
393.658	93.94
393.882	88.94
394.107	79.94
394.331	94.94
394.556	91.94
394.78	95.94
395.005	84.94
395.229	98.94
395.454	87.94
395.678	85.94
395.903	82.94
396.127	89.94
396.352	81.94
396.576	81.94
396.801	80.94
397.025	102.94
397.249	86.94
397.474	91.94
397.698	83.94
397.922	96.94
398.147	78.94
398.371	79.94
398.595	69.94
398.82	70.94
399.044	80.94
399.268	96.94
399.492	80.94
399.717	92.94
399.941	77.94
400.165	95.94
400.389	83.94
400.613	94.94
400.837	79.94
401.062	88.94
401.286	88.94
401.51	89.94
401.734	97.94
401.958	107.94
402.182	107.94
402.406	153.94
402.63	124.94
402.854	98.94
403.078	93.94
403.302	86.94
403.526	84.94
403.75	87.94
403.974	92.94
404.198	83.94
404.422	95.94
404.645	85.94
404.869	85.94
405.093	88.94
405.317	84.94
405.541	96.94
405.765	88.94
405.988	116.94
406.212	161.94
406.436	217.94
406.66	149.94
406.883	103.94
407.107	81.94
407.331	92.94
407.555	108.94
407.778	89.94
408.002	88.94
408.226	92.94
408.449	96.94
408.673	91.94
408.896	107.94
409.12	96.94
409.344	90.94
409.567	93.94
409.791	83.94
410.014	90.94
410.238	107.94
410.461	94.94
410.685	83.94
410.908	94.94
411.132	95.94
411.355	94.94
411.578	78.94
411.802	80.94
412.025	94.94
412.249	76.94
412.472	89.94
412.695	94.94
412.919	84.94
413.142	86.94
413.365	74.94
413.589	87.94
413.812	87.94
414.035	94.94
414.258	85.94
414.482	83.94
414.705	96.94
414.928	103.94
415.151	92.94
415.374	99.94
415.597	87.94
415.821	83.94
416.044	82.94
416.267	84.94
416.49	102.94
416.713	79.94
416.936	85.94
417.159	91.94
417.382	93.94
417.605	92.94
417.828	84.94
418.051	79.94
418.274	92.94
418.497	89.94
418.72	86.94
418.943	97.94
419.166	88.94
419.389	87.94
419.611	87.94
419.834	95.94
420.057	85.94
420.28	81.94
420.503	94.94
420.726	103.94
420.948	84.94
421.171	95.94
421.394	74.94
421.617	77.94
421.839	76.94
422.062	99.94
422.285	85.94
422.507	96.94
422.73	102.94
422.953	79.94
423.175	88.94
423.398	88.94
423.621	81.94
423.843	83.94
424.066	87.94
424.288	84.94
424.511	95.94
424.733	89.94
424.956	108.94
425.178	103.94
425.401	74.94
425.623	91.94
425.846	78.94
426.068	91.94
426.291	96.94
426.513	87.94
426.735	91.94
426.958	80.94
427.18	97.94
427.402	118.94
427.625	164.94
427.847	124.94
428.069	94.94
428.292	72.94
428.514	87.94
428.736	91.94
428.958	97.94
429.181	91.94
429.403	81.94
429.625	65.94
429.847	93.94
430.069	109.94
430.292	86.94
430.514	66.94
430.736	79.94
430.958	91.94
431.18	73.94
431.402	87.94
431.624	90.94
431.846	94.94
432.068	79.94
432.29	75.94
432.512	77.94
432.734	97.94
432.956	98.94
433.178	103.94
433.4	94.94
433.622	78.94
433.844	72.94
434.066	109.94
434.287	93.94
434.509	98.94
434.731	81.94
434.953	79.94
435.175	84.94
435.397	94.94
435.618	87.94
435.84	97.94
436.062	114.94
436.284	112.94
436.505	96.94
436.727	99.94
436.949	86.94
437.17	101.94
437.392	81.94
437.614	94.94
437.835	105.94
438.057	121.94
438.278	110.94
438.5	88.94
438.721	119.94
438.943	100.94
439.165	91.94
439.386	83.94
439.608	82.94
439.829	98.94
440.05	113.94
440.272	120.94
440.493	89.94
440.715	91.94
440.936	95.94
441.158	94.94
441.379	87.94
441.6	95.94
441.822	86.94
442.043	99.94
442.264	94.94
442.486	104.94
442.707	79.94
442.928	92.94
443.149	135.94
443.371	122.94
443.592	93.94
443.813	108.94
444.034	110.94
444.255	93.94
444.476	83.94
444.698	90.94
444.919	78.94
445.14	122.94
445.361	116.94
445.582	113.94
445.803	135.94
446.024	121.94
446.245	141.94
446.466	108.94
446.687	91.94
446.908	87.94
447.129	101.94
447.35	99.94
447.571	102.94
447.792	98.94
448.013	99.94
448.234	99.94
448.455	100.94
448.675	107.94
448.896	118.94
449.117	103.94
449.338	97.94
449.559	110.94
449.779	117.94
450	95.94
450.221	98.94
450.442	82.94
450.662	91.94
450.883	108.94
451.104	122.94
451.324	96.94
451.545	87.94
451.766	81.94
451.986	91.94
452.207	95.94
452.428	85.94
452.648	97.94
452.869	113.94
453.089	104.94
453.31	106.94
453.53	94.94
453.751	92.94
453.971	111.94
454.192	95.94
454.412	92.94
454.633	75.94
454.853	84.94
455.073	82.94
455.294	85.94
455.514	100.94
455.734	86.94
455.955	102.94
456.175	70.94
456.395	67.94
456.616	78.94
456.836	93.94
457.056	84.94
457.276	80.94
457.497	88.94
457.717	78.94
457.937	84.94
458.157	96.94
458.377	92.94
458.598	103.94
458.818	130.94
459.038	146.94
459.258	102.94
459.478	84.94
459.698	84.94
459.918	83.94
460.138	79.94
460.358	91.94
460.578	87.94
460.798	83.94
461.018	81.94
461.238	87.94
461.458	82.94
461.678	81.94
461.898	91.94
462.118	60.94
462.338	93.94
462.558	83.94
462.777	80.94
462.997	82.94
463.217	65.94
463.437	87.94
463.657	84.94
463.876	74.94
464.096	94.94
464.316	80.94
464.536	93.94
464.755	92.94
464.975	111.94
465.195	150.94
465.414	142.94
465.634	98.94
465.854	89.94
466.073	95.94
466.293	100.94
466.512	83.94
466.732	82.94
466.951	79.94
467.171	88.94
467.391	93.94
467.61	101.94
467.829	98.94
468.049	78.94
468.268	79.94
468.488	86.94
468.707	83.94
468.927	86.94
469.146	85.94
469.365	79.94
469.585	79.94
469.804	94.94
470.023	86.94
470.243	85.94
470.462	92.94
470.681	102.94
470.901	83.94
471.12	89.94
471.339	94.94
471.558	97.94
471.777	95.94
471.997	84.94
472.216	94.94
472.435	82.94
472.654	79.94
472.873	87.94
473.092	88.94
473.311	93.94
473.53	88.94
473.749	69.94
473.968	87.94
474.187	103.94
474.406	88.94
474.625	92.94
474.844	99.94
475.063	83.94
475.282	79.94
475.501	73.94
475.72	87.94
475.939	71.94
476.158	87.94
476.377	83.94
476.596	93.94
476.814	89.94
477.033	89.94
477.252	91.94
477.471	83.94
477.69	86.94
477.908	79.94
478.127	93.94
478.346	91.94
478.564	86.94
478.783	93.94
479.002	106.94
479.22	89.94
479.439	87.94
479.658	91.94
479.876	86.94
480.095	88.94
480.313	75.94
480.532	91.94
480.751	91.94
480.969	96.94
481.188	99.94
481.406	87.94
481.624	90.94
481.843	97.94
482.061	80.94
482.28	97.94
482.498	64.94
482.717	93.94
482.935	85.94
483.153	91.94
483.372	71.94
483.59	99.94
483.808	88.94
484.027	94.94
484.245	95.94
484.463	92.94
484.681	86.94
484.9	80.94
485.118	95.94
485.336	106.94
485.554	82.94
485.772	101.94
485.99	105.94
486.209	99.94
486.427	96.94
486.645	99.94
486.863	111.94
487.081	78.94
487.299	96.94
487.517	77.94
487.735	81.94
487.953	85.94
488.171	93.94
488.389	80.94
488.607	91.94
488.825	90.94
489.043	87.94
489.261	99.94
489.479	86.94
489.696	92.94
489.914	81.94
490.132	75.94
490.35	82.94
490.568	96.94
490.786	93.94
491.003	82.94
491.221	82.94
491.439	88.94
491.657	97.94
491.874	103.94
492.092	97.94
492.31	80.94
492.527	95.94
492.745	91.94
492.963	77.94
493.18	85.94
493.398	89.94
493.615	97.94
493.833	99.94
494.05	101.94
494.268	97.94
494.485	80.94
494.703	96.94
494.92	95.94
495.138	81.94
495.355	79.94
495.573	93.94
495.79	88.94
496.008	78.94
496.225	87.94
496.442	93.94
496.66	97.94
496.877	85.94
497.094	88.94
497.312	86.94
497.529	97.94
497.746	96.94
497.963	79.94
498.181	77.94
498.398	88.94
498.615	123.94
498.832	97.94
499.049	94.94
499.267	86.94
499.484	78.94
499.701	94.94
499.918	92.94
500.135	85.94
500.352	87.94
500.569	86.94
500.786	83.94
501.003	93.94
501.22	95.94
501.437	86.94
501.654	97.94
501.871	104.94
502.088	97.94
502.305	97.94
502.522	93.94
502.739	86.94
502.956	94.94
503.172	98.94
503.389	77.94
503.606	99.94
503.823	81.94
504.04	91.94
504.256	96.94
504.473	83.94
504.69	80.94
504.907	91.94
505.123	95.94
505.34	77.94
505.557	86.94
505.773	89.94
505.99	89.94
506.207	91.94
506.423	82.94
506.64	90.94
506.856	84.94
507.073	94.94
507.289	78.94
507.506	98.94
507.722	91.94
507.939	106.94
508.155	88.94
508.372	85.94
508.588	103.94
508.805	82.94
509.021	90.94
509.238	88.94
509.454	99.94
509.67	95.94
509.887	96.94
510.103	117.94
510.319	205.94
510.536	705.94
510.752	2125.94
510.968	585.94
511.184	162.94
511.401	116.94
511.617	89.94
511.833	102.94
512.049	86.94
512.265	83.94
512.481	105.94
512.698	92.94
512.914	99.94
513.13	94.94
513.346	102.94
513.562	79.94
513.778	91.94
513.994	90.94
514.21	99.94
514.426	109.94
514.642	131.94
514.858	115.94
515.074	172.94
515.29	423.94
515.506	1282.94
515.721	467.94
515.937	140.94
516.153	121.94
516.369	103.94
