Data from Uncirc_1996_H10_HRD10591_00001.txt Node
Date: Wed Jan 03 11:32:02 EST 2024
User: Yrep
Spectrometer: HR+D1059
Trigger mode: 1
Integration Time (sec): 1.000000E-1
Scans to average: 1
Electric dark correction enabled: true
Nonlinearity correction enabled: false
Boxcar width: 0
XAxis mode: Wavelengths
Number of Pixels in Spectrum: 2048
>>>>>Begin Spectral Data<<<<<
223.165	-32.69
223.4	-32.69
223.635	-32.69
223.869	-10.69
224.104	-26.69
224.338	-16.69
224.573	-7.69
224.808	-6.69
225.042	-0.69
225.277	5.31
225.511	-6.69
225.746	-0.69
225.98	-9.69
226.215	15.31
226.449	14.31
226.683	27.31
226.918	27.31
227.152	29.31
227.387	36.31
227.621	17.31
227.856	49.31
228.09	40.31
228.324	39.31
228.559	62.31
228.793	55.31
229.027	60.31
229.262	55.31
229.496	79.31
229.73	80.31
229.964	72.31
230.199	71.31
230.433	61.31
230.667	62.31
230.901	69.31
231.136	88.31
231.37	71.31
231.604	78.31
231.838	64.31
232.072	76.31
232.306	74.31
232.541	67.31
232.775	83.31
233.009	76.31
233.243	79.31
233.477	87.31
233.711	93.31
233.945	92.31
234.179	78.31
234.413	72.31
234.647	67.31
234.881	79.31
235.115	85.31
235.349	73.31
235.583	72.31
235.817	82.31
236.051	70.31
236.285	87.31
236.519	70.31
236.753	78.31
236.987	79.31
237.221	74.31
237.455	73.31
237.689	73.31
237.922	74.31
238.156	85.31
238.39	75.31
238.624	73.31
238.858	67.31
239.091	71.31
239.325	79.31
239.559	58.31
239.793	73.31
240.027	83.31
240.26	70.31
240.494	68.31
240.728	81.31
240.961	53.31
241.195	75.31
241.429	67.31
241.662	85.31
241.896	77.31
242.13	91.31
242.363	70.31
242.597	78.31
242.83	75.31
243.064	67.31
243.298	87.31
243.531	77.31
243.765	72.31
243.998	68.31
244.232	68.31
244.465	77.31
244.699	78.31
244.932	73.31
245.166	79.31
245.399	61.31
245.633	72.31
245.866	69.31
246.099	84.31
246.333	73.31
246.566	84.31
246.8	62.31
247.033	81.31
247.266	79.31
247.5	76.31
247.733	81.31
247.966	76.31
248.2	84.31
248.433	79.31
248.666	78.31
248.899	75.31
249.133	88.31
249.366	81.31
249.599	88.31
249.832	88.31
250.066	77.31
250.299	74.31
250.532	78.31
250.765	71.31
250.998	71.31
251.231	64.31
251.465	85.31
251.698	77.31
251.931	65.31
252.164	84.31
252.397	63.31
252.63	90.31
252.863	75.31
253.096	83.31
253.329	68.31
253.562	83.31
253.795	76.31
254.028	71.31
254.261	87.31
254.494	72.31
254.727	69.31
254.96	71.31
255.193	59.31
255.426	80.31
255.659	83.31
255.892	79.31
256.124	92.31
256.357	91.31
256.59	79.31
256.823	80.31
257.056	82.31
257.289	88.31
257.521	80.31
257.754	81.31
257.987	69.31
258.22	76.31
258.452	80.31
258.685	80.31
258.918	86.31
259.151	87.31
259.383	81.31
259.616	76.31
259.849	84.31
260.081	82.31
260.314	87.31
260.547	79.31
260.779	77.31
261.012	90.31
261.244	81.31
261.477	83.31
261.71	55.31
261.942	112.31
262.175	86.31
262.407	87.31
262.64	77.31
262.872	85.31
263.105	85.31
263.337	89.31
263.57	65.31
263.802	83.31
264.035	75.31
264.267	68.31
264.499	72.31
264.732	77.31
264.964	75.31
265.197	79.31
265.429	75.31
265.661	63.31
265.894	86.31
266.126	71.31
266.358	72.31
266.591	79.31
266.823	79.31
267.055	75.31
267.287	81.31
267.52	77.31
267.752	73.31
267.984	85.31
268.216	79.31
268.448	74.31
268.681	75.31
268.913	87.31
269.145	81.31
269.377	88.31
269.609	85.31
269.841	88.31
270.073	77.31
270.306	83.31
270.538	76.31
270.77	70.31
271.002	72.31
271.234	79.31
271.466	85.31
271.698	90.31
271.93	79.31
272.162	90.31
272.394	83.31
272.626	81.31
272.858	71.31
273.09	89.31
273.322	85.31
273.553	64.31
273.785	85.31
274.017	74.31
274.249	85.31
274.481	87.31
274.713	85.31
274.945	73.31
275.176	83.31
275.408	84.31
275.64	80.31
275.872	81.31
276.104	76.31
276.335	78.31
276.567	74.31
276.799	92.31
277.031	90.31
277.262	83.31
277.494	92.31
277.726	73.31
277.957	78.31
278.189	69.31
278.421	76.31
278.652	81.31
278.884	88.31
279.115	71.31
279.347	90.31
279.579	83.31
279.81	87.31
280.042	92.31
280.273	77.31
280.505	95.31
280.736	94.31
280.968	91.31
281.199	81.31
281.431	83.31
281.662	88.31
281.894	80.31
282.125	98.31
282.356	116.31
282.588	117.31
282.819	100.31
283.051	81.31
283.282	75.31
283.513	78.31
283.745	97.31
283.976	70.31
284.207	90.31
284.439	79.31
284.67	83.31
284.901	83.31
285.132	82.31
285.364	76.31
285.595	86.31
285.826	84.31
286.057	81.31
286.288	96.31
286.52	79.31
286.751	81.31
286.982	78.31
287.213	84.31
287.444	79.31
287.675	86.31
287.906	83.31
288.138	73.31
288.369	87.31
288.6	88.31
288.831	92.31
289.062	85.31
289.293	84.31
289.524	81.31
289.755	87.31
289.986	87.31
290.217	74.31
290.448	75.31
290.679	86.31
290.91	98.31
291.141	87.31
291.371	81.31
291.602	80.31
291.833	75.31
292.064	83.31
292.295	97.31
292.526	87.31
292.757	83.31
292.987	95.31
293.218	86.31
293.449	92.31
293.68	91.31
293.91	89.31
294.141	83.31
294.372	68.31
294.603	88.31
294.833	78.31
295.064	80.31
295.295	84.31
295.525	86.31
295.756	92.31
295.987	103.31
296.217	108.31
296.448	90.31
296.679	93.31
296.909	82.31
297.14	88.31
297.37	78.31
297.601	76.31
297.831	85.31
298.062	91.31
298.292	77.31
298.523	96.31
298.753	86.31
298.984	87.31
299.214	76.31
299.445	81.31
299.675	87.31
299.905	84.31
300.136	75.31
300.366	75.31
300.597	88.31
300.827	97.31
301.057	86.31
301.288	91.31
301.518	78.31
301.748	83.31
301.979	88.31
302.209	86.31
302.439	84.31
302.669	82.31
302.9	91.31
303.13	78.31
303.36	76.31
303.59	98.31
303.82	86.31
304.051	79.31
304.281	85.31
304.511	77.31
304.741	83.31
304.971	84.31
305.201	85.31
305.431	96.31
305.661	87.31
305.891	83.31
306.121	73.31
306.352	98.31
306.582	94.31
306.812	101.31
307.042	78.31
307.272	86.31
307.502	97.31
307.731	87.31
307.961	95.31
308.191	94.31
308.421	86.31
308.651	83.31
308.881	78.31
309.111	92.31
309.341	85.31
309.571	90.31
309.8	95.31
310.03	82.31
310.26	88.31
310.49	98.31
310.72	78.31
310.949	80.31
311.179	108.31
311.409	100.31
311.639	99.31
311.868	88.31
312.098	73.31
312.328	87.31
312.557	106.31
312.787	86.31
313.017	91.31
313.246	86.31
313.476	96.31
313.706	83.31
313.935	80.31
314.165	92.31
314.394	69.31
314.624	96.31
314.853	91.31
315.083	83.31
315.312	79.31
315.542	95.31
315.771	89.31
316.001	74.31
316.23	75.31
316.46	72.31
316.689	84.31
316.919	94.31
317.148	100.31
317.377	106.31
317.607	78.31
317.836	91.31
318.065	99.31
318.295	92.31
318.524	94.31
318.753	84.31
318.983	94.31
319.212	94.31
319.441	85.31
319.67	97.31
319.9	77.31
320.129	93.31
320.358	73.31
320.587	84.31
320.816	108.31
321.046	86.31
321.275	96.31
321.504	96.31
321.733	84.31
321.962	101.31
322.191	94.31
322.42	107.31
322.649	105.31
322.878	92.31
323.108	109.31
323.337	119.31
323.566	105.31
323.795	123.31
324.024	170.31
324.253	314.31
324.482	641.31
324.71	1353.31
324.939	1826.31
325.168	664.31
325.397	207.31
325.626	109.31
325.855	109.31
326.084	115.31
326.313	125.31
326.542	139.31
326.77	201.31
326.999	385.31
327.228	778.31
327.457	1413.31
327.686	1146.31
327.914	364.31
328.143	200.31
328.372	162.31
328.6	120.31
328.829	109.31
329.058	116.31
329.287	111.31
329.515	95.31
329.744	89.31
329.972	97.31
330.201	86.31
330.43	92.31
330.658	94.31
330.887	113.31
331.115	111.31
331.344	93.31
331.572	98.31
331.801	91.31
332.03	104.31
332.258	93.31
332.486	78.31
332.715	87.31
332.943	75.31
333.172	92.31
333.4	103.31
333.629	103.31
333.857	100.31
334.085	95.31
334.314	93.31
334.542	109.31
334.771	105.31
334.999	101.31
335.227	89.31
335.455	86.31
335.684	77.31
335.912	107.31
336.14	103.31
336.369	92.31
336.597	99.31
336.825	91.31
337.053	87.31
337.281	98.31
337.51	82.31
337.738	103.31
337.966	90.31
338.194	116.31
338.422	128.31
338.65	92.31
338.878	103.31
339.106	79.31
339.334	104.31
339.562	88.31
339.79	101.31
340.018	92.31
340.246	91.31
340.474	86.31
340.702	103.31
340.93	79.31
341.158	86.31
341.386	79.31
341.614	83.31
341.842	75.31
342.07	83.31
342.298	96.31
342.526	81.31
342.754	86.31
342.981	88.31
343.209	88.31
343.437	100.31
343.665	81.31
343.893	79.31
344.12	89.31
344.348	89.31
344.576	80.31
344.804	81.31
345.031	87.31
345.259	93.31
345.487	92.31
345.714	86.31
345.942	91.31
346.17	97.31
346.397	77.31
346.625	90.31
346.853	91.31
347.08	92.31
347.308	93.31
347.535	84.31
347.763	86.31
347.99	89.31
348.218	89.31
348.445	100.31
348.673	77.31
348.9	92.31
349.128	76.31
349.355	77.31
349.583	86.31
349.81	102.31
350.037	92.31
350.265	73.31
350.492	78.31
350.72	83.31
350.947	88.31
351.174	70.31
351.402	100.31
351.629	91.31
351.856	90.31
352.083	99.31
352.311	100.31
352.538	96.31
352.765	107.31
352.992	102.31
353.22	94.31
353.447	87.31
353.674	111.31
353.901	98.31
354.128	96.31
354.355	101.31
354.583	87.31
354.81	100.31
355.037	95.31
355.264	86.31
355.491	90.31
355.718	99.31
355.945	104.31
356.172	86.31
356.399	99.31
356.626	88.31
356.853	79.31
357.08	87.31
357.307	82.31
357.534	85.31
357.761	88.31
357.988	91.31
358.215	94.31
358.441	97.31
358.668	90.31
358.895	77.31
359.122	95.31
359.349	84.31
359.576	86.31
359.802	92.31
360.029	100.31
360.256	89.31
360.483	90.31
360.709	88.31
360.936	86.31
361.163	92.31
361.39	92.31
361.616	84.31
361.843	79.31
362.07	91.31
362.296	92.31
362.523	76.31
362.749	93.31
362.976	93.31
363.203	93.31
363.429	87.31
363.656	87.31
363.882	96.31
364.109	90.31
364.335	88.31
364.562	88.31
364.788	79.31
365.015	96.31
365.241	83.31
365.468	86.31
365.694	95.31
365.92	102.31
366.147	87.31
366.373	82.31
366.599	81.31
366.826	80.31
367.052	70.31
367.278	90.31
367.505	87.31
367.731	95.31
367.957	84.31
368.184	80.31
368.41	89.31
368.636	98.31
368.862	115.31
369.089	89.31
369.315	80.31
369.541	86.31
369.767	83.31
369.993	83.31
370.219	95.31
370.445	73.31
370.672	92.31
370.898	84.31
371.124	100.31
371.35	77.31
371.576	80.31
371.802	92.31
372.028	95.31
372.254	82.31
372.48	76.31
372.706	79.31
372.932	77.31
373.158	98.31
373.384	98.31
373.61	89.31
373.835	74.31
374.061	78.31
374.287	70.31
374.513	83.31
374.739	92.31
374.965	85.31
375.191	90.31
375.416	87.31
375.642	89.31
375.868	90.31
376.094	85.31
376.319	81.31
376.545	87.31
376.771	86.31
376.997	94.31
377.222	87.31
377.448	89.31
377.674	87.31
377.899	105.31
378.125	92.31
378.35	91.31
378.576	93.31
378.802	88.31
379.027	87.31
379.253	88.31
379.478	86.31
379.704	92.31
379.929	93.31
380.155	91.31
380.38	99.31
380.606	92.31
380.831	95.31
381.057	93.31
381.282	89.31
381.507	90.31
381.733	103.31
381.958	96.31
382.184	98.31
382.409	88.31
382.634	97.31
382.86	103.31
383.085	106.31
383.31	111.31
383.535	99.31
383.761	100.31
383.986	100.31
384.211	111.31
384.436	104.31
384.662	110.31
384.887	116.31
385.112	116.31
385.337	123.31
385.562	101.31
385.787	95.31
386.013	104.31
386.238	106.31
386.463	117.31
386.688	112.31
386.913	94.31
387.138	104.31
387.363	94.31
387.588	99.31
387.813	97.31
388.038	111.31
388.263	110.31
388.488	114.31
388.713	98.31
388.938	87.31
389.163	105.31
389.387	101.31
389.612	93.31
389.837	93.31
390.062	93.31
390.287	86.31
390.512	75.31
390.736	85.31
390.961	89.31
391.186	94.31
391.411	87.31
391.636	97.31
391.86	87.31
392.085	88.31
392.31	87.31
392.534	88.31
392.759	85.31
392.984	93.31
393.208	96.31
393.433	140.31
393.658	109.31
393.882	98.31
394.107	86.31
394.331	84.31
394.556	76.31
394.78	88.31
395.005	80.31
395.229	81.31
395.454	81.31
395.678	76.31
395.903	86.31
396.127	90.31
396.352	84.31
396.576	96.31
396.801	95.31
397.025	107.31
397.249	76.31
397.474	82.31
397.698	88.31
397.922	86.31
398.147	89.31
398.371	85.31
398.595	93.31
398.82	79.31
399.044	93.31
399.268	85.31
399.492	89.31
399.717	99.31
399.941	80.31
400.165	96.31
400.389	97.31
400.613	86.31
400.837	87.31
401.062	93.31
401.286	89.31
401.51	101.31
401.734	89.31
401.958	94.31
402.182	115.31
402.406	119.31
402.63	100.31
402.854	81.31
403.078	94.31
403.302	87.31
403.526	86.31
403.75	76.31
403.974	72.31
404.198	88.31
404.422	92.31
404.645	76.31
404.869	94.31
405.093	101.31
405.317	89.31
405.541	92.31
405.765	100.31
405.988	108.31
406.212	126.31
406.436	161.31
406.66	99.31
406.883	94.31
407.107	93.31
407.331	88.31
407.555	87.31
407.778	84.31
408.002	92.31
408.226	98.31
408.449	83.31
408.673	75.31
408.896	90.31
409.12	95.31
409.344	92.31
409.567	74.31
409.791	84.31
410.014	86.31
410.238	94.31
410.461	87.31
410.685	84.31
410.908	88.31
411.132	106.31
411.355	97.31
411.578	100.31
411.802	89.31
412.025	95.31
412.249	90.31
412.472	81.31
412.695	92.31
412.919	93.31
413.142	86.31
413.365	79.31
413.589	96.31
413.812	93.31
414.035	73.31
414.258	92.31
414.482	81.31
414.705	80.31
414.928	84.31
415.151	104.31
415.374	89.31
415.597	81.31
415.821	88.31
416.044	95.31
416.267	87.31
416.49	88.31
416.713	77.31
416.936	91.31
417.159	79.31
417.382	86.31
417.605	83.31
417.828	91.31
418.051	98.31
418.274	85.31
418.497	88.31
418.72	85.31
418.943	85.31
419.166	84.31
419.389	85.31
419.611	93.31
419.834	91.31
420.057	80.31
420.28	91.31
420.503	75.31
420.726	76.31
420.948	85.31
421.171	90.31
421.394	92.31
421.617	105.31
421.839	84.31
422.062	86.31
422.285	94.31
422.507	108.31
422.73	105.31
422.953	106.31
423.175	103.31
423.398	88.31
423.621	87.31
423.843	83.31
424.066	84.31
424.288	79.31
424.511	90.31
424.733	89.31
424.956	96.31
425.178	93.31
425.401	80.31
425.623	99.31
425.846	81.31
426.068	94.31
426.291	83.31
426.513	78.31
426.735	86.31
426.958	89.31
427.18	102.31
427.402	115.31
427.625	130.31
427.847	101.31
428.069	101.31
428.292	89.31
428.514	84.31
428.736	88.31
428.958	75.31
429.181	92.31
429.403	77.31
429.625	88.31
429.847	101.31
430.069	105.31
430.292	101.31
430.514	75.31
430.736	92.31
430.958	90.31
431.18	67.31
431.402	88.31
431.624	89.31
431.846	84.31
432.068	93.31
432.29	81.31
432.512	81.31
432.734	90.31
432.956	94.31
433.178	113.31
433.4	92.31
433.622	84.31
433.844	76.31
434.066	92.31
434.287	74.31
434.509	81.31
434.731	85.31
434.953	103.31
435.175	91.31
435.397	80.31
435.618	81.31
435.84	101.31
436.062	113.31
436.284	94.31
436.505	98.31
436.727	101.31
436.949	98.31
437.17	84.31
437.392	95.31
437.614	101.31
437.835	107.31
438.057	97.31
438.278	109.31
438.5	101.31
438.721	112.31
438.943	93.31
439.165	89.31
439.386	100.31
439.608	95.31
439.829	103.31
440.05	109.31
440.272	135.31
440.493	85.31
440.715	87.31
440.936	70.31
441.158	87.31
441.379	94.31
441.6	93.31
441.822	109.31
442.043	81.31
442.264	112.31
442.486	93.31
442.707	85.31
442.928	100.31
443.149	110.31
443.371	113.31
443.592	97.31
443.813	113.31
444.034	96.31
444.255	93.31
444.476	94.31
444.698	93.31
444.919	84.31
445.14	135.31
445.361	108.31
445.582	97.31
445.803	144.31
446.024	127.31
446.245	135.31
446.466	116.31
446.687	88.31
446.908	87.31
447.129	93.31
447.35	97.31
447.571	86.31
447.792	100.31
448.013	98.31
448.234	99.31
448.455	102.31
448.675	108.31
448.896	110.31
449.117	93.31
449.338	93.31
449.559	112.31
449.779	130.31
450	76.31
450.221	84.31
450.442	90.31
450.662	87.31
450.883	94.31
451.104	96.31
451.324	106.31
451.545	82.31
451.766	94.31
451.986	82.31
452.207	104.31
452.428	94.31
452.648	87.31
452.869	95.31
453.089	99.31
453.31	94.31
453.53	88.31
453.751	91.31
453.971	98.31
454.192	95.31
454.412	74.31
454.633	94.31
454.853	87.31
455.073	85.31
455.294	101.31
455.514	92.31
455.734	88.31
455.955	90.31
456.175	88.31
456.395	80.31
456.616	96.31
456.836	80.31
457.056	78.31
457.276	80.31
457.497	93.31
457.717	95.31
457.937	72.31
458.157	67.31
458.377	91.31
458.598	90.31
458.818	121.31
459.038	135.31
459.258	104.31
459.478	83.31
459.698	84.31
459.918	100.31
460.138	70.31
460.358	85.31
460.578	79.31
460.798	81.31
461.018	83.31
461.238	78.31
461.458	73.31
461.678	96.31
461.898	76.31
462.118	85.31
462.338	90.31
462.558	88.31
462.777	77.31
462.997	83.31
463.217	87.31
463.437	77.31
463.657	91.31
463.876	89.31
464.096	91.31
464.316	83.31
464.536	85.31
464.755	86.31
464.975	92.31
465.195	125.31
465.414	119.31
465.634	78.31
465.854	88.31
466.073	89.31
466.293	89.31
466.512	87.31
466.732	87.31
466.951	85.31
467.171	75.31
467.391	96.31
467.61	102.31
467.829	95.31
468.049	77.31
468.268	80.31
468.488	80.31
468.707	81.31
468.927	87.31
469.146	82.31
469.365	90.31
469.585	86.31
469.804	99.31
470.023	105.31
470.243	97.31
470.462	92.31
470.681	90.31
470.901	77.31
471.12	88.31
471.339	87.31
471.558	86.31
471.777	86.31
471.997	81.31
472.216	80.31
472.435	94.31
472.654	80.31
472.873	79.31
473.092	81.31
473.311	89.31
473.53	89.31
473.749	76.31
473.968	87.31
474.187	96.31
474.406	90.31
474.625	80.31
474.844	86.31
475.063	78.31
475.282	81.31
475.501	81.31
475.72	89.31
475.939	88.31
476.158	77.31
476.377	91.31
476.596	83.31
476.814	91.31
477.033	75.31
477.252	83.31
477.471	90.31
477.69	94.31
477.908	72.31
478.127	89.31
478.346	81.31
478.564	83.31
478.783	77.31
479.002	83.31
479.22	93.31
479.439	86.31
479.658	87.31
479.876	84.31
480.095	89.31
480.313	91.31
480.532	87.31
480.751	96.31
480.969	93.31
481.188	95.31
481.406	92.31
481.624	85.31
481.843	74.31
482.061	86.31
482.28	69.31
482.498	87.31
482.717	86.31
482.935	96.31
483.153	104.31
483.372	93.31
483.59	79.31
483.808	102.31
484.027	85.31
484.245	82.31
484.463	88.31
484.681	91.31
484.9	96.31
485.118	96.31
485.336	85.31
485.554	85.31
485.772	107.31
485.99	108.31
486.209	92.31
486.427	114.31
486.645	105.31
486.863	103.31
487.081	92.31
487.299	92.31
487.517	95.31
487.735	99.31
487.953	92.31
488.171	84.31
488.389	106.31
488.607	101.31
488.825	79.31
489.043	91.31
489.261	93.31
489.479	102.31
489.696	88.31
489.914	88.31
490.132	72.31
490.35	84.31
490.568	101.31
490.786	84.31
491.003	91.31
491.221	87.31
491.439	80.31
491.657	98.31
491.874	102.31
492.092	87.31
492.31	86.31
492.527	97.31
492.745	101.31
492.963	80.31
493.18	92.31
493.398	94.31
493.615	99.31
493.833	98.31
494.05	83.31
494.268	76.31
494.485	76.31
494.703	77.31
494.92	89.31
495.138	88.31
495.355	92.31
495.573	91.31
495.79	79.31
496.008	88.31
496.225	84.31
496.442	87.31
496.66	109.31
496.877	92.31
497.094	88.31
497.312	92.31
497.529	102.31
497.746	79.31
497.963	81.31
498.181	82.31
498.398	90.31
498.615	105.31
498.832	101.31
499.049	93.31
499.267	92.31
499.484	83.31
499.701	91.31
499.918	101.31
500.135	85.31
500.352	93.31
500.569	89.31
500.786	93.31
501.003	84.31
501.22	93.31
501.437	72.31
501.654	87.31
501.871	99.31
502.088	88.31
502.305	90.31
502.522	97.31
502.739	88.31
502.956	80.31
503.172	72.31
503.389	91.31
503.606	92.31
503.823	93.31
504.04	87.31
504.256	96.31
504.473	97.31
504.69	84.31
504.907	99.31
505.123	100.31
505.34	79.31
505.557	92.31
505.773	74.31
505.99	86.31
506.207	75.31
506.423	93.31
506.64	96.31
506.856	87.31
507.073	94.31
507.289	82.31
507.506	83.31
507.722	101.31
507.939	108.31
508.155	90.31
508.372	87.31
508.588	90.31
508.805	74.31
509.021	81.31
509.238	84.31
509.454	85.31
509.67	92.31
509.887	87.31
510.103	103.31
510.319	169.31
510.536	516.31
510.752	1522.31
510.968	455.31
511.184	132.31
511.401	96.31
511.617	95.31
511.833	88.31
512.049	100.31
512.265	76.31
512.481	108.31
512.698	78.31
512.914	86.31
513.13	77.31
513.346	100.31
513.562	104.31
513.778	97.31
513.994	91.31
514.21	95.31
514.426	112.31
514.642	113.31
514.858	107.31
515.074	135.31
515.29	308.31
515.506	904.31
515.721	365.31
515.937	126.31
516.153	109.31
516.369	101.31
516.585	92.31
516.801	95.31
517.016	97.31
