Data from Uncirc_1996_H10_HRD10591_00033.txt Node
Date: Wed Jan 03 11:32:09 EST 2024
User: Yrep
Spectrometer: HR+D1059
Trigger mode: 1
Integration Time (sec): 1.000000E-1
Scans to average: 1
Electric dark correction enabled: true
Nonlinearity correction enabled: false
Boxcar width: 0
XAxis mode: Wavelengths
Number of Pixels in Spectrum: 2048
>>>>>Begin Spectral Data<<<<<
223.165	-7.75
223.4	-7.75
223.635	-7.75
223.869	-22.75
224.104	-28.75
224.338	-12.75
224.573	-18.75
224.808	-25.75
225.042	-6.75
225.277	-10.75
225.511	4.25
225.746	22.25
225.98	15.25
226.215	8.25
226.449	17.25
226.683	19.25
226.918	17.25
227.152	30.25
227.387	28.25
227.621	35.25
227.856	47.25
228.09	36.25
228.324	50.25
228.559	57.25
228.793	53.25
229.027	71.25
229.262	56.25
229.496	70.25
229.73	77.25
229.964	80.25
230.199	79.25
230.433	63.25
230.667	82.25
230.901	86.25
231.136	62.25
231.37	85.25
231.604	75.25
231.838	68.25
232.072	80.25
232.306	76.25
232.541	85.25
232.775	70.25
233.009	78.25
233.243	76.25
233.477	88.25
233.711	76.25
233.945	93.25
234.179	72.25
234.413	82.25
234.647	63.25
234.881	79.25
235.115	69.25
235.349	72.25
235.583	70.25
235.817	77.25
236.051	69.25
236.285	73.25
236.519	82.25
236.753	85.25
236.987	84.25
237.221	71.25
237.455	88.25
237.689	70.25
237.922	73.25
238.156	73.25
238.39	77.25
238.624	81.25
238.858	78.25
239.091	61.25
239.325	74.25
239.559	62.25
239.793	75.25
240.027	75.25
240.26	68.25
240.494	69.25
240.728	68.25
240.961	73.25
241.195	77.25
241.429	71.25
241.662	75.25
241.896	73.25
242.13	65.25
242.363	76.25
242.597	85.25
242.83	56.25
243.064	71.25
243.298	75.25
243.531	82.25
243.765	71.25
243.998	88.25
244.232	77.25
244.465	76.25
244.699	56.25
244.932	68.25
245.166	77.25
245.399	65.25
245.633	75.25
245.866	81.25
246.099	80.25
246.333	72.25
246.566	87.25
246.8	65.25
247.033	64.25
247.266	70.25
247.5	77.25
247.733	93.25
247.966	63.25
248.2	73.25
248.433	84.25
248.666	96.25
248.899	86.25
249.133	76.25
249.366	79.25
249.599	84.25
249.832	92.25
250.066	80.25
250.299	68.25
250.532	96.25
250.765	86.25
250.998	85.25
251.231	73.25
251.465	71.25
251.698	71.25
251.931	71.25
252.164	72.25
252.397	62.25
252.63	66.25
252.863	70.25
253.096	78.25
253.329	63.25
253.562	86.25
253.795	79.25
254.028	73.25
254.261	79.25
254.494	90.25
254.727	74.25
254.96	80.25
255.193	73.25
255.426	70.25
255.659	73.25
255.892	80.25
256.124	74.25
256.357	96.25
256.59	83.25
256.823	74.25
257.056	79.25
257.289	81.25
257.521	85.25
257.754	73.25
257.987	79.25
258.22	90.25
258.452	81.25
258.685	84.25
258.918	77.25
259.151	77.25
259.383	90.25
259.616	69.25
259.849	70.25
260.081	91.25
260.314	82.25
260.547	85.25
260.779	89.25
261.012	70.25
261.244	92.25
261.477	93.25
261.71	86.25
261.942	104.25
262.175	100.25
262.407	77.25
262.64	65.25
262.872	86.25
263.105	68.25
263.337	78.25
263.57	78.25
263.802	70.25
264.035	76.25
264.267	82.25
264.499	82.25
264.732	76.25
264.964	79.25
265.197	85.25
265.429	86.25
265.661	84.25
265.894	80.25
266.126	87.25
266.358	80.25
266.591	81.25
266.823	71.25
267.055	70.25
267.287	73.25
267.52	84.25
267.752	89.25
267.984	78.25
268.216	72.25
268.448	84.25
268.681	82.25
268.913	84.25
269.145	88.25
269.377	70.25
269.609	75.25
269.841	91.25
270.073	65.25
270.306	76.25
270.538	87.25
270.77	86.25
271.002	81.25
271.234	90.25
271.466	76.25
271.698	69.25
271.93	79.25
272.162	84.25
272.394	85.25
272.626	85.25
272.858	82.25
273.09	84.25
273.322	83.25
273.553	82.25
273.785	85.25
274.017	84.25
274.249	76.25
274.481	91.25
274.713	82.25
274.945	103.25
275.176	80.25
275.408	85.25
275.64	87.25
275.872	97.25
276.104	82.25
276.335	82.25
276.567	95.25
276.799	97.25
277.031	91.25
277.262	70.25
277.494	85.25
277.726	86.25
277.957	84.25
278.189	80.25
278.421	80.25
278.652	84.25
278.884	77.25
279.115	88.25
279.347	81.25
279.579	88.25
279.81	77.25
280.042	79.25
280.273	83.25
280.505	85.25
280.736	99.25
280.968	86.25
281.199	78.25
281.431	89.25
281.662	86.25
281.894	87.25
282.125	87.25
282.356	106.25
282.588	129.25
282.819	100.25
283.051	93.25
283.282	81.25
283.513	84.25
283.745	86.25
283.976	81.25
284.207	80.25
284.439	76.25
284.67	80.25
284.901	84.25
285.132	69.25
285.364	89.25
285.595	86.25
285.826	76.25
286.057	75.25
286.288	75.25
286.52	89.25
286.751	78.25
286.982	81.25
287.213	78.25
287.444	101.25
287.675	86.25
287.906	95.25
288.138	94.25
288.369	81.25
288.6	90.25
288.831	72.25
289.062	99.25
289.293	93.25
289.524	84.25
289.755	85.25
289.986	68.25
290.217	78.25
290.448	87.25
290.679	85.25
290.91	82.25
291.141	89.25
291.371	83.25
291.602	90.25
291.833	85.25
292.064	91.25
292.295	76.25
292.526	87.25
292.757	86.25
292.987	95.25
293.218	98.25
293.449	94.25
293.68	90.25
293.91	87.25
294.141	89.25
294.372	84.25
294.603	85.25
294.833	95.25
295.064	83.25
295.295	85.25
295.525	76.25
295.756	77.25
295.987	99.25
296.217	122.25
296.448	113.25
296.679	95.25
296.909	90.25
297.14	81.25
297.37	92.25
297.601	98.25
297.831	78.25
298.062	88.25
298.292	90.25
298.523	80.25
298.753	88.25
298.984	74.25
299.214	100.25
299.445	86.25
299.675	89.25
299.905	89.25
300.136	85.25
300.366	81.25
300.597	75.25
300.827	96.25
301.057	97.25
301.288	87.25
301.518	101.25
301.748	89.25
301.979	90.25
302.209	81.25
302.439	84.25
302.669	84.25
302.9	79.25
303.13	84.25
303.36	76.25
303.59	93.25
303.82	98.25
304.051	81.25
304.281	91.25
304.511	92.25
304.741	79.25
304.971	93.25
305.201	96.25
305.431	101.25
305.661	91.25
305.891	91.25
306.121	90.25
306.352	101.25
306.582	78.25
306.812	90.25
307.042	80.25
307.272	93.25
307.502	80.25
307.731	96.25
307.961	80.25
308.191	104.25
308.421	88.25
308.651	85.25
308.881	87.25
309.111	88.25
309.341	103.25
309.571	107.25
309.8	79.25
310.03	91.25
310.26	92.25
310.49	84.25
310.72	94.25
310.949	107.25
311.179	98.25
311.409	102.25
311.639	101.25
311.868	88.25
312.098	102.25
312.328	88.25
312.557	83.25
312.787	104.25
313.017	101.25
313.246	107.25
313.476	78.25
313.706	95.25
313.935	78.25
314.165	83.25
314.394	103.25
314.624	90.25
314.853	92.25
315.083	98.25
315.312	77.25
315.542	86.25
315.771	101.25
316.001	85.25
316.23	92.25
316.46	86.25
316.689	61.25
316.919	84.25
317.148	79.25
317.377	90.25
317.607	98.25
317.836	84.25
318.065	90.25
318.295	99.25
318.524	90.25
318.753	89.25
318.983	96.25
319.212	98.25
319.441	100.25
319.67	104.25
319.9	91.25
320.129	90.25
320.358	88.25
320.587	97.25
320.816	105.25
321.046	103.25
321.275	104.25
321.504	101.25
321.733	92.25
321.962	98.25
322.191	80.25
322.42	112.25
322.649	98.25
322.878	113.25
323.108	98.25
323.337	114.25
323.566	116.25
323.795	128.25
324.024	176.25
324.253	358.25
324.482	758.25
324.71	1522.25
324.939	2033.25
325.168	734.25
325.397	220.25
325.626	125.25
325.855	111.25
326.084	116.25
326.313	118.25
326.542	147.25
326.77	211.25
326.999	407.25
327.228	874.25
327.457	1572.25
327.686	1246.25
327.914	359.25
328.143	209.25
328.372	150.25
328.6	128.25
328.829	108.25
329.058	128.25
329.287	117.25
329.515	103.25
329.744	102.25
329.972	88.25
330.201	102.25
330.43	119.25
330.658	106.25
330.887	122.25
331.115	125.25
331.344	106.25
331.572	92.25
331.801	95.25
332.03	87.25
332.258	93.25
332.486	94.25
332.715	95.25
332.943	94.25
333.172	98.25
333.4	80.25
333.629	107.25
333.857	102.25
334.085	97.25
334.314	97.25
334.542	91.25
334.771	104.25
334.999	91.25
335.227	82.25
335.455	90.25
335.684	96.25
335.912	99.25
336.14	101.25
336.369	79.25
336.597	105.25
336.825	93.25
337.053	81.25
337.281	92.25
337.51	90.25
337.738	91.25
337.966	105.25
338.194	92.25
338.422	120.25
338.65	101.25
338.878	94.25
339.106	98.25
339.334	95.25
339.562	84.25
339.79	100.25
340.018	90.25
340.246	107.25
340.474	84.25
340.702	87.25
340.93	82.25
341.158	82.25
341.386	102.25
341.614	90.25
341.842	77.25
342.07	93.25
342.298	92.25
342.526	84.25
342.754	90.25
342.981	88.25
343.209	85.25
343.437	109.25
343.665	86.25
343.893	85.25
344.12	91.25
344.348	104.25
344.576	103.25
344.804	87.25
345.031	93.25
345.259	97.25
345.487	84.25
345.714	82.25
345.942	74.25
346.17	90.25
346.397	94.25
346.625	92.25
346.853	72.25
347.08	81.25
347.308	85.25
347.535	101.25
347.763	84.25
347.99	97.25
348.218	95.25
348.445	92.25
348.673	97.25
348.9	97.25
349.128	87.25
349.355	98.25
349.583	90.25
349.81	90.25
350.037	88.25
350.265	88.25
350.492	83.25
350.72	106.25
350.947	92.25
351.174	107.25
351.402	97.25
351.629	95.25
351.856	96.25
352.083	92.25
352.311	102.25
352.538	102.25
352.765	91.25
352.992	105.25
353.22	114.25
353.447	97.25
353.674	109.25
353.901	100.25
354.128	103.25
354.355	94.25
354.583	90.25
354.81	87.25
355.037	107.25
355.264	92.25
355.491	90.25
355.718	80.25
355.945	83.25
356.172	109.25
356.399	86.25
356.626	92.25
356.853	104.25
357.08	83.25
357.307	88.25
357.534	83.25
357.761	81.25
357.988	112.25
358.215	106.25
358.441	85.25
358.668	93.25
358.895	89.25
359.122	87.25
359.349	88.25
359.576	97.25
359.802	90.25
360.029	106.25
360.256	91.25
360.483	99.25
360.709	94.25
360.936	94.25
361.163	80.25
361.39	86.25
361.616	106.25
361.843	77.25
362.07	88.25
362.296	89.25
362.523	91.25
362.749	93.25
362.976	81.25
363.203	80.25
363.429	74.25
363.656	83.25
363.882	92.25
364.109	92.25
364.335	83.25
364.562	86.25
364.788	91.25
365.015	92.25
365.241	85.25
365.468	110.25
365.694	100.25
365.92	92.25
366.147	94.25
366.373	88.25
366.599	101.25
366.826	89.25
367.052	85.25
367.278	86.25
367.505	85.25
367.731	85.25
367.957	91.25
368.184	91.25
368.41	85.25
368.636	94.25
368.862	97.25
369.089	108.25
369.315	89.25
369.541	86.25
369.767	86.25
369.993	85.25
370.219	86.25
370.445	92.25
370.672	109.25
370.898	92.25
371.124	88.25
371.35	100.25
371.576	89.25
371.802	95.25
372.028	92.25
372.254	95.25
372.48	88.25
372.706	83.25
372.932	100.25
373.158	86.25
373.384	80.25
373.61	97.25
373.835	83.25
374.061	89.25
374.287	92.25
374.513	87.25
374.739	89.25
374.965	87.25
375.191	87.25
375.416	74.25
375.642	83.25
375.868	105.25
376.094	86.25
376.319	92.25
376.545	98.25
376.771	102.25
376.997	92.25
377.222	89.25
377.448	79.25
377.674	82.25
377.899	80.25
378.125	84.25
378.35	90.25
378.576	80.25
378.802	90.25
379.027	77.25
379.253	93.25
379.478	94.25
379.704	82.25
379.929	93.25
380.155	89.25
380.38	97.25
380.606	92.25
380.831	77.25
381.057	107.25
381.282	88.25
381.507	87.25
381.733	104.25
381.958	89.25
382.184	93.25
382.409	103.25
382.634	104.25
382.86	94.25
383.085	87.25
383.31	88.25
383.535	103.25
383.761	98.25
383.986	93.25
384.211	99.25
384.436	106.25
384.662	100.25
384.887	103.25
385.112	85.25
385.337	105.25
385.562	94.25
385.787	92.25
386.013	101.25
386.238	113.25
386.463	106.25
386.688	118.25
386.913	101.25
387.138	97.25
387.363	97.25
387.588	104.25
387.813	92.25
388.038	93.25
388.263	108.25
388.488	105.25
388.713	78.25
388.938	108.25
389.163	101.25
389.387	91.25
389.612	97.25
389.837	106.25
390.062	98.25
390.287	95.25
390.512	92.25
390.736	82.25
390.961	90.25
391.186	92.25
391.411	85.25
391.636	102.25
391.86	102.25
392.085	93.25
392.31	86.25
392.534	80.25
392.759	80.25
392.984	80.25
393.208	98.25
393.433	106.25
393.658	91.25
393.882	89.25
394.107	82.25
394.331	96.25
394.556	90.25
394.78	80.25
395.005	76.25
395.229	91.25
395.454	84.25
395.678	80.25
395.903	84.25
396.127	91.25
396.352	109.25
396.576	74.25
396.801	88.25
397.025	86.25
397.249	108.25
397.474	91.25
397.698	88.25
397.922	63.25
398.147	78.25
398.371	78.25
398.595	92.25
398.82	87.25
399.044	84.25
399.268	92.25
399.492	78.25
399.717	80.25
399.941	75.25
400.165	102.25
400.389	105.25
400.613	85.25
400.837	77.25
401.062	90.25
401.286	88.25
401.51	73.25
401.734	92.25
401.958	97.25
402.182	130.25
402.406	138.25
402.63	111.25
402.854	86.25
403.078	97.25
403.302	83.25
403.526	92.25
403.75	94.25
403.974	91.25
404.198	90.25
404.422	85.25
404.645	81.25
404.869	95.25
405.093	78.25
405.317	87.25
405.541	84.25
405.765	96.25
405.988	108.25
406.212	141.25
406.436	191.25
406.66	135.25
406.883	88.25
407.107	105.25
407.331	94.25
407.555	95.25
407.778	105.25
408.002	95.25
408.226	96.25
408.449	90.25
408.673	89.25
408.896	91.25
409.12	84.25
409.344	88.25
409.567	87.25
409.791	87.25
410.014	85.25
410.238	103.25
410.461	94.25
410.685	96.25
410.908	102.25
411.132	104.25
411.355	103.25
411.578	107.25
411.802	93.25
412.025	87.25
412.249	84.25
412.472	94.25
412.695	72.25
412.919	87.25
413.142	81.25
413.365	98.25
413.589	92.25
413.812	92.25
414.035	84.25
414.258	87.25
414.482	70.25
414.705	81.25
414.928	92.25
415.151	98.25
415.374	89.25
415.597	91.25
415.821	96.25
416.044	90.25
416.267	87.25
416.49	81.25
416.713	87.25
416.936	87.25
417.159	80.25
417.382	89.25
417.605	88.25
417.828	81.25
418.051	81.25
418.274	88.25
418.497	86.25
418.72	77.25
418.943	85.25
419.166	77.25
419.389	100.25
419.611	88.25
419.834	78.25
420.057	82.25
420.28	66.25
420.503	94.25
420.726	81.25
420.948	87.25
421.171	94.25
421.394	94.25
421.617	88.25
421.839	79.25
422.062	85.25
422.285	88.25
422.507	96.25
422.73	93.25
422.953	92.25
423.175	78.25
423.398	88.25
423.621	80.25
423.843	102.25
424.066	84.25
424.288	103.25
424.511	97.25
424.733	85.25
424.956	89.25
425.178	81.25
425.401	94.25
425.623	107.25
425.846	92.25
426.068	79.25
426.291	88.25
426.513	86.25
426.735	78.25
426.958	91.25
427.18	107.25
427.402	129.25
427.625	157.25
427.847	127.25
428.069	104.25
428.292	87.25
428.514	86.25
428.736	88.25
428.958	79.25
429.181	94.25
429.403	102.25
429.625	79.25
429.847	102.25
430.069	106.25
430.292	92.25
430.514	76.25
430.736	80.25
430.958	90.25
431.18	86.25
431.402	78.25
431.624	82.25
431.846	75.25
432.068	77.25
432.29	84.25
432.512	81.25
432.734	85.25
432.956	107.25
433.178	95.25
433.4	94.25
433.622	83.25
433.844	88.25
434.066	80.25
434.287	81.25
434.509	89.25
434.731	81.25
434.953	78.25
435.175	87.25
435.397	80.25
435.618	86.25
435.84	101.25
436.062	125.25
436.284	97.25
436.505	100.25
436.727	91.25
436.949	92.25
437.17	87.25
437.392	87.25
437.614	80.25
437.835	94.25
438.057	99.25
438.278	106.25
438.5	96.25
438.721	129.25
438.943	92.25
439.165	94.25
439.386	90.25
439.608	111.25
439.829	92.25
440.05	112.25
440.272	144.25
440.493	105.25
440.715	86.25
440.936	88.25
441.158	96.25
441.379	96.25
441.6	85.25
441.822	94.25
442.043	95.25
442.264	83.25
442.486	105.25
442.707	92.25
442.928	90.25
443.149	137.25
443.371	121.25
443.592	107.25
443.813	109.25
444.034	103.25
444.255	79.25
444.476	80.25
444.698	85.25
444.919	80.25
445.14	138.25
445.361	112.25
445.582	129.25
445.803	127.25
446.024	125.25
446.245	140.25
446.466	114.25
446.687	92.25
446.908	80.25
447.129	84.25
447.35	97.25
447.571	82.25
447.792	81.25
448.013	97.25
448.234	97.25
448.455	99.25
448.675	119.25
448.896	124.25
449.117	98.25
449.338	109.25
449.559	127.25
449.779	118.25
450	92.25
450.221	90.25
450.442	89.25
450.662	102.25
450.883	99.25
451.104	97.25
451.324	90.25
451.545	96.25
451.766	82.25
451.986	93.25
452.207	81.25
452.428	86.25
452.648	84.25
452.869	123.25
453.089	121.25
453.31	103.25
453.53	86.25
453.751	90.25
453.971	96.25
454.192	90.25
454.412	88.25
454.633	87.25
454.853	76.25
455.073	81.25
455.294	93.25
455.514	96.25
455.734	84.25
455.955	90.25
456.175	97.25
456.395	84.25
456.616	73.25
456.836	88.25
457.056	76.25
457.276	87.25
457.497	76.25
457.717	76.25
457.937	75.25
458.157	79.25
458.377	87.25
458.598	104.25
458.818	130.25
459.038	148.25
459.258	102.25
459.478	85.25
459.698	89.25
459.918	77.25
460.138	94.25
460.358	101.25
460.578	84.25
460.798	88.25
461.018	90.25
461.238	89.25
461.458	90.25
461.678	89.25
461.898	77.25
462.118	87.25
462.338	82.25
462.558	82.25
462.777	102.25
462.997	92.25
463.217	88.25
463.437	78.25
463.657	80.25
463.876	92.25
464.096	96.25
464.316	87.25
464.536	108.25
464.755	96.25
464.975	106.25
465.195	129.25
465.414	144.25
465.634	96.25
465.854	90.25
466.073	89.25
466.293	91.25
466.512	86.25
466.732	92.25
466.951	81.25
467.171	78.25
467.391	84.25
467.61	105.25
467.829	98.25
468.049	88.25
468.268	76.25
468.488	90.25
468.707	91.25
468.927	86.25
469.146	83.25
469.365	81.25
469.585	104.25
469.804	97.25
470.023	85.25
470.243	88.25
470.462	88.25
470.681	96.25
470.901	87.25
471.12	85.25
471.339	81.25
471.558	84.25
471.777	86.25
471.997	89.25
472.216	85.25
472.435	97.25
472.654	89.25
472.873	88.25
473.092	89.25
473.311	84.25
473.53	84.25
473.749	62.25
473.968	102.25
474.187	116.25
474.406	82.25
474.625	86.25
474.844	88.25
475.063	96.25
475.282	91.25
475.501	80.25
475.72	89.25
475.939	92.25
476.158	90.25
476.377	79.25
476.596	85.25
476.814	93.25
477.033	88.25
477.252	77.25
477.471	84.25
477.69	97.25
477.908	96.25
478.127	94.25
478.346	102.25
478.564	90.25
478.783	97.25
479.002	94.25
479.22	80.25
479.439	81.25
479.658	98.25
479.876	97.25
480.095	90.25
480.313	94.25
480.532	71.25
480.751	84.25
480.969	85.25
481.188	79.25
481.406	95.25
481.624	96.25
481.843	84.25
482.061	84.25
482.28	80.25
482.498	81.25
482.717	92.25
482.935	86.25
483.153	94.25
483.372	91.25
483.59	90.25
483.808	96.25
484.027	97.25
484.245	84.25
484.463	92.25
484.681	103.25
484.9	88.25
485.118	97.25
485.336	86.25
485.554	95.25
485.772	102.25
485.99	100.25
486.209	92.25
486.427	95.25
486.645	107.25
486.863	112.25
487.081	100.25
487.299	79.25
487.517	99.25
487.735	93.25
487.953	88.25
488.171	90.25
488.389	86.25
488.607	102.25
488.825	94.25
489.043	95.25
489.261	104.25
489.479	90.25
489.696	90.25
489.914	84.25
490.132	86.25
490.35	82.25
490.568	88.25
490.786	109.25
491.003	89.25
491.221	82.25
491.439	84.25
491.657	102.25
491.874	83.25
492.092	90.25
492.31	99.25
492.527	86.25
492.745	85.25
492.963	98.25
493.18	98.25
493.398	90.25
493.615	108.25
493.833	82.25
494.05	102.25
494.268	91.25
494.485	88.25
494.703	89.25
494.92	104.25
495.138	86.25
495.355	100.25
495.573	93.25
495.79	80.25
496.008	93.25
496.225	89.25
496.442	101.25
496.66	89.25
496.877	78.25
497.094	98.25
497.312	86.25
497.529	85.25
497.746	101.25
497.963	82.25
498.181	104.25
498.398	103.25
498.615	113.25
498.832	94.25
499.049	96.25
499.267	90.25
499.484	99.25
499.701	104.25
499.918	92.25
500.135	94.25
500.352	89.25
500.569	104.25
500.786	88.25
501.003	92.25
501.22	76.25
501.437	81.25
501.654	102.25
501.871	97.25
502.088	96.25
502.305	90.25
502.522	92.25
502.739	96.25
502.956	88.25
503.172	96.25
503.389	95.25
503.606	92.25
503.823	92.25
504.04	86.25
504.256	98.25
504.473	80.25
504.69	76.25
504.907	86.25
505.123	78.25
505.34	93.25
505.557	91.25
505.773	96.25
505.99	94.25
506.207	86.25
506.423	86.25
506.64	78.25
506.856	84.25
507.073	82.25
507.289	93.25
507.506	105.25
507.722	107.25
507.939	106.25
508.155	90.25
508.372	84.25
508.588	97.25
508.805	85.25
509.021	96.25
509.238	105.25
509.454	94.25
509.67	97.25
509.887	100.25
510.103	115.25
510.319	197.25
510.536	646.25
510.752	1959.25
510.968	546.25
511.184	151.25
511.401	108.25
511.617	98.25
511.833	93.25
512.049	97.25
512.265	100.25
512.481	84.25
512.698	98.25
512.914	89.25
513.13	92.25
513.346	82.25
513.562	96.25
513.778	88.25
513.994	85.25
514.21	103.25
514.426	105.25
514.642	124.25
514.858	120.25
515.074	149.25
515.29	390.25
515.506	1268.25
515.721	467.25
515.937	148.25
516.153	99.25
516.369	88.25
516.585	94.25
