Data from Uncirc_1996_H10_HRD10591_00030.txt Node
Date: Wed Jan 03 11:32:08 EST 2024
User: Yrep
Spectrometer: HR+D1059
Trigger mode: 1
Integration Time (sec): 1.000000E-1
Scans to average: 1
Electric dark correction enabled: true
Nonlinearity correction enabled: false
Boxcar width: 0
XAxis mode: Wavelengths
Number of Pixels in Spectrum: 2048
>>>>>Begin Spectral Data<<<<<
223.165	-21.69
223.4	-21.69
223.635	-21.69
223.869	-10.69
224.104	-31.69
224.338	3.31
224.573	-14.69
224.808	-9.69
225.042	-27.69
225.277	-3.69
225.511	-0.69
225.746	-3.69
225.98	12.31
226.215	4.31
226.449	16.31
226.683	26.31
226.918	29.31
227.152	32.31
227.387	27.31
227.621	37.31
227.856	34.31
228.09	42.31
228.324	47.31
228.559	43.31
228.793	174.31
229.027	438.31
229.262	526.31
229.496	621.31
229.73	804.31
229.964	852.31
230.199	569.31
230.433	506.31
230.667	480.31
230.901	446.31
231.136	449.31
231.37	440.31
231.604	459.31
231.838	448.31
232.072	457.31
232.306	454.31
232.541	474.31
232.775	461.31
233.009	477.31
233.243	474.31
233.477	470.31
233.711	497.31
233.945	507.31
234.179	514.31
234.413	502.31
234.647	518.31
234.881	521.31
235.115	538.31
235.349	555.31
235.583	544.31
235.817	601.31
236.051	640.31
236.285	639.31
236.519	661.31
236.753	700.31
236.987	952.31
237.221	1419.31
237.455	1614.31
237.689	927.31
237.922	732.31
238.156	748.31
238.39	670.31
238.624	642.31
238.858	664.31
239.091	664.31
239.325	674.31
239.559	704.31
239.793	701.31
240.027	789.31
240.26	927.31
240.494	997.31
240.728	970.31
240.961	909.31
241.195	848.31
241.429	792.31
241.662	769.31
241.896	759.31
242.13	787.31
242.363	802.31
242.597	826.31
242.83	838.31
243.064	844.31
243.298	832.31
243.531	818.31
243.765	845.31
243.998	872.31
244.232	864.31
244.465	888.31
244.699	888.31
244.932	915.31
245.166	938.31
245.399	906.31
245.633	893.31
245.866	943.31
246.099	920.31
246.333	959.31
246.566	974.31
246.8	1008.31
247.033	1029.31
247.266	1068.31
247.5	1124.31
247.733	1178.31
247.966	1176.31
248.2	1186.31
248.433	1180.31
248.666	1246.31
248.899	1378.31
249.133	1488.31
249.366	1468.31
249.599	1327.31
249.832	1210.31
250.066	1218.31
250.299	1252.31
250.532	1336.31
250.765	1512.31
250.998	1770.31
251.231	1661.31
251.465	1526.31
251.698	1462.31
251.931	1398.31
252.164	1391.31
252.397	1436.31
252.63	1469.31
252.863	1528.31
253.096	1740.31
253.329	1790.31
253.562	1647.31
253.795	1604.31
254.028	1578.31
254.261	1645.31
254.494	1852.31
254.727	2218.31
254.96	2314.31
255.193	1954.31
255.426	1738.31
255.659	1614.31
255.892	1573.31
256.124	1581.31
256.357	1520.31
256.59	1554.31
256.823	1513.31
257.056	1512.31
257.289	1539.31
257.521	1549.31
257.754	1556.31
257.987	1552.31
258.22	1504.31
258.452	1554.31
258.685	1560.31
258.918	1593.31
259.151	1648.31
259.383	1723.31
259.616	1756.31
259.849	1784.31
260.081	1962.31
260.314	2156.31
260.547	2084.31
260.779	1847.31
261.012	1785.31
261.244	1742.31
261.477	1697.31
261.71	1696.31
261.942	1724.31
262.175	1799.31
262.407	1720.31
262.64	1660.31
262.872	1645.31
263.105	1672.31
263.337	1684.31
263.57	1693.31
263.802	1666.31
264.035	1666.31
264.267	1718.31
264.499	1702.31
264.732	1720.31
264.964	1727.31
265.197	1738.31
265.429	1705.31
265.661	1738.31
265.894	1756.31
266.126	1767.31
266.358	1783.31
266.591	1831.31
266.823	1904.31
267.055	1861.31
267.287	1869.31
267.52	1854.31
267.752	1858.31
267.984	1894.31
268.216	1944.31
268.448	1979.31
268.681	2034.31
268.913	2150.31
269.145	2402.31
269.377	2478.31
269.609	2290.31
269.841	2285.31
270.073	2439.31
270.306	2708.31
270.538	2895.31
270.77	2752.31
271.002	2548.31
271.234	2514.31
271.466	2642.31
271.698	2800.31
271.93	2793.31
272.162	2814.31
272.394	2768.31
272.626	2575.31
272.858	2413.31
273.09	2336.31
273.322	2306.31
273.553	2271.31
273.785	2237.31
274.017	2261.31
274.249	2299.31
274.481	2314.31
274.713	2332.31
274.945	2311.31
275.176	2302.31
275.408	2316.31
275.64	2323.31
275.872	2304.31
276.104	2320.31
276.335	2305.31
276.567	2396.31
276.799	2608.31
277.031	2832.31
277.262	3028.31
277.494	2784.31
277.726	2660.31
277.957	2540.31
278.189	2477.31
278.421	2400.31
278.652	2386.31
278.884	2410.31
279.115	2403.31
279.347	2425.31
279.579	2396.31
279.81	2406.31
280.042	2379.31
280.273	2385.31
280.505	2423.31
280.736	2429.31
280.968	2438.31
281.199	2386.31
281.431	2488.31
281.662	2459.31
281.894	2469.31
282.125	2545.31
282.356	2725.31
282.588	2864.31
282.819	2714.31
283.051	2600.31
283.282	2567.31
283.513	2582.31
283.745	2655.31
283.976	2720.31
284.207	2644.31
284.439	2665.31
284.67	2639.31
284.901	2663.31
285.132	2652.31
285.364	2656.31
285.595	2651.31
285.826	2640.31
286.057	2734.31
286.288	2697.31
286.52	2708.31
286.751	2719.31
286.982	2704.31
287.213	2716.31
287.444	2783.31
287.675	2903.31
287.906	2921.31
288.138	3019.31
288.369	2916.31
288.6	2967.31
288.831	2918.31
289.062	2860.31
289.293	2810.31
289.524	2822.31
289.755	2860.31
289.986	2827.31
290.217	2829.31
290.448	2840.31
290.679	2865.31
290.91	2807.31
291.141	2863.31
291.371	2836.31
291.602	2862.31
291.833	2820.31
292.064	2874.31
292.295	2836.31
292.526	2935.31
292.757	2835.31
292.987	2850.31
293.218	2844.31
293.449	2922.31
293.68	2894.31
293.91	2942.31
294.141	2878.31
294.372	2863.31
294.603	2968.31
294.833	2944.31
295.064	2982.31
295.295	2926.31
295.525	2933.31
295.756	2942.31
295.987	3070.31
296.217	3277.31
296.448	3205.31
296.679	2975.31
296.909	3010.31
297.14	3011.31
297.37	3017.31
297.601	3106.31
297.831	3105.31
298.062	3108.31
298.292	3129.31
298.523	3131.31
298.753	3156.31
298.984	3143.31
299.214	3166.31
299.445	3121.31
299.675	3140.31
299.905	3232.31
300.136	3101.31
300.366	3196.31
300.597	3183.31
300.827	3320.31
301.057	3359.31
301.288	3418.31
301.518	3404.31
301.748	3387.31
301.979	3406.31
302.209	3437.31
302.439	3424.31
302.669	3398.31
302.9	3358.31
303.13	3343.31
303.36	3374.31
303.59	3409.31
303.82	3476.31
304.051	3414.31
304.281	3364.31
304.511	3287.31
304.741	3297.31
304.971	3354.31
305.201	3335.31
305.431	3307.31
305.661	3326.31
305.891	3327.31
306.121	3344.31
306.352	3348.31
306.582	3366.31
306.812	3221.31
307.042	3312.31
307.272	3303.31
307.502	3311.31
307.731	3279.31
307.961	3325.31
308.191	3349.31
308.421	3304.31
308.651	3391.31
308.881	3432.31
309.111	3389.31
309.341	3386.31
309.571	3506.31
309.8	3577.31
310.03	3596.31
310.26	3588.31
310.49	3640.31
310.72	3770.31
310.949	3870.31
311.179	3833.31
311.409	3732.31
311.639	3679.31
311.868	3748.31
312.098	3710.31
312.328	3868.31
312.557	3989.31
312.787	4066.31
313.017	3966.31
313.246	3901.31
313.476	3782.31
313.706	3852.31
313.935	3931.31
314.165	3980.31
314.394	3976.31
314.624	4012.31
314.853	3904.31
315.083	3852.31
315.312	3786.31
315.542	3816.31
315.771	3748.31
316.001	3706.31
316.23	3760.31
316.46	3774.31
316.689	3800.31
316.919	3772.31
317.148	3912.31
317.377	3784.31
317.607	3798.31
317.836	3773.31
318.065	3675.31
318.295	3723.31
318.524	3756.31
318.753	3688.31
318.983	3725.31
319.212	3689.31
319.441	3795.31
319.67	3766.31
319.9	3743.31
320.129	3760.31
320.358	3804.31
320.587	3805.31
320.816	3876.31
321.046	3852.31
321.275	3830.31
321.504	3846.31
321.733	3850.31
321.962	3935.31
322.191	4038.31
322.42	4236.31
322.649	4169.31
322.878	4264.31
323.108	4336.31
323.337	4585.31
323.566	4763.31
323.795	5044.31
324.024	5687.31
324.253	7429.31
324.482	11097.31
324.71	15394.31
324.939	15618.31
325.168	13388.31
325.397	6584.31
325.626	5231.31
325.855	4877.31
326.084	4788.31
326.313	4742.31
326.542	5015.31
326.77	5556.31
326.999	7100.31
327.228	10428.31
327.457	14609.31
327.686	14014.31
327.914	7535.31
328.143	5978.31
328.372	5542.31
328.6	5277.31
328.829	5217.31
329.058	5418.31
329.287	5494.31
329.515	5036.31
329.744	4808.31
329.972	4764.31
330.201	4885.31
330.43	5131.31
330.658	5478.31
330.887	5901.31
331.115	5488.31
331.344	5081.31
331.572	4951.31
331.801	5108.31
332.03	5084.31
332.258	5028.31
332.486	4969.31
332.715	5095.31
332.943	5226.31
333.172	5341.31
333.4	5470.31
333.629	5620.31
333.857	5656.31
334.085	5537.31
334.314	5418.31
334.542	5380.31
334.771	5476.31
334.999	5285.31
335.227	5237.31
335.455	5143.31
335.684	5163.31
335.912	5007.31
336.14	4988.31
336.369	4935.31
336.597	5044.31
336.825	5014.31
337.053	4921.31
337.281	4815.31
337.51	4822.31
337.738	4815.31
337.966	4801.31
338.194	4808.31
338.422	4780.31
338.65	4601.31
338.878	4593.31
339.106	4609.31
339.334	4530.31
339.562	4539.31
339.79	4510.31
340.018	4456.31
340.246	4432.31
340.474	4510.31
340.702	4556.31
340.93	4417.31
341.158	4471.31
341.386	4526.31
341.614	4493.31
341.842	4414.31
342.07	4370.31
342.298	4456.31
342.526	4374.31
342.754	4380.31
342.981	4419.31
343.209	4493.31
343.437	4649.31
343.665	4989.31
343.893	5189.31
344.12	5227.31
344.348	5038.31
344.576	4831.31
344.804	4865.31
345.031	4735.31
345.259	4670.31
345.487	4499.31
345.714	4444.31
345.942	4359.31
346.17	4311.31
346.397	4268.31
346.625	4301.31
346.853	4255.31
347.08	4246.31
347.308	4269.31
347.535	4367.31
347.763	4424.31
347.99	4296.31
348.218	4316.31
348.445	4480.31
348.673	4325.31
348.9	4300.31
349.128	4181.31
349.355	4124.31
349.583	4165.31
349.81	4100.31
350.037	4095.31
350.265	4129.31
350.492	4145.31
350.72	4121.31
350.947	4183.31
351.174	4257.31
351.402	4268.31
351.629	4185.31
351.856	4274.31
352.083	4262.31
352.311	4284.31
352.538	4322.31
352.765	4268.31
352.992	4276.31
353.22	4202.31
353.447	4175.31
353.674	4085.31
353.901	4068.31
354.128	4041.31
354.355	4049.31
354.583	4056.31
354.81	4000.31
355.037	4049.31
355.264	4017.31
355.491	3964.31
355.718	3950.31
355.945	3963.31
356.172	4006.31
356.399	4016.31
356.626	4093.31
356.853	3977.31
357.08	3932.31
357.307	3940.31
357.534	3992.31
357.761	4032.31
357.988	4022.31
358.215	4005.31
358.441	4089.31
358.668	4028.31
358.895	4171.31
359.122	4138.31
359.349	4197.31
359.576	4314.31
359.802	4568.31
360.029	4716.31
360.256	4672.31
360.483	4519.31
360.709	4300.31
360.936	4260.31
361.163	4297.31
361.39	4264.31
361.616	4264.31
361.843	4284.31
362.07	4184.31
362.296	4278.31
362.523	4241.31
362.749	4286.31
362.976	4215.31
363.203	4116.31
363.429	4050.31
363.656	4139.31
363.882	4090.31
364.109	4041.31
364.335	4054.31
364.562	4090.31
364.788	4101.31
365.015	4166.31
365.241	4090.31
365.468	4136.31
365.694	4170.31
365.92	4152.31
366.147	4110.31
366.373	4114.31
366.599	4044.31
366.826	4112.31
367.052	4096.31
367.278	4066.31
367.505	4101.31
367.731	4132.31
367.957	4077.31
368.184	4147.31
368.41	4223.31
368.636	4302.31
368.862	4380.31
369.089	4262.31
369.315	4248.31
369.541	4170.31
369.767	4219.31
369.993	4187.31
370.219	4202.31
370.445	4244.31
370.672	4320.31
370.898	4295.31
371.124	4352.31
371.35	4436.31
371.576	4312.31
371.802	4321.31
372.028	4382.31
372.254	4366.31
372.48	4458.31
372.706	4496.31
372.932	4575.31
373.158	4488.31
373.384	4409.31
373.61	4431.31
373.835	4411.31
374.061	4428.31
374.287	4560.31
374.513	4608.31
374.739	4744.31
374.965	4810.31
375.191	4784.31
375.416	4746.31
375.642	4581.31
375.868	4561.31
376.094	4544.31
376.319	4397.31
376.545	4392.31
376.771	4396.31
376.997	4446.31
377.222	4433.31
377.448	4367.31
377.674	4397.31
377.899	4290.31
378.125	4396.31
378.35	4342.31
378.576	4278.31
378.802	4315.31
379.027	4308.31
379.253	4282.31
379.478	4314.31
379.704	4352.31
379.929	4371.31
380.155	4399.31
380.38	4337.31
380.606	4380.31
380.831	4397.31
381.057	4398.31
381.282	4366.31
381.507	4393.31
381.733	4458.31
381.958	4501.31
382.184	4521.31
382.409	4612.31
382.634	4596.31
382.86	4605.31
383.085	4736.31
383.31	4760.31
383.535	4828.31
383.761	4892.31
383.986	4954.31
384.211	5016.31
384.436	5106.31
384.662	5174.31
384.887	5221.31
385.112	5182.31
385.337	5305.31
385.562	5315.31
385.787	5286.31
386.013	5336.31
386.238	5392.31
386.463	5301.31
386.688	5396.31
386.913	5202.31
387.138	5163.31
387.363	5278.31
387.588	5118.31
387.813	5248.31
388.038	5120.31
388.263	5232.31
388.488	5240.31
388.713	5232.31
388.938	5201.31
389.163	5178.31
389.387	5191.31
389.612	5082.31
389.837	5140.31
390.062	5071.31
390.287	5177.31
390.512	5149.31
390.736	5229.31
390.961	5300.31
391.186	5339.31
391.411	5554.31
391.636	5662.31
391.86	5825.31
392.085	5853.31
392.31	5836.31
392.534	5649.31
392.759	5532.31
392.984	5471.31
393.208	5451.31
393.433	5470.31
393.658	5390.31
393.882	5425.31
394.107	5441.31
394.331	5444.31
394.556	5471.31
394.78	5506.31
395.005	5530.31
395.229	5528.31
395.454	5723.31
395.678	5848.31
395.903	5900.31
396.127	5951.31
396.352	5716.31
396.576	5538.31
396.801	5518.31
397.025	5603.31
397.249	5741.31
397.474	5875.31
397.698	5929.31
397.922	6084.31
398.147	6182.31
398.371	6223.31
398.595	6365.31
398.82	6657.31
399.044	7213.31
399.268	8018.31
399.492	9136.31
399.717	9634.31
399.941	9499.31
400.165	8948.31
400.389	8199.31
400.613	7385.31
400.837	6882.31
401.062	6673.31
401.286	6626.31
401.51	6632.31
401.734	6560.31
401.958	6669.31
402.182	6838.31
402.406	6895.31
402.63	6985.31
402.854	7086.31
403.078	7130.31
403.302	7353.31
403.526	7425.31
403.75	7422.31
403.974	7487.31
404.198	7346.31
404.422	7515.31
404.645	7381.31
404.869	7320.31
405.093	7511.31
405.317	7526.31
405.541	7682.31
405.765	7325.31
405.988	7204.31
406.212	7446.31
406.436	7738.31
406.66	7833.31
406.883	7754.31
407.107	8420.31
407.331	8897.31
407.555	9518.31
407.778	9156.31
408.002	8401.31
408.226	8017.31
408.449	7907.31
408.673	7724.31
408.896	7988.31
409.12	8138.31
409.344	7506.31
409.567	7285.31
409.791	7213.31
410.014	7114.31
410.238	7020.31
410.461	7153.31
410.685	7139.31
410.908	7163.31
411.132	7505.31
411.355	7510.31
411.578	7066.31
411.802	6809.31
412.025	6728.31
412.249	6856.31
412.472	6792.31
412.695	6728.31
412.919	6593.31
413.142	6511.31
413.365	6513.31
413.589	6567.31
413.812	6481.31
414.035	6344.31
414.258	6416.31
414.482	6452.31
414.705	6546.31
414.928	6470.31
415.151	6383.31
415.374	6479.31
415.597	6439.31
415.821	6306.31
416.044	6288.31
416.267	6376.31
416.49	6245.31
416.713	6294.31
416.936	6355.31
417.159	6283.31
417.382	6554.31
417.605	6428.31
417.828	6592.31
418.051	6736.31
418.274	6573.31
418.497	6484.31
418.72	6618.31
418.943	6601.31
419.166	7017.31
419.389	7302.31
419.611	7244.31
419.834	7004.31
420.057	6907.31
420.28	6641.31
420.503	6460.31
420.726	6515.31
420.948	6783.31
421.171	7116.31
421.394	7192.31
421.617	6613.31
421.839	6614.31
422.062	6756.31
422.285	6871.31
422.507	7550.31
422.73	8192.31
422.953	7443.31
423.175	7065.31
423.398	7153.31
423.621	7105.31
423.843	7434.31
424.066	7350.31
424.288	7215.31
424.511	7430.31
424.733	7900.31
424.956	8468.31
425.178	7936.31
425.401	8066.31
425.623	7942.31
425.846	6893.31
426.068	6700.31
426.291	6703.31
426.513	6599.31
426.735	6742.31
426.958	7216.31
427.18	8068.31
427.402	9325.31
427.625	9300.31
427.847	7753.31
428.069	6852.31
428.292	6517.31
428.514	6216.31
428.736	6056.31
428.958	6054.31
429.181	5851.31
429.403	5916.31
429.625	6111.31
429.847	6391.31
430.069	7002.31
430.292	6586.31
430.514	5905.31
430.736	5932.31
430.958	5840.31
431.18	5743.31
431.402	5726.31
431.624	5729.31
431.846	5800.31
432.068	5766.31
432.29	5917.31
432.512	5833.31
432.734	5968.31
432.956	5865.31
433.178	5954.31
433.4	5952.31
433.622	5816.31
433.844	5760.31
434.066	5850.31
434.287	5921.31
434.509	6192.31
434.731	6397.31
434.953	6639.31
435.175	6719.31
435.397	6845.31
435.618	6796.31
435.84	7243.31
436.062	8046.31
436.284	8013.31
436.505	6751.31
436.727	6339.31
436.949	6118.31
437.17	5885.31
437.392	5925.31
437.614	6112.31
437.835	6532.31
438.057	7585.31
438.278	8210.31
438.5	8047.31
438.721	9029.31
438.943	7886.31
439.165	6557.31
439.386	6342.31
439.608	6424.31
439.829	6568.31
440.05	6874.31
440.272	7269.31
440.493	6592.31
440.715	6292.31
440.936	6254.31
441.158	6193.31
441.379	6388.31
441.6	6710.31
441.822	6875.31
442.043	7478.31
442.264	8238.31
442.486	7974.31
442.707	7121.31
442.928	6902.31
443.149	7204.31
443.371	7287.31
443.592	7840.31
443.813	9034.31
444.034	8904.31
444.255	7649.31
444.476	7431.31
444.698	7680.31
444.919	7663.31
445.14	7511.31
445.361	7403.31
445.582	7624.31
445.803	8303.31
446.024	9052.31
446.245	8632.31
446.466	7726.31
446.687	6661.31
446.908	6260.31
447.129	5990.31
447.35	5758.31
447.571	5798.31
447.792	5693.31
448.013	5712.31
448.234	6024.31
448.455	6696.31
448.675	7988.31
448.896	8455.31
449.117	6992.31
449.338	7152.31
449.559	8617.31
449.779	8794.31
450	6633.31
450.221	5840.31
450.442	5728.31
450.662	5636.31
450.883	5701.31
451.104	5780.31
451.324	5571.31
451.545	5440.31
451.766	5320.31
451.986	5192.31
452.207	5200.31
452.428	5175.31
452.648	5185.31
452.869	5247.31
453.089	5309.31
453.31	5442.31
453.53	5195.31
453.751	5078.31
453.971	5190.31
454.192	5307.31
454.412	5062.31
454.633	5065.31
454.853	4989.31
455.073	4989.31
455.294	5508.31
455.514	6076.31
455.734	5485.31
455.955	4863.31
456.175	4797.31
456.395	4746.31
456.616	4737.31
456.836	4688.31
457.056	4733.31
457.276	4653.31
457.497	4741.31
457.717	4765.31
457.937	4899.31
458.157	4888.31
458.377	5121.31
458.598	5398.31
458.818	6152.31
459.038	6959.31
459.258	6927.31
459.478	6041.31
459.698	5869.31
459.918	6031.31
460.138	6184.31
460.358	6426.31
460.578	6439.31
460.798	6464.31
461.018	6423.31
461.238	6305.31
461.458	6325.31
461.678	6288.31
461.898	6409.31
462.118	6442.31
462.338	6877.31
462.558	6933.31
462.777	7256.31
462.997	7756.31
463.217	8206.31
463.437	7949.31
463.657	7387.31
463.876	7193.31
464.096	7232.31
464.316	7312.31
464.536	7343.31
464.755	6993.31
464.975	7005.31
465.195	7187.31
465.414	7276.31
465.634	6279.31
465.854	5978.31
466.073	5706.31
466.293	5626.31
466.512	5420.31
466.732	5276.31
466.951	5312.31
467.171	5370.31
467.391	5356.31
467.61	5402.31
467.829	5452.31
468.049	5257.31
468.268	5083.31
468.488	5056.31
468.707	5035.31
468.927	5056.31
469.146	4997.31
469.365	5109.31
469.585	5177.31
469.804	5375.31
470.023	5544.31
470.243	5472.31
470.462	5562.31
470.681	5666.31
470.901	5564.31
471.12	5380.31
471.339	5353.31
471.558	5409.31
471.777	5217.31
471.997	5102.31
472.216	5115.31
472.435	5028.31
472.654	5113.31
472.873	4934.31
473.092	4990.31
473.311	5121.31
473.53	5125.31
473.749	5188.31
473.968	5898.31
474.187	6920.31
474.406	6404.31
474.625	5432.31
474.844	5137.31
475.063	5056.31
475.282	5105.31
475.501	5158.31
475.72	5216.31
475.939	5214.31
476.158	5284.31
476.377	5328.31
476.596	5231.31
476.814	5474.31
477.033	5528.31
477.252	5534.31
477.471	5646.31
477.69	5704.31
477.908	5842.31
478.127	5958.31
478.346	6076.31
478.564	6196.31
478.783	6215.31
479.002	6450.31
479.22	6416.31
479.439	6500.31
479.658	6626.31
479.876	6644.31
480.095	6879.31
480.313	7374.31
480.532	7153.31
480.751	7048.31
480.969	6818.31
481.188	6711.31
481.406	6442.31
481.624	6337.31
481.843	6162.31
482.061	6105.31
482.28	6025.31
482.498	5961.31
482.717	5945.31
482.935	6035.31
483.153	5911.31
483.372	5972.31
483.59	5996.31
483.808	5886.31
484.027	5996.31
484.245	6056.31
484.463	6077.31
484.681	6108.31
484.9	6114.31
485.118	6253.31
485.336	6233.31
485.554	6336.31
485.772	6393.31
485.99	6357.31
486.209	6429.31
486.427	6379.31
486.645	6500.31
486.863	6630.31
487.081	6518.31
487.299	6475.31
487.517	6447.31
487.735	6361.31
