Data from Uncirc_1996_H10_HRD10591_00049.txt Node
Date: Wed Jan 03 11:32:12 EST 2024
User: Yrep
Spectrometer: HR+D1059
Trigger mode: 1
Integration Time (sec): 1.000000E-1
Scans to average: 1
Electric dark correction enabled: true
Nonlinearity correction enabled: false
Boxcar width: 0
XAxis mode: Wavelengths
Number of Pixels in Spectrum: 2048
>>>>>Begin Spectral Data<<<<<
223.165	-10.38
223.4	-10.38
223.635	-10.38
223.869	-24.38
224.104	-23.38
224.338	-0.38
224.573	-25.38
224.808	-14.38
225.042	-15.38
225.277	8.62
225.511	-4.38
225.746	8.62
225.98	17.62
226.215	-3.38
226.449	11.62
226.683	15.62
226.918	21.62
227.152	37.62
227.387	34.62
227.621	48.62
227.856	41.62
228.09	56.62
228.324	44.62
228.559	56.62
228.793	61.62
229.027	70.62
229.262	62.62
229.496	67.62
229.73	77.62
229.964	77.62
230.199	82.62
230.433	75.62
230.667	69.62
230.901	74.62
231.136	59.62
231.37	74.62
231.604	80.62
231.838	84.62
232.072	75.62
232.306	73.62
232.541	86.62
232.775	65.62
233.009	81.62
233.243	76.62
233.477	91.62
233.711	72.62
233.945	92.62
234.179	71.62
234.413	79.62
234.647	86.62
234.881	85.62
235.115	89.62
235.349	79.62
235.583	92.62
235.817	71.62
236.051	76.62
236.285	70.62
236.519	71.62
236.753	76.62
236.987	62.62
237.221	74.62
237.455	77.62
237.689	63.62
237.922	91.62
238.156	71.62
238.39	75.62
238.624	73.62
238.858	73.62
239.091	59.62
239.325	68.62
239.559	73.62
239.793	73.62
240.027	85.62
240.26	76.62
240.494	75.62
240.728	77.62
240.961	75.62
241.195	64.62
241.429	71.62
241.662	79.62
241.896	73.62
242.13	67.62
242.363	65.62
242.597	71.62
242.83	71.62
243.064	71.62
243.298	94.62
243.531	72.62
243.765	80.62
243.998	72.62
244.232	68.62
244.465	94.62
244.699	90.62
244.932	81.62
245.166	84.62
245.399	73.62
245.633	66.62
245.866	65.62
246.099	85.62
246.333	73.62
246.566	72.62
246.8	71.62
247.033	96.62
247.266	65.62
247.5	78.62
247.733	79.62
247.966	76.62
248.2	89.62
248.433	83.62
248.666	95.62
248.899	76.62
249.133	97.62
249.366	100.62
249.599	102.62
249.832	77.62
250.066	87.62
250.299	62.62
250.532	78.62
250.765	71.62
250.998	84.62
251.231	61.62
251.465	81.62
251.698	71.62
251.931	80.62
252.164	81.62
252.397	71.62
252.63	73.62
252.863	75.62
253.096	83.62
253.329	67.62
253.562	83.62
253.795	72.62
254.028	86.62
254.261	79.62
254.494	68.62
254.727	72.62
254.96	78.62
255.193	77.62
255.426	67.62
255.659	75.62
255.892	74.62
256.124	80.62
256.357	65.62
256.59	84.62
256.823	76.62
257.056	79.62
257.289	75.62
257.521	81.62
257.754	89.62
257.987	61.62
258.22	78.62
258.452	79.62
258.685	65.62
258.918	73.62
259.151	66.62
259.383	81.62
259.616	58.62
259.849	78.62
260.081	79.62
260.314	96.62
260.547	69.62
260.779	88.62
261.012	89.62
261.244	83.62
261.477	71.62
261.71	88.62
261.942	93.62
262.175	113.62
262.407	87.62
262.64	65.62
262.872	94.62
263.105	78.62
263.337	70.62
263.57	79.62
263.802	60.62
264.035	59.62
264.267	89.62
264.499	72.62
264.732	86.62
264.964	92.62
265.197	72.62
265.429	74.62
265.661	85.62
265.894	77.62
266.126	90.62
266.358	75.62
266.591	79.62
266.823	68.62
267.055	86.62
267.287	68.62
267.52	81.62
267.752	84.62
267.984	85.62
268.216	75.62
268.448	75.62
268.681	76.62
268.913	76.62
269.145	82.62
269.377	83.62
269.609	79.62
269.841	89.62
270.073	69.62
270.306	86.62
270.538	81.62
270.77	100.62
271.002	77.62
271.234	79.62
271.466	79.62
271.698	89.62
271.93	75.62
272.162	83.62
272.394	73.62
272.626	88.62
272.858	80.62
273.09	80.62
273.322	77.62
273.553	78.62
273.785	67.62
274.017	79.62
274.249	71.62
274.481	84.62
274.713	76.62
274.945	84.62
275.176	86.62
275.408	80.62
275.64	96.62
275.872	81.62
276.104	74.62
276.335	71.62
276.567	87.62
276.799	101.62
277.031	91.62
277.262	90.62
277.494	83.62
277.726	90.62
277.957	85.62
278.189	81.62
278.421	67.62
278.652	78.62
278.884	88.62
279.115	84.62
279.347	85.62
279.579	69.62
279.81	87.62
280.042	82.62
280.273	72.62
280.505	75.62
280.736	72.62
280.968	72.62
281.199	82.62
281.431	75.62
281.662	94.62
281.894	91.62
282.125	83.62
282.356	90.62
282.588	115.62
282.819	92.62
283.051	85.62
283.282	73.62
283.513	69.62
283.745	84.62
283.976	88.62
284.207	75.62
284.439	72.62
284.67	95.62
284.901	83.62
285.132	84.62
285.364	81.62
285.595	87.62
285.826	81.62
286.057	83.62
286.288	80.62
286.52	88.62
286.751	92.62
286.982	78.62
287.213	90.62
287.444	83.62
287.675	80.62
287.906	93.62
288.138	86.62
288.369	78.62
288.6	96.62
288.831	95.62
289.062	77.62
289.293	83.62
289.524	70.62
289.755	85.62
289.986	64.62
290.217	71.62
290.448	86.62
290.679	79.62
290.91	84.62
291.141	90.62
291.371	79.62
291.602	93.62
291.833	92.62
292.064	81.62
292.295	85.62
292.526	73.62
292.757	75.62
292.987	77.62
293.218	78.62
293.449	77.62
293.68	76.62
293.91	89.62
294.141	92.62
294.372	77.62
294.603	107.62
294.833	86.62
295.064	81.62
295.295	87.62
295.525	80.62
295.756	94.62
295.987	109.62
296.217	105.62
296.448	99.62
296.679	76.62
296.909	71.62
297.14	81.62
297.37	78.62
297.601	90.62
297.831	89.62
298.062	89.62
298.292	91.62
298.523	78.62
298.753	87.62
298.984	79.62
299.214	97.62
299.445	93.62
299.675	85.62
299.905	81.62
300.136	97.62
300.366	87.62
300.597	77.62
300.827	79.62
301.057	93.62
301.288	96.62
301.518	91.62
301.748	85.62
301.979	96.62
302.209	90.62
302.439	80.62
302.669	78.62
302.9	97.62
303.13	94.62
303.36	86.62
303.59	75.62
303.82	89.62
304.051	80.62
304.281	78.62
304.511	100.62
304.741	88.62
304.971	92.62
305.201	104.62
305.431	92.62
305.661	96.62
305.891	81.62
306.121	84.62
306.352	107.62
306.582	94.62
306.812	93.62
307.042	72.62
307.272	90.62
307.502	80.62
307.731	85.62
307.961	86.62
308.191	99.62
308.421	102.62
308.651	83.62
308.881	93.62
309.111	89.62
309.341	95.62
309.571	108.62
309.8	87.62
310.03	74.62
310.26	69.62
310.49	85.62
310.72	87.62
310.949	97.62
311.179	101.62
311.409	97.62
311.639	88.62
311.868	88.62
312.098	81.62
312.328	100.62
312.557	100.62
312.787	103.62
313.017	96.62
313.246	91.62
313.476	104.62
313.706	77.62
313.935	98.62
314.165	86.62
314.394	103.62
314.624	96.62
314.853	87.62
315.083	96.62
315.312	97.62
315.542	100.62
315.771	103.62
316.001	87.62
316.23	85.62
316.46	87.62
316.689	80.62
316.919	88.62
317.148	90.62
317.377	86.62
317.607	80.62
317.836	89.62
318.065	86.62
318.295	85.62
318.524	87.62
318.753	88.62
318.983	85.62
319.212	81.62
319.441	97.62
319.67	83.62
319.9	85.62
320.129	94.62
320.358	93.62
320.587	77.62
320.816	97.62
321.046	95.62
321.275	97.62
321.504	88.62
321.733	85.62
321.962	92.62
322.191	95.62
322.42	91.62
322.649	103.62
322.878	100.62
323.108	97.62
323.337	121.62
323.566	119.62
323.795	132.62
324.024	183.62
324.253	341.62
324.482	741.62
324.71	1539.62
324.939	2055.62
325.168	724.62
325.397	229.62
325.626	152.62
325.855	128.62
326.084	119.62
326.313	118.62
326.542	158.62
326.77	223.62
326.999	431.62
327.228	869.62
327.457	1591.62
327.686	1273.62
327.914	333.62
328.143	199.62
328.372	138.62
328.6	102.62
328.829	112.62
329.058	119.62
329.287	129.62
329.515	94.62
329.744	97.62
329.972	85.62
330.201	95.62
330.43	108.62
330.658	107.62
330.887	131.62
331.115	116.62
331.344	105.62
331.572	103.62
331.801	90.62
332.03	99.62
332.258	77.62
332.486	89.62
332.715	79.62
332.943	82.62
333.172	81.62
333.4	90.62
333.629	100.62
333.857	96.62
334.085	109.62
334.314	76.62
334.542	71.62
334.771	87.62
334.999	81.62
335.227	93.62
335.455	92.62
335.684	87.62
335.912	101.62
336.14	88.62
336.369	86.62
336.597	107.62
336.825	79.62
337.053	89.62
337.281	83.62
337.51	85.62
337.738	88.62
337.966	81.62
338.194	79.62
338.422	98.62
338.65	78.62
338.878	88.62
339.106	88.62
339.334	87.62
339.562	79.62
339.79	81.62
340.018	86.62
340.246	72.62
340.474	100.62
340.702	91.62
340.93	87.62
341.158	92.62
341.386	88.62
341.614	97.62
341.842	79.62
342.07	90.62
342.298	84.62
342.526	81.62
342.754	78.62
342.981	74.62
343.209	78.62
343.437	88.62
343.665	80.62
343.893	95.62
344.12	91.62
344.348	88.62
344.576	83.62
344.804	84.62
345.031	96.62
345.259	100.62
345.487	81.62
345.714	88.62
345.942	75.62
346.17	91.62
346.397	85.62
346.625	91.62
346.853	93.62
347.08	78.62
347.308	90.62
347.535	90.62
347.763	94.62
347.99	97.62
348.218	88.62
348.445	84.62
348.673	87.62
348.9	101.62
349.128	87.62
349.355	75.62
349.583	87.62
349.81	99.62
350.037	84.62
350.265	80.62
350.492	92.62
350.72	84.62
350.947	97.62
351.174	103.62
351.402	108.62
351.629	94.62
351.856	104.62
352.083	95.62
352.311	97.62
352.538	94.62
352.765	105.62
352.992	102.62
353.22	99.62
353.447	104.62
353.674	87.62
353.901	89.62
354.128	100.62
354.355	110.62
354.583	100.62
354.81	87.62
355.037	94.62
355.264	83.62
355.491	83.62
355.718	71.62
355.945	108.62
356.172	82.62
356.399	91.62
356.626	82.62
356.853	87.62
357.08	85.62
357.307	88.62
357.534	96.62
357.761	87.62
357.988	92.62
358.215	93.62
358.441	80.62
358.668	97.62
358.895	89.62
359.122	81.62
359.349	95.62
359.576	94.62
359.802	99.62
360.029	100.62
360.256	110.62
360.483	94.62
360.709	80.62
360.936	87.62
361.163	97.62
361.39	87.62
361.616	107.62
361.843	81.62
362.07	93.62
362.296	97.62
362.523	89.62
362.749	91.62
362.976	97.62
363.203	89.62
363.429	92.62
363.656	83.62
363.882	87.62
364.109	92.62
364.335	84.62
364.562	88.62
364.788	85.62
365.015	89.62
365.241	94.62
365.468	99.62
365.694	93.62
365.92	100.62
366.147	73.62
366.373	78.62
366.599	90.62
366.826	82.62
367.052	100.62
367.278	96.62
367.505	96.62
367.731	95.62
367.957	97.62
368.184	96.62
368.41	100.62
368.636	102.62
368.862	118.62
369.089	100.62
369.315	83.62
369.541	72.62
369.767	79.62
369.993	69.62
370.219	84.62
370.445	89.62
370.672	84.62
370.898	86.62
371.124	88.62
371.35	89.62
371.576	72.62
371.802	76.62
372.028	95.62
372.254	95.62
372.48	92.62
372.706	88.62
372.932	87.62
373.158	101.62
373.384	89.62
373.61	90.62
373.835	84.62
374.061	90.62
374.287	91.62
374.513	85.62
374.739	89.62
374.965	87.62
375.191	88.62
375.416	78.62
375.642	85.62
375.868	91.62
376.094	76.62
376.319	79.62
376.545	82.62
376.771	94.62
376.997	86.62
377.222	93.62
377.448	89.62
377.674	92.62
377.899	83.62
378.125	88.62
378.35	79.62
378.576	80.62
378.802	74.62
379.027	86.62
379.253	79.62
379.478	74.62
379.704	103.62
379.929	89.62
380.155	83.62
380.38	96.62
380.606	94.62
380.831	88.62
381.057	99.62
381.282	85.62
381.507	82.62
381.733	104.62
381.958	99.62
382.184	88.62
382.409	96.62
382.634	99.62
382.86	92.62
383.085	103.62
383.31	100.62
383.535	100.62
383.761	79.62
383.986	93.62
384.211	96.62
384.436	77.62
384.662	87.62
384.887	88.62
385.112	104.62
385.337	105.62
385.562	101.62
385.787	102.62
386.013	111.62
386.238	114.62
386.463	104.62
386.688	101.62
386.913	96.62
387.138	101.62
387.363	103.62
387.588	101.62
387.813	95.62
388.038	94.62
388.263	102.62
388.488	112.62
388.713	110.62
388.938	94.62
389.163	93.62
389.387	91.62
389.612	78.62
389.837	88.62
390.062	86.62
390.287	84.62
390.512	86.62
390.736	92.62
390.961	86.62
391.186	92.62
391.411	89.62
391.636	95.62
391.86	91.62
392.085	94.62
392.31	89.62
392.534	91.62
392.759	77.62
392.984	80.62
393.208	82.62
393.433	99.62
393.658	94.62
393.882	84.62
394.107	88.62
394.331	77.62
394.556	76.62
394.78	88.62
395.005	93.62
395.229	89.62
395.454	80.62
395.678	88.62
395.903	83.62
396.127	96.62
396.352	91.62
396.576	86.62
396.801	79.62
397.025	96.62
397.249	86.62
397.474	85.62
397.698	76.62
397.922	79.62
398.147	78.62
398.371	89.62
398.595	83.62
398.82	88.62
399.044	88.62
399.268	76.62
399.492	74.62
399.717	94.62
399.941	88.62
400.165	85.62
400.389	94.62
400.613	76.62
400.837	91.62
401.062	88.62
401.286	80.62
401.51	75.62
401.734	102.62
401.958	92.62
402.182	111.62
402.406	140.62
402.63	108.62
402.854	88.62
403.078	92.62
403.302	84.62
403.526	83.62
403.75	84.62
403.974	87.62
404.198	99.62
404.422	90.62
404.645	87.62
404.869	96.62
405.093	83.62
405.317	96.62
405.541	92.62
405.765	90.62
405.988	111.62
406.212	157.62
406.436	184.62
406.66	136.62
406.883	95.62
407.107	90.62
407.331	110.62
407.555	92.62
407.778	96.62
408.002	99.62
408.226	74.62
408.449	82.62
408.673	81.62
408.896	88.62
409.12	88.62
409.344	103.62
409.567	86.62
409.791	79.62
410.014	96.62
410.238	99.62
410.461	80.62
410.685	88.62
410.908	85.62
411.132	103.62
411.355	97.62
411.578	90.62
411.802	88.62
412.025	81.62
412.249	84.62
412.472	82.62
412.695	84.62
412.919	91.62
413.142	92.62
413.365	80.62
413.589	75.62
413.812	69.62
414.035	101.62
414.258	104.62
414.482	84.62
414.705	94.62
414.928	93.62
415.151	93.62
415.374	87.62
415.597	92.62
415.821	79.62
416.044	87.62
416.267	95.62
416.49	84.62
416.713	75.62
416.936	72.62
417.159	79.62
417.382	75.62
417.605	75.62
417.828	86.62
418.051	87.62
418.274	81.62
418.497	87.62
418.72	77.62
418.943	86.62
419.166	86.62
419.389	72.62
419.611	84.62
419.834	92.62
420.057	87.62
420.28	95.62
420.503	70.62
420.726	83.62
420.948	83.62
421.171	93.62
421.394	86.62
421.617	85.62
421.839	95.62
422.062	86.62
422.285	88.62
422.507	88.62
422.73	95.62
422.953	91.62
423.175	87.62
423.398	84.62
423.621	90.62
423.843	87.62
424.066	78.62
424.288	90.62
424.511	90.62
424.733	88.62
424.956	102.62
425.178	101.62
425.401	92.62
425.623	89.62
425.846	92.62
426.068	86.62
426.291	76.62
426.513	73.62
426.735	79.62
426.958	91.62
427.18	94.62
427.402	128.62
427.625	172.62
427.847	129.62
428.069	91.62
428.292	83.62
428.514	94.62
428.736	84.62
428.958	86.62
429.181	80.62
429.403	83.62
429.625	86.62
429.847	93.62
430.069	92.62
430.292	85.62
430.514	92.62
430.736	84.62
430.958	80.62
431.18	77.62
431.402	79.62
431.624	87.62
431.846	88.62
432.068	87.62
432.29	68.62
432.512	89.62
432.734	76.62
432.956	98.62
433.178	93.62
433.4	99.62
433.622	103.62
433.844	90.62
434.066	92.62
434.287	98.62
434.509	93.62
434.731	92.62
434.953	88.62
435.175	79.62
435.397	91.62
435.618	85.62
435.84	103.62
436.062	123.62
436.284	107.62
436.505	85.62
436.727	96.62
436.949	80.62
437.17	73.62
437.392	80.62
437.614	95.62
437.835	89.62
438.057	114.62
438.278	105.62
438.5	103.62
438.721	124.62
438.943	100.62
439.165	85.62
439.386	92.62
439.608	82.62
439.829	111.62
440.05	125.62
440.272	148.62
440.493	80.62
440.715	80.62
440.936	97.62
441.158	86.62
441.379	88.62
441.6	106.62
441.822	95.62
442.043	92.62
442.264	90.62
442.486	91.62
442.707	86.62
442.928	115.62
443.149	117.62
443.371	126.62
443.592	86.62
443.813	115.62
444.034	101.62
444.255	89.62
444.476	94.62
444.698	87.62
444.919	79.62
445.14	134.62
445.361	120.62
445.582	107.62
445.803	136.62
446.024	135.62
446.245	127.62
446.466	116.62
446.687	86.62
446.908	91.62
447.129	97.62
447.35	78.62
447.571	87.62
447.792	97.62
448.013	109.62
448.234	105.62
448.455	88.62
448.675	131.62
448.896	101.62
449.117	97.62
449.338	108.62
449.559	117.62
449.779	114.62
450	98.62
450.221	72.62
450.442	88.62
450.662	85.62
450.883	90.62
451.104	90.62
451.324	84.62
451.545	95.62
451.766	80.62
451.986	96.62
452.207	91.62
452.428	95.62
452.648	81.62
452.869	117.62
453.089	112.62
453.31	97.62
453.53	89.62
453.751	94.62
453.971	96.62
454.192	93.62
454.412	80.62
454.633	82.62
454.853	86.62
455.073	90.62
455.294	83.62
455.514	102.62
455.734	81.62
455.955	86.62
456.175	74.62
456.395	93.62
456.616	81.62
456.836	92.62
457.056	89.62
457.276	100.62
457.497	91.62
457.717	91.62
457.937	78.62
458.157	74.62
458.377	95.62
458.598	100.62
458.818	116.62
459.038	153.62
459.258	103.62
459.478	98.62
459.698	83.62
459.918	80.62
460.138	74.62
460.358	93.62
460.578	89.62
460.798	97.62
461.018	94.62
461.238	84.62
461.458	83.62
461.678	87.62
461.898	92.62
462.118	86.62
462.338	72.62
462.558	87.62
462.777	74.62
462.997	83.62
463.217	75.62
463.437	88.62
463.657	92.62
463.876	89.62
464.096	83.62
464.316	84.62
464.536	101.62
464.755	97.62
464.975	92.62
465.195	143.62
465.414	142.62
465.634	89.62
465.854	78.62
466.073	86.62
466.293	87.62
466.512	72.62
466.732	91.62
466.951	89.62
467.171	84.62
467.391	76.62
467.61	94.62
467.829	99.62
468.049	91.62
468.268	99.62
468.488	96.62
468.707	76.62
468.927	90.62
469.146	84.62
469.365	79.62
469.585	75.62
469.804	95.62
470.023	97.62
470.243	75.62
470.462	95.62
470.681	104.62
470.901	105.62
471.12	71.62
471.339	83.62
471.558	92.62
471.777	72.62
471.997	92.62
472.216	95.62
472.435	95.62
472.654	99.62
472.873	89.62
473.092	90.62
473.311	79.62
473.53	73.62
473.749	73.62
473.968	90.62
474.187	105.62
474.406	96.62
474.625	85.62
474.844	97.62
475.063	85.62
475.282	76.62
475.501	81.62
475.72	74.62
475.939	82.62
476.158	78.62
476.377	83.62
476.596	92.62
476.814	77.62
477.033	83.62
477.252	92.62
477.471	94.62
477.69	85.62
477.908	92.62
478.127	89.62
478.346	82.62
478.564	92.62
478.783	93.62
479.002	89.62
479.22	101.62
479.439	87.62
479.658	88.62
479.876	76.62
480.095	86.62
480.313	105.62
480.532	90.62
480.751	92.62
480.969	75.62
481.188	86.62
481.406	83.62
481.624	91.62
481.843	85.62
482.061	87.62
482.28	79.62
482.498	88.62
482.717	79.62
482.935	86.62
483.153	91.62
483.372	69.62
483.59	88.62
483.808	84.62
484.027	89.62
484.245	80.62
484.463	84.62
484.681	101.62
484.9	100.62
485.118	92.62
485.336	101.62
485.554	95.62
485.772	88.62
485.99	92.62
486.209	120.62
486.427	102.62
486.645	102.62
486.863	94.62
487.081	107.62
487.299	99.62
487.517	95.62
487.735	81.62
487.953	91.62
488.171	80.62
488.389	92.62
488.607	94.62
488.825	74.62
489.043	82.62
489.261	86.62
489.479	81.62
489.696	88.62
489.914	83.62
490.132	80.62
490.35	75.62
490.568	91.62
490.786	72.62
491.003	111.62
491.221	99.62
491.439	78.62
491.657	94.62
491.874	92.62
492.092	84.62
492.31	93.62
492.527	92.62
492.745	97.62
492.963	97.62
493.18	87.62
493.398	84.62
493.615	92.62
493.833	95.62
494.05	92.62
494.268	88.62
494.485	91.62
494.703	86.62
494.92	89.62
495.138	79.62
495.355	101.62
495.573	89.62
495.79	87.62
496.008	93.62
496.225	73.62
496.442	87.62
496.66	81.62
496.877	93.62
497.094	100.62
497.312	87.62
497.529	101.62
497.746	96.62
497.963	95.62
498.181	88.62
498.398	101.62
498.615	103.62
498.832	90.62
499.049	79.62
499.267	105.62
499.484	90.62
499.701	92.62
499.918	90.62
500.135	95.62
500.352	89.62
500.569	75.62
500.786	101.62
501.003	90.62
501.22	79.62
501.437	92.62
501.654	94.62
501.871	96.62
502.088	84.62
502.305	89.62
502.522	91.62
502.739	90.62
502.956	90.62
503.172	93.62
503.389	86.62
503.606	94.62
503.823	97.62
504.04	89.62
504.256	85.62
504.473	89.62
504.69	103.62
504.907	87.62
505.123	88.62
505.34	84.62
505.557	85.62
505.773	86.62
505.99	101.62
506.207	94.62
506.423	78.62
506.64	77.62
506.856	94.62
507.073	91.62
507.289	94.62
507.506	85.62
507.722	108.62
507.939	101.62
508.155	89.62
508.372	83.62
508.588	88.62
508.805	97.62
509.021	87.62
509.238	93.62
509.454	96.62
509.67	88.62
509.887	101.62
510.103	119.62
510.319	161.62
510.536	659.62
510.752	1975.62
510.968	557.62
511.184	138.62
511.401	95.62
511.617	95.62
511.833	107.62
512.049	83.62
512.265	95.62
512.481	81.62
512.698	90.62
512.914	89.62
513.13	81.62
513.346	80.62
513.562	87.62
513.778	87.62
513.994	92.62
514.21	88.62
514.426	100.62
514.642	129.62
514.858	111.62
515.074	157.62
515.29	399.62
515.506	1210.62
515.721	454.62
515.937	136.62
516.153	101.62
516.369	106.62
516.585	98.62
516.801	102.62
517.016	96.62
