Data from Uncirc_1996_H10_HRD10591_00098.txt Node
Date: Wed Jan 03 11:32:22 EST 2024
User: Yrep
Spectrometer: HR+D1059
Trigger mode: 1
Integration Time (sec): 1.000000E-1
Scans to average: 1
Electric dark correction enabled: true
Nonlinearity correction enabled: false
Boxcar width: 0
XAxis mode: Wavelengths
Number of Pixels in Spectrum: 2048
>>>>>Begin Spectral Data<<<<<
223.165	-17.81
223.4	-17.81
223.635	-17.81
223.869	-10.81
224.104	-10.81
224.338	-11.81
224.573	-14.81
224.808	-1.81
225.042	-3.81
225.277	-3.81
225.511	-10.81
225.746	-11.81
225.98	9.19
226.215	16.19
226.449	20.19
226.683	9.19
226.918	17.19
227.152	26.19
227.387	22.19
227.621	33.19
227.856	26.19
228.09	51.19
228.324	58.19
228.559	49.19
228.793	52.19
229.027	65.19
229.262	65.19
229.496	72.19
229.73	84.19
229.964	78.19
230.199	75.19
230.433	72.19
230.667	74.19
230.901	81.19
231.136	74.19
231.37	73.19
231.604	78.19
231.838	81.19
232.072	78.19
232.306	75.19
232.541	78.19
232.775	77.19
233.009	79.19
233.243	78.19
233.477	57.19
233.711	80.19
233.945	71.19
234.179	81.19
234.413	79.19
234.647	84.19
234.881	101.19
235.115	73.19
235.349	62.19
235.583	70.19
235.817	73.19
236.051	81.19
236.285	83.19
236.519	80.19
236.753	77.19
236.987	87.19
237.221	94.19
237.455	78.19
237.689	81.19
237.922	81.19
238.156	72.19
238.39	67.19
238.624	65.19
238.858	84.19
239.091	78.19
239.325	71.19
239.559	72.19
239.793	76.19
240.027	97.19
240.26	65.19
240.494	76.19
240.728	65.19
240.961	70.19
241.195	76.19
241.429	82.19
241.662	84.19
241.896	72.19
242.13	84.19
242.363	70.19
242.597	76.19
242.83	83.19
243.064	79.19
243.298	76.19
243.531	79.19
243.765	88.19
243.998	78.19
244.232	74.19
244.465	72.19
244.699	84.19
244.932	78.19
245.166	84.19
245.399	88.19
245.633	91.19
245.866	70.19
246.099	81.19
246.333	73.19
246.566	76.19
246.8	90.19
247.033	84.19
247.266	66.19
247.5	73.19
247.733	68.19
247.966	86.19
248.2	71.19
248.433	84.19
248.666	73.19
248.899	82.19
249.133	103.19
249.366	114.19
249.599	94.19
249.832	81.19
250.066	90.19
250.299	74.19
250.532	72.19
250.765	76.19
250.998	76.19
251.231	85.19
251.465	90.19
251.698	81.19
251.931	77.19
252.164	80.19
252.397	76.19
252.63	84.19
252.863	80.19
253.096	63.19
253.329	77.19
253.562	63.19
253.795	81.19
254.028	86.19
254.261	81.19
254.494	53.19
254.727	78.19
254.96	81.19
255.193	80.19
255.426	89.19
255.659	88.19
255.892	86.19
256.124	68.19
256.357	84.19
256.59	81.19
256.823	83.19
257.056	84.19
257.289	75.19
257.521	86.19
257.754	78.19
257.987	83.19
258.22	72.19
258.452	91.19
258.685	73.19
258.918	100.19
259.151	80.19
259.383	81.19
259.616	81.19
259.849	84.19
260.081	88.19
260.314	88.19
260.547	76.19
260.779	81.19
261.012	61.19
261.244	97.19
261.477	81.19
261.71	85.19
261.942	94.19
262.175	102.19
262.407	76.19
262.64	85.19
262.872	78.19
263.105	91.19
263.337	88.19
263.57	85.19
263.802	72.19
264.035	88.19
264.267	81.19
264.499	76.19
264.732	90.19
264.964	100.19
265.197	86.19
265.429	76.19
265.661	90.19
265.894	92.19
266.126	80.19
266.358	90.19
266.591	87.19
266.823	84.19
267.055	79.19
267.287	78.19
267.52	89.19
267.752	77.19
267.984	77.19
268.216	94.19
268.448	83.19
268.681	75.19
268.913	94.19
269.145	97.19
269.377	88.19
269.609	97.19
269.841	76.19
270.073	66.19
270.306	79.19
270.538	97.19
270.77	87.19
271.002	83.19
271.234	71.19
271.466	89.19
271.698	89.19
271.93	87.19
272.162	78.19
272.394	81.19
272.626	94.19
272.858	79.19
273.09	91.19
273.322	79.19
273.553	93.19
273.785	84.19
274.017	82.19
274.249	74.19
274.481	85.19
274.713	93.19
274.945	90.19
275.176	72.19
275.408	92.19
275.64	85.19
275.872	95.19
276.104	99.19
276.335	75.19
276.567	97.19
276.799	105.19
277.031	92.19
277.262	85.19
277.494	89.19
277.726	100.19
277.957	74.19
278.189	74.19
278.421	65.19
278.652	98.19
278.884	76.19
279.115	95.19
279.347	78.19
279.579	86.19
279.81	92.19
280.042	88.19
280.273	83.19
280.505	77.19
280.736	80.19
280.968	76.19
281.199	97.19
281.431	76.19
281.662	73.19
281.894	82.19
282.125	105.19
282.356	109.19
282.588	125.19
282.819	111.19
283.051	73.19
283.282	80.19
283.513	80.19
283.745	91.19
283.976	90.19
284.207	97.19
284.439	74.19
284.67	98.19
284.901	88.19
285.132	88.19
285.364	98.19
285.595	106.19
285.826	83.19
286.057	80.19
286.288	93.19
286.52	64.19
286.751	76.19
286.982	93.19
287.213	79.19
287.444	95.19
287.675	91.19
287.906	90.19
288.138	80.19
288.369	97.19
288.6	81.19
288.831	73.19
289.062	83.19
289.293	82.19
289.524	85.19
289.755	93.19
289.986	90.19
290.217	86.19
290.448	85.19
290.679	86.19
290.91	84.19
291.141	72.19
291.371	80.19
291.602	94.19
291.833	72.19
292.064	80.19
292.295	77.19
292.526	90.19
292.757	74.19
292.987	90.19
293.218	95.19
293.449	84.19
293.68	96.19
293.91	95.19
294.141	95.19
294.372	92.19
294.603	89.19
294.833	72.19
295.064	93.19
295.295	85.19
295.525	90.19
295.756	103.19
295.987	109.19
296.217	118.19
296.448	125.19
296.679	109.19
296.909	99.19
297.14	87.19
297.37	87.19
297.601	65.19
297.831	82.19
298.062	91.19
298.292	74.19
298.523	79.19
298.753	78.19
298.984	75.19
299.214	97.19
299.445	97.19
299.675	89.19
299.905	96.19
300.136	102.19
300.366	83.19
300.597	76.19
300.827	96.19
301.057	90.19
301.288	90.19
301.518	86.19
301.748	85.19
301.979	101.19
302.209	94.19
302.439	100.19
302.669	87.19
302.9	87.19
303.13	89.19
303.36	100.19
303.59	88.19
303.82	105.19
304.051	83.19
304.281	86.19
304.511	91.19
304.741	82.19
304.971	92.19
305.201	78.19
305.431	90.19
305.661	107.19
305.891	80.19
306.121	82.19
306.352	91.19
306.582	97.19
306.812	82.19
307.042	85.19
307.272	82.19
307.502	102.19
307.731	82.19
307.961	93.19
308.191	96.19
308.421	94.19
308.651	102.19
308.881	96.19
309.111	87.19
309.341	84.19
309.571	89.19
309.8	94.19
310.03	100.19
310.26	87.19
310.49	99.19
310.72	92.19
310.949	85.19
311.179	95.19
311.409	89.19
311.639	107.19
311.868	89.19
312.098	89.19
312.328	106.19
312.557	98.19
312.787	84.19
313.017	103.19
313.246	90.19
313.476	87.19
313.706	100.19
313.935	97.19
314.165	91.19
314.394	85.19
314.624	102.19
314.853	80.19
315.083	93.19
315.312	94.19
315.542	81.19
315.771	95.19
316.001	90.19
316.23	89.19
316.46	85.19
316.689	76.19
316.919	78.19
317.148	92.19
317.377	92.19
317.607	89.19
317.836	88.19
318.065	83.19
318.295	99.19
318.524	87.19
318.753	93.19
318.983	88.19
319.212	108.19
319.441	104.19
319.67	115.19
319.9	88.19
320.129	87.19
320.358	95.19
320.587	89.19
320.816	92.19
321.046	107.19
321.275	116.19
321.504	97.19
321.733	98.19
321.962	97.19
322.191	118.19
322.42	89.19
322.649	114.19
322.878	114.19
323.108	115.19
323.337	126.19
323.566	142.19
323.795	152.19
324.024	201.19
324.253	368.19
324.482	821.19
324.71	1709.19
324.939	2199.19
325.168	806.19
325.397	254.19
325.626	137.19
325.855	137.19
326.084	132.19
326.313	147.19
326.542	132.19
326.77	232.19
326.999	458.19
327.228	954.19
327.457	1730.19
327.686	1362.19
327.914	369.19
328.143	193.19
328.372	147.19
328.6	120.19
328.829	115.19
329.058	120.19
329.287	136.19
329.515	95.19
329.744	79.19
329.972	92.19
330.201	117.19
330.43	109.19
330.658	103.19
330.887	135.19
331.115	112.19
331.344	89.19
331.572	93.19
331.801	86.19
332.03	93.19
332.258	94.19
332.486	93.19
332.715	99.19
332.943	89.19
333.172	99.19
333.4	85.19
333.629	94.19
333.857	118.19
334.085	112.19
334.314	88.19
334.542	95.19
334.771	86.19
334.999	94.19
335.227	98.19
335.455	94.19
335.684	87.19
335.912	91.19
336.14	107.19
336.369	86.19
336.597	93.19
336.825	96.19
337.053	79.19
337.281	92.19
337.51	93.19
337.738	93.19
337.966	87.19
338.194	80.19
338.422	93.19
338.65	86.19
338.878	99.19
339.106	98.19
339.334	87.19
339.562	95.19
339.79	91.19
340.018	93.19
340.246	87.19
340.474	91.19
340.702	93.19
340.93	97.19
341.158	95.19
341.386	102.19
341.614	95.19
341.842	108.19
342.07	96.19
342.298	91.19
342.526	87.19
342.754	90.19
342.981	85.19
343.209	80.19
343.437	92.19
343.665	82.19
343.893	95.19
344.12	88.19
344.348	88.19
344.576	98.19
344.804	102.19
345.031	87.19
345.259	104.19
345.487	103.19
345.714	89.19
345.942	96.19
346.17	91.19
346.397	95.19
346.625	93.19
346.853	98.19
347.08	64.19
347.308	90.19
347.535	111.19
347.763	96.19
347.99	103.19
348.218	93.19
348.445	116.19
348.673	103.19
348.9	79.19
349.128	98.19
349.355	96.19
349.583	93.19
349.81	90.19
350.037	94.19
350.265	92.19
350.492	98.19
350.72	102.19
350.947	111.19
351.174	108.19
351.402	110.19
351.629	91.19
351.856	91.19
352.083	103.19
352.311	97.19
352.538	118.19
352.765	116.19
352.992	107.19
353.22	119.19
353.447	104.19
353.674	99.19
353.901	93.19
354.128	97.19
354.355	102.19
354.583	113.19
354.81	93.19
355.037	88.19
355.264	89.19
355.491	97.19
355.718	93.19
355.945	105.19
356.172	85.19
356.399	98.19
356.626	94.19
356.853	90.19
357.08	77.19
357.307	89.19
357.534	95.19
357.761	98.19
357.988	91.19
358.215	96.19
358.441	82.19
358.668	97.19
358.895	82.19
359.122	80.19
359.349	83.19
359.576	88.19
359.802	97.19
360.029	118.19
360.256	104.19
360.483	103.19
360.709	104.19
360.936	97.19
361.163	87.19
361.39	90.19
361.616	80.19
361.843	86.19
362.07	77.19
362.296	88.19
362.523	76.19
362.749	93.19
362.976	89.19
363.203	80.19
363.429	96.19
363.656	85.19
363.882	84.19
364.109	95.19
364.335	97.19
364.562	88.19
364.788	102.19
365.015	98.19
365.241	77.19
365.468	102.19
365.694	101.19
365.92	91.19
366.147	84.19
366.373	90.19
366.599	84.19
366.826	84.19
367.052	98.19
367.278	88.19
367.505	84.19
367.731	91.19
367.957	80.19
368.184	74.19
368.41	88.19
368.636	112.19
368.862	116.19
369.089	95.19
369.315	93.19
369.541	103.19
369.767	80.19
369.993	96.19
370.219	84.19
370.445	89.19
370.672	87.19
370.898	92.19
371.124	82.19
371.35	72.19
371.576	99.19
371.802	93.19
372.028	75.19
372.254	90.19
372.48	74.19
372.706	80.19
372.932	88.19
373.158	85.19
373.384	86.19
373.61	91.19
373.835	84.19
374.061	80.19
374.287	91.19
374.513	89.19
374.739	80.19
374.965	83.19
375.191	79.19
375.416	88.19
375.642	90.19
375.868	95.19
376.094	97.19
376.319	80.19
376.545	79.19
376.771	83.19
376.997	86.19
377.222	90.19
377.448	92.19
377.674	89.19
377.899	107.19
378.125	82.19
378.35	93.19
378.576	85.19
378.802	96.19
379.027	92.19
379.253	103.19
379.478	100.19
379.704	80.19
379.929	84.19
380.155	80.19
380.38	85.19
380.606	96.19
380.831	89.19
381.057	84.19
381.282	101.19
381.507	89.19
381.733	110.19
381.958	100.19
382.184	103.19
382.409	88.19
382.634	80.19
382.86	95.19
383.085	93.19
383.31	102.19
383.535	100.19
383.761	106.19
383.986	93.19
384.211	92.19
384.436	104.19
384.662	98.19
384.887	95.19
385.112	93.19
385.337	100.19
385.562	91.19
385.787	90.19
386.013	94.19
386.238	113.19
386.463	103.19
386.688	94.19
386.913	95.19
387.138	92.19
387.363	92.19
387.588	93.19
387.813	95.19
388.038	91.19
388.263	123.19
388.488	102.19
388.713	100.19
388.938	70.19
389.163	104.19
389.387	89.19
389.612	91.19
389.837	89.19
390.062	101.19
390.287	93.19
390.512	100.19
390.736	99.19
390.961	82.19
391.186	88.19
391.411	83.19
391.636	89.19
391.86	78.19
392.085	91.19
392.31	86.19
392.534	80.19
392.759	85.19
392.984	89.19
393.208	88.19
393.433	87.19
393.658	84.19
393.882	82.19
394.107	76.19
394.331	90.19
394.556	78.19
394.78	81.19
395.005	90.19
395.229	92.19
395.454	96.19
395.678	98.19
395.903	73.19
396.127	76.19
396.352	84.19
396.576	82.19
396.801	74.19
397.025	87.19
397.249	86.19
397.474	79.19
397.698	88.19
397.922	89.19
398.147	78.19
398.371	88.19
398.595	81.19
398.82	79.19
399.044	92.19
399.268	94.19
399.492	83.19
399.717	85.19
399.941	88.19
400.165	78.19
400.389	77.19
400.613	94.19
400.837	94.19
401.062	87.19
401.286	90.19
401.51	85.19
401.734	96.19
401.958	103.19
402.182	125.19
402.406	146.19
402.63	106.19
402.854	95.19
403.078	81.19
403.302	85.19
403.526	84.19
403.75	91.19
403.974	77.19
404.198	86.19
404.422	78.19
404.645	85.19
404.869	87.19
405.093	97.19
405.317	85.19
405.541	82.19
405.765	81.19
405.988	127.19
406.212	170.19
406.436	218.19
406.66	139.19
406.883	99.19
407.107	84.19
407.331	81.19
407.555	97.19
407.778	97.19
408.002	87.19
408.226	90.19
408.449	79.19
408.673	90.19
408.896	102.19
409.12	101.19
409.344	82.19
409.567	86.19
409.791	93.19
410.014	89.19
410.238	87.19
410.461	106.19
410.685	92.19
410.908	86.19
411.132	105.19
411.355	101.19
411.578	91.19
411.802	89.19
412.025	98.19
412.249	94.19
412.472	83.19
412.695	85.19
412.919	81.19
413.142	80.19
413.365	78.19
413.589	78.19
413.812	92.19
414.035	91.19
414.258	80.19
414.482	98.19
414.705	88.19
414.928	78.19
415.151	80.19
415.374	77.19
415.597	93.19
415.821	80.19
416.044	92.19
416.267	95.19
416.49	88.19
416.713	97.19
416.936	82.19
417.159	87.19
417.382	93.19
417.605	84.19
417.828	95.19
418.051	85.19
418.274	97.19
418.497	87.19
418.72	92.19
418.943	80.19
419.166	80.19
419.389	90.19
419.611	95.19
419.834	70.19
420.057	95.19
420.28	89.19
420.503	77.19
420.726	86.19
420.948	82.19
421.171	93.19
421.394	90.19
421.617	89.19
421.839	78.19
422.062	68.19
422.285	77.19
422.507	102.19
422.73	103.19
422.953	97.19
423.175	87.19
423.398	85.19
423.621	90.19
423.843	78.19
424.066	85.19
424.288	83.19
424.511	92.19
424.733	92.19
424.956	101.19
425.178	102.19
425.401	95.19
425.623	100.19
425.846	80.19
426.068	72.19
426.291	94.19
426.513	92.19
426.735	88.19
426.958	94.19
427.18	104.19
427.402	118.19
427.625	162.19
427.847	110.19
428.069	94.19
428.292	90.19
428.514	81.19
428.736	81.19
428.958	82.19
429.181	78.19
429.403	84.19
429.625	70.19
429.847	94.19
430.069	88.19
430.292	96.19
430.514	97.19
430.736	95.19
430.958	84.19
431.18	69.19
431.402	73.19
431.624	84.19
431.846	85.19
432.068	92.19
432.29	66.19
432.512	98.19
432.734	89.19
432.956	89.19
433.178	88.19
433.4	82.19
433.622	98.19
433.844	73.19
434.066	87.19
434.287	96.19
434.509	95.19
434.731	90.19
434.953	85.19
435.175	74.19
435.397	81.19
435.618	84.19
435.84	93.19
436.062	114.19
436.284	112.19
436.505	109.19
436.727	105.19
436.949	96.19
437.17	92.19
437.392	80.19
437.614	90.19
437.835	96.19
438.057	114.19
438.278	113.19
438.5	97.19
438.721	116.19
438.943	108.19
439.165	90.19
439.386	92.19
439.608	100.19
439.829	95.19
440.05	123.19
440.272	155.19
440.493	109.19
440.715	88.19
440.936	83.19
441.158	91.19
441.379	89.19
441.6	82.19
441.822	97.19
442.043	96.19
442.264	112.19
442.486	116.19
442.707	96.19
442.928	105.19
443.149	123.19
443.371	126.19
443.592	102.19
443.813	119.19
444.034	110.19
444.255	87.19
444.476	89.19
444.698	81.19
444.919	92.19
445.14	138.19
445.361	108.19
445.582	99.19
445.803	128.19
446.024	136.19
446.245	127.19
446.466	112.19
446.687	88.19
446.908	91.19
447.129	77.19
447.35	86.19
447.571	87.19
447.792	98.19
448.013	90.19
448.234	110.19
448.455	103.19
448.675	108.19
448.896	129.19
449.117	100.19
449.338	93.19
449.559	129.19
449.779	141.19
450	92.19
450.221	91.19
450.442	100.19
450.662	92.19
450.883	110.19
451.104	104.19
451.324	85.19
451.545	101.19
451.766	103.19
451.986	92.19
452.207	105.19
452.428	92.19
452.648	86.19
452.869	106.19
453.089	120.19
453.31	118.19
453.53	93.19
453.751	88.19
453.971	109.19
454.192	98.19
454.412	94.19
454.633	100.19
454.853	81.19
455.073	85.19
455.294	93.19
455.514	105.19
455.734	95.19
455.955	89.19
456.175	81.19
456.395	76.19
456.616	89.19
456.836	95.19
457.056	95.19
457.276	86.19
457.497	89.19
457.717	87.19
457.937	94.19
458.157	101.19
458.377	71.19
458.598	90.19
458.818	146.19
459.038	134.19
459.258	118.19
459.478	95.19
459.698	78.19
459.918	83.19
460.138	70.19
460.358	81.19
460.578	103.19
460.798	98.19
461.018	83.19
461.238	78.19
461.458	84.19
461.678	86.19
461.898	97.19
462.118	104.19
462.338	89.19
462.558	95.19
462.777	81.19
462.997	90.19
463.217	91.19
463.437	78.19
463.657	75.19
463.876	81.19
464.096	85.19
464.316	82.19
464.536	87.19
464.755	88.19
464.975	103.19
465.195	137.19
465.414	163.19
465.634	92.19
465.854	84.19
466.073	90.19
466.293	86.19
466.512	90.19
466.732	86.19
466.951	80.19
467.171	79.19
467.391	89.19
467.61	101.19
467.829	84.19
468.049	92.19
468.268	86.19
468.488	71.19
468.707	81.19
468.927	96.19
469.146	76.19
469.365	91.19
469.585	92.19
469.804	84.19
470.023	93.19
470.243	97.19
470.462	103.19
470.681	119.19
470.901	95.19
471.12	70.19
471.339	80.19
471.558	98.19
471.777	89.19
471.997	84.19
472.216	84.19
472.435	104.19
472.654	96.19
472.873	85.19
473.092	72.19
473.311	85.19
473.53	85.19
473.749	76.19
473.968	90.19
474.187	117.19
474.406	103.19
474.625	91.19
474.844	96.19
475.063	81.19
475.282	75.19
475.501	87.19
475.72	86.19
475.939	86.19
476.158	77.19
476.377	78.19
476.596	85.19
476.814	82.19
477.033	82.19
477.252	102.19
477.471	82.19
477.69	101.19
477.908	93.19
478.127	80.19
478.346	72.19
478.564	98.19
478.783	100.19
479.002	96.19
479.22	96.19
479.439	104.19
479.658	112.19
479.876	87.19
480.095	82.19
480.313	78.19
480.532	91.19
480.751	92.19
480.969	80.19
481.188	97.19
481.406	77.19
481.624	80.19
481.843	86.19
482.061	94.19
482.28	84.19
482.498	89.19
482.717	100.19
482.935	88.19
483.153	94.19
483.372	96.19
483.59	85.19
483.808	87.19
484.027	88.19
484.245	85.19
484.463	104.19
484.681	97.19
484.9	84.19
485.118	90.19
485.336	89.19
485.554	101.19
485.772	111.19
485.99	93.19
486.209	100.19
486.427	92.19
486.645	106.19
486.863	110.19
487.081	96.19
487.299	104.19
487.517	100.19
487.735	100.19
487.953	102.19
488.171	90.19
488.389	97.19
488.607	93.19
488.825	93.19
489.043	81.19
489.261	85.19
489.479	87.19
489.696	77.19
489.914	89.19
490.132	95.19
490.35	84.19
490.568	74.19
490.786	78.19
491.003	73.19
491.221	89.19
491.439	90.19
491.657	81.19
491.874	80.19
492.092	74.19
492.31	86.19
492.527	85.19
492.745	78.19
492.963	71.19
493.18	80.19
493.398	113.19
493.615	88.19
493.833	86.19
494.05	91.19
494.268	74.19
494.485	104.19
494.703	91.19
494.92	85.19
495.138	93.19
495.355	93.19
495.573	75.19
495.79	90.19
496.008	104.19
496.225	90.19
496.442	76.19
496.66	103.19
496.877	81.19
497.094	93.19
497.312	84.19
497.529	97.19
497.746	85.19
497.963	99.19
498.181	97.19
498.398	97.19
498.615	95.19
498.832	98.19
499.049	98.19
499.267	96.19
499.484	95.19
499.701	85.19
499.918	97.19
500.135	82.19
500.352	81.19
500.569	84.19
500.786	84.19
501.003	87.19
501.22	87.19
501.437	82.19
501.654	95.19
501.871	104.19
502.088	91.19
502.305	93.19
502.522	92.19
502.739	88.19
502.956	89.19
503.172	89.19
503.389	87.19
503.606	102.19
503.823	82.19
504.04	89.19
504.256	93.19
504.473	99.19
504.69	80.19
504.907	84.19
505.123	84.19
505.34	86.19
505.557	87.19
505.773	88.19
505.99	77.19
506.207	90.19
506.423	80.19
506.64	83.19
506.856	90.19
507.073	88.19
507.289	90.19
507.506	93.19
507.722	118.19
507.939	108.19
508.155	93.19
508.372	84.19
508.588	107.19
508.805	96.19
509.021	93.19
509.238	109.19
509.454	93.19
509.67	96.19
509.887	97.19
510.103	124.19
510.319	222.19
510.536	705.19
510.752	2153.19
510.968	619.19
511.184	149.19
511.401	111.19
511.617	101.19
511.833	82.19
512.049	92.19
512.265	94.19
512.481	96.19
512.698	87.19
512.914	84.19
513.13	96.19
513.346	91.19
513.562	96.19
513.778	82.19
513.994	98.19
514.21	92.19
514.426	121.19
514.642	133.19
514.858	130.19
515.074	158.19
515.29	420.19
515.506	1316.19
515.721	500.19
515.937	151.19
516.153	113.19
516.369	107.19
