Data from Uncirc_1996_H10_HRD10591_00020.txt Node
Date: Wed Jan 03 11:32:06 EST 2024
User: Yrep
Spectrometer: HR+D1059
Trigger mode: 1
Integration Time (sec): 1.000000E-1
Scans to average: 1
Electric dark correction enabled: true
Nonlinearity correction enabled: false
Boxcar width: 0
XAxis mode: Wavelengths
Number of Pixels in Spectrum: 2048
>>>>>Begin Spectral Data<<<<<
223.165	-18.25
223.4	-18.25
223.635	-18.25
223.869	-17.25
224.104	-23.25
224.338	-21.25
224.573	-19.25
224.808	-1.25
225.042	-1.25
225.277	-3.25
225.511	0.75
225.746	7.75
225.98	1.75
226.215	8.75
226.449	14.75
226.683	17.75
226.918	25.75
227.152	27.75
227.387	25.75
227.621	22.75
227.856	49.75
228.09	54.75
228.324	43.75
228.559	51.75
228.793	62.75
229.027	70.75
229.262	71.75
229.496	72.75
229.73	78.75
229.964	78.75
230.199	73.75
230.433	86.75
230.667	80.75
230.901	72.75
231.136	78.75
231.37	80.75
231.604	84.75
231.838	75.75
232.072	80.75
232.306	91.75
232.541	83.75
232.775	92.75
233.009	95.75
233.243	74.75
233.477	77.75
233.711	64.75
233.945	80.75
234.179	77.75
234.413	84.75
234.647	80.75
234.881	84.75
235.115	91.75
235.349	81.75
235.583	88.75
235.817	89.75
236.051	82.75
236.285	83.75
236.519	70.75
236.753	81.75
236.987	67.75
237.221	107.75
237.455	101.75
237.689	73.75
237.922	66.75
238.156	72.75
238.39	92.75
238.624	79.75
238.858	76.75
239.091	80.75
239.325	86.75
239.559	84.75
239.793	75.75
240.027	82.75
240.26	82.75
240.494	86.75
240.728	89.75
240.961	77.75
241.195	91.75
241.429	73.75
241.662	71.75
241.896	70.75
242.13	69.75
242.363	78.75
242.597	88.75
242.83	81.75
243.064	76.75
243.298	78.75
243.531	74.75
243.765	62.75
243.998	72.75
244.232	86.75
244.465	97.75
244.699	72.75
244.932	78.75
245.166	88.75
245.399	77.75
245.633	77.75
245.866	79.75
246.099	76.75
246.333	71.75
246.566	83.75
246.8	76.75
247.033	80.75
247.266	65.75
247.5	62.75
247.733	87.75
247.966	84.75
248.2	76.75
248.433	84.75
248.666	78.75
248.899	86.75
249.133	90.75
249.366	95.75
249.599	94.75
249.832	85.75
250.066	73.75
250.299	64.75
250.532	80.75
250.765	83.75
250.998	74.75
251.231	84.75
251.465	88.75
251.698	81.75
251.931	66.75
252.164	73.75
252.397	89.75
252.63	78.75
252.863	90.75
253.096	82.75
253.329	90.75
253.562	89.75
253.795	84.75
254.028	74.75
254.261	80.75
254.494	66.75
254.727	79.75
254.96	75.75
255.193	84.75
255.426	93.75
255.659	93.75
255.892	73.75
256.124	85.75
256.357	78.75
256.59	79.75
256.823	76.75
257.056	92.75
257.289	88.75
257.521	71.75
257.754	85.75
257.987	79.75
258.22	86.75
258.452	92.75
258.685	78.75
258.918	67.75
259.151	68.75
259.383	79.75
259.616	65.75
259.849	86.75
260.081	88.75
260.314	79.75
260.547	82.75
260.779	80.75
261.012	67.75
261.244	74.75
261.477	84.75
261.71	99.75
261.942	110.75
262.175	114.75
262.407	88.75
262.64	75.75
262.872	78.75
263.105	84.75
263.337	86.75
263.57	83.75
263.802	90.75
264.035	80.75
264.267	83.75
264.499	80.75
264.732	60.75
264.964	90.75
265.197	88.75
265.429	85.75
265.661	84.75
265.894	88.75
266.126	79.75
266.358	84.75
266.591	80.75
266.823	76.75
267.055	88.75
267.287	77.75
267.52	74.75
267.752	100.75
267.984	84.75
268.216	82.75
268.448	87.75
268.681	88.75
268.913	86.75
269.145	80.75
269.377	74.75
269.609	82.75
269.841	85.75
270.073	96.75
270.306	96.75
270.538	97.75
270.77	78.75
271.002	78.75
271.234	82.75
271.466	93.75
271.698	80.75
271.93	96.75
272.162	88.75
272.394	81.75
272.626	92.75
272.858	90.75
273.09	79.75
273.322	95.75
273.553	85.75
273.785	84.75
274.017	88.75
274.249	105.75
274.481	90.75
274.713	92.75
274.945	103.75
275.176	94.75
275.408	83.75
275.64	76.75
275.872	90.75
276.104	84.75
276.335	95.75
276.567	100.75
276.799	99.75
277.031	105.75
277.262	98.75
277.494	90.75
277.726	81.75
277.957	86.75
278.189	92.75
278.421	92.75
278.652	83.75
278.884	84.75
279.115	91.75
279.347	79.75
279.579	82.75
279.81	84.75
280.042	91.75
280.273	84.75
280.505	88.75
280.736	74.75
280.968	90.75
281.199	84.75
281.431	86.75
281.662	65.75
281.894	101.75
282.125	98.75
282.356	107.75
282.588	119.75
282.819	117.75
283.051	88.75
283.282	82.75
283.513	96.75
283.745	88.75
283.976	109.75
284.207	87.75
284.439	87.75
284.67	83.75
284.901	87.75
285.132	88.75
285.364	94.75
285.595	73.75
285.826	88.75
286.057	96.75
286.288	91.75
286.52	88.75
286.751	79.75
286.982	73.75
287.213	99.75
287.444	92.75
287.675	79.75
287.906	94.75
288.138	88.75
288.369	91.75
288.6	95.75
288.831	87.75
289.062	99.75
289.293	88.75
289.524	95.75
289.755	90.75
289.986	83.75
290.217	89.75
290.448	93.75
290.679	82.75
290.91	87.75
291.141	92.75
291.371	84.75
291.602	88.75
291.833	89.75
292.064	96.75
292.295	77.75
292.526	90.75
292.757	74.75
292.987	94.75
293.218	86.75
293.449	105.75
293.68	103.75
293.91	93.75
294.141	95.75
294.372	100.75
294.603	95.75
294.833	91.75
295.064	87.75
295.295	84.75
295.525	102.75
295.756	110.75
295.987	104.75
296.217	135.75
296.448	128.75
296.679	92.75
296.909	79.75
297.14	88.75
297.37	98.75
297.601	91.75
297.831	91.75
298.062	91.75
298.292	96.75
298.523	83.75
298.753	93.75
298.984	81.75
299.214	91.75
299.445	88.75
299.675	110.75
299.905	93.75
300.136	83.75
300.366	82.75
300.597	92.75
300.827	97.75
301.057	90.75
301.288	101.75
301.518	96.75
301.748	78.75
301.979	98.75
302.209	91.75
302.439	70.75
302.669	89.75
302.9	95.75
303.13	102.75
303.36	89.75
303.59	100.75
303.82	95.75
304.051	75.75
304.281	94.75
304.511	78.75
304.741	98.75
304.971	96.75
305.201	96.75
305.431	90.75
305.661	91.75
305.891	93.75
306.121	105.75
306.352	100.75
306.582	105.75
306.812	96.75
307.042	93.75
307.272	83.75
307.502	87.75
307.731	90.75
307.961	91.75
308.191	98.75
308.421	98.75
308.651	88.75
308.881	88.75
309.111	92.75
309.341	102.75
309.571	95.75
309.8	90.75
310.03	102.75
310.26	97.75
310.49	89.75
310.72	89.75
310.949	103.75
311.179	94.75
311.409	104.75
311.639	95.75
311.868	94.75
312.098	103.75
312.328	100.75
312.557	94.75
312.787	114.75
313.017	100.75
313.246	90.75
313.476	89.75
313.706	83.75
313.935	88.75
314.165	100.75
314.394	105.75
314.624	98.75
314.853	102.75
315.083	91.75
315.312	102.75
315.542	89.75
315.771	99.75
316.001	90.75
316.23	111.75
316.46	84.75
316.689	87.75
316.919	90.75
317.148	74.75
317.377	93.75
317.607	97.75
317.836	82.75
318.065	92.75
318.295	82.75
318.524	79.75
318.753	91.75
318.983	104.75
319.212	100.75
319.441	98.75
319.67	106.75
319.9	107.75
320.129	86.75
320.358	88.75
320.587	94.75
320.816	77.75
321.046	84.75
321.275	97.75
321.504	80.75
321.733	82.75
321.962	102.75
322.191	108.75
322.42	106.75
322.649	105.75
322.878	97.75
323.108	110.75
323.337	123.75
323.566	138.75
323.795	146.75
324.024	182.75
324.253	403.75
324.482	822.75
324.71	1704.75
324.939	2259.75
325.168	824.75
325.397	250.75
325.626	136.75
325.855	138.75
326.084	132.75
326.313	136.75
326.542	164.75
326.77	220.75
326.999	444.75
327.228	950.75
327.457	1779.75
327.686	1421.75
327.914	413.75
328.143	243.75
328.372	191.75
328.6	113.75
328.829	123.75
329.058	129.75
329.287	118.75
329.515	109.75
329.744	96.75
329.972	101.75
330.201	94.75
330.43	106.75
330.658	97.75
330.887	138.75
331.115	116.75
331.344	102.75
331.572	106.75
331.801	102.75
332.03	103.75
332.258	99.75
332.486	108.75
332.715	94.75
332.943	113.75
333.172	100.75
333.4	80.75
333.629	100.75
333.857	118.75
334.085	104.75
334.314	91.75
334.542	106.75
334.771	91.75
334.999	110.75
335.227	105.75
335.455	96.75
335.684	100.75
335.912	95.75
336.14	104.75
336.369	94.75
336.597	104.75
336.825	94.75
337.053	85.75
337.281	100.75
337.51	85.75
337.738	110.75
337.966	99.75
338.194	128.75
338.422	131.75
338.65	109.75
338.878	79.75
339.106	88.75
339.334	92.75
339.562	96.75
339.79	90.75
340.018	99.75
340.246	87.75
340.474	98.75
340.702	98.75
340.93	80.75
341.158	104.75
341.386	114.75
341.614	108.75
341.842	104.75
342.07	82.75
342.298	100.75
342.526	88.75
342.754	92.75
342.981	94.75
343.209	93.75
343.437	104.75
343.665	81.75
343.893	94.75
344.12	97.75
344.348	82.75
344.576	88.75
344.804	79.75
345.031	72.75
345.259	96.75
345.487	102.75
345.714	107.75
345.942	94.75
346.17	101.75
346.397	106.75
346.625	99.75
346.853	92.75
347.08	95.75
347.308	97.75
347.535	96.75
347.763	99.75
347.99	95.75
348.218	103.75
348.445	97.75
348.673	90.75
348.9	108.75
349.128	102.75
349.355	79.75
349.583	90.75
349.81	86.75
350.037	92.75
350.265	98.75
350.492	70.75
350.72	104.75
350.947	88.75
351.174	111.75
351.402	93.75
351.629	106.75
351.856	98.75
352.083	106.75
352.311	102.75
352.538	91.75
352.765	102.75
352.992	114.75
353.22	100.75
353.447	106.75
353.674	102.75
353.901	93.75
354.128	92.75
354.355	93.75
354.583	87.75
354.81	100.75
355.037	99.75
355.264	94.75
355.491	109.75
355.718	100.75
355.945	81.75
356.172	96.75
356.399	100.75
356.626	93.75
356.853	90.75
357.08	97.75
357.307	92.75
357.534	119.75
357.761	99.75
357.988	108.75
358.215	90.75
358.441	89.75
358.668	88.75
358.895	85.75
359.122	96.75
359.349	89.75
359.576	97.75
359.802	110.75
360.029	110.75
360.256	106.75
360.483	97.75
360.709	104.75
360.936	100.75
361.163	99.75
361.39	98.75
361.616	92.75
361.843	89.75
362.07	90.75
362.296	89.75
362.523	89.75
362.749	95.75
362.976	94.75
363.203	93.75
363.429	95.75
363.656	90.75
363.882	83.75
364.109	86.75
364.335	98.75
364.562	82.75
364.788	98.75
365.015	99.75
365.241	94.75
365.468	101.75
365.694	129.75
365.92	101.75
366.147	82.75
366.373	85.75
366.599	80.75
366.826	92.75
367.052	72.75
367.278	90.75
367.505	86.75
367.731	86.75
367.957	82.75
368.184	90.75
368.41	103.75
368.636	104.75
368.862	122.75
369.089	109.75
369.315	95.75
369.541	86.75
369.767	95.75
369.993	86.75
370.219	96.75
370.445	91.75
370.672	78.75
370.898	75.75
371.124	90.75
371.35	102.75
371.576	91.75
371.802	88.75
372.028	86.75
372.254	78.75
372.48	62.75
372.706	81.75
372.932	87.75
373.158	91.75
373.384	107.75
373.61	94.75
373.835	90.75
374.061	91.75
374.287	90.75
374.513	78.75
374.739	80.75
374.965	103.75
375.191	84.75
375.416	98.75
375.642	89.75
375.868	88.75
376.094	94.75
376.319	87.75
376.545	90.75
376.771	106.75
376.997	82.75
377.222	86.75
377.448	96.75
377.674	98.75
377.899	79.75
378.125	97.75
378.35	81.75
378.576	95.75
378.802	84.75
379.027	85.75
379.253	92.75
379.478	100.75
379.704	103.75
379.929	86.75
380.155	87.75
380.38	102.75
380.606	81.75
380.831	88.75
381.057	109.75
381.282	96.75
381.507	97.75
381.733	88.75
381.958	95.75
382.184	93.75
382.409	88.75
382.634	109.75
382.86	104.75
383.085	97.75
383.31	98.75
383.535	96.75
383.761	99.75
383.986	104.75
384.211	102.75
384.436	83.75
384.662	106.75
384.887	102.75
385.112	98.75
385.337	108.75
385.562	109.75
385.787	94.75
386.013	104.75
386.238	113.75
386.463	96.75
386.688	105.75
386.913	90.75
387.138	107.75
387.363	94.75
387.588	108.75
387.813	113.75
388.038	99.75
388.263	109.75
388.488	102.75
388.713	90.75
388.938	93.75
389.163	90.75
389.387	103.75
389.612	91.75
389.837	93.75
390.062	89.75
390.287	82.75
390.512	97.75
390.736	88.75
390.961	92.75
391.186	81.75
391.411	98.75
391.636	93.75
391.86	88.75
392.085	75.75
392.31	105.75
392.534	95.75
392.759	90.75
392.984	83.75
393.208	91.75
393.433	94.75
393.658	103.75
393.882	81.75
394.107	88.75
394.331	88.75
394.556	92.75
394.78	89.75
395.005	83.75
395.229	91.75
395.454	92.75
395.678	76.75
395.903	78.75
396.127	93.75
396.352	98.75
396.576	99.75
396.801	98.75
397.025	110.75
397.249	92.75
397.474	86.75
397.698	91.75
397.922	95.75
398.147	90.75
398.371	96.75
398.595	78.75
398.82	94.75
399.044	92.75
399.268	76.75
399.492	89.75
399.717	86.75
399.941	93.75
400.165	106.75
400.389	99.75
400.613	84.75
400.837	91.75
401.062	88.75
401.286	83.75
401.51	79.75
401.734	84.75
401.958	83.75
402.182	121.75
402.406	149.75
402.63	111.75
402.854	93.75
403.078	111.75
403.302	80.75
403.526	89.75
403.75	92.75
403.974	81.75
404.198	88.75
404.422	87.75
404.645	80.75
404.869	96.75
405.093	100.75
405.317	106.75
405.541	101.75
405.765	92.75
405.988	131.75
406.212	153.75
406.436	214.75
406.66	142.75
406.883	93.75
407.107	90.75
407.331	105.75
407.555	106.75
407.778	92.75
408.002	93.75
408.226	91.75
408.449	83.75
408.673	103.75
408.896	92.75
409.12	97.75
409.344	91.75
409.567	80.75
409.791	83.75
410.014	89.75
410.238	95.75
410.461	95.75
410.685	101.75
410.908	90.75
411.132	98.75
411.355	105.75
411.578	90.75
411.802	93.75
412.025	92.75
412.249	78.75
412.472	90.75
412.695	92.75
412.919	70.75
413.142	74.75
413.365	99.75
413.589	93.75
413.812	82.75
414.035	83.75
414.258	98.75
414.482	92.75
414.705	98.75
414.928	82.75
415.151	96.75
415.374	99.75
415.597	105.75
415.821	84.75
416.044	88.75
416.267	98.75
416.49	82.75
416.713	96.75
416.936	89.75
417.159	84.75
417.382	90.75
417.605	82.75
417.828	87.75
418.051	70.75
418.274	85.75
418.497	92.75
418.72	93.75
418.943	113.75
419.166	86.75
419.389	84.75
419.611	96.75
419.834	98.75
420.057	88.75
420.28	83.75
420.503	94.75
420.726	93.75
420.948	109.75
421.171	97.75
421.394	79.75
421.617	88.75
421.839	85.75
422.062	73.75
422.285	89.75
422.507	105.75
422.73	115.75
422.953	106.75
423.175	85.75
423.398	97.75
423.621	98.75
423.843	88.75
424.066	91.75
424.288	85.75
424.511	86.75
424.733	96.75
424.956	108.75
425.178	84.75
425.401	102.75
425.623	96.75
425.846	88.75
426.068	92.75
426.291	93.75
426.513	91.75
426.735	96.75
426.958	91.75
427.18	107.75
427.402	158.75
427.625	159.75
427.847	126.75
428.069	96.75
428.292	84.75
428.514	80.75
428.736	78.75
428.958	91.75
429.181	77.75
429.403	79.75
429.625	87.75
429.847	87.75
430.069	111.75
430.292	100.75
430.514	81.75
430.736	83.75
430.958	79.75
431.18	81.75
431.402	64.75
431.624	82.75
431.846	79.75
432.068	80.75
432.29	90.75
432.512	80.75
432.734	76.75
432.956	92.75
433.178	105.75
433.4	99.75
433.622	101.75
433.844	92.75
434.066	76.75
434.287	91.75
434.509	93.75
434.731	79.75
434.953	89.75
435.175	77.75
435.397	88.75
435.618	92.75
435.84	108.75
436.062	130.75
436.284	126.75
436.505	114.75
436.727	106.75
436.949	95.75
437.17	85.75
437.392	87.75
437.614	89.75
437.835	96.75
438.057	112.75
438.278	113.75
438.5	98.75
438.721	123.75
438.943	105.75
439.165	81.75
439.386	87.75
439.608	89.75
439.829	97.75
440.05	128.75
440.272	150.75
440.493	108.75
440.715	89.75
440.936	83.75
441.158	84.75
441.379	89.75
441.6	104.75
441.822	104.75
442.043	102.75
442.264	101.75
442.486	106.75
442.707	99.75
442.928	106.75
443.149	134.75
443.371	120.75
443.592	110.75
443.813	123.75
444.034	99.75
444.255	86.75
444.476	84.75
444.698	96.75
444.919	78.75
445.14	138.75
445.361	137.75
445.582	123.75
445.803	129.75
446.024	150.75
446.245	154.75
446.466	109.75
446.687	90.75
446.908	78.75
447.129	81.75
447.35	82.75
447.571	94.75
447.792	98.75
448.013	103.75
448.234	102.75
448.455	110.75
448.675	106.75
448.896	126.75
449.117	105.75
449.338	111.75
449.559	151.75
449.779	136.75
450	94.75
450.221	94.75
450.442	81.75
450.662	102.75
450.883	105.75
451.104	110.75
451.324	76.75
451.545	91.75
451.766	87.75
451.986	73.75
452.207	92.75
452.428	87.75
452.648	96.75
452.869	111.75
453.089	106.75
453.31	99.75
453.53	96.75
453.751	91.75
453.971	99.75
454.192	109.75
454.412	86.75
454.633	90.75
454.853	73.75
455.073	81.75
455.294	100.75
455.514	99.75
455.734	106.75
455.955	82.75
456.175	91.75
456.395	73.75
456.616	84.75
456.836	89.75
457.056	77.75
457.276	82.75
457.497	95.75
457.717	70.75
457.937	85.75
458.157	98.75
458.377	92.75
458.598	100.75
458.818	151.75
459.038	159.75
459.258	114.75
459.478	102.75
459.698	99.75
459.918	97.75
460.138	85.75
460.358	74.75
460.578	78.75
460.798	99.75
461.018	96.75
461.238	74.75
461.458	88.75
461.678	83.75
461.898	73.75
462.118	83.75
462.338	92.75
462.558	90.75
462.777	81.75
462.997	84.75
463.217	77.75
463.437	89.75
463.657	85.75
463.876	102.75
464.096	96.75
464.316	102.75
464.536	99.75
464.755	109.75
464.975	98.75
465.195	155.75
465.414	159.75
465.634	99.75
465.854	81.75
466.073	80.75
466.293	94.75
466.512	87.75
466.732	87.75
466.951	91.75
467.171	90.75
467.391	97.75
467.61	103.75
467.829	90.75
468.049	91.75
468.268	83.75
468.488	94.75
468.707	99.75
468.927	103.75
469.146	88.75
469.365	84.75
469.585	98.75
469.804	98.75
470.023	81.75
470.243	97.75
470.462	100.75
470.681	109.75
470.901	86.75
471.12	92.75
471.339	99.75
471.558	88.75
471.777	81.75
471.997	81.75
472.216	82.75
472.435	83.75
472.654	80.75
472.873	86.75
473.092	87.75
473.311	88.75
473.53	77.75
473.749	76.75
473.968	95.75
474.187	106.75
474.406	96.75
474.625	79.75
474.844	86.75
475.063	92.75
475.282	95.75
475.501	92.75
475.72	88.75
475.939	80.75
476.158	100.75
476.377	95.75
476.596	98.75
476.814	86.75
477.033	82.75
477.252	82.75
477.471	85.75
477.69	86.75
477.908	92.75
478.127	82.75
478.346	98.75
478.564	97.75
478.783	97.75
479.002	98.75
479.22	89.75
479.439	106.75
479.658	93.75
479.876	97.75
480.095	88.75
480.313	93.75
480.532	95.75
480.751	104.75
480.969	98.75
481.188	89.75
481.406	102.75
481.624	85.75
481.843	86.75
482.061	89.75
482.28	97.75
482.498	86.75
482.717	107.75
482.935	83.75
483.153	96.75
483.372	88.75
483.59	88.75
483.808	93.75
484.027	90.75
484.245	94.75
484.463	106.75
484.681	106.75
484.9	108.75
485.118	98.75
485.336	93.75
485.554	97.75
485.772	98.75
485.99	106.75
486.209	110.75
486.427	99.75
486.645	123.75
486.863	107.75
487.081	89.75
487.299	88.75
487.517	99.75
487.735	87.75
487.953	98.75
488.171	84.75
488.389	102.75
488.607	97.75
488.825	104.75
489.043	88.75
489.261	86.75
489.479	75.75
489.696	82.75
489.914	75.75
490.132	95.75
490.35	89.75
490.568	86.75
490.786	94.75
491.003	83.75
491.221	87.75
491.439	83.75
491.657	104.75
491.874	97.75
492.092	101.75
492.31	102.75
492.527	87.75
492.745	94.75
492.963	88.75
493.18	95.75
493.398	108.75
493.615	100.75
493.833	95.75
494.05	86.75
494.268	79.75
494.485	90.75
494.703	93.75
494.92	91.75
495.138	93.75
495.355	103.75
495.573	93.75
495.79	96.75
496.008	99.75
496.225	102.75
496.442	90.75
496.66	108.75
496.877	90.75
497.094	80.75
497.312	87.75
497.529	84.75
497.746	89.75
497.963	99.75
498.181	92.75
498.398	88.75
498.615	106.75
498.832	99.75
499.049	102.75
499.267	87.75
499.484	89.75
499.701	83.75
499.918	99.75
500.135	87.75
500.352	86.75
500.569	96.75
500.786	108.75
501.003	97.75
501.22	89.75
501.437	75.75
501.654	80.75
501.871	95.75
502.088	103.75
502.305	80.75
502.522	75.75
502.739	86.75
502.956	72.75
503.172	86.75
503.389	96.75
503.606	111.75
503.823	111.75
504.04	91.75
504.256	89.75
504.473	92.75
504.69	87.75
504.907	87.75
505.123	89.75
505.34	80.75
505.557	83.75
505.773	96.75
505.99	79.75
506.207	90.75
506.423	91.75
506.64	91.75
506.856	95.75
507.073	95.75
507.289	91.75
507.506	100.75
507.722	102.75
507.939	113.75
508.155	107.75
508.372	91.75
508.588	103.75
508.805	99.75
509.021	99.75
509.238	100.75
509.454	93.75
509.67	95.75
509.887	117.75
510.103	115.75
510.319	199.75
510.536	700.75
510.752	2109.75
510.968	595.75
511.184	140.75
511.401	112.75
511.617	97.75
511.833	94.75
512.049	96.75
512.265	84.75
512.481	91.75
512.698	91.75
512.914	91.75
513.13	106.75
513.346	96.75
513.562	111.75
513.778	91.75
513.994	101.75
514.21	106.75
514.426	115.75
514.642	150.75
514.858	120.75
515.074	162.75
515.29	438.75
515.506	1380.75
