Data from Uncirc_1996_H10_HRD10591_00013.txt Node
Date: Wed Jan 03 11:32:05 EST 2024
User: Yrep
Spectrometer: HR+D1059
Trigger mode: 1
Integration Time (sec): 1.000000E-1
Scans to average: 1
Electric dark correction enabled: true
Nonlinearity correction enabled: false
Boxcar width: 0
XAxis mode: Wavelengths
Number of Pixels in Spectrum: 2048
>>>>>Begin Spectral Data<<<<<
223.165	-19.19
223.4	-19.19
223.635	-19.19
223.869	-18.19
224.104	-26.19
224.338	-21.19
224.573	-2.19
224.808	-13.19
225.042	-21.19
225.277	-6.19
225.511	-0.19
225.746	9.81
225.98	18.81
226.215	20.81
226.449	24.81
226.683	12.81
226.918	15.81
227.152	24.81
227.387	28.81
227.621	33.81
227.856	46.81
228.09	33.81
228.324	50.81
228.559	48.81
228.793	61.81
229.027	64.81
229.262	54.81
229.496	64.81
229.73	88.81
229.964	83.81
230.199	76.81
230.433	68.81
230.667	86.81
230.901	73.81
231.136	71.81
231.37	86.81
231.604	70.81
231.838	76.81
232.072	84.81
232.306	78.81
232.541	70.81
232.775	64.81
233.009	70.81
233.243	79.81
233.477	50.81
233.711	80.81
233.945	85.81
234.179	62.81
234.413	74.81
234.647	75.81
234.881	69.81
235.115	78.81
235.349	77.81
235.583	78.81
235.817	72.81
236.051	82.81
236.285	80.81
236.519	85.81
236.753	71.81
236.987	70.81
237.221	72.81
237.455	60.81
237.689	81.81
237.922	68.81
238.156	71.81
238.39	77.81
238.624	73.81
238.858	83.81
239.091	80.81
239.325	75.81
239.559	84.81
239.793	91.81
240.027	62.81
240.26	80.81
240.494	79.81
240.728	69.81
240.961	72.81
241.195	79.81
241.429	75.81
241.662	80.81
241.896	89.81
242.13	62.81
242.363	70.81
242.597	79.81
242.83	74.81
243.064	76.81
243.298	69.81
243.531	70.81
243.765	81.81
243.998	90.81
244.232	86.81
244.465	85.81
244.699	79.81
244.932	72.81
245.166	65.81
245.399	88.81
245.633	70.81
245.866	82.81
246.099	81.81
246.333	70.81
246.566	75.81
246.8	72.81
247.033	77.81
247.266	80.81
247.5	82.81
247.733	94.81
247.966	84.81
248.2	72.81
248.433	64.81
248.666	80.81
248.899	72.81
249.133	83.81
249.366	87.81
249.599	84.81
249.832	76.81
250.066	76.81
250.299	86.81
250.532	92.81
250.765	73.81
250.998	75.81
251.231	74.81
251.465	79.81
251.698	81.81
251.931	93.81
252.164	75.81
252.397	76.81
252.63	76.81
252.863	70.81
253.096	69.81
253.329	74.81
253.562	66.81
253.795	80.81
254.028	76.81
254.261	72.81
254.494	77.81
254.727	79.81
254.96	76.81
255.193	83.81
255.426	71.81
255.659	77.81
255.892	74.81
256.124	82.81
256.357	70.81
256.59	76.81
256.823	91.81
257.056	75.81
257.289	86.81
257.521	70.81
257.754	76.81
257.987	70.81
258.22	90.81
258.452	71.81
258.685	80.81
258.918	77.81
259.151	81.81
259.383	94.81
259.616	82.81
259.849	81.81
260.081	89.81
260.314	61.81
260.547	63.81
260.779	91.81
261.012	69.81
261.244	74.81
261.477	93.81
261.71	86.81
261.942	92.81
262.175	100.81
262.407	106.81
262.64	85.81
262.872	65.81
263.105	93.81
263.337	78.81
263.57	80.81
263.802	93.81
264.035	80.81
264.267	76.81
264.499	82.81
264.732	94.81
264.964	78.81
265.197	76.81
265.429	53.81
265.661	77.81
265.894	80.81
266.126	78.81
266.358	79.81
266.591	97.81
266.823	89.81
267.055	80.81
267.287	76.81
267.52	71.81
267.752	65.81
267.984	79.81
268.216	78.81
268.448	78.81
268.681	89.81
268.913	78.81
269.145	74.81
269.377	89.81
269.609	75.81
269.841	86.81
270.073	91.81
270.306	92.81
270.538	78.81
270.77	100.81
271.002	96.81
271.234	91.81
271.466	89.81
271.698	90.81
271.93	71.81
272.162	70.81
272.394	75.81
272.626	79.81
272.858	74.81
273.09	86.81
273.322	77.81
273.553	79.81
273.785	81.81
274.017	83.81
274.249	83.81
274.481	76.81
274.713	88.81
274.945	88.81
275.176	77.81
275.408	80.81
275.64	89.81
275.872	86.81
276.104	85.81
276.335	86.81
276.567	86.81
276.799	103.81
277.031	100.81
277.262	93.81
277.494	73.81
277.726	84.81
277.957	82.81
278.189	84.81
278.421	90.81
278.652	89.81
278.884	78.81
279.115	83.81
279.347	88.81
279.579	93.81
279.81	92.81
280.042	82.81
280.273	65.81
280.505	78.81
280.736	86.81
280.968	87.81
281.199	80.81
281.431	76.81
281.662	79.81
281.894	86.81
282.125	88.81
282.356	95.81
282.588	112.81
282.819	101.81
283.051	90.81
283.282	86.81
283.513	86.81
283.745	84.81
283.976	77.81
284.207	74.81
284.439	80.81
284.67	80.81
284.901	89.81
285.132	82.81
285.364	80.81
285.595	83.81
285.826	83.81
286.057	71.81
286.288	86.81
286.52	82.81
286.751	72.81
286.982	83.81
287.213	80.81
287.444	84.81
287.675	86.81
287.906	75.81
288.138	80.81
288.369	87.81
288.6	84.81
288.831	79.81
289.062	83.81
289.293	102.81
289.524	93.81
289.755	78.81
289.986	88.81
290.217	89.81
290.448	85.81
290.679	87.81
290.91	86.81
291.141	98.81
291.371	91.81
291.602	78.81
291.833	77.81
292.064	73.81
292.295	91.81
292.526	88.81
292.757	91.81
292.987	84.81
293.218	85.81
293.449	77.81
293.68	88.81
293.91	75.81
294.141	76.81
294.372	77.81
294.603	91.81
294.833	78.81
295.064	95.81
295.295	75.81
295.525	88.81
295.756	95.81
295.987	109.81
296.217	113.81
296.448	116.81
296.679	102.81
296.909	80.81
297.14	93.81
297.37	76.81
297.601	82.81
297.831	90.81
298.062	94.81
298.292	86.81
298.523	94.81
298.753	85.81
298.984	77.81
299.214	86.81
299.445	97.81
299.675	90.81
299.905	68.81
300.136	82.81
300.366	85.81
300.597	86.81
300.827	94.81
301.057	97.81
301.288	94.81
301.518	84.81
301.748	80.81
301.979	106.81
302.209	90.81
302.439	104.81
302.669	87.81
302.9	78.81
303.13	89.81
303.36	94.81
303.59	111.81
303.82	94.81
304.051	90.81
304.281	78.81
304.511	82.81
304.741	90.81
304.971	91.81
305.201	78.81
305.431	84.81
305.661	85.81
305.891	87.81
306.121	89.81
306.352	98.81
306.582	104.81
306.812	86.81
307.042	101.81
307.272	96.81
307.502	74.81
307.731	94.81
307.961	81.81
308.191	93.81
308.421	94.81
308.651	92.81
308.881	97.81
309.111	92.81
309.341	92.81
309.571	109.81
309.8	93.81
310.03	76.81
310.26	100.81
310.49	76.81
310.72	92.81
310.949	109.81
311.179	98.81
311.409	92.81
311.639	93.81
311.868	87.81
312.098	98.81
312.328	102.81
312.557	84.81
312.787	93.81
313.017	102.81
313.246	92.81
313.476	85.81
313.706	106.81
313.935	105.81
314.165	113.81
314.394	97.81
314.624	109.81
314.853	85.81
315.083	89.81
315.312	105.81
315.542	102.81
315.771	88.81
316.001	88.81
316.23	93.81
316.46	96.81
316.689	88.81
316.919	93.81
317.148	86.81
317.377	79.81
317.607	93.81
317.836	86.81
318.065	74.81
318.295	79.81
318.524	107.81
318.753	93.81
318.983	106.81
319.212	97.81
319.441	95.81
319.67	98.81
319.9	96.81
320.129	108.81
320.358	66.81
320.587	89.81
320.816	87.81
321.046	93.81
321.275	92.81
321.504	93.81
321.733	84.81
321.962	79.81
322.191	100.81
322.42	103.81
322.649	96.81
322.878	112.81
323.108	111.81
323.337	113.81
323.566	109.81
323.795	133.81
324.024	191.81
324.253	329.81
324.482	693.81
324.71	1373.81
324.939	1790.81
325.168	652.81
325.397	194.81
325.626	132.81
325.855	125.81
326.084	118.81
326.313	116.81
326.542	144.81
326.77	207.81
326.999	380.81
327.228	761.81
327.457	1430.81
327.686	1140.81
327.914	344.81
328.143	216.81
328.372	159.81
328.6	98.81
328.829	107.81
329.058	120.81
329.287	115.81
329.515	107.81
329.744	82.81
329.972	78.81
330.201	102.81
330.43	104.81
330.658	104.81
330.887	132.81
331.115	112.81
331.344	105.81
331.572	98.81
331.801	108.81
332.03	91.81
332.258	90.81
332.486	80.81
332.715	86.81
332.943	92.81
333.172	84.81
333.4	97.81
333.629	88.81
333.857	95.81
334.085	92.81
334.314	81.81
334.542	90.81
334.771	94.81
334.999	84.81
335.227	92.81
335.455	94.81
335.684	94.81
335.912	95.81
336.14	78.81
336.369	94.81
336.597	97.81
336.825	94.81
337.053	89.81
337.281	102.81
337.51	77.81
337.738	89.81
337.966	102.81
338.194	125.81
338.422	150.81
338.65	109.81
338.878	97.81
339.106	76.81
339.334	93.81
339.562	85.81
339.79	83.81
340.018	96.81
340.246	95.81
340.474	79.81
340.702	92.81
340.93	101.81
341.158	79.81
341.386	104.81
341.614	97.81
341.842	70.81
342.07	80.81
342.298	85.81
342.526	85.81
342.754	102.81
342.981	86.81
343.209	87.81
343.437	87.81
343.665	89.81
343.893	80.81
344.12	94.81
344.348	91.81
344.576	88.81
344.804	87.81
345.031	95.81
345.259	87.81
345.487	100.81
345.714	85.81
345.942	85.81
346.17	87.81
346.397	76.81
346.625	94.81
346.853	89.81
347.08	92.81
347.308	98.81
347.535	103.81
347.763	86.81
347.99	92.81
348.218	81.81
348.445	96.81
348.673	99.81
348.9	100.81
349.128	94.81
349.355	78.81
349.583	85.81
349.81	83.81
350.037	99.81
350.265	87.81
350.492	79.81
350.72	102.81
350.947	89.81
351.174	108.81
351.402	97.81
351.629	91.81
351.856	83.81
352.083	95.81
352.311	115.81
352.538	101.81
352.765	116.81
352.992	112.81
353.22	100.81
353.447	95.81
353.674	98.81
353.901	87.81
354.128	99.81
354.355	91.81
354.583	91.81
354.81	94.81
355.037	93.81
355.264	80.81
355.491	94.81
355.718	86.81
355.945	96.81
356.172	82.81
356.399	98.81
356.626	89.81
356.853	92.81
357.08	76.81
357.307	96.81
357.534	109.81
357.761	84.81
357.988	87.81
358.215	98.81
358.441	90.81
358.668	84.81
358.895	94.81
359.122	91.81
359.349	90.81
359.576	97.81
359.802	103.81
360.029	99.81
360.256	109.81
360.483	100.81
360.709	94.81
360.936	101.81
361.163	83.81
361.39	82.81
361.616	96.81
361.843	81.81
362.07	92.81
362.296	91.81
362.523	94.81
362.749	88.81
362.976	87.81
363.203	96.81
363.429	85.81
363.656	94.81
363.882	82.81
364.109	83.81
364.335	65.81
364.562	68.81
364.788	78.81
365.015	108.81
365.241	110.81
365.468	98.81
365.694	104.81
365.92	92.81
366.147	93.81
366.373	87.81
366.599	89.81
366.826	84.81
367.052	98.81
367.278	102.81
367.505	84.81
367.731	83.81
367.957	95.81
368.184	83.81
368.41	92.81
368.636	101.81
368.862	101.81
369.089	104.81
369.315	105.81
369.541	89.81
369.767	76.81
369.993	103.81
370.219	103.81
370.445	105.81
370.672	97.81
370.898	83.81
371.124	88.81
371.35	79.81
371.576	84.81
371.802	92.81
372.028	81.81
372.254	85.81
372.48	73.81
372.706	89.81
372.932	86.81
373.158	84.81
373.384	93.81
373.61	94.81
373.835	95.81
374.061	86.81
374.287	82.81
374.513	96.81
374.739	70.81
374.965	83.81
375.191	94.81
375.416	88.81
375.642	100.81
375.868	90.81
376.094	89.81
376.319	86.81
376.545	82.81
376.771	83.81
376.997	84.81
377.222	89.81
377.448	89.81
377.674	96.81
377.899	82.81
378.125	78.81
378.35	84.81
378.576	103.81
378.802	81.81
379.027	96.81
379.253	94.81
379.478	91.81
379.704	78.81
379.929	97.81
380.155	88.81
380.38	92.81
380.606	88.81
380.831	102.81
381.057	101.81
381.282	99.81
381.507	92.81
381.733	101.81
381.958	82.81
382.184	99.81
382.409	102.81
382.634	90.81
382.86	98.81
383.085	105.81
383.31	112.81
383.535	88.81
383.761	99.81
383.986	92.81
384.211	100.81
384.436	95.81
384.662	111.81
384.887	92.81
385.112	103.81
385.337	105.81
385.562	105.81
385.787	118.81
386.013	113.81
386.238	110.81
386.463	109.81
386.688	115.81
386.913	104.81
387.138	89.81
387.363	89.81
387.588	95.81
387.813	104.81
388.038	108.81
388.263	116.81
388.488	117.81
388.713	90.81
388.938	94.81
389.163	103.81
389.387	95.81
389.612	89.81
389.837	83.81
390.062	88.81
390.287	90.81
390.512	79.81
390.736	82.81
390.961	101.81
391.186	96.81
391.411	113.81
391.636	74.81
391.86	104.81
392.085	90.81
392.31	87.81
392.534	89.81
392.759	91.81
392.984	85.81
393.208	102.81
393.433	106.81
393.658	98.81
393.882	90.81
394.107	81.81
394.331	93.81
394.556	90.81
394.78	94.81
395.005	71.81
395.229	91.81
395.454	82.81
395.678	67.81
395.903	72.81
396.127	88.81
396.352	80.81
396.576	101.81
396.801	89.81
397.025	90.81
397.249	95.81
397.474	101.81
397.698	86.81
397.922	90.81
398.147	85.81
398.371	84.81
398.595	73.81
398.82	80.81
399.044	91.81
399.268	82.81
399.492	73.81
399.717	90.81
399.941	87.81
400.165	86.81
400.389	81.81
400.613	81.81
400.837	78.81
401.062	76.81
401.286	86.81
401.51	77.81
401.734	72.81
401.958	76.81
402.182	100.81
402.406	131.81
402.63	111.81
402.854	81.81
403.078	88.81
403.302	76.81
403.526	83.81
403.75	80.81
403.974	91.81
404.198	79.81
404.422	77.81
404.645	73.81
404.869	79.81
405.093	86.81
405.317	82.81
405.541	96.81
405.765	103.81
405.988	103.81
406.212	161.81
406.436	200.81
406.66	123.81
406.883	107.81
407.107	90.81
407.331	102.81
407.555	113.81
407.778	84.81
408.002	74.81
408.226	96.81
408.449	84.81
408.673	82.81
408.896	97.81
409.12	84.81
409.344	82.81
409.567	106.81
409.791	87.81
410.014	88.81
410.238	89.81
410.461	91.81
410.685	87.81
410.908	103.81
411.132	96.81
411.355	104.81
411.578	93.81
411.802	81.81
412.025	70.81
412.249	91.81
412.472	84.81
412.695	87.81
412.919	92.81
413.142	81.81
413.365	85.81
413.589	92.81
413.812	72.81
414.035	92.81
414.258	87.81
414.482	80.81
414.705	88.81
414.928	88.81
415.151	97.81
415.374	99.81
415.597	94.81
415.821	80.81
416.044	84.81
416.267	88.81
416.49	94.81
416.713	101.81
416.936	76.81
417.159	99.81
417.382	82.81
417.605	89.81
417.828	97.81
418.051	82.81
418.274	86.81
418.497	84.81
418.72	91.81
418.943	99.81
419.166	86.81
419.389	86.81
419.611	83.81
419.834	87.81
420.057	75.81
420.28	92.81
420.503	93.81
420.726	88.81
420.948	96.81
421.171	102.81
421.394	89.81
421.617	85.81
421.839	95.81
422.062	105.81
422.285	102.81
422.507	85.81
422.73	102.81
422.953	78.81
423.175	82.81
423.398	90.81
423.621	87.81
423.843	88.81
424.066	70.81
424.288	92.81
424.511	97.81
424.733	98.81
424.956	98.81
425.178	97.81
425.401	94.81
425.623	98.81
425.846	94.81
426.068	89.81
426.291	100.81
426.513	86.81
426.735	89.81
426.958	72.81
427.18	108.81
427.402	115.81
427.625	149.81
427.847	114.81
428.069	104.81
428.292	78.81
428.514	92.81
428.736	90.81
428.958	79.81
429.181	86.81
429.403	92.81
429.625	91.81
429.847	88.81
430.069	92.81
430.292	93.81
430.514	92.81
430.736	101.81
430.958	84.81
431.18	88.81
431.402	80.81
431.624	78.81
431.846	88.81
432.068	90.81
432.29	85.81
432.512	76.81
432.734	93.81
432.956	81.81
433.178	96.81
433.4	81.81
433.622	85.81
433.844	92.81
434.066	84.81
434.287	80.81
434.509	91.81
434.731	81.81
434.953	82.81
435.175	81.81
435.397	93.81
435.618	107.81
435.84	100.81
436.062	104.81
436.284	96.81
436.505	99.81
436.727	94.81
436.949	96.81
437.17	72.81
437.392	79.81
437.614	88.81
437.835	88.81
438.057	102.81
438.278	109.81
438.5	107.81
438.721	125.81
438.943	84.81
439.165	81.81
439.386	90.81
439.608	95.81
439.829	86.81
440.05	110.81
440.272	135.81
440.493	94.81
440.715	80.81
440.936	96.81
441.158	90.81
441.379	81.81
441.6	93.81
441.822	87.81
442.043	104.81
442.264	89.81
442.486	100.81
442.707	87.81
442.928	108.81
443.149	112.81
443.371	115.81
443.592	107.81
443.813	112.81
444.034	98.81
444.255	88.81
444.476	82.81
444.698	78.81
444.919	92.81
445.14	124.81
445.361	128.81
445.582	105.81
445.803	117.81
446.024	127.81
446.245	132.81
446.466	100.81
446.687	87.81
446.908	91.81
447.129	96.81
447.35	88.81
447.571	91.81
447.792	73.81
448.013	88.81
448.234	110.81
448.455	81.81
448.675	106.81
448.896	111.81
449.117	102.81
449.338	88.81
449.559	122.81
449.779	109.81
450	98.81
450.221	80.81
450.442	86.81
450.662	93.81
450.883	113.81
451.104	94.81
451.324	99.81
451.545	84.81
451.766	85.81
451.986	79.81
452.207	84.81
452.428	83.81
452.648	101.81
452.869	96.81
453.089	94.81
453.31	105.81
453.53	84.81
453.751	90.81
453.971	96.81
454.192	105.81
454.412	83.81
454.633	90.81
454.853	78.81
455.073	89.81
455.294	81.81
455.514	86.81
455.734	77.81
455.955	79.81
456.175	87.81
456.395	83.81
456.616	92.81
456.836	74.81
457.056	96.81
457.276	92.81
457.497	91.81
457.717	79.81
457.937	91.81
458.157	77.81
458.377	89.81
458.598	85.81
458.818	120.81
459.038	153.81
459.258	116.81
459.478	86.81
459.698	95.81
459.918	82.81
460.138	86.81
460.358	92.81
460.578	78.81
460.798	95.81
461.018	88.81
461.238	81.81
461.458	79.81
461.678	93.81
461.898	89.81
462.118	72.81
462.338	79.81
462.558	95.81
462.777	85.81
462.997	87.81
463.217	74.81
463.437	80.81
463.657	88.81
463.876	105.81
464.096	86.81
464.316	89.81
464.536	99.81
464.755	90.81
464.975	107.81
465.195	138.81
465.414	146.81
465.634	92.81
465.854	88.81
466.073	81.81
466.293	86.81
466.512	85.81
466.732	95.81
466.951	98.81
467.171	84.81
467.391	84.81
467.61	102.81
467.829	88.81
468.049	81.81
468.268	80.81
468.488	79.81
468.707	95.81
468.927	99.81
469.146	91.81
469.365	88.81
469.585	86.81
469.804	88.81
470.023	83.81
470.243	94.81
470.462	98.81
470.681	99.81
470.901	86.81
471.12	90.81
471.339	69.81
471.558	73.81
471.777	89.81
471.997	83.81
472.216	88.81
472.435	97.81
472.654	90.81
472.873	92.81
473.092	84.81
473.311	75.81
473.53	89.81
473.749	88.81
473.968	94.81
474.187	92.81
474.406	96.81
474.625	87.81
474.844	81.81
475.063	74.81
475.282	82.81
475.501	82.81
475.72	74.81
475.939	91.81
476.158	86.81
476.377	80.81
476.596	85.81
476.814	91.81
477.033	76.81
477.252	81.81
477.471	88.81
477.69	99.81
477.908	66.81
478.127	100.81
478.346	99.81
478.564	90.81
478.783	78.81
479.002	83.81
479.22	89.81
479.439	100.81
479.658	105.81
479.876	89.81
480.095	82.81
480.313	96.81
480.532	89.81
480.751	92.81
480.969	89.81
481.188	96.81
481.406	88.81
481.624	97.81
481.843	89.81
482.061	80.81
482.28	84.81
482.498	87.81
482.717	83.81
482.935	81.81
483.153	76.81
483.372	83.81
483.59	95.81
483.808	100.81
484.027	88.81
484.245	83.81
484.463	85.81
484.681	105.81
484.9	88.81
485.118	96.81
485.336	89.81
485.554	84.81
485.772	90.81
485.99	78.81
486.209	103.81
486.427	90.81
486.645	108.81
486.863	112.81
487.081	108.81
487.299	101.81
487.517	89.81
487.735	96.81
487.953	90.81
488.171	95.81
488.389	87.81
488.607	91.81
488.825	92.81
489.043	76.81
489.261	95.81
489.479	96.81
489.696	93.81
489.914	89.81
490.132	71.81
490.35	80.81
490.568	77.81
490.786	88.81
491.003	70.81
491.221	83.81
491.439	84.81
491.657	83.81
491.874	96.81
492.092	87.81
492.31	84.81
492.527	79.81
492.745	86.81
492.963	85.81
493.18	91.81
493.398	98.81
493.615	97.81
493.833	92.81
494.05	78.81
494.268	81.81
494.485	76.81
494.703	88.81
494.92	97.81
495.138	91.81
495.355	94.81
495.573	95.81
495.79	78.81
496.008	105.81
496.225	83.81
496.442	89.81
496.66	100.81
496.877	79.81
497.094	84.81
497.312	89.81
497.529	82.81
497.746	97.81
497.963	86.81
498.181	91.81
498.398	97.81
498.615	107.81
498.832	97.81
499.049	83.81
499.267	74.81
499.484	88.81
499.701	95.81
499.918	84.81
500.135	72.81
500.352	96.81
500.569	85.81
500.786	84.81
501.003	91.81
501.22	90.81
501.437	91.81
501.654	92.81
501.871	89.81
502.088	99.81
502.305	80.81
502.522	89.81
502.739	102.81
502.956	72.81
503.172	88.81
503.389	81.81
503.606	103.81
503.823	95.81
504.04	95.81
504.256	95.81
504.473	89.81
504.69	99.81
504.907	92.81
505.123	99.81
505.34	85.81
505.557	88.81
505.773	80.81
505.99	88.81
506.207	83.81
506.423	94.81
506.64	99.81
506.856	86.81
507.073	97.81
507.289	86.81
507.506	105.81
507.722	121.81
507.939	101.81
508.155	104.81
508.372	84.81
508.588	79.81
508.805	102.81
509.021	98.81
509.238	96.81
509.454	84.81
509.67	104.81
509.887	105.81
510.103	115.81
510.319	193.81
510.536	623.81
510.752	1902.81
510.968	524.81
511.184	136.81
511.401	111.81
511.617	103.81
511.833	95.81
512.049	97.81
512.265	77.81
512.481	84.81
512.698	97.81
512.914	81.81
513.13	93.81
513.346	88.81
513.562	92.81
513.778	95.81
513.994	102.81
514.21	88.81
514.426	119.81
514.642	125.81
514.858	111.81
515.074	143.81
515.29	373.81
515.506	1166.81
515.721	452.81
515.937	136.81
516.153	100.81
516.369	96.81
516.585	79.81
