Data from Uncirc_1996_H10_HRD10591_00015.txt Node
Date: Wed Jan 03 11:32:05 EST 2024
User: Yrep
Spectrometer: HR+D1059
Trigger mode: 1
Integration Time (sec): 1.000000E-1
Scans to average: 1
Electric dark correction enabled: true
Nonlinearity correction enabled: false
Boxcar width: 0
XAxis mode: Wavelengths
Number of Pixels in Spectrum: 2048
>>>>>Begin Spectral Data<<<<<
223.165	-18.19
223.4	-18.19
223.635	-18.19
223.869	-14.19
224.104	-14.19
224.338	-21.19
224.573	-13.19
224.808	-8.19
225.042	5.81
225.277	-9.19
225.511	-14.19
225.746	-9.19
225.98	21.81
226.215	13.81
226.449	14.81
226.683	27.81
226.918	20.81
227.152	16.81
227.387	30.81
227.621	36.81
227.856	46.81
228.09	46.81
228.324	46.81
228.559	60.81
228.793	61.81
229.027	73.81
229.262	54.81
229.496	69.81
229.73	86.81
229.964	81.81
230.199	75.81
230.433	71.81
230.667	88.81
230.901	95.81
231.136	78.81
231.37	65.81
231.604	81.81
231.838	85.81
232.072	86.81
232.306	74.81
232.541	72.81
232.775	81.81
233.009	80.81
233.243	70.81
233.477	87.81
233.711	80.81
233.945	85.81
234.179	80.81
234.413	83.81
234.647	71.81
234.881	82.81
235.115	84.81
235.349	84.81
235.583	75.81
235.817	91.81
236.051	72.81
236.285	64.81
236.519	69.81
236.753	79.81
236.987	76.81
237.221	86.81
237.455	82.81
237.689	71.81
237.922	57.81
238.156	79.81
238.39	67.81
238.624	78.81
238.858	71.81
239.091	77.81
239.325	75.81
239.559	83.81
239.793	73.81
240.027	89.81
240.26	59.81
240.494	70.81
240.728	83.81
240.961	77.81
241.195	78.81
241.429	68.81
241.662	56.81
241.896	81.81
242.13	69.81
242.363	80.81
242.597	64.81
242.83	73.81
243.064	83.81
243.298	67.81
243.531	77.81
243.765	79.81
243.998	81.81
244.232	75.81
244.465	71.81
244.699	80.81
244.932	69.81
245.166	70.81
245.399	80.81
245.633	62.81
245.866	74.81
246.099	77.81
246.333	73.81
246.566	87.81
246.8	64.81
247.033	79.81
247.266	71.81
247.5	74.81
247.733	73.81
247.966	82.81
248.2	75.81
248.433	75.81
248.666	70.81
248.899	62.81
249.133	81.81
249.366	88.81
249.599	93.81
249.832	62.81
250.066	80.81
250.299	84.81
250.532	69.81
250.765	77.81
250.998	73.81
251.231	79.81
251.465	77.81
251.698	71.81
251.931	73.81
252.164	68.81
252.397	72.81
252.63	81.81
252.863	76.81
253.096	71.81
253.329	87.81
253.562	71.81
253.795	82.81
254.028	71.81
254.261	70.81
254.494	69.81
254.727	87.81
254.96	80.81
255.193	75.81
255.426	78.81
255.659	79.81
255.892	80.81
256.124	61.81
256.357	74.81
256.59	78.81
256.823	79.81
257.056	76.81
257.289	86.81
257.521	79.81
257.754	87.81
257.987	84.81
258.22	84.81
258.452	71.81
258.685	82.81
258.918	92.81
259.151	77.81
259.383	74.81
259.616	74.81
259.849	70.81
260.081	87.81
260.314	83.81
260.547	84.81
260.779	75.81
261.012	81.81
261.244	74.81
261.477	71.81
261.71	98.81
261.942	88.81
262.175	88.81
262.407	87.81
262.64	81.81
262.872	87.81
263.105	90.81
263.337	90.81
263.57	79.81
263.802	78.81
264.035	61.81
264.267	83.81
264.499	88.81
264.732	80.81
264.964	92.81
265.197	92.81
265.429	76.81
265.661	77.81
265.894	68.81
266.126	78.81
266.358	87.81
266.591	75.81
266.823	72.81
267.055	84.81
267.287	75.81
267.52	75.81
267.752	88.81
267.984	79.81
268.216	71.81
268.448	77.81
268.681	82.81
268.913	89.81
269.145	78.81
269.377	77.81
269.609	81.81
269.841	79.81
270.073	84.81
270.306	77.81
270.538	86.81
270.77	80.81
271.002	80.81
271.234	93.81
271.466	96.81
271.698	90.81
271.93	72.81
272.162	74.81
272.394	81.81
272.626	75.81
272.858	72.81
273.09	80.81
273.322	86.81
273.553	85.81
273.785	81.81
274.017	77.81
274.249	73.81
274.481	88.81
274.713	93.81
274.945	76.81
275.176	77.81
275.408	83.81
275.64	74.81
275.872	90.81
276.104	94.81
276.335	91.81
276.567	91.81
276.799	97.81
277.031	97.81
277.262	93.81
277.494	84.81
277.726	94.81
277.957	82.81
278.189	73.81
278.421	71.81
278.652	79.81
278.884	87.81
279.115	91.81
279.347	81.81
279.579	72.81
279.81	67.81
280.042	97.81
280.273	79.81
280.505	102.81
280.736	92.81
280.968	71.81
281.199	86.81
281.431	86.81
281.662	76.81
281.894	88.81
282.125	91.81
282.356	99.81
282.588	124.81
282.819	95.81
283.051	80.81
283.282	77.81
283.513	95.81
283.745	76.81
283.976	81.81
284.207	80.81
284.439	77.81
284.67	89.81
284.901	92.81
285.132	84.81
285.364	83.81
285.595	104.81
285.826	75.81
286.057	74.81
286.288	81.81
286.52	85.81
286.751	86.81
286.982	82.81
287.213	78.81
287.444	82.81
287.675	79.81
287.906	87.81
288.138	107.81
288.369	79.81
288.6	80.81
288.831	80.81
289.062	74.81
289.293	100.81
289.524	83.81
289.755	78.81
289.986	82.81
290.217	87.81
290.448	88.81
290.679	79.81
290.91	83.81
291.141	89.81
291.371	81.81
291.602	84.81
291.833	91.81
292.064	79.81
292.295	78.81
292.526	86.81
292.757	77.81
292.987	71.81
293.218	70.81
293.449	88.81
293.68	75.81
293.91	83.81
294.141	93.81
294.372	92.81
294.603	85.81
294.833	87.81
295.064	84.81
295.295	96.81
295.525	95.81
295.756	102.81
295.987	111.81
296.217	124.81
296.448	111.81
296.679	90.81
296.909	81.81
297.14	79.81
297.37	79.81
297.601	87.81
297.831	86.81
298.062	81.81
298.292	84.81
298.523	84.81
298.753	83.81
298.984	80.81
299.214	89.81
299.445	87.81
299.675	89.81
299.905	86.81
300.136	82.81
300.366	77.81
300.597	85.81
300.827	99.81
301.057	105.81
301.288	90.81
301.518	91.81
301.748	86.81
301.979	88.81
302.209	86.81
302.439	78.81
302.669	86.81
302.9	86.81
303.13	93.81
303.36	83.81
303.59	91.81
303.82	107.81
304.051	101.81
304.281	103.81
304.511	74.81
304.741	91.81
304.971	83.81
305.201	87.81
305.431	83.81
305.661	83.81
305.891	83.81
306.121	88.81
306.352	103.81
306.582	103.81
306.812	91.81
307.042	96.81
307.272	91.81
307.502	86.81
307.731	78.81
307.961	97.81
308.191	83.81
308.421	84.81
308.651	83.81
308.881	84.81
309.111	87.81
309.341	92.81
309.571	86.81
309.8	96.81
310.03	87.81
310.26	97.81
310.49	91.81
310.72	89.81
310.949	94.81
311.179	97.81
311.409	86.81
311.639	74.81
311.868	94.81
312.098	96.81
312.328	93.81
312.557	80.81
312.787	89.81
313.017	107.81
313.246	99.81
313.476	87.81
313.706	90.81
313.935	84.81
314.165	80.81
314.394	97.81
314.624	83.81
314.853	96.81
315.083	90.81
315.312	83.81
315.542	77.81
315.771	85.81
316.001	93.81
316.23	87.81
316.46	87.81
316.689	83.81
316.919	91.81
317.148	77.81
317.377	87.81
317.607	90.81
317.836	94.81
318.065	75.81
318.295	74.81
318.524	85.81
318.753	90.81
318.983	85.81
319.212	95.81
319.441	100.81
319.67	96.81
319.9	94.81
320.129	96.81
320.358	96.81
320.587	98.81
320.816	89.81
321.046	84.81
321.275	87.81
321.504	89.81
321.733	85.81
321.962	83.81
322.191	98.81
322.42	96.81
322.649	114.81
322.878	107.81
323.108	109.81
323.337	118.81
323.566	115.81
323.795	123.81
324.024	195.81
324.253	339.81
324.482	726.81
324.71	1453.81
324.939	1938.81
325.168	695.81
325.397	203.81
325.626	132.81
325.855	120.81
326.084	115.81
326.313	124.81
326.542	159.81
326.77	207.81
326.999	391.81
327.228	854.81
327.457	1555.81
327.686	1200.81
327.914	335.81
328.143	224.81
328.372	163.81
328.6	101.81
328.829	109.81
329.058	117.81
329.287	121.81
329.515	93.81
329.744	105.81
329.972	97.81
330.201	95.81
330.43	105.81
330.658	107.81
330.887	126.81
331.115	105.81
331.344	82.81
331.572	97.81
331.801	86.81
332.03	87.81
332.258	103.81
332.486	85.81
332.715	81.81
332.943	92.81
333.172	91.81
333.4	98.81
333.629	94.81
333.857	106.81
334.085	91.81
334.314	98.81
334.542	83.81
334.771	96.81
334.999	85.81
335.227	94.81
335.455	84.81
335.684	93.81
335.912	95.81
336.14	85.81
336.369	101.81
336.597	92.81
336.825	77.81
337.053	77.81
337.281	97.81
337.51	96.81
337.738	81.81
337.966	97.81
338.194	102.81
338.422	132.81
338.65	103.81
338.878	93.81
339.106	94.81
339.334	83.81
339.562	88.81
339.79	85.81
340.018	94.81
340.246	97.81
340.474	87.81
340.702	85.81
340.93	89.81
341.158	81.81
341.386	66.81
341.614	85.81
341.842	96.81
342.07	84.81
342.298	95.81
342.526	85.81
342.754	85.81
342.981	96.81
343.209	91.81
343.437	91.81
343.665	85.81
343.893	83.81
344.12	91.81
344.348	86.81
344.576	97.81
344.804	90.81
345.031	95.81
345.259	88.81
345.487	88.81
345.714	102.81
345.942	101.81
346.17	87.81
346.397	89.81
346.625	96.81
346.853	95.81
347.08	94.81
347.308	94.81
347.535	107.81
347.763	91.81
347.99	85.81
348.218	80.81
348.445	96.81
348.673	86.81
348.9	100.81
349.128	96.81
349.355	82.81
349.583	82.81
349.81	92.81
350.037	91.81
350.265	85.81
350.492	102.81
350.72	78.81
350.947	99.81
351.174	102.81
351.402	97.81
351.629	89.81
351.856	94.81
352.083	95.81
352.311	106.81
352.538	104.81
352.765	91.81
352.992	99.81
353.22	109.81
353.447	97.81
353.674	91.81
353.901	105.81
354.128	81.81
354.355	103.81
354.583	92.81
354.81	85.81
355.037	89.81
355.264	92.81
355.491	90.81
355.718	75.81
355.945	86.81
356.172	100.81
356.399	74.81
356.626	81.81
356.853	97.81
357.08	92.81
357.307	94.81
357.534	91.81
357.761	99.81
357.988	105.81
358.215	88.81
358.441	78.81
358.668	88.81
358.895	87.81
359.122	85.81
359.349	92.81
359.576	93.81
359.802	97.81
360.029	100.81
360.256	110.81
360.483	89.81
360.709	87.81
360.936	87.81
361.163	104.81
361.39	92.81
361.616	89.81
361.843	92.81
362.07	99.81
362.296	90.81
362.523	86.81
362.749	92.81
362.976	88.81
363.203	86.81
363.429	85.81
363.656	77.81
363.882	76.81
364.109	81.81
364.335	85.81
364.562	88.81
364.788	84.81
365.015	83.81
365.241	89.81
365.468	96.81
365.694	105.81
365.92	97.81
366.147	100.81
366.373	90.81
366.599	85.81
366.826	86.81
367.052	84.81
367.278	88.81
367.505	87.81
367.731	89.81
367.957	94.81
368.184	93.81
368.41	94.81
368.636	95.81
368.862	111.81
369.089	98.81
369.315	89.81
369.541	96.81
369.767	91.81
369.993	93.81
370.219	78.81
370.445	87.81
370.672	63.81
370.898	85.81
371.124	69.81
371.35	86.81
371.576	78.81
371.802	77.81
372.028	83.81
372.254	80.81
372.48	80.81
372.706	92.81
372.932	92.81
373.158	70.81
373.384	92.81
373.61	90.81
373.835	84.81
374.061	88.81
374.287	80.81
374.513	89.81
374.739	84.81
374.965	79.81
375.191	84.81
375.416	101.81
375.642	92.81
375.868	78.81
376.094	95.81
376.319	76.81
376.545	79.81
376.771	78.81
376.997	81.81
377.222	77.81
377.448	92.81
377.674	87.81
377.899	90.81
378.125	89.81
378.35	84.81
378.576	75.81
378.802	95.81
379.027	79.81
379.253	99.81
379.478	88.81
379.704	69.81
379.929	91.81
380.155	88.81
380.38	111.81
380.606	99.81
380.831	92.81
381.057	105.81
381.282	94.81
381.507	96.81
381.733	99.81
381.958	102.81
382.184	103.81
382.409	87.81
382.634	88.81
382.86	92.81
383.085	91.81
383.31	98.81
383.535	95.81
383.761	80.81
383.986	102.81
384.211	94.81
384.436	100.81
384.662	102.81
384.887	101.81
385.112	110.81
385.337	92.81
385.562	106.81
385.787	91.81
386.013	84.81
386.238	105.81
386.463	100.81
386.688	99.81
386.913	109.81
387.138	103.81
387.363	101.81
387.588	103.81
387.813	103.81
388.038	111.81
388.263	99.81
388.488	107.81
388.713	107.81
388.938	84.81
389.163	99.81
389.387	103.81
389.612	99.81
389.837	96.81
390.062	86.81
390.287	109.81
390.512	94.81
390.736	98.81
390.961	84.81
391.186	91.81
391.411	99.81
391.636	94.81
391.86	88.81
392.085	86.81
392.31	89.81
392.534	75.81
392.759	85.81
392.984	88.81
393.208	89.81
393.433	108.81
393.658	110.81
393.882	96.81
394.107	81.81
394.331	72.81
394.556	88.81
394.78	87.81
395.005	85.81
395.229	98.81
395.454	78.81
395.678	88.81
395.903	80.81
396.127	86.81
396.352	78.81
396.576	72.81
396.801	99.81
397.025	89.81
397.249	88.81
397.474	95.81
397.698	85.81
397.922	85.81
398.147	77.81
398.371	73.81
398.595	86.81
398.82	85.81
399.044	74.81
399.268	73.81
399.492	95.81
399.717	77.81
399.941	87.81
400.165	104.81
400.389	86.81
400.613	93.81
400.837	92.81
401.062	106.81
401.286	91.81
401.51	85.81
401.734	74.81
401.958	99.81
402.182	110.81
402.406	138.81
402.63	100.81
402.854	81.81
403.078	88.81
403.302	64.81
403.526	82.81
403.75	87.81
403.974	91.81
404.198	81.81
404.422	84.81
404.645	79.81
404.869	92.81
405.093	91.81
405.317	88.81
405.541	77.81
405.765	78.81
405.988	100.81
406.212	150.81
406.436	181.81
406.66	120.81
406.883	86.81
407.107	95.81
407.331	100.81
407.555	80.81
407.778	83.81
408.002	77.81
408.226	85.81
408.449	86.81
408.673	87.81
408.896	92.81
409.12	92.81
409.344	80.81
409.567	81.81
409.791	94.81
410.014	84.81
410.238	90.81
410.461	82.81
410.685	84.81
410.908	92.81
411.132	99.81
411.355	89.81
411.578	82.81
411.802	88.81
412.025	78.81
412.249	82.81
412.472	92.81
412.695	81.81
412.919	100.81
413.142	86.81
413.365	77.81
413.589	76.81
413.812	79.81
414.035	87.81
414.258	96.81
414.482	97.81
414.705	87.81
414.928	89.81
415.151	81.81
415.374	73.81
415.597	89.81
415.821	86.81
416.044	95.81
416.267	96.81
416.49	96.81
416.713	70.81
416.936	86.81
417.159	96.81
417.382	81.81
417.605	96.81
417.828	81.81
418.051	81.81
418.274	96.81
418.497	77.81
418.72	85.81
418.943	92.81
419.166	63.81
419.389	68.81
419.611	69.81
419.834	84.81
420.057	86.81
420.28	81.81
420.503	96.81
420.726	82.81
420.948	97.81
421.171	89.81
421.394	91.81
421.617	89.81
421.839	92.81
422.062	96.81
422.285	96.81
422.507	91.81
422.73	97.81
422.953	101.81
423.175	88.81
423.398	85.81
423.621	77.81
423.843	78.81
424.066	77.81
424.288	88.81
424.511	96.81
424.733	91.81
424.956	84.81
425.178	103.81
425.401	103.81
425.623	104.81
425.846	85.81
426.068	91.81
426.291	86.81
426.513	104.81
426.735	101.81
426.958	88.81
427.18	101.81
427.402	123.81
427.625	143.81
427.847	110.81
428.069	86.81
428.292	76.81
428.514	90.81
428.736	88.81
428.958	80.81
429.181	91.81
429.403	89.81
429.625	74.81
429.847	96.81
430.069	104.81
430.292	83.81
430.514	77.81
430.736	84.81
430.958	84.81
431.18	83.81
431.402	82.81
431.624	73.81
431.846	87.81
432.068	95.81
432.29	88.81
432.512	81.81
432.734	72.81
432.956	87.81
433.178	100.81
433.4	101.81
433.622	93.81
433.844	94.81
434.066	93.81
434.287	79.81
434.509	86.81
434.731	90.81
434.953	78.81
435.175	95.81
435.397	72.81
435.618	85.81
435.84	107.81
436.062	120.81
436.284	111.81
436.505	92.81
436.727	93.81
436.949	81.81
437.17	85.81
437.392	89.81
437.614	84.81
437.835	92.81
438.057	103.81
438.278	108.81
438.5	89.81
438.721	106.81
438.943	89.81
439.165	92.81
439.386	77.81
439.608	89.81
439.829	91.81
440.05	116.81
440.272	136.81
440.493	103.81
440.715	88.81
440.936	79.81
441.158	86.81
441.379	94.81
441.6	87.81
441.822	100.81
442.043	91.81
442.264	95.81
442.486	93.81
442.707	82.81
442.928	97.81
443.149	118.81
443.371	110.81
443.592	101.81
443.813	90.81
444.034	94.81
444.255	87.81
444.476	96.81
444.698	71.81
444.919	83.81
445.14	131.81
445.361	122.81
445.582	123.81
445.803	126.81
446.024	140.81
446.245	131.81
446.466	93.81
446.687	69.81
446.908	81.81
447.129	75.81
447.35	89.81
447.571	87.81
447.792	82.81
448.013	88.81
448.234	97.81
448.455	96.81
448.675	115.81
448.896	124.81
449.117	109.81
449.338	84.81
449.559	142.81
449.779	136.81
450	88.81
450.221	81.81
450.442	64.81
450.662	87.81
450.883	102.81
451.104	93.81
451.324	86.81
451.545	71.81
451.766	98.81
451.986	94.81
452.207	78.81
452.428	92.81
452.648	88.81
452.869	87.81
453.089	106.81
453.31	92.81
453.53	84.81
453.751	86.81
453.971	93.81
454.192	107.81
454.412	85.81
454.633	86.81
454.853	86.81
455.073	90.81
455.294	92.81
455.514	100.81
455.734	85.81
455.955	84.81
456.175	78.81
456.395	86.81
456.616	69.81
456.836	88.81
457.056	79.81
457.276	89.81
457.497	94.81
457.717	81.81
457.937	64.81
458.157	77.81
458.377	80.81
458.598	99.81
458.818	133.81
459.038	132.81
459.258	98.81
459.478	101.81
459.698	84.81
459.918	71.81
460.138	83.81
460.358	85.81
460.578	81.81
460.798	94.81
461.018	86.81
461.238	89.81
461.458	81.81
461.678	93.81
461.898	89.81
462.118	77.81
462.338	85.81
462.558	100.81
462.777	90.81
462.997	79.81
463.217	83.81
463.437	88.81
463.657	89.81
463.876	78.81
464.096	72.81
464.316	84.81
464.536	73.81
464.755	87.81
464.975	116.81
465.195	147.81
465.414	144.81
465.634	87.81
465.854	69.81
466.073	73.81
466.293	80.81
466.512	76.81
466.732	76.81
466.951	92.81
467.171	91.81
467.391	79.81
467.61	105.81
467.829	89.81
468.049	72.81
468.268	83.81
468.488	90.81
468.707	72.81
468.927	85.81
469.146	86.81
469.365	78.81
469.585	87.81
469.804	75.81
470.023	96.81
470.243	97.81
470.462	91.81
470.681	83.81
470.901	72.81
471.12	70.81
471.339	90.81
471.558	75.81
471.777	76.81
471.997	83.81
472.216	76.81
472.435	92.81
472.654	92.81
472.873	88.81
473.092	80.81
473.311	82.81
473.53	87.81
473.749	78.81
473.968	90.81
474.187	88.81
474.406	86.81
474.625	75.81
474.844	102.81
475.063	73.81
475.282	93.81
475.501	83.81
475.72	91.81
475.939	87.81
476.158	94.81
476.377	87.81
476.596	87.81
476.814	79.81
477.033	76.81
477.252	101.81
477.471	97.81
477.69	94.81
477.908	85.81
478.127	77.81
478.346	84.81
478.564	83.81
478.783	94.81
479.002	95.81
479.22	85.81
479.439	99.81
479.658	92.81
479.876	89.81
480.095	81.81
480.313	92.81
480.532	88.81
480.751	89.81
480.969	100.81
481.188	81.81
481.406	97.81
481.624	77.81
481.843	92.81
482.061	85.81
482.28	84.81
482.498	87.81
482.717	78.81
482.935	80.81
483.153	85.81
483.372	82.81
483.59	88.81
483.808	81.81
484.027	87.81
484.245	84.81
484.463	81.81
484.681	96.81
484.9	99.81
485.118	93.81
485.336	102.81
485.554	92.81
485.772	95.81
485.99	90.81
486.209	91.81
486.427	79.81
486.645	96.81
486.863	89.81
487.081	108.81
487.299	88.81
487.517	94.81
487.735	101.81
487.953	83.81
488.171	100.81
488.389	89.81
488.607	91.81
488.825	83.81
489.043	97.81
489.261	87.81
489.479	95.81
489.696	95.81
489.914	87.81
490.132	98.81
490.35	101.81
490.568	92.81
490.786	88.81
491.003	85.81
491.221	90.81
491.439	91.81
491.657	89.81
491.874	77.81
492.092	67.81
492.31	93.81
492.527	85.81
492.745	83.81
492.963	92.81
493.18	89.81
493.398	96.81
493.615	85.81
493.833	92.81
494.05	95.81
494.268	95.81
494.485	75.81
494.703	88.81
494.92	86.81
495.138	90.81
495.355	99.81
495.573	85.81
495.79	91.81
496.008	110.81
496.225	85.81
496.442	55.81
496.66	71.81
496.877	73.81
497.094	75.81
497.312	79.81
497.529	71.81
497.746	79.81
497.963	78.81
498.181	80.81
498.398	84.81
498.615	111.81
498.832	99.81
499.049	70.81
499.267	104.81
499.484	91.81
499.701	88.81
499.918	96.81
500.135	94.81
500.352	85.81
500.569	79.81
500.786	97.81
501.003	80.81
501.22	80.81
501.437	91.81
501.654	83.81
501.871	87.81
502.088	76.81
502.305	97.81
502.522	84.81
502.739	88.81
502.956	79.81
503.172	89.81
503.389	87.81
503.606	106.81
503.823	84.81
504.04	85.81
504.256	87.81
504.473	64.81
504.69	90.81
504.907	81.81
505.123	79.81
505.34	96.81
505.557	87.81
505.773	92.81
505.99	94.81
506.207	84.81
506.423	86.81
506.64	83.81
506.856	92.81
507.073	100.81
507.289	89.81
507.506	93.81
507.722	90.81
507.939	84.81
508.155	84.81
508.372	94.81
508.588	88.81
508.805	95.81
509.021	110.81
509.238	94.81
509.454	105.81
509.67	98.81
509.887	83.81
510.103	116.81
510.319	173.81
510.536	613.81
510.752	1844.81
510.968	523.81
511.184	145.81
511.401	100.81
511.617	85.81
511.833	88.81
512.049	101.81
512.265	81.81
512.481	84.81
512.698	87.81
512.914	72.81
513.13	79.81
513.346	82.81
513.562	92.81
513.778	89.81
513.994	99.81
514.21	94.81
514.426	104.81
514.642	117.81
514.858	112.81
515.074	158.81
515.29	383.81
515.506	1150.81
515.721	421.81
515.937	132.81
516.153	95.81
516.369	109.81
516.585	100.81
516.801	97.81
517.016	84.81
517.232	93.81
