Data from Uncirc_1996_H10_HRD10591_00016.txt Node
Date: Wed Jan 03 11:32:05 EST 2024
User: Yrep
Spectrometer: HR+D1059
Trigger mode: 1
Integration Time (sec): 1.000000E-1
Scans to average: 1
Electric dark correction enabled: true
Nonlinearity correction enabled: false
Boxcar width: 0
XAxis mode: Wavelengths
Number of Pixels in Spectrum: 2048
>>>>>Begin Spectral Data<<<<<
223.165	-36.62
223.4	-36.62
223.635	-36.62
223.869	-15.62
224.104	-12.62
224.338	-8.62
224.573	-12.62
224.808	-12.62
225.042	-10.62
225.277	-5.62
225.511	-7.62
225.746	-6.62
225.98	8.38
226.215	17.38
226.449	24.38
226.683	20.38
226.918	29.38
227.152	29.38
227.387	28.38
227.621	23.38
227.856	49.38
228.09	47.38
228.324	50.38
228.559	47.38
228.793	46.38
229.027	66.38
229.262	49.38
229.496	54.38
229.73	78.38
229.964	85.38
230.199	55.38
230.433	78.38
230.667	63.38
230.901	73.38
231.136	75.38
231.37	63.38
231.604	77.38
231.838	75.38
232.072	78.38
232.306	88.38
232.541	75.38
232.775	62.38
233.009	87.38
233.243	80.38
233.477	84.38
233.711	84.38
233.945	78.38
234.179	75.38
234.413	72.38
234.647	77.38
234.881	75.38
235.115	86.38
235.349	77.38
235.583	76.38
235.817	76.38
236.051	76.38
236.285	76.38
236.519	74.38
236.753	63.38
236.987	74.38
237.221	75.38
237.455	89.38
237.689	62.38
237.922	75.38
238.156	67.38
238.39	69.38
238.624	66.38
238.858	76.38
239.091	76.38
239.325	63.38
239.559	71.38
239.793	83.38
240.027	68.38
240.26	69.38
240.494	91.38
240.728	73.38
240.961	62.38
241.195	74.38
241.429	69.38
241.662	76.38
241.896	82.38
242.13	78.38
242.363	86.38
242.597	60.38
242.83	77.38
243.064	88.38
243.298	75.38
243.531	84.38
243.765	87.38
243.998	79.38
244.232	72.38
244.465	84.38
244.699	75.38
244.932	81.38
245.166	83.38
245.399	77.38
245.633	80.38
245.866	89.38
246.099	88.38
246.333	76.38
246.566	77.38
246.8	63.38
247.033	64.38
247.266	84.38
247.5	94.38
247.733	97.38
247.966	84.38
248.2	73.38
248.433	87.38
248.666	90.38
248.899	71.38
249.133	77.38
249.366	87.38
249.599	87.38
249.832	71.38
250.066	87.38
250.299	84.38
250.532	80.38
250.765	66.38
250.998	79.38
251.231	92.38
251.465	79.38
251.698	71.38
251.931	74.38
252.164	73.38
252.397	83.38
252.63	80.38
252.863	71.38
253.096	84.38
253.329	81.38
253.562	69.38
253.795	87.38
254.028	82.38
254.261	81.38
254.494	94.38
254.727	80.38
254.96	80.38
255.193	72.38
255.426	81.38
255.659	86.38
255.892	77.38
256.124	81.38
256.357	71.38
256.59	69.38
256.823	79.38
257.056	71.38
257.289	68.38
257.521	83.38
257.754	84.38
257.987	65.38
258.22	85.38
258.452	68.38
258.685	78.38
258.918	73.38
259.151	73.38
259.383	77.38
259.616	78.38
259.849	81.38
260.081	84.38
260.314	71.38
260.547	88.38
260.779	69.38
261.012	69.38
261.244	71.38
261.477	92.38
261.71	99.38
261.942	99.38
262.175	96.38
262.407	92.38
262.64	67.38
262.872	87.38
263.105	90.38
263.337	75.38
263.57	64.38
263.802	73.38
264.035	80.38
264.267	78.38
264.499	77.38
264.732	74.38
264.964	91.38
265.197	77.38
265.429	73.38
265.661	85.38
265.894	77.38
266.126	78.38
266.358	77.38
266.591	80.38
266.823	82.38
267.055	82.38
267.287	90.38
267.52	77.38
267.752	83.38
267.984	82.38
268.216	84.38
268.448	71.38
268.681	86.38
268.913	91.38
269.145	84.38
269.377	79.38
269.609	83.38
269.841	76.38
270.073	73.38
270.306	89.38
270.538	89.38
270.77	83.38
271.002	78.38
271.234	84.38
271.466	79.38
271.698	87.38
271.93	85.38
272.162	81.38
272.394	80.38
272.626	83.38
272.858	80.38
273.09	75.38
273.322	87.38
273.553	87.38
273.785	92.38
274.017	91.38
274.249	94.38
274.481	80.38
274.713	68.38
274.945	83.38
275.176	73.38
275.408	84.38
275.64	69.38
275.872	77.38
276.104	87.38
276.335	91.38
276.567	105.38
276.799	114.38
277.031	81.38
277.262	87.38
277.494	70.38
277.726	88.38
277.957	86.38
278.189	80.38
278.421	83.38
278.652	73.38
278.884	87.38
279.115	75.38
279.347	80.38
279.579	70.38
279.81	86.38
280.042	73.38
280.273	72.38
280.505	101.38
280.736	99.38
280.968	78.38
281.199	84.38
281.431	75.38
281.662	81.38
281.894	76.38
282.125	87.38
282.356	109.38
282.588	124.38
282.819	103.38
283.051	81.38
283.282	89.38
283.513	91.38
283.745	78.38
283.976	74.38
284.207	88.38
284.439	86.38
284.67	87.38
284.901	89.38
285.132	91.38
285.364	65.38
285.595	83.38
285.826	80.38
286.057	92.38
286.288	87.38
286.52	81.38
286.751	77.38
286.982	81.38
287.213	81.38
287.444	85.38
287.675	91.38
287.906	81.38
288.138	88.38
288.369	78.38
288.6	83.38
288.831	91.38
289.062	88.38
289.293	84.38
289.524	73.38
289.755	76.38
289.986	84.38
290.217	75.38
290.448	85.38
290.679	84.38
290.91	83.38
291.141	96.38
291.371	74.38
291.602	94.38
291.833	80.38
292.064	82.38
292.295	96.38
292.526	92.38
292.757	81.38
292.987	88.38
293.218	71.38
293.449	67.38
293.68	69.38
293.91	85.38
294.141	85.38
294.372	77.38
294.603	80.38
294.833	86.38
295.064	85.38
295.295	94.38
295.525	86.38
295.756	88.38
295.987	111.38
296.217	99.38
296.448	117.38
296.679	86.38
296.909	98.38
297.14	89.38
297.37	88.38
297.601	93.38
297.831	72.38
298.062	81.38
298.292	85.38
298.523	97.38
298.753	77.38
298.984	80.38
299.214	77.38
299.445	73.38
299.675	90.38
299.905	79.38
300.136	101.38
300.366	88.38
300.597	85.38
300.827	92.38
301.057	92.38
301.288	88.38
301.518	79.38
301.748	90.38
301.979	87.38
302.209	83.38
302.439	71.38
302.669	85.38
302.9	89.38
303.13	87.38
303.36	74.38
303.59	97.38
303.82	89.38
304.051	89.38
304.281	92.38
304.511	85.38
304.741	89.38
304.971	90.38
305.201	96.38
305.431	71.38
305.661	76.38
305.891	91.38
306.121	99.38
306.352	112.38
306.582	112.38
306.812	85.38
307.042	89.38
307.272	82.38
307.502	94.38
307.731	88.38
307.961	76.38
308.191	79.38
308.421	88.38
308.651	87.38
308.881	88.38
309.111	82.38
309.341	98.38
309.571	92.38
309.8	96.38
310.03	93.38
310.26	98.38
310.49	80.38
310.72	97.38
310.949	89.38
311.179	100.38
311.409	63.38
311.639	86.38
311.868	73.38
312.098	99.38
312.328	90.38
312.557	90.38
312.787	98.38
313.017	90.38
313.246	91.38
313.476	92.38
313.706	94.38
313.935	88.38
314.165	101.38
314.394	93.38
314.624	97.38
314.853	87.38
315.083	93.38
315.312	82.38
315.542	84.38
315.771	70.38
316.001	75.38
316.23	93.38
316.46	88.38
316.689	80.38
316.919	94.38
317.148	99.38
317.377	78.38
317.607	91.38
317.836	85.38
318.065	96.38
318.295	101.38
318.524	76.38
318.753	93.38
318.983	85.38
319.212	97.38
319.441	100.38
319.67	83.38
319.9	85.38
320.129	94.38
320.358	94.38
320.587	92.38
320.816	92.38
321.046	81.38
321.275	82.38
321.504	94.38
321.733	96.38
321.962	81.38
322.191	94.38
322.42	89.38
322.649	88.38
322.878	95.38
323.108	106.38
323.337	110.38
323.566	108.38
323.795	134.38
324.024	172.38
324.253	342.38
324.482	709.38
324.71	1464.38
324.939	1955.38
325.168	723.38
325.397	226.38
325.626	133.38
325.855	101.38
326.084	124.38
326.313	134.38
326.542	128.38
326.77	218.38
326.999	406.38
327.228	850.38
327.457	1584.38
327.686	1237.38
327.914	360.38
328.143	210.38
328.372	169.38
328.6	111.38
328.829	122.38
329.058	128.38
329.287	120.38
329.515	96.38
329.744	103.38
329.972	98.38
330.201	97.38
330.43	106.38
330.658	106.38
330.887	123.38
331.115	116.38
331.344	100.38
331.572	91.38
331.801	97.38
332.03	97.38
332.258	98.38
332.486	91.38
332.715	89.38
332.943	96.38
333.172	110.38
333.4	93.38
333.629	95.38
333.857	95.38
334.085	92.38
334.314	89.38
334.542	93.38
334.771	89.38
334.999	87.38
335.227	89.38
335.455	106.38
335.684	91.38
335.912	92.38
336.14	99.38
336.369	80.38
336.597	95.38
336.825	94.38
337.053	93.38
337.281	93.38
337.51	75.38
337.738	86.38
337.966	89.38
338.194	115.38
338.422	119.38
338.65	113.38
338.878	88.38
339.106	94.38
339.334	96.38
339.562	88.38
339.79	77.38
340.018	75.38
340.246	84.38
340.474	91.38
340.702	84.38
340.93	85.38
341.158	83.38
341.386	75.38
341.614	84.38
341.842	103.38
342.07	111.38
342.298	96.38
342.526	86.38
342.754	89.38
342.981	72.38
343.209	75.38
343.437	110.38
343.665	91.38
343.893	83.38
344.12	85.38
344.348	92.38
344.576	96.38
344.804	97.38
345.031	87.38
345.259	79.38
345.487	70.38
345.714	88.38
345.942	86.38
346.17	107.38
346.397	88.38
346.625	100.38
346.853	90.38
347.08	91.38
347.308	94.38
347.535	86.38
347.763	94.38
347.99	99.38
348.218	98.38
348.445	111.38
348.673	95.38
348.9	80.38
349.128	101.38
349.355	90.38
349.583	94.38
349.81	74.38
350.037	94.38
350.265	91.38
350.492	83.38
350.72	96.38
350.947	88.38
351.174	100.38
351.402	95.38
351.629	105.38
351.856	84.38
352.083	89.38
352.311	103.38
352.538	118.38
352.765	106.38
352.992	106.38
353.22	110.38
353.447	93.38
353.674	103.38
353.901	86.38
354.128	83.38
354.355	94.38
354.583	97.38
354.81	104.38
355.037	97.38
355.264	101.38
355.491	95.38
355.718	89.38
355.945	93.38
356.172	95.38
356.399	95.38
356.626	104.38
356.853	81.38
357.08	94.38
357.307	93.38
357.534	82.38
357.761	92.38
357.988	93.38
358.215	84.38
358.441	76.38
358.668	78.38
358.895	86.38
359.122	84.38
359.349	84.38
359.576	78.38
359.802	98.38
360.029	107.38
360.256	108.38
360.483	104.38
360.709	88.38
360.936	101.38
361.163	81.38
361.39	79.38
361.616	83.38
361.843	70.38
362.07	88.38
362.296	98.38
362.523	88.38
362.749	94.38
362.976	88.38
363.203	94.38
363.429	74.38
363.656	88.38
363.882	96.38
364.109	89.38
364.335	93.38
364.562	77.38
364.788	71.38
365.015	82.38
365.241	99.38
365.468	100.38
365.694	97.38
365.92	83.38
366.147	91.38
366.373	75.38
366.599	81.38
366.826	67.38
367.052	89.38
367.278	79.38
367.505	85.38
367.731	83.38
367.957	86.38
368.184	101.38
368.41	96.38
368.636	115.38
368.862	104.38
369.089	97.38
369.315	103.38
369.541	79.38
369.767	95.38
369.993	89.38
370.219	84.38
370.445	91.38
370.672	84.38
370.898	85.38
371.124	99.38
371.35	87.38
371.576	75.38
371.802	86.38
372.028	91.38
372.254	69.38
372.48	83.38
372.706	90.38
372.932	93.38
373.158	78.38
373.384	93.38
373.61	89.38
373.835	94.38
374.061	94.38
374.287	105.38
374.513	93.38
374.739	84.38
374.965	83.38
375.191	92.38
375.416	98.38
375.642	78.38
375.868	89.38
376.094	83.38
376.319	96.38
376.545	85.38
376.771	88.38
376.997	93.38
377.222	95.38
377.448	80.38
377.674	86.38
377.899	97.38
378.125	89.38
378.35	98.38
378.576	83.38
378.802	103.38
379.027	89.38
379.253	84.38
379.478	80.38
379.704	88.38
379.929	94.38
380.155	103.38
380.38	94.38
380.606	84.38
380.831	100.38
381.057	94.38
381.282	104.38
381.507	99.38
381.733	92.38
381.958	97.38
382.184	102.38
382.409	85.38
382.634	106.38
382.86	106.38
383.085	99.38
383.31	81.38
383.535	97.38
383.761	101.38
383.986	94.38
384.211	101.38
384.436	89.38
384.662	103.38
384.887	85.38
385.112	101.38
385.337	96.38
385.562	110.38
385.787	104.38
386.013	98.38
386.238	105.38
386.463	103.38
386.688	110.38
386.913	101.38
387.138	112.38
387.363	105.38
387.588	104.38
387.813	99.38
388.038	107.38
388.263	114.38
388.488	89.38
388.713	89.38
388.938	91.38
389.163	103.38
389.387	84.38
389.612	92.38
389.837	92.38
390.062	95.38
390.287	95.38
390.512	87.38
390.736	83.38
390.961	76.38
391.186	96.38
391.411	89.38
391.636	83.38
391.86	89.38
392.085	92.38
392.31	92.38
392.534	85.38
392.759	89.38
392.984	87.38
393.208	102.38
393.433	110.38
393.658	98.38
393.882	75.38
394.107	88.38
394.331	94.38
394.556	73.38
394.78	91.38
395.005	101.38
395.229	82.38
395.454	98.38
395.678	91.38
395.903	79.38
396.127	84.38
396.352	87.38
396.576	81.38
396.801	80.38
397.025	92.38
397.249	97.38
397.474	90.38
397.698	89.38
397.922	87.38
398.147	84.38
398.371	78.38
398.595	87.38
398.82	82.38
399.044	87.38
399.268	85.38
399.492	86.38
399.717	81.38
399.941	93.38
400.165	85.38
400.389	71.38
400.613	93.38
400.837	75.38
401.062	83.38
401.286	89.38
401.51	76.38
401.734	91.38
401.958	110.38
402.182	115.38
402.406	150.38
402.63	107.38
402.854	84.38
403.078	87.38
403.302	88.38
403.526	89.38
403.75	85.38
403.974	86.38
404.198	74.38
404.422	82.38
404.645	105.38
404.869	91.38
405.093	75.38
405.317	95.38
405.541	94.38
405.765	81.38
405.988	97.38
406.212	163.38
406.436	184.38
406.66	123.38
406.883	103.38
407.107	76.38
407.331	108.38
407.555	81.38
407.778	94.38
408.002	98.38
408.226	91.38
408.449	75.38
408.673	88.38
408.896	105.38
409.12	89.38
409.344	95.38
409.567	78.38
409.791	86.38
410.014	88.38
410.238	89.38
410.461	92.38
410.685	79.38
410.908	100.38
411.132	108.38
411.355	88.38
411.578	94.38
411.802	92.38
412.025	83.38
412.249	97.38
412.472	89.38
412.695	79.38
412.919	83.38
413.142	95.38
413.365	100.38
413.589	84.38
413.812	85.38
414.035	87.38
414.258	99.38
414.482	93.38
414.705	64.38
414.928	73.38
415.151	87.38
415.374	92.38
415.597	89.38
415.821	85.38
416.044	87.38
416.267	102.38
416.49	88.38
416.713	86.38
416.936	102.38
417.159	92.38
417.382	87.38
417.605	97.38
417.828	94.38
418.051	89.38
418.274	75.38
418.497	95.38
418.72	83.38
418.943	85.38
419.166	92.38
419.389	83.38
419.611	80.38
419.834	95.38
420.057	79.38
420.28	76.38
420.503	101.38
420.726	71.38
420.948	88.38
421.171	95.38
421.394	85.38
421.617	79.38
421.839	101.38
422.062	81.38
422.285	91.38
422.507	96.38
422.73	112.38
422.953	98.38
423.175	82.38
423.398	86.38
423.621	97.38
423.843	76.38
424.066	86.38
424.288	80.38
424.511	96.38
424.733	83.38
424.956	109.38
425.178	93.38
425.401	105.38
425.623	106.38
425.846	99.38
426.068	98.38
426.291	87.38
426.513	85.38
426.735	97.38
426.958	85.38
427.18	106.38
427.402	148.38
427.625	147.38
427.847	115.38
428.069	96.38
428.292	81.38
428.514	81.38
428.736	104.38
428.958	85.38
429.181	83.38
429.403	88.38
429.625	79.38
429.847	86.38
430.069	109.38
430.292	87.38
430.514	92.38
430.736	75.38
430.958	78.38
431.18	82.38
431.402	80.38
431.624	82.38
431.846	67.38
432.068	94.38
432.29	94.38
432.512	88.38
432.734	89.38
432.956	94.38
433.178	98.38
433.4	103.38
433.622	96.38
433.844	88.38
434.066	88.38
434.287	63.38
434.509	89.38
434.731	93.38
434.953	83.38
435.175	78.38
435.397	85.38
435.618	91.38
435.84	100.38
436.062	111.38
436.284	119.38
436.505	101.38
436.727	101.38
436.949	99.38
437.17	94.38
437.392	88.38
437.614	93.38
437.835	108.38
438.057	122.38
438.278	110.38
438.5	95.38
438.721	121.38
438.943	103.38
439.165	90.38
439.386	83.38
439.608	83.38
439.829	102.38
440.05	135.38
440.272	121.38
440.493	87.38
440.715	79.38
440.936	78.38
441.158	60.38
441.379	83.38
441.6	94.38
441.822	98.38
442.043	96.38
442.264	101.38
442.486	99.38
442.707	95.38
442.928	96.38
443.149	128.38
443.371	129.38
443.592	109.38
443.813	93.38
444.034	112.38
444.255	83.38
444.476	81.38
444.698	102.38
444.919	72.38
445.14	129.38
445.361	127.38
445.582	118.38
445.803	123.38
446.024	134.38
446.245	134.38
446.466	109.38
446.687	94.38
446.908	100.38
447.129	81.38
447.35	80.38
447.571	68.38
447.792	75.38
448.013	104.38
448.234	100.38
448.455	87.38
448.675	110.38
448.896	113.38
449.117	93.38
449.338	84.38
449.559	136.38
449.779	127.38
450	97.38
450.221	91.38
450.442	80.38
450.662	103.38
450.883	111.38
451.104	91.38
451.324	88.38
451.545	77.38
451.766	85.38
451.986	85.38
452.207	79.38
452.428	87.38
452.648	82.38
452.869	89.38
453.089	104.38
453.31	115.38
453.53	89.38
453.751	86.38
453.971	101.38
454.192	97.38
454.412	83.38
454.633	85.38
454.853	87.38
455.073	78.38
455.294	84.38
455.514	91.38
455.734	92.38
455.955	76.38
456.175	76.38
456.395	92.38
456.616	92.38
456.836	88.38
457.056	70.38
457.276	80.38
457.497	90.38
457.717	84.38
457.937	84.38
458.157	83.38
458.377	85.38
458.598	82.38
458.818	146.38
459.038	151.38
459.258	109.38
459.478	85.38
459.698	82.38
459.918	80.38
460.138	96.38
460.358	89.38
460.578	90.38
460.798	96.38
461.018	76.38
461.238	75.38
461.458	96.38
461.678	88.38
461.898	96.38
462.118	85.38
462.338	81.38
462.558	77.38
462.777	96.38
462.997	77.38
463.217	60.38
463.437	88.38
463.657	84.38
463.876	89.38
464.096	77.38
464.316	101.38
464.536	97.38
464.755	93.38
464.975	104.38
465.195	151.38
465.414	131.38
465.634	92.38
465.854	86.38
466.073	93.38
466.293	78.38
466.512	87.38
466.732	72.38
466.951	91.38
467.171	91.38
467.391	87.38
467.61	90.38
467.829	88.38
468.049	85.38
468.268	83.38
468.488	70.38
468.707	79.38
468.927	83.38
469.146	86.38
469.365	79.38
469.585	75.38
469.804	89.38
470.023	83.38
470.243	74.38
470.462	97.38
470.681	110.38
470.901	88.38
471.12	75.38
471.339	90.38
471.558	93.38
471.777	83.38
471.997	81.38
472.216	84.38
472.435	94.38
472.654	87.38
472.873	87.38
473.092	80.38
473.311	92.38
473.53	83.38
473.749	85.38
473.968	108.38
474.187	107.38
474.406	83.38
474.625	76.38
474.844	97.38
475.063	93.38
475.282	71.38
475.501	86.38
475.72	73.38
475.939	89.38
476.158	89.38
476.377	92.38
476.596	85.38
476.814	88.38
477.033	95.38
477.252	79.38
477.471	87.38
477.69	94.38
477.908	80.38
478.127	73.38
478.346	78.38
478.564	73.38
478.783	85.38
479.002	91.38
479.22	84.38
479.439	92.38
479.658	92.38
479.876	79.38
480.095	76.38
480.313	84.38
480.532	85.38
480.751	90.38
480.969	105.38
481.188	90.38
481.406	78.38
481.624	87.38
481.843	91.38
482.061	96.38
482.28	93.38
482.498	96.38
482.717	70.38
482.935	87.38
483.153	88.38
483.372	89.38
483.59	89.38
483.808	71.38
484.027	94.38
484.245	95.38
484.463	93.38
484.681	89.38
484.9	90.38
485.118	100.38
485.336	96.38
485.554	105.38
485.772	109.38
485.99	96.38
486.209	117.38
486.427	95.38
486.645	103.38
486.863	108.38
487.081	95.38
487.299	105.38
487.517	93.38
487.735	95.38
487.953	75.38
488.171	86.38
488.389	92.38
488.607	80.38
488.825	83.38
489.043	65.38
489.261	82.38
489.479	73.38
489.696	90.38
489.914	96.38
490.132	104.38
490.35	85.38
490.568	91.38
490.786	83.38
491.003	88.38
491.221	91.38
491.439	102.38
491.657	84.38
491.874	87.38
492.092	90.38
492.31	100.38
492.527	79.38
492.745	87.38
492.963	84.38
493.18	86.38
493.398	94.38
493.615	105.38
493.833	89.38
494.05	85.38
494.268	89.38
494.485	90.38
494.703	92.38
494.92	86.38
495.138	107.38
495.355	88.38
495.573	74.38
495.79	92.38
496.008	87.38
496.225	84.38
496.442	87.38
496.66	80.38
496.877	81.38
497.094	87.38
497.312	90.38
497.529	91.38
497.746	83.38
497.963	86.38
498.181	85.38
498.398	86.38
498.615	81.38
498.832	90.38
499.049	103.38
499.267	98.38
499.484	79.38
499.701	98.38
499.918	80.38
500.135	79.38
500.352	85.38
500.569	72.38
500.786	99.38
501.003	94.38
501.22	80.38
501.437	106.38
501.654	91.38
501.871	110.38
502.088	85.38
502.305	89.38
502.522	83.38
502.739	92.38
502.956	78.38
503.172	97.38
503.389	91.38
503.606	105.38
503.823	99.38
504.04	87.38
504.256	89.38
504.473	81.38
504.69	88.38
504.907	96.38
505.123	77.38
505.34	94.38
505.557	90.38
505.773	93.38
505.99	80.38
506.207	80.38
506.423	81.38
506.64	71.38
506.856	83.38
507.073	91.38
507.289	85.38
507.506	92.38
507.722	104.38
507.939	88.38
508.155	106.38
508.372	91.38
508.588	85.38
508.805	99.38
509.021	95.38
509.238	101.38
509.454	96.38
509.67	95.38
509.887	110.38
510.103	109.38
510.319	203.38
510.536	614.38
510.752	1833.38
510.968	520.38
511.184	137.38
511.401	91.38
511.617	99.38
511.833	104.38
512.049	96.38
512.265	92.38
512.481	81.38
512.698	101.38
512.914	83.38
513.13	87.38
513.346	96.38
513.562	89.38
513.778	90.38
513.994	95.38
514.21	96.38
514.426	88.38
514.642	110.38
514.858	111.38
515.074	141.38
515.29	359.38
515.506	1177.38
515.721	449.38
515.937	137.38
516.153	89.38
516.369	89.38
516.585	86.38
516.801	89.38
