Data from Uncirc_1996_H10_HRD10591_00024.txt Node
Date: Wed Jan 03 11:32:07 EST 2024
User: Yrep
Spectrometer: HR+D1059
Trigger mode: 1
Integration Time (sec): 1.000000E-1
Scans to average: 1
Electric dark correction enabled: true
Nonlinearity correction enabled: false
Boxcar width: 0
XAxis mode: Wavelengths
Number of Pixels in Spectrum: 2048
>>>>>Begin Spectral Data<<<<<
223.165	-25.06
223.4	-25.06
223.635	-25.06
223.869	-5.06
224.104	-38.06
224.338	-22.06
224.573	-16.06
224.808	-21.06
225.042	-4.06
225.277	5.94
225.511	-1.06
225.746	6.94
225.98	-8.06
226.215	15.94
226.449	34.94
226.683	20.94
226.918	34.94
227.152	20.94
227.387	20.94
227.621	23.94
227.856	47.94
228.09	52.94
228.324	52.94
228.559	58.94
228.793	64.94
229.027	63.94
229.262	73.94
229.496	66.94
229.73	72.94
229.964	86.94
230.199	74.94
230.433	88.94
230.667	82.94
230.901	81.94
231.136	80.94
231.37	79.94
231.604	88.94
231.838	64.94
232.072	66.94
232.306	70.94
232.541	82.94
232.775	64.94
233.009	74.94
233.243	91.94
233.477	70.94
233.711	86.94
233.945	87.94
234.179	76.94
234.413	95.94
234.647	89.94
234.881	82.94
235.115	75.94
235.349	70.94
235.583	77.94
235.817	63.94
236.051	74.94
236.285	78.94
236.519	92.94
236.753	85.94
236.987	82.94
237.221	74.94
237.455	89.94
237.689	81.94
237.922	66.94
238.156	76.94
238.39	72.94
238.624	73.94
238.858	76.94
239.091	66.94
239.325	77.94
239.559	72.94
239.793	63.94
240.027	85.94
240.26	90.94
240.494	86.94
240.728	62.94
240.961	83.94
241.195	78.94
241.429	70.94
241.662	74.94
241.896	66.94
242.13	68.94
242.363	92.94
242.597	85.94
242.83	66.94
243.064	80.94
243.298	87.94
243.531	77.94
243.765	87.94
243.998	78.94
244.232	72.94
244.465	75.94
244.699	86.94
244.932	72.94
245.166	80.94
245.399	79.94
245.633	84.94
245.866	83.94
246.099	64.94
246.333	81.94
246.566	76.94
246.8	69.94
247.033	78.94
247.266	83.94
247.5	75.94
247.733	70.94
247.966	75.94
248.2	81.94
248.433	72.94
248.666	78.94
248.899	84.94
249.133	81.94
249.366	86.94
249.599	88.94
249.832	100.94
250.066	94.94
250.299	72.94
250.532	78.94
250.765	54.94
250.998	73.94
251.231	74.94
251.465	83.94
251.698	84.94
251.931	80.94
252.164	81.94
252.397	69.94
252.63	78.94
252.863	82.94
253.096	75.94
253.329	80.94
253.562	72.94
253.795	87.94
254.028	63.94
254.261	64.94
254.494	76.94
254.727	80.94
254.96	80.94
255.193	81.94
255.426	61.94
255.659	81.94
255.892	85.94
256.124	86.94
256.357	82.94
256.59	77.94
256.823	82.94
257.056	79.94
257.289	82.94
257.521	78.94
257.754	81.94
257.987	84.94
258.22	90.94
258.452	86.94
258.685	87.94
258.918	71.94
259.151	85.94
259.383	96.94
259.616	71.94
259.849	74.94
260.081	85.94
260.314	70.94
260.547	81.94
260.779	82.94
261.012	93.94
261.244	92.94
261.477	77.94
261.71	94.94
261.942	102.94
262.175	102.94
262.407	90.94
262.64	58.94
262.872	77.94
263.105	85.94
263.337	84.94
263.57	77.94
263.802	92.94
264.035	86.94
264.267	92.94
264.499	90.94
264.732	81.94
264.964	86.94
265.197	92.94
265.429	75.94
265.661	88.94
265.894	82.94
266.126	65.94
266.358	93.94
266.591	82.94
266.823	81.94
267.055	86.94
267.287	81.94
267.52	81.94
267.752	95.94
267.984	81.94
268.216	78.94
268.448	82.94
268.681	73.94
268.913	85.94
269.145	82.94
269.377	88.94
269.609	75.94
269.841	100.94
270.073	76.94
270.306	78.94
270.538	65.94
270.77	95.94
271.002	88.94
271.234	78.94
271.466	97.94
271.698	79.94
271.93	75.94
272.162	94.94
272.394	94.94
272.626	85.94
272.858	76.94
273.09	75.94
273.322	80.94
273.553	76.94
273.785	81.94
274.017	74.94
274.249	81.94
274.481	85.94
274.713	101.94
274.945	98.94
275.176	84.94
275.408	96.94
275.64	91.94
275.872	90.94
276.104	81.94
276.335	84.94
276.567	88.94
276.799	98.94
277.031	91.94
277.262	93.94
277.494	78.94
277.726	102.94
277.957	96.94
278.189	77.94
278.421	72.94
278.652	72.94
278.884	76.94
279.115	75.94
279.347	79.94
279.579	98.94
279.81	87.94
280.042	97.94
280.273	90.94
280.505	81.94
280.736	77.94
280.968	80.94
281.199	103.94
281.431	84.94
281.662	88.94
281.894	85.94
282.125	88.94
282.356	91.94
282.588	123.94
282.819	102.94
283.051	96.94
283.282	86.94
283.513	80.94
283.745	93.94
283.976	85.94
284.207	79.94
284.439	77.94
284.67	92.94
284.901	79.94
285.132	84.94
285.364	89.94
285.595	85.94
285.826	94.94
286.057	93.94
286.288	76.94
286.52	80.94
286.751	83.94
286.982	68.94
287.213	78.94
287.444	84.94
287.675	72.94
287.906	85.94
288.138	85.94
288.369	80.94
288.6	95.94
288.831	74.94
289.062	92.94
289.293	76.94
289.524	72.94
289.755	81.94
289.986	92.94
290.217	87.94
290.448	92.94
290.679	81.94
290.91	80.94
291.141	85.94
291.371	84.94
291.602	81.94
291.833	104.94
292.064	92.94
292.295	79.94
292.526	88.94
292.757	89.94
292.987	91.94
293.218	100.94
293.449	95.94
293.68	88.94
293.91	87.94
294.141	92.94
294.372	82.94
294.603	99.94
294.833	89.94
295.064	81.94
295.295	88.94
295.525	90.94
295.756	92.94
295.987	111.94
296.217	116.94
296.448	102.94
296.679	93.94
296.909	79.94
297.14	82.94
297.37	100.94
297.601	101.94
297.831	79.94
298.062	82.94
298.292	85.94
298.523	91.94
298.753	94.94
298.984	86.94
299.214	83.94
299.445	85.94
299.675	86.94
299.905	94.94
300.136	89.94
300.366	77.94
300.597	100.94
300.827	81.94
301.057	92.94
301.288	99.94
301.518	93.94
301.748	81.94
301.979	110.94
302.209	80.94
302.439	90.94
302.669	94.94
302.9	81.94
303.13	101.94
303.36	96.94
303.59	80.94
303.82	104.94
304.051	89.94
304.281	96.94
304.511	76.94
304.741	96.94
304.971	86.94
305.201	79.94
305.431	95.94
305.661	74.94
305.891	92.94
306.121	84.94
306.352	96.94
306.582	98.94
306.812	79.94
307.042	77.94
307.272	89.94
307.502	83.94
307.731	92.94
307.961	93.94
308.191	90.94
308.421	87.94
308.651	85.94
308.881	92.94
309.111	84.94
309.341	94.94
309.571	101.94
309.8	97.94
310.03	105.94
310.26	95.94
310.49	73.94
310.72	94.94
310.949	90.94
311.179	96.94
311.409	96.94
311.639	86.94
311.868	80.94
312.098	103.94
312.328	87.94
312.557	108.94
312.787	102.94
313.017	100.94
313.246	85.94
313.476	93.94
313.706	95.94
313.935	95.94
314.165	97.94
314.394	92.94
314.624	94.94
314.853	100.94
315.083	93.94
315.312	86.94
315.542	89.94
315.771	87.94
316.001	90.94
316.23	84.94
316.46	86.94
316.689	92.94
316.919	87.94
317.148	100.94
317.377	96.94
317.607	88.94
317.836	82.94
318.065	98.94
318.295	94.94
318.524	92.94
318.753	96.94
318.983	85.94
319.212	78.94
319.441	108.94
319.67	93.94
319.9	102.94
320.129	91.94
320.358	81.94
320.587	102.94
320.816	92.94
321.046	84.94
321.275	90.94
321.504	88.94
321.733	89.94
321.962	90.94
322.191	107.94
322.42	106.94
322.649	98.94
322.878	97.94
323.108	112.94
323.337	110.94
323.566	120.94
323.795	149.94
324.024	196.94
324.253	371.94
324.482	786.94
324.71	1629.94
324.939	2142.94
325.168	778.94
325.397	234.94
325.626	160.94
325.855	131.94
326.084	113.94
326.313	119.94
326.542	144.94
326.77	231.94
326.999	454.94
327.228	933.94
327.457	1660.94
327.686	1330.94
327.914	384.94
328.143	217.94
328.372	157.94
328.6	122.94
328.829	121.94
329.058	124.94
329.287	110.94
329.515	106.94
329.744	106.94
329.972	106.94
330.201	106.94
330.43	89.94
330.658	112.94
330.887	136.94
331.115	121.94
331.344	110.94
331.572	102.94
331.801	105.94
332.03	94.94
332.258	106.94
332.486	100.94
332.715	101.94
332.943	84.94
333.172	83.94
333.4	116.94
333.629	114.94
333.857	105.94
334.085	88.94
334.314	89.94
334.542	89.94
334.771	88.94
334.999	94.94
335.227	93.94
335.455	98.94
335.684	87.94
335.912	81.94
336.14	83.94
336.369	98.94
336.597	93.94
336.825	90.94
337.053	95.94
337.281	93.94
337.51	93.94
337.738	102.94
337.966	106.94
338.194	109.94
338.422	123.94
338.65	98.94
338.878	106.94
339.106	92.94
339.334	82.94
339.562	104.94
339.79	94.94
340.018	82.94
340.246	86.94
340.474	102.94
340.702	92.94
340.93	90.94
341.158	98.94
341.386	96.94
341.614	81.94
341.842	89.94
342.07	90.94
342.298	89.94
342.526	88.94
342.754	80.94
342.981	79.94
343.209	93.94
343.437	104.94
343.665	91.94
343.893	83.94
344.12	90.94
344.348	96.94
344.576	73.94
344.804	92.94
345.031	91.94
345.259	101.94
345.487	90.94
345.714	89.94
345.942	95.94
346.17	96.94
346.397	85.94
346.625	88.94
346.853	87.94
347.08	95.94
347.308	98.94
347.535	102.94
347.763	106.94
347.99	98.94
348.218	96.94
348.445	106.94
348.673	95.94
348.9	102.94
349.128	93.94
349.355	95.94
349.583	96.94
349.81	88.94
350.037	107.94
350.265	79.94
350.492	92.94
350.72	102.94
350.947	111.94
351.174	114.94
351.402	119.94
351.629	112.94
351.856	104.94
352.083	91.94
352.311	98.94
352.538	101.94
352.765	99.94
352.992	113.94
353.22	110.94
353.447	98.94
353.674	97.94
353.901	108.94
354.128	112.94
354.355	86.94
354.583	105.94
354.81	93.94
355.037	75.94
355.264	83.94
355.491	87.94
355.718	88.94
355.945	87.94
356.172	89.94
356.399	77.94
356.626	84.94
356.853	104.94
357.08	86.94
357.307	82.94
357.534	95.94
357.761	85.94
357.988	98.94
358.215	94.94
358.441	82.94
358.668	96.94
358.895	88.94
359.122	88.94
359.349	85.94
359.576	73.94
359.802	97.94
360.029	104.94
360.256	117.94
360.483	78.94
360.709	91.94
360.936	110.94
361.163	102.94
361.39	107.94
361.616	92.94
361.843	77.94
362.07	87.94
362.296	89.94
362.523	98.94
362.749	100.94
362.976	81.94
363.203	95.94
363.429	83.94
363.656	76.94
363.882	80.94
364.109	91.94
364.335	93.94
364.562	87.94
364.788	98.94
365.015	98.94
365.241	101.94
365.468	99.94
365.694	105.94
365.92	106.94
366.147	79.94
366.373	90.94
366.599	89.94
366.826	88.94
367.052	90.94
367.278	90.94
367.505	84.94
367.731	97.94
367.957	82.94
368.184	99.94
368.41	98.94
368.636	113.94
368.862	104.94
369.089	103.94
369.315	88.94
369.541	106.94
369.767	84.94
369.993	93.94
370.219	93.94
370.445	86.94
370.672	89.94
370.898	77.94
371.124	89.94
371.35	94.94
371.576	81.94
371.802	87.94
372.028	100.94
372.254	83.94
372.48	91.94
372.706	86.94
372.932	87.94
373.158	79.94
373.384	89.94
373.61	89.94
373.835	80.94
374.061	102.94
374.287	87.94
374.513	88.94
374.739	83.94
374.965	96.94
375.191	97.94
375.416	80.94
375.642	85.94
375.868	91.94
376.094	96.94
376.319	75.94
376.545	91.94
376.771	96.94
376.997	91.94
377.222	93.94
377.448	95.94
377.674	88.94
377.899	101.94
378.125	78.94
378.35	88.94
378.576	93.94
378.802	92.94
379.027	97.94
379.253	106.94
379.478	94.94
379.704	82.94
379.929	82.94
380.155	95.94
380.38	103.94
380.606	88.94
380.831	96.94
381.057	105.94
381.282	98.94
381.507	94.94
381.733	96.94
381.958	101.94
382.184	93.94
382.409	84.94
382.634	97.94
382.86	103.94
383.085	100.94
383.31	93.94
383.535	96.94
383.761	92.94
383.986	106.94
384.211	88.94
384.436	98.94
384.662	95.94
384.887	100.94
385.112	90.94
385.337	94.94
385.562	117.94
385.787	112.94
386.013	104.94
386.238	115.94
386.463	104.94
386.688	103.94
386.913	88.94
387.138	87.94
387.363	88.94
387.588	91.94
387.813	100.94
388.038	110.94
388.263	106.94
388.488	122.94
388.713	95.94
388.938	93.94
389.163	100.94
389.387	93.94
389.612	87.94
389.837	96.94
390.062	84.94
390.287	79.94
390.512	92.94
390.736	95.94
390.961	84.94
391.186	89.94
391.411	102.94
391.636	90.94
391.86	87.94
392.085	87.94
392.31	80.94
392.534	76.94
392.759	90.94
392.984	78.94
393.208	95.94
393.433	97.94
393.658	108.94
393.882	81.94
394.107	63.94
394.331	94.94
394.556	101.94
394.78	101.94
395.005	90.94
395.229	90.94
395.454	94.94
395.678	90.94
395.903	86.94
396.127	79.94
396.352	92.94
396.576	95.94
396.801	92.94
397.025	98.94
397.249	90.94
397.474	85.94
397.698	94.94
397.922	91.94
398.147	94.94
398.371	83.94
398.595	96.94
398.82	96.94
399.044	79.94
399.268	92.94
399.492	74.94
399.717	79.94
399.941	91.94
400.165	96.94
400.389	87.94
400.613	79.94
400.837	90.94
401.062	103.94
401.286	88.94
401.51	63.94
401.734	77.94
401.958	92.94
402.182	118.94
402.406	144.94
402.63	113.94
402.854	86.94
403.078	84.94
403.302	92.94
403.526	75.94
403.75	86.94
403.974	82.94
404.198	86.94
404.422	90.94
404.645	91.94
404.869	89.94
405.093	79.94
405.317	83.94
405.541	90.94
405.765	98.94
405.988	105.94
406.212	162.94
406.436	189.94
406.66	149.94
406.883	109.94
407.107	85.94
407.331	82.94
407.555	86.94
407.778	107.94
408.002	92.94
408.226	86.94
408.449	79.94
408.673	93.94
408.896	116.94
409.12	94.94
409.344	96.94
409.567	84.94
409.791	86.94
410.014	105.94
410.238	98.94
410.461	96.94
410.685	100.94
410.908	97.94
411.132	104.94
411.355	89.94
411.578	102.94
411.802	80.94
412.025	76.94
412.249	82.94
412.472	85.94
412.695	78.94
412.919	84.94
413.142	86.94
413.365	82.94
413.589	77.94
413.812	88.94
414.035	95.94
414.258	88.94
414.482	85.94
414.705	91.94
414.928	100.94
415.151	84.94
415.374	70.94
415.597	93.94
415.821	101.94
416.044	84.94
416.267	88.94
416.49	87.94
416.713	103.94
416.936	91.94
417.159	75.94
417.382	91.94
417.605	87.94
417.828	75.94
418.051	84.94
418.274	98.94
418.497	85.94
418.72	83.94
418.943	85.94
419.166	97.94
419.389	94.94
419.611	88.94
419.834	74.94
420.057	95.94
420.28	82.94
420.503	74.94
420.726	95.94
420.948	84.94
421.171	98.94
421.394	92.94
421.617	86.94
421.839	80.94
422.062	88.94
422.285	76.94
422.507	88.94
422.73	108.94
422.953	98.94
423.175	94.94
423.398	86.94
423.621	81.94
423.843	86.94
424.066	80.94
424.288	89.94
424.511	90.94
424.733	92.94
424.956	103.94
425.178	86.94
425.401	87.94
425.623	103.94
425.846	86.94
426.068	87.94
426.291	93.94
426.513	111.94
426.735	86.94
426.958	97.94
427.18	119.94
427.402	137.94
427.625	149.94
427.847	137.94
428.069	90.94
428.292	89.94
428.514	99.94
428.736	90.94
428.958	65.94
429.181	79.94
429.403	83.94
429.625	78.94
429.847	81.94
430.069	107.94
430.292	80.94
430.514	79.94
430.736	97.94
430.958	103.94
431.18	96.94
431.402	97.94
431.624	78.94
431.846	86.94
432.068	90.94
432.29	96.94
432.512	80.94
432.734	85.94
432.956	93.94
433.178	97.94
433.4	109.94
433.622	88.94
433.844	81.94
434.066	82.94
434.287	79.94
434.509	81.94
434.731	96.94
434.953	85.94
435.175	91.94
435.397	82.94
435.618	88.94
435.84	93.94
436.062	131.94
436.284	114.94
436.505	90.94
436.727	96.94
436.949	94.94
437.17	105.94
437.392	81.94
437.614	105.94
437.835	111.94
438.057	114.94
438.278	109.94
438.5	104.94
438.721	117.94
438.943	117.94
439.165	92.94
439.386	64.94
439.608	97.94
439.829	101.94
440.05	132.94
440.272	154.94
440.493	116.94
440.715	93.94
440.936	93.94
441.158	99.94
441.379	96.94
441.6	96.94
441.822	104.94
442.043	105.94
442.264	120.94
442.486	91.94
442.707	82.94
442.928	101.94
443.149	127.94
443.371	137.94
443.592	107.94
443.813	113.94
444.034	118.94
444.255	92.94
444.476	92.94
444.698	87.94
444.919	94.94
445.14	133.94
445.361	132.94
445.582	122.94
445.803	131.94
446.024	132.94
446.245	146.94
446.466	108.94
446.687	92.94
446.908	97.94
447.129	92.94
447.35	75.94
447.571	91.94
447.792	97.94
448.013	96.94
448.234	97.94
448.455	98.94
448.675	106.94
448.896	117.94
449.117	115.94
449.338	117.94
449.559	133.94
449.779	140.94
450	94.94
450.221	86.94
450.442	92.94
450.662	88.94
450.883	115.94
451.104	106.94
451.324	93.94
451.545	80.94
451.766	91.94
451.986	80.94
452.207	70.94
452.428	76.94
452.648	87.94
452.869	102.94
453.089	95.94
453.31	113.94
453.53	93.94
453.751	98.94
453.971	101.94
454.192	103.94
454.412	87.94
454.633	81.94
454.853	87.94
455.073	97.94
455.294	94.94
455.514	98.94
455.734	94.94
455.955	83.94
456.175	82.94
456.395	86.94
456.616	81.94
456.836	78.94
457.056	81.94
457.276	90.94
457.497	86.94
457.717	73.94
457.937	84.94
458.157	96.94
458.377	84.94
458.598	103.94
458.818	136.94
459.038	163.94
459.258	109.94
459.478	104.94
459.698	81.94
459.918	85.94
460.138	92.94
460.358	97.94
460.578	88.94
460.798	82.94
461.018	92.94
461.238	84.94
461.458	75.94
461.678	66.94
461.898	77.94
462.118	91.94
462.338	82.94
462.558	84.94
462.777	68.94
462.997	78.94
463.217	85.94
463.437	97.94
463.657	76.94
463.876	87.94
464.096	88.94
464.316	101.94
464.536	98.94
464.755	89.94
464.975	99.94
465.195	149.94
465.414	151.94
465.634	94.94
465.854	92.94
466.073	81.94
466.293	85.94
466.512	80.94
466.732	80.94
466.951	75.94
467.171	81.94
467.391	93.94
467.61	97.94
467.829	97.94
468.049	98.94
468.268	96.94
468.488	82.94
468.707	97.94
468.927	98.94
469.146	94.94
469.365	88.94
469.585	84.94
469.804	90.94
470.023	96.94
470.243	93.94
470.462	87.94
470.681	106.94
470.901	84.94
471.12	95.94
471.339	93.94
471.558	75.94
471.777	84.94
471.997	91.94
472.216	106.94
472.435	86.94
472.654	85.94
472.873	80.94
473.092	89.94
473.311	65.94
473.53	84.94
473.749	85.94
473.968	83.94
474.187	87.94
474.406	86.94
474.625	89.94
474.844	84.94
475.063	86.94
475.282	95.94
475.501	89.94
475.72	96.94
475.939	84.94
476.158	76.94
476.377	85.94
476.596	83.94
476.814	85.94
477.033	88.94
477.252	84.94
477.471	78.94
477.69	89.94
477.908	101.94
478.127	93.94
478.346	92.94
478.564	98.94
478.783	98.94
479.002	87.94
479.22	73.94
479.439	101.94
479.658	86.94
479.876	92.94
480.095	87.94
480.313	89.94
480.532	94.94
480.751	83.94
480.969	96.94
481.188	91.94
481.406	89.94
481.624	86.94
481.843	95.94
482.061	106.94
482.28	103.94
482.498	75.94
482.717	73.94
482.935	91.94
483.153	81.94
483.372	86.94
483.59	93.94
483.808	90.94
484.027	84.94
484.245	99.94
484.463	98.94
484.681	105.94
484.9	101.94
485.118	85.94
485.336	81.94
485.554	97.94
485.772	98.94
485.99	103.94
486.209	89.94
486.427	103.94
486.645	104.94
486.863	113.94
487.081	104.94
487.299	88.94
487.517	85.94
487.735	83.94
487.953	90.94
488.171	91.94
488.389	78.94
488.607	92.94
488.825	93.94
489.043	98.94
489.261	88.94
489.479	102.94
489.696	77.94
489.914	77.94
490.132	83.94
490.35	94.94
490.568	87.94
490.786	91.94
491.003	86.94
491.221	85.94
491.439	92.94
491.657	91.94
491.874	92.94
492.092	100.94
492.31	82.94
492.527	100.94
492.745	94.94
492.963	98.94
493.18	107.94
493.398	101.94
493.615	95.94
493.833	93.94
494.05	80.94
494.268	93.94
494.485	82.94
494.703	84.94
494.92	88.94
495.138	73.94
495.355	91.94
495.573	91.94
495.79	100.94
496.008	96.94
496.225	93.94
496.442	93.94
496.66	89.94
496.877	88.94
497.094	93.94
497.312	87.94
497.529	88.94
497.746	95.94
497.963	89.94
498.181	100.94
498.398	90.94
498.615	98.94
498.832	108.94
499.049	88.94
499.267	74.94
499.484	87.94
499.701	72.94
499.918	89.94
500.135	86.94
500.352	80.94
500.569	74.94
500.786	92.94
501.003	96.94
501.22	81.94
501.437	103.94
501.654	103.94
501.871	101.94
502.088	96.94
502.305	104.94
502.522	100.94
502.739	88.94
502.956	104.94
503.172	77.94
503.389	84.94
503.606	92.94
503.823	80.94
504.04	87.94
504.256	94.94
504.473	75.94
504.69	86.94
504.907	96.94
505.123	84.94
505.34	97.94
505.557	91.94
505.773	87.94
505.99	89.94
506.207	96.94
506.423	94.94
506.64	85.94
506.856	81.94
507.073	103.94
507.289	96.94
507.506	78.94
507.722	100.94
507.939	118.94
508.155	91.94
508.372	90.94
508.588	103.94
508.805	86.94
509.021	98.94
509.238	98.94
509.454	100.94
509.67	108.94
509.887	118.94
510.103	114.94
510.319	176.94
510.536	658.94
510.752	2015.94
510.968	550.94
511.184	136.94
511.401	113.94
511.617	106.94
511.833	98.94
512.049	89.94
512.265	92.94
512.481	76.94
512.698	82.94
512.914	88.94
513.13	80.94
513.346	93.94
513.562	100.94
513.778	81.94
513.994	96.94
514.21	93.94
514.426	103.94
514.642	106.94
514.858	123.94
515.074	140.94
515.29	412.94
515.506	1267.94
515.721	475.94
515.937	138.94
516.153	112.94
