Data from Uncirc_1996_H10_HRD10591_00002.txt Node
Date: Wed Jan 03 11:32:02 EST 2024
User: Yrep
Spectrometer: HR+D1059
Trigger mode: 1
Integration Time (sec): 1.000000E-1
Scans to average: 1
Electric dark correction enabled: true
Nonlinearity correction enabled: false
Boxcar width: 0
XAxis mode: Wavelengths
Number of Pixels in Spectrum: 2048
>>>>>Begin Spectral Data<<<<<
223.165	-10.69
223.4	-10.69
223.635	-10.69
223.869	-14.69
224.104	-19.69
224.338	-24.69
224.573	-11.69
224.808	-22.69
225.042	-15.69
225.277	-0.69
225.511	-12.69
225.746	2.31
225.98	5.31
226.215	11.31
226.449	18.31
226.683	31.31
226.918	25.31
227.152	39.31
227.387	31.31
227.621	44.31
227.856	50.31
228.09	44.31
228.324	45.31
228.559	68.31
228.793	67.31
229.027	65.31
229.262	78.31
229.496	79.31
229.73	78.31
229.964	86.31
230.199	70.31
230.433	69.31
230.667	74.31
230.901	84.31
231.136	81.31
231.37	91.31
231.604	94.31
231.838	88.31
232.072	93.31
232.306	80.31
232.541	81.31
232.775	80.31
233.009	92.31
233.243	90.31
233.477	89.31
233.711	82.31
233.945	90.31
234.179	97.31
234.413	88.31
234.647	99.31
234.881	87.31
235.115	88.31
235.349	80.31
235.583	78.31
235.817	81.31
236.051	83.31
236.285	99.31
236.519	83.31
236.753	81.31
236.987	90.31
237.221	101.31
237.455	96.31
237.689	88.31
237.922	84.31
238.156	77.31
238.39	76.31
238.624	82.31
238.858	79.31
239.091	90.31
239.325	84.31
239.559	100.31
239.793	76.31
240.027	92.31
240.26	74.31
240.494	92.31
240.728	74.31
240.961	87.31
241.195	87.31
241.429	76.31
241.662	84.31
241.896	89.31
242.13	82.31
242.363	90.31
242.597	81.31
242.83	78.31
243.064	71.31
243.298	80.31
243.531	83.31
243.765	85.31
243.998	82.31
244.232	81.31
244.465	99.31
244.699	98.31
244.932	78.31
245.166	78.31
245.399	86.31
245.633	90.31
245.866	82.31
246.099	91.31
246.333	78.31
246.566	71.31
246.8	85.31
247.033	94.31
247.266	86.31
247.5	90.31
247.733	86.31
247.966	83.31
248.2	93.31
248.433	83.31
248.666	82.31
248.899	76.31
249.133	88.31
249.366	86.31
249.599	103.31
249.832	78.31
250.066	95.31
250.299	82.31
250.532	88.31
250.765	86.31
250.998	87.31
251.231	87.31
251.465	97.31
251.698	83.31
251.931	83.31
252.164	72.31
252.397	63.31
252.63	74.31
252.863	81.31
253.096	96.31
253.329	82.31
253.562	81.31
253.795	85.31
254.028	77.31
254.261	84.31
254.494	78.31
254.727	94.31
254.96	85.31
255.193	86.31
255.426	77.31
255.659	95.31
255.892	87.31
256.124	80.31
256.357	76.31
256.59	97.31
256.823	77.31
257.056	91.31
257.289	91.31
257.521	97.31
257.754	79.31
257.987	72.31
258.22	84.31
258.452	84.31
258.685	84.31
258.918	85.31
259.151	88.31
259.383	100.31
259.616	91.31
259.849	83.31
260.081	97.31
260.314	88.31
260.547	92.31
260.779	87.31
261.012	87.31
261.244	87.31
261.477	90.31
261.71	90.31
261.942	107.31
262.175	102.31
262.407	90.31
262.64	100.31
262.872	86.31
263.105	87.31
263.337	93.31
263.57	84.31
263.802	74.31
264.035	86.31
264.267	96.31
264.499	92.31
264.732	96.31
264.964	80.31
265.197	84.31
265.429	91.31
265.661	89.31
265.894	83.31
266.126	96.31
266.358	84.31
266.591	79.31
266.823	94.31
267.055	88.31
267.287	100.31
267.52	78.31
267.752	90.31
267.984	89.31
268.216	77.31
268.448	77.31
268.681	85.31
268.913	91.31
269.145	96.31
269.377	92.31
269.609	97.31
269.841	87.31
270.073	92.31
270.306	87.31
270.538	99.31
270.77	79.31
271.002	91.31
271.234	82.31
271.466	82.31
271.698	86.31
271.93	96.31
272.162	101.31
272.394	94.31
272.626	86.31
272.858	83.31
273.09	88.31
273.322	97.31
273.553	95.31
273.785	86.31
274.017	88.31
274.249	85.31
274.481	98.31
274.713	88.31
274.945	74.31
275.176	83.31
275.408	86.31
275.64	86.31
275.872	96.31
276.104	97.31
276.335	91.31
276.567	91.31
276.799	92.31
277.031	83.31
277.262	89.31
277.494	93.31
277.726	86.31
277.957	91.31
278.189	97.31
278.421	87.31
278.652	83.31
278.884	88.31
279.115	99.31
279.347	85.31
279.579	90.31
279.81	103.31
280.042	88.31
280.273	94.31
280.505	94.31
280.736	80.31
280.968	93.31
281.199	89.31
281.431	93.31
281.662	75.31
281.894	104.31
282.125	100.31
282.356	104.31
282.588	143.31
282.819	84.31
283.051	106.31
283.282	91.31
283.513	85.31
283.745	88.31
283.976	90.31
284.207	81.31
284.439	70.31
284.67	91.31
284.901	76.31
285.132	92.31
285.364	96.31
285.595	82.31
285.826	79.31
286.057	104.31
286.288	89.31
286.52	107.31
286.751	110.31
286.982	86.31
287.213	87.31
287.444	90.31
287.675	95.31
287.906	93.31
288.138	94.31
288.369	85.31
288.6	92.31
288.831	79.31
289.062	88.31
289.293	87.31
289.524	89.31
289.755	91.31
289.986	85.31
290.217	92.31
290.448	82.31
290.679	75.31
290.91	97.31
291.141	95.31
291.371	85.31
291.602	96.31
291.833	87.31
292.064	91.31
292.295	94.31
292.526	87.31
292.757	90.31
292.987	80.31
293.218	90.31
293.449	82.31
293.68	98.31
293.91	96.31
294.141	99.31
294.372	95.31
294.603	103.31
294.833	88.31
295.064	114.31
295.295	95.31
295.525	82.31
295.756	90.31
295.987	94.31
296.217	112.31
296.448	124.31
296.679	96.31
296.909	83.31
297.14	97.31
297.37	104.31
297.601	92.31
297.831	82.31
298.062	102.31
298.292	82.31
298.523	98.31
298.753	79.31
298.984	93.31
299.214	101.31
299.445	103.31
299.675	90.31
299.905	87.31
300.136	99.31
300.366	92.31
300.597	91.31
300.827	98.31
301.057	95.31
301.288	92.31
301.518	90.31
301.748	91.31
301.979	103.31
302.209	104.31
302.439	91.31
302.669	83.31
302.9	99.31
303.13	101.31
303.36	94.31
303.59	112.31
303.82	108.31
304.051	95.31
304.281	98.31
304.511	96.31
304.741	88.31
304.971	107.31
305.201	95.31
305.431	96.31
305.661	94.31
305.891	91.31
306.121	107.31
306.352	102.31
306.582	92.31
306.812	99.31
307.042	93.31
307.272	104.31
307.502	83.31
307.731	93.31
307.961	87.31
308.191	99.31
308.421	95.31
308.651	82.31
308.881	104.31
309.111	100.31
309.341	96.31
309.571	91.31
309.8	98.31
310.03	102.31
310.26	101.31
310.49	120.31
310.72	118.31
310.949	94.31
311.179	98.31
311.409	97.31
311.639	104.31
311.868	105.31
312.098	101.31
312.328	105.31
312.557	101.31
312.787	103.31
313.017	111.31
313.246	102.31
313.476	74.31
313.706	75.31
313.935	82.31
314.165	115.31
314.394	102.31
314.624	100.31
314.853	98.31
315.083	101.31
315.312	97.31
315.542	90.31
315.771	88.31
316.001	96.31
316.23	97.31
316.46	89.31
316.689	81.31
316.919	91.31
317.148	115.31
317.377	78.31
317.607	101.31
317.836	79.31
318.065	93.31
318.295	99.31
318.524	86.31
318.753	94.31
318.983	99.31
319.212	87.31
319.441	85.31
319.67	102.31
319.9	88.31
320.129	92.31
320.358	88.31
320.587	107.31
320.816	109.31
321.046	103.31
321.275	96.31
321.504	97.31
321.733	107.31
321.962	97.31
322.191	89.31
322.42	103.31
322.649	100.31
322.878	104.31
323.108	109.31
323.337	125.31
323.566	122.31
323.795	143.31
324.024	184.31
324.253	322.31
324.482	696.31
324.71	1425.31
324.939	1872.31
325.168	702.31
325.397	225.31
325.626	158.31
325.855	116.31
326.084	134.31
326.313	141.31
326.542	143.31
326.77	185.31
326.999	386.31
327.228	822.31
327.457	1509.31
327.686	1159.31
327.914	354.31
328.143	220.31
328.372	166.31
328.6	132.31
328.829	118.31
329.058	110.31
329.287	125.31
329.515	104.31
329.744	111.31
329.972	96.31
330.201	102.31
330.43	110.31
330.658	126.31
330.887	126.31
331.115	126.31
331.344	102.31
331.572	96.31
331.801	103.31
332.03	106.31
332.258	105.31
332.486	102.31
332.715	92.31
332.943	84.31
333.172	100.31
333.4	88.31
333.629	87.31
333.857	98.31
334.085	100.31
334.314	101.31
334.542	101.31
334.771	102.31
334.999	87.31
335.227	96.31
335.455	92.31
335.684	110.31
335.912	103.31
336.14	102.31
336.369	108.31
336.597	109.31
336.825	107.31
337.053	91.31
337.281	89.31
337.51	88.31
337.738	104.31
337.966	115.31
338.194	105.31
338.422	140.31
338.65	120.31
338.878	98.31
339.106	81.31
339.334	93.31
339.562	92.31
339.79	98.31
340.018	91.31
340.246	95.31
340.474	97.31
340.702	89.31
340.93	92.31
341.158	96.31
341.386	87.31
341.614	99.31
341.842	89.31
342.07	102.31
342.298	100.31
342.526	90.31
342.754	90.31
342.981	89.31
343.209	96.31
343.437	97.31
343.665	91.31
343.893	92.31
344.12	105.31
344.348	103.31
344.576	88.31
344.804	102.31
345.031	83.31
345.259	94.31
345.487	82.31
345.714	108.31
345.942	95.31
346.17	104.31
346.397	101.31
346.625	119.31
346.853	97.31
347.08	98.31
347.308	100.31
347.535	98.31
347.763	97.31
347.99	103.31
348.218	101.31
348.445	104.31
348.673	112.31
348.9	90.31
349.128	107.31
349.355	96.31
349.583	97.31
349.81	106.31
350.037	115.31
350.265	96.31
350.492	100.31
350.72	102.31
350.947	104.31
351.174	94.31
351.402	93.31
351.629	95.31
351.856	107.31
352.083	114.31
352.311	104.31
352.538	95.31
352.765	103.31
352.992	118.31
353.22	111.31
353.447	121.31
353.674	106.31
353.901	109.31
354.128	100.31
354.355	106.31
354.583	105.31
354.81	97.31
355.037	99.31
355.264	99.31
355.491	102.31
355.718	101.31
355.945	105.31
356.172	100.31
356.399	93.31
356.626	100.31
356.853	103.31
357.08	94.31
357.307	106.31
357.534	95.31
357.761	103.31
357.988	98.31
358.215	93.31
358.441	96.31
358.668	90.31
358.895	86.31
359.122	94.31
359.349	95.31
359.576	83.31
359.802	104.31
360.029	121.31
360.256	106.31
360.483	107.31
360.709	95.31
360.936	97.31
361.163	102.31
361.39	88.31
361.616	90.31
361.843	85.31
362.07	98.31
362.296	102.31
362.523	100.31
362.749	87.31
362.976	99.31
363.203	90.31
363.429	90.31
363.656	87.31
363.882	95.31
364.109	99.31
364.335	85.31
364.562	90.31
364.788	92.31
365.015	103.31
365.241	105.31
365.468	111.31
365.694	97.31
365.92	88.31
366.147	97.31
366.373	98.31
366.599	101.31
366.826	81.31
367.052	93.31
367.278	90.31
367.505	108.31
367.731	94.31
367.957	90.31
368.184	93.31
368.41	107.31
368.636	98.31
368.862	108.31
369.089	108.31
369.315	103.31
369.541	102.31
369.767	85.31
369.993	85.31
370.219	93.31
370.445	85.31
370.672	86.31
370.898	91.31
371.124	84.31
371.35	92.31
371.576	94.31
371.802	102.31
372.028	85.31
372.254	92.31
372.48	99.31
372.706	87.31
372.932	92.31
373.158	94.31
373.384	91.31
373.61	79.31
373.835	90.31
374.061	101.31
374.287	96.31
374.513	92.31
374.739	95.31
374.965	83.31
375.191	88.31
375.416	88.31
375.642	90.31
375.868	104.31
376.094	102.31
376.319	99.31
376.545	99.31
376.771	105.31
376.997	118.31
377.222	89.31
377.448	111.31
377.674	94.31
377.899	97.31
378.125	88.31
378.35	90.31
378.576	90.31
378.802	104.31
379.027	95.31
379.253	93.31
379.478	92.31
379.704	99.31
379.929	103.31
380.155	111.31
380.38	95.31
380.606	88.31
380.831	99.31
381.057	100.31
381.282	124.31
381.507	91.31
381.733	93.31
381.958	103.31
382.184	103.31
382.409	103.31
382.634	115.31
382.86	100.31
383.085	107.31
383.31	105.31
383.535	116.31
383.761	100.31
383.986	116.31
384.211	107.31
384.436	109.31
384.662	108.31
384.887	117.31
385.112	115.31
385.337	115.31
385.562	94.31
385.787	112.31
386.013	108.31
386.238	126.31
386.463	98.31
386.688	116.31
386.913	120.31
387.138	120.31
387.363	114.31
387.588	103.31
387.813	111.31
388.038	112.31
388.263	102.31
388.488	112.31
388.713	102.31
388.938	90.31
389.163	95.31
389.387	95.31
389.612	115.31
389.837	104.31
390.062	95.31
390.287	96.31
390.512	97.31
390.736	103.31
390.961	79.31
391.186	117.31
391.411	103.31
391.636	107.31
391.86	89.31
392.085	79.31
392.31	97.31
392.534	86.31
392.759	87.31
392.984	102.31
393.208	110.31
393.433	128.31
393.658	122.31
393.882	82.31
394.107	90.31
394.331	93.31
394.556	88.31
394.78	94.31
395.005	94.31
395.229	90.31
395.454	94.31
395.678	95.31
395.903	82.31
396.127	94.31
396.352	98.31
396.576	95.31
396.801	109.31
397.025	107.31
397.249	99.31
397.474	97.31
397.698	102.31
397.922	96.31
398.147	83.31
398.371	78.31
398.595	95.31
398.82	82.31
399.044	88.31
399.268	97.31
399.492	79.31
399.717	89.31
399.941	88.31
400.165	102.31
400.389	93.31
400.613	108.31
400.837	100.31
401.062	89.31
401.286	94.31
401.51	95.31
401.734	94.31
401.958	94.31
402.182	120.31
402.406	125.31
402.63	112.31
402.854	101.31
403.078	87.31
403.302	96.31
403.526	90.31
403.75	101.31
403.974	86.31
404.198	81.31
404.422	84.31
404.645	102.31
404.869	83.31
405.093	92.31
405.317	102.31
405.541	101.31
405.765	85.31
405.988	119.31
406.212	145.31
406.436	160.31
406.66	139.31
406.883	99.31
407.107	91.31
407.331	109.31
407.555	88.31
407.778	95.31
408.002	101.31
408.226	80.31
408.449	96.31
408.673	93.31
408.896	102.31
409.12	99.31
409.344	108.31
409.567	87.31
409.791	94.31
410.014	99.31
410.238	99.31
410.461	84.31
410.685	104.31
410.908	96.31
411.132	113.31
411.355	96.31
411.578	97.31
411.802	97.31
412.025	95.31
412.249	97.31
412.472	90.31
412.695	96.31
412.919	94.31
413.142	102.31
413.365	87.31
413.589	91.31
413.812	69.31
414.035	87.31
414.258	79.31
414.482	89.31
414.705	91.31
414.928	96.31
415.151	91.31
415.374	94.31
415.597	90.31
415.821	94.31
416.044	91.31
416.267	92.31
416.49	92.31
416.713	100.31
416.936	97.31
417.159	85.31
417.382	95.31
417.605	90.31
417.828	86.31
418.051	101.31
418.274	79.31
418.497	97.31
418.72	102.31
418.943	100.31
419.166	86.31
419.389	80.31
419.611	108.31
419.834	86.31
420.057	97.31
420.28	92.31
420.503	75.31
420.726	94.31
420.948	104.31
421.171	102.31
421.394	99.31
421.617	101.31
421.839	103.31
422.062	88.31
422.285	84.31
422.507	102.31
422.73	115.31
422.953	109.31
423.175	84.31
423.398	80.31
423.621	98.31
423.843	84.31
424.066	95.31
424.288	95.31
424.511	88.31
424.733	109.31
424.956	101.31
425.178	100.31
425.401	103.31
425.623	104.31
425.846	92.31
426.068	84.31
426.291	94.31
426.513	106.31
426.735	92.31
426.958	104.31
427.18	114.31
427.402	119.31
427.625	159.31
427.847	134.31
428.069	89.31
428.292	88.31
428.514	81.31
428.736	85.31
428.958	90.31
429.181	89.31
429.403	77.31
429.625	98.31
429.847	102.31
430.069	103.31
430.292	94.31
430.514	87.31
430.736	81.31
430.958	84.31
431.18	85.31
431.402	83.31
431.624	83.31
431.846	83.31
432.068	85.31
432.29	100.31
432.512	77.31
432.734	95.31
432.956	90.31
433.178	100.31
433.4	95.31
433.622	91.31
433.844	104.31
434.066	94.31
434.287	86.31
434.509	103.31
434.731	97.31
434.953	80.31
435.175	96.31
435.397	97.31
435.618	95.31
435.84	98.31
436.062	121.31
436.284	126.31
436.505	105.31
436.727	101.31
436.949	88.31
437.17	78.31
437.392	85.31
437.614	93.31
437.835	119.31
438.057	123.31
438.278	112.31
438.5	128.31
438.721	120.31
438.943	106.31
439.165	86.31
439.386	80.31
439.608	90.31
439.829	115.31
440.05	126.31
440.272	139.31
440.493	111.31
440.715	105.31
440.936	98.31
441.158	105.31
441.379	90.31
441.6	99.31
441.822	110.31
442.043	103.31
442.264	103.31
442.486	120.31
442.707	116.31
442.928	100.31
443.149	116.31
443.371	131.31
443.592	122.31
443.813	118.31
444.034	107.31
444.255	98.31
444.476	71.31
444.698	91.31
444.919	90.31
445.14	136.31
445.361	117.31
445.582	110.31
445.803	135.31
446.024	131.31
446.245	141.31
446.466	105.31
446.687	90.31
446.908	94.31
447.129	92.31
447.35	102.31
447.571	102.31
447.792	89.31
448.013	90.31
448.234	99.31
448.455	115.31
448.675	111.31
448.896	115.31
449.117	87.31
449.338	102.31
449.559	142.31
449.779	134.31
450	94.31
450.221	90.31
450.442	84.31
450.662	100.31
450.883	100.31
451.104	109.31
451.324	107.31
451.545	95.31
451.766	85.31
451.986	92.31
452.207	100.31
452.428	86.31
452.648	101.31
452.869	101.31
453.089	118.31
453.31	119.31
453.53	91.31
453.751	74.31
453.971	104.31
454.192	100.31
454.412	85.31
454.633	101.31
454.853	84.31
455.073	67.31
455.294	90.31
455.514	104.31
455.734	90.31
455.955	84.31
456.175	93.31
456.395	100.31
456.616	82.31
456.836	99.31
457.056	83.31
457.276	78.31
457.497	93.31
457.717	78.31
457.937	94.31
458.157	89.31
458.377	75.31
458.598	103.31
458.818	144.31
459.038	153.31
459.258	105.31
459.478	97.31
459.698	90.31
459.918	97.31
460.138	95.31
460.358	92.31
460.578	87.31
460.798	83.31
461.018	95.31
461.238	72.31
461.458	90.31
461.678	104.31
461.898	92.31
462.118	72.31
462.338	86.31
462.558	90.31
462.777	77.31
462.997	98.31
463.217	86.31
463.437	95.31
463.657	96.31
463.876	85.31
464.096	94.31
464.316	104.31
464.536	97.31
464.755	93.31
464.975	113.31
465.195	131.31
465.414	123.31
465.634	79.31
465.854	89.31
466.073	101.31
466.293	92.31
466.512	91.31
466.732	86.31
466.951	95.31
467.171	97.31
467.391	84.31
467.61	90.31
467.829	78.31
468.049	96.31
468.268	94.31
468.488	101.31
468.707	103.31
468.927	92.31
469.146	81.31
469.365	70.31
469.585	93.31
469.804	94.31
470.023	94.31
470.243	83.31
470.462	99.31
470.681	110.31
470.901	100.31
471.12	86.31
471.339	102.31
471.558	79.31
471.777	80.31
471.997	82.31
472.216	88.31
472.435	102.31
472.654	86.31
472.873	87.31
473.092	90.31
473.311	85.31
473.53	82.31
473.749	85.31
473.968	96.31
474.187	107.31
474.406	111.31
474.625	83.31
474.844	95.31
475.063	99.31
475.282	88.31
475.501	88.31
475.72	93.31
475.939	86.31
476.158	78.31
476.377	99.31
476.596	103.31
476.814	100.31
477.033	95.31
477.252	98.31
477.471	91.31
477.69	90.31
477.908	86.31
478.127	84.31
478.346	97.31
478.564	72.31
478.783	94.31
479.002	100.31
479.22	95.31
479.439	105.31
479.658	104.31
479.876	93.31
480.095	109.31
480.313	85.31
480.532	99.31
480.751	101.31
480.969	82.31
481.188	98.31
481.406	88.31
481.624	105.31
481.843	90.31
482.061	90.31
482.28	82.31
482.498	75.31
482.717	90.31
482.935	98.31
483.153	84.31
483.372	98.31
483.59	92.31
483.808	95.31
484.027	95.31
484.245	88.31
484.463	105.31
484.681	101.31
484.9	99.31
485.118	101.31
485.336	92.31
485.554	105.31
485.772	98.31
485.99	106.31
486.209	108.31
486.427	105.31
486.645	99.31
486.863	120.31
487.081	108.31
487.299	91.31
487.517	95.31
487.735	82.31
487.953	92.31
488.171	83.31
488.389	87.31
488.607	103.31
488.825	99.31
489.043	72.31
489.261	89.31
489.479	95.31
489.696	99.31
489.914	96.31
490.132	98.31
490.35	83.31
490.568	80.31
490.786	94.31
491.003	101.31
491.221	96.31
491.439	94.31
491.657	99.31
491.874	101.31
492.092	94.31
492.31	88.31
492.527	100.31
492.745	87.31
492.963	85.31
493.18	95.31
493.398	92.31
493.615	104.31
493.833	101.31
494.05	89.31
494.268	97.31
494.485	83.31
494.703	96.31
494.92	86.31
495.138	92.31
495.355	109.31
495.573	85.31
495.79	103.31
496.008	103.31
496.225	106.31
496.442	92.31
496.66	109.31
496.877	85.31
497.094	94.31
497.312	100.31
497.529	106.31
497.746	96.31
497.963	100.31
498.181	112.31
498.398	87.31
498.615	115.31
498.832	101.31
499.049	103.31
499.267	93.31
499.484	98.31
499.701	86.31
499.918	104.31
500.135	87.31
500.352	87.31
500.569	107.31
500.786	80.31
501.003	81.31
501.22	92.31
501.437	98.31
501.654	100.31
501.871	109.31
502.088	89.31
502.305	90.31
502.522	80.31
502.739	107.31
502.956	78.31
503.172	99.31
503.389	88.31
503.606	108.31
503.823	103.31
504.04	94.31
504.256	114.31
504.473	86.31
504.69	105.31
504.907	111.31
505.123	86.31
505.34	91.31
505.557	91.31
505.773	98.31
505.99	110.31
506.207	89.31
506.423	82.31
506.64	86.31
506.856	87.31
507.073	93.31
507.289	93.31
507.506	92.31
507.722	102.31
507.939	100.31
508.155	90.31
508.372	96.31
508.588	95.31
508.805	85.31
509.021	96.31
509.238	111.31
509.454	102.31
509.67	99.31
509.887	115.31
510.103	118.31
510.319	165.31
510.536	543.31
510.752	1604.31
510.968	486.31
511.184	130.31
511.401	98.31
511.617	98.31
511.833	95.31
512.049	88.31
512.265	88.31
512.481	98.31
512.698	96.31
512.914	85.31
513.13	94.31
513.346	87.31
513.562	98.31
513.778	101.31
513.994	109.31
