Data from Uncirc_1996_H10_HRD10591_00090.txt Node
Date: Wed Jan 03 11:32:20 EST 2024
User: Yrep
Spectrometer: HR+D1059
Trigger mode: 1
Integration Time (sec): 1.000000E-1
Scans to average: 1
Electric dark correction enabled: true
Nonlinearity correction enabled: false
Boxcar width: 0
XAxis mode: Wavelengths
Number of Pixels in Spectrum: 2048
>>>>>Begin Spectral Data<<<<<
223.165	-16.38
223.4	-16.38
223.635	-16.38
223.869	-17.38
224.104	-20.38
224.338	-17.38
224.573	-24.38
224.808	-14.38
225.042	-15.38
225.277	6.62
225.511	-13.38
225.746	-0.38
225.98	11.62
226.215	30.62
226.449	19.62
226.683	25.62
226.918	7.62
227.152	37.62
227.387	26.62
227.621	45.62
227.856	44.62
228.09	41.62
228.324	57.62
228.559	49.62
228.793	72.62
229.027	53.62
229.262	77.62
229.496	69.62
229.73	91.62
229.964	89.62
230.199	84.62
230.433	71.62
230.667	64.62
230.901	77.62
231.136	72.62
231.37	85.62
231.604	80.62
231.838	87.62
232.072	103.62
232.306	86.62
232.541	66.62
232.775	76.62
233.009	65.62
233.243	87.62
233.477	78.62
233.711	89.62
233.945	77.62
234.179	75.62
234.413	92.62
234.647	85.62
234.881	80.62
235.115	83.62
235.349	76.62
235.583	80.62
235.817	72.62
236.051	77.62
236.285	77.62
236.519	87.62
236.753	82.62
236.987	82.62
237.221	78.62
237.455	76.62
237.689	70.62
237.922	75.62
238.156	86.62
238.39	76.62
238.624	72.62
238.858	74.62
239.091	57.62
239.325	72.62
239.559	80.62
239.793	73.62
240.027	85.62
240.26	93.62
240.494	77.62
240.728	76.62
240.961	71.62
241.195	80.62
241.429	65.62
241.662	77.62
241.896	70.62
242.13	71.62
242.363	79.62
242.597	64.62
242.83	79.62
243.064	78.62
243.298	76.62
243.531	82.62
243.765	77.62
243.998	73.62
244.232	76.62
244.465	84.62
244.699	92.62
244.932	77.62
245.166	64.62
245.399	70.62
245.633	73.62
245.866	88.62
246.099	79.62
246.333	85.62
246.566	81.62
246.8	80.62
247.033	86.62
247.266	65.62
247.5	84.62
247.733	72.62
247.966	77.62
248.2	79.62
248.433	75.62
248.666	69.62
248.899	92.62
249.133	78.62
249.366	94.62
249.599	90.62
249.832	78.62
250.066	76.62
250.299	87.62
250.532	65.62
250.765	102.62
250.998	73.62
251.231	92.62
251.465	88.62
251.698	70.62
251.931	73.62
252.164	85.62
252.397	72.62
252.63	88.62
252.863	85.62
253.096	72.62
253.329	79.62
253.562	90.62
253.795	73.62
254.028	81.62
254.261	93.62
254.494	74.62
254.727	91.62
254.96	79.62
255.193	85.62
255.426	59.62
255.659	72.62
255.892	84.62
256.124	70.62
256.357	81.62
256.59	76.62
256.823	72.62
257.056	71.62
257.289	73.62
257.521	96.62
257.754	94.62
257.987	72.62
258.22	91.62
258.452	87.62
258.685	75.62
258.918	84.62
259.151	75.62
259.383	86.62
259.616	73.62
259.849	79.62
260.081	76.62
260.314	74.62
260.547	76.62
260.779	86.62
261.012	80.62
261.244	79.62
261.477	87.62
261.71	90.62
261.942	114.62
262.175	98.62
262.407	79.62
262.64	69.62
262.872	80.62
263.105	77.62
263.337	89.62
263.57	79.62
263.802	79.62
264.035	89.62
264.267	79.62
264.499	70.62
264.732	98.62
264.964	92.62
265.197	77.62
265.429	83.62
265.661	79.62
265.894	88.62
266.126	77.62
266.358	86.62
266.591	87.62
266.823	81.62
267.055	84.62
267.287	86.62
267.52	85.62
267.752	84.62
267.984	86.62
268.216	93.62
268.448	79.62
268.681	95.62
268.913	94.62
269.145	87.62
269.377	81.62
269.609	76.62
269.841	79.62
270.073	82.62
270.306	87.62
270.538	85.62
270.77	81.62
271.002	81.62
271.234	90.62
271.466	90.62
271.698	102.62
271.93	73.62
272.162	86.62
272.394	89.62
272.626	79.62
272.858	82.62
273.09	80.62
273.322	70.62
273.553	85.62
273.785	77.62
274.017	75.62
274.249	81.62
274.481	84.62
274.713	74.62
274.945	82.62
275.176	81.62
275.408	84.62
275.64	94.62
275.872	77.62
276.104	98.62
276.335	88.62
276.567	102.62
276.799	107.62
277.031	94.62
277.262	94.62
277.494	92.62
277.726	97.62
277.957	67.62
278.189	79.62
278.421	79.62
278.652	79.62
278.884	84.62
279.115	85.62
279.347	81.62
279.579	83.62
279.81	86.62
280.042	90.62
280.273	72.62
280.505	75.62
280.736	89.62
280.968	84.62
281.199	74.62
281.431	96.62
281.662	88.62
281.894	94.62
282.125	100.62
282.356	119.62
282.588	146.62
282.819	104.62
283.051	78.62
283.282	88.62
283.513	79.62
283.745	74.62
283.976	80.62
284.207	90.62
284.439	92.62
284.67	82.62
284.901	85.62
285.132	94.62
285.364	82.62
285.595	83.62
285.826	88.62
286.057	104.62
286.288	77.62
286.52	85.62
286.751	93.62
286.982	84.62
287.213	80.62
287.444	84.62
287.675	99.62
287.906	88.62
288.138	83.62
288.369	84.62
288.6	78.62
288.831	86.62
289.062	92.62
289.293	98.62
289.524	77.62
289.755	87.62
289.986	71.62
290.217	84.62
290.448	87.62
290.679	85.62
290.91	81.62
291.141	84.62
291.371	81.62
291.602	77.62
291.833	83.62
292.064	85.62
292.295	88.62
292.526	89.62
292.757	84.62
292.987	84.62
293.218	93.62
293.449	80.62
293.68	81.62
293.91	98.62
294.141	90.62
294.372	109.62
294.603	87.62
294.833	86.62
295.064	83.62
295.295	93.62
295.525	104.62
295.756	86.62
295.987	112.62
296.217	130.62
296.448	114.62
296.679	95.62
296.909	71.62
297.14	96.62
297.37	84.62
297.601	80.62
297.831	87.62
298.062	98.62
298.292	84.62
298.523	76.62
298.753	86.62
298.984	95.62
299.214	81.62
299.445	92.62
299.675	100.62
299.905	77.62
300.136	94.62
300.366	85.62
300.597	79.62
300.827	105.62
301.057	90.62
301.288	93.62
301.518	77.62
301.748	80.62
301.979	94.62
302.209	87.62
302.439	68.62
302.669	77.62
302.9	91.62
303.13	76.62
303.36	79.62
303.59	104.62
303.82	84.62
304.051	82.62
304.281	81.62
304.511	78.62
304.741	87.62
304.971	75.62
305.201	84.62
305.431	93.62
305.661	73.62
305.891	85.62
306.121	84.62
306.352	77.62
306.582	86.62
306.812	76.62
307.042	88.62
307.272	90.62
307.502	97.62
307.731	82.62
307.961	91.62
308.191	86.62
308.421	92.62
308.651	91.62
308.881	79.62
309.111	95.62
309.341	94.62
309.571	88.62
309.8	97.62
310.03	86.62
310.26	96.62
310.49	103.62
310.72	105.62
310.949	120.62
311.179	79.62
311.409	89.62
311.639	73.62
311.868	84.62
312.098	100.62
312.328	93.62
312.557	88.62
312.787	118.62
313.017	92.62
313.246	83.62
313.476	90.62
313.706	77.62
313.935	85.62
314.165	86.62
314.394	94.62
314.624	104.62
314.853	93.62
315.083	89.62
315.312	92.62
315.542	98.62
315.771	97.62
316.001	91.62
316.23	98.62
316.46	103.62
316.689	85.62
316.919	102.62
317.148	98.62
317.377	93.62
317.607	89.62
317.836	80.62
318.065	79.62
318.295	88.62
318.524	88.62
318.753	89.62
318.983	97.62
319.212	98.62
319.441	116.62
319.67	108.62
319.9	97.62
320.129	91.62
320.358	73.62
320.587	96.62
320.816	102.62
321.046	106.62
321.275	86.62
321.504	91.62
321.733	78.62
321.962	99.62
322.191	96.62
322.42	105.62
322.649	103.62
322.878	111.62
323.108	107.62
323.337	126.62
323.566	134.62
323.795	160.62
324.024	203.62
324.253	352.62
324.482	768.62
324.71	1528.62
324.939	2060.62
325.168	741.62
325.397	226.62
325.626	132.62
325.855	112.62
326.084	127.62
326.313	138.62
326.542	148.62
326.77	221.62
326.999	425.62
327.228	863.62
327.457	1582.62
327.686	1255.62
327.914	345.62
328.143	189.62
328.372	134.62
328.6	117.62
328.829	120.62
329.058	134.62
329.287	135.62
329.515	114.62
329.744	84.62
329.972	89.62
330.201	94.62
330.43	116.62
330.658	106.62
330.887	151.62
331.115	126.62
331.344	89.62
331.572	105.62
331.801	91.62
332.03	85.62
332.258	104.62
332.486	93.62
332.715	103.62
332.943	106.62
333.172	101.62
333.4	95.62
333.629	104.62
333.857	109.62
334.085	92.62
334.314	107.62
334.542	88.62
334.771	113.62
334.999	92.62
335.227	92.62
335.455	91.62
335.684	96.62
335.912	76.62
336.14	98.62
336.369	98.62
336.597	108.62
336.825	95.62
337.053	90.62
337.281	80.62
337.51	85.62
337.738	81.62
337.966	78.62
338.194	83.62
338.422	98.62
338.65	85.62
338.878	92.62
339.106	96.62
339.334	95.62
339.562	98.62
339.79	71.62
340.018	84.62
340.246	97.62
340.474	89.62
340.702	84.62
340.93	93.62
341.158	97.62
341.386	91.62
341.614	101.62
341.842	95.62
342.07	97.62
342.298	90.62
342.526	89.62
342.754	93.62
342.981	87.62
343.209	97.62
343.437	85.62
343.665	84.62
343.893	83.62
344.12	97.62
344.348	81.62
344.576	88.62
344.804	91.62
345.031	97.62
345.259	93.62
345.487	92.62
345.714	86.62
345.942	89.62
346.17	78.62
346.397	77.62
346.625	97.62
346.853	103.62
347.08	81.62
347.308	87.62
347.535	93.62
347.763	91.62
347.99	85.62
348.218	98.62
348.445	94.62
348.673	102.62
348.9	102.62
349.128	97.62
349.355	83.62
349.583	99.62
349.81	87.62
350.037	82.62
350.265	92.62
350.492	92.62
350.72	91.62
350.947	108.62
351.174	109.62
351.402	102.62
351.629	105.62
351.856	101.62
352.083	101.62
352.311	104.62
352.538	94.62
352.765	91.62
352.992	117.62
353.22	112.62
353.447	104.62
353.674	94.62
353.901	86.62
354.128	106.62
354.355	107.62
354.583	89.62
354.81	100.62
355.037	101.62
355.264	89.62
355.491	89.62
355.718	92.62
355.945	99.62
356.172	85.62
356.399	82.62
356.626	89.62
356.853	90.62
357.08	87.62
357.307	96.62
357.534	87.62
357.761	88.62
357.988	111.62
358.215	91.62
358.441	98.62
358.668	107.62
358.895	95.62
359.122	80.62
359.349	86.62
359.576	97.62
359.802	104.62
360.029	105.62
360.256	104.62
360.483	98.62
360.709	84.62
360.936	92.62
361.163	96.62
361.39	85.62
361.616	85.62
361.843	82.62
362.07	84.62
362.296	96.62
362.523	97.62
362.749	90.62
362.976	84.62
363.203	88.62
363.429	81.62
363.656	79.62
363.882	89.62
364.109	87.62
364.335	86.62
364.562	90.62
364.788	93.62
365.015	73.62
365.241	96.62
365.468	104.62
365.694	96.62
365.92	76.62
366.147	81.62
366.373	90.62
366.599	86.62
366.826	84.62
367.052	84.62
367.278	90.62
367.505	89.62
367.731	85.62
367.957	90.62
368.184	85.62
368.41	98.62
368.636	109.62
368.862	100.62
369.089	109.62
369.315	95.62
369.541	87.62
369.767	77.62
369.993	89.62
370.219	98.62
370.445	90.62
370.672	77.62
370.898	83.62
371.124	91.62
371.35	86.62
371.576	88.62
371.802	86.62
372.028	81.62
372.254	111.62
372.48	74.62
372.706	77.62
372.932	82.62
373.158	82.62
373.384	94.62
373.61	91.62
373.835	88.62
374.061	86.62
374.287	93.62
374.513	81.62
374.739	84.62
374.965	90.62
375.191	91.62
375.416	81.62
375.642	93.62
375.868	88.62
376.094	88.62
376.319	90.62
376.545	81.62
376.771	77.62
376.997	82.62
377.222	91.62
377.448	84.62
377.674	85.62
377.899	98.62
378.125	79.62
378.35	96.62
378.576	85.62
378.802	74.62
379.027	96.62
379.253	96.62
379.478	79.62
379.704	88.62
379.929	91.62
380.155	90.62
380.38	81.62
380.606	94.62
380.831	92.62
381.057	93.62
381.282	95.62
381.507	80.62
381.733	97.62
381.958	84.62
382.184	77.62
382.409	87.62
382.634	96.62
382.86	96.62
383.085	82.62
383.31	92.62
383.535	83.62
383.761	70.62
383.986	97.62
384.211	91.62
384.436	94.62
384.662	104.62
384.887	94.62
385.112	104.62
385.337	88.62
385.562	91.62
385.787	84.62
386.013	109.62
386.238	102.62
386.463	101.62
386.688	110.62
386.913	90.62
387.138	106.62
387.363	85.62
387.588	96.62
387.813	102.62
388.038	95.62
388.263	95.62
388.488	90.62
388.713	91.62
388.938	105.62
389.163	99.62
389.387	81.62
389.612	83.62
389.837	76.62
390.062	87.62
390.287	92.62
390.512	89.62
390.736	83.62
390.961	89.62
391.186	79.62
391.411	82.62
391.636	88.62
391.86	91.62
392.085	81.62
392.31	88.62
392.534	86.62
392.759	78.62
392.984	92.62
393.208	89.62
393.433	82.62
393.658	85.62
393.882	76.62
394.107	87.62
394.331	70.62
394.556	89.62
394.78	75.62
395.005	89.62
395.229	87.62
395.454	98.62
395.678	76.62
395.903	81.62
396.127	73.62
396.352	101.62
396.576	87.62
396.801	92.62
397.025	77.62
397.249	93.62
397.474	85.62
397.698	75.62
397.922	97.62
398.147	84.62
398.371	84.62
398.595	85.62
398.82	74.62
399.044	73.62
399.268	87.62
399.492	84.62
399.717	79.62
399.941	92.62
400.165	82.62
400.389	87.62
400.613	90.62
400.837	78.62
401.062	83.62
401.286	73.62
401.51	92.62
401.734	92.62
401.958	88.62
402.182	116.62
402.406	141.62
402.63	117.62
402.854	79.62
403.078	88.62
403.302	74.62
403.526	81.62
403.75	97.62
403.974	93.62
404.198	80.62
404.422	87.62
404.645	91.62
404.869	95.62
405.093	73.62
405.317	97.62
405.541	106.62
405.765	108.62
405.988	110.62
406.212	169.62
406.436	203.62
406.66	141.62
406.883	96.62
407.107	98.62
407.331	89.62
407.555	101.62
407.778	96.62
408.002	89.62
408.226	84.62
408.449	86.62
408.673	96.62
408.896	81.62
409.12	84.62
409.344	87.62
409.567	96.62
409.791	92.62
410.014	92.62
410.238	101.62
410.461	79.62
410.685	105.62
410.908	85.62
411.132	84.62
411.355	104.62
411.578	88.62
411.802	87.62
412.025	75.62
412.249	90.62
412.472	88.62
412.695	100.62
412.919	72.62
413.142	97.62
413.365	82.62
413.589	76.62
413.812	85.62
414.035	86.62
414.258	85.62
414.482	88.62
414.705	83.62
414.928	91.62
415.151	83.62
415.374	98.62
415.597	84.62
415.821	88.62
416.044	89.62
416.267	92.62
416.49	86.62
416.713	89.62
416.936	79.62
417.159	86.62
417.382	85.62
417.605	77.62
417.828	95.62
418.051	101.62
418.274	89.62
418.497	89.62
418.72	92.62
418.943	79.62
419.166	84.62
419.389	76.62
419.611	86.62
419.834	78.62
420.057	98.62
420.28	91.62
420.503	90.62
420.726	86.62
420.948	101.62
421.171	93.62
421.394	94.62
421.617	86.62
421.839	80.62
422.062	78.62
422.285	85.62
422.507	96.62
422.73	80.62
422.953	83.62
423.175	79.62
423.398	87.62
423.621	81.62
423.843	93.62
424.066	92.62
424.288	85.62
424.511	86.62
424.733	103.62
424.956	97.62
425.178	101.62
425.401	103.62
425.623	97.62
425.846	86.62
426.068	80.62
426.291	93.62
426.513	96.62
426.735	85.62
426.958	92.62
427.18	101.62
427.402	133.62
427.625	152.62
427.847	102.62
428.069	90.62
428.292	72.62
428.514	77.62
428.736	87.62
428.958	95.62
429.181	88.62
429.403	83.62
429.625	82.62
429.847	100.62
430.069	119.62
430.292	83.62
430.514	83.62
430.736	81.62
430.958	79.62
431.18	87.62
431.402	72.62
431.624	82.62
431.846	88.62
432.068	92.62
432.29	88.62
432.512	87.62
432.734	81.62
432.956	81.62
433.178	94.62
433.4	90.62
433.622	89.62
433.844	94.62
434.066	92.62
434.287	77.62
434.509	96.62
434.731	93.62
434.953	81.62
435.175	83.62
435.397	110.62
435.618	97.62
435.84	102.62
436.062	113.62
436.284	120.62
436.505	96.62
436.727	92.62
436.949	92.62
437.17	99.62
437.392	73.62
437.614	86.62
437.835	112.62
438.057	107.62
438.278	121.62
438.5	109.62
438.721	117.62
438.943	90.62
439.165	82.62
439.386	88.62
439.608	85.62
439.829	103.62
440.05	116.62
440.272	129.62
440.493	81.62
440.715	87.62
440.936	85.62
441.158	70.62
441.379	87.62
441.6	94.62
441.822	88.62
442.043	84.62
442.264	92.62
442.486	93.62
442.707	91.62
442.928	95.62
443.149	132.62
443.371	132.62
443.592	100.62
443.813	101.62
444.034	104.62
444.255	90.62
444.476	84.62
444.698	86.62
444.919	82.62
445.14	130.62
445.361	125.62
445.582	105.62
445.803	121.62
446.024	127.62
446.245	122.62
446.466	105.62
446.687	79.62
446.908	84.62
447.129	92.62
447.35	81.62
447.571	77.62
447.792	93.62
448.013	84.62
448.234	96.62
448.455	95.62
448.675	114.62
448.896	124.62
449.117	91.62
449.338	102.62
449.559	128.62
449.779	134.62
450	96.62
450.221	80.62
450.442	89.62
450.662	96.62
450.883	104.62
451.104	102.62
451.324	85.62
451.545	88.62
451.766	75.62
451.986	65.62
452.207	89.62
452.428	105.62
452.648	102.62
452.869	96.62
453.089	94.62
453.31	105.62
453.53	78.62
453.751	91.62
453.971	97.62
454.192	104.62
454.412	101.62
454.633	85.62
454.853	86.62
455.073	81.62
455.294	100.62
455.514	97.62
455.734	80.62
455.955	88.62
456.175	79.62
456.395	75.62
456.616	88.62
456.836	88.62
457.056	91.62
457.276	96.62
457.497	79.62
457.717	83.62
457.937	74.62
458.157	88.62
458.377	94.62
458.598	86.62
458.818	134.62
459.038	137.62
459.258	123.62
459.478	93.62
459.698	98.62
459.918	79.62
460.138	81.62
460.358	86.62
460.578	78.62
460.798	84.62
461.018	79.62
461.238	85.62
461.458	95.62
461.678	84.62
461.898	88.62
462.118	95.62
462.338	85.62
462.558	82.62
462.777	88.62
462.997	95.62
463.217	83.62
463.437	81.62
463.657	81.62
463.876	86.62
464.096	91.62
464.316	96.62
464.536	81.62
464.755	93.62
464.975	88.62
465.195	147.62
465.414	145.62
465.634	102.62
465.854	72.62
466.073	87.62
466.293	91.62
466.512	93.62
466.732	90.62
466.951	94.62
467.171	85.62
467.391	87.62
467.61	91.62
467.829	93.62
468.049	93.62
468.268	81.62
468.488	83.62
468.707	91.62
468.927	81.62
469.146	83.62
469.365	68.62
469.585	90.62
469.804	101.62
470.023	71.62
470.243	88.62
470.462	90.62
470.681	99.62
470.901	110.62
471.12	91.62
471.339	89.62
471.558	91.62
471.777	97.62
471.997	73.62
472.216	85.62
472.435	86.62
472.654	88.62
472.873	80.62
473.092	91.62
473.311	89.62
473.53	85.62
473.749	86.62
473.968	91.62
474.187	97.62
474.406	97.62
474.625	88.62
474.844	64.62
475.063	83.62
475.282	95.62
475.501	73.62
475.72	90.62
475.939	85.62
476.158	82.62
476.377	88.62
476.596	81.62
476.814	88.62
477.033	77.62
477.252	92.62
477.471	69.62
477.69	93.62
477.908	90.62
478.127	81.62
478.346	82.62
478.564	92.62
478.783	76.62
479.002	96.62
479.22	94.62
479.439	98.62
479.658	92.62
479.876	71.62
480.095	71.62
480.313	92.62
480.532	75.62
480.751	84.62
480.969	84.62
481.188	102.62
481.406	103.62
481.624	88.62
481.843	94.62
482.061	80.62
482.28	87.62
482.498	84.62
482.717	80.62
482.935	90.62
483.153	97.62
483.372	95.62
483.59	87.62
483.808	93.62
484.027	108.62
484.245	95.62
484.463	84.62
484.681	86.62
484.9	108.62
485.118	88.62
485.336	81.62
485.554	92.62
485.772	79.62
485.99	92.62
486.209	104.62
486.427	88.62
486.645	99.62
486.863	103.62
487.081	86.62
487.299	81.62
487.517	99.62
487.735	89.62
487.953	70.62
488.171	97.62
488.389	88.62
488.607	87.62
488.825	89.62
489.043	95.62
489.261	97.62
489.479	85.62
489.696	88.62
489.914	91.62
490.132	96.62
490.35	88.62
490.568	85.62
490.786	82.62
491.003	94.62
491.221	94.62
491.439	88.62
491.657	93.62
491.874	102.62
492.092	102.62
492.31	81.62
492.527	83.62
492.745	77.62
492.963	80.62
493.18	96.62
493.398	91.62
493.615	87.62
493.833	111.62
494.05	102.62
494.268	82.62
494.485	75.62
494.703	92.62
494.92	85.62
495.138	86.62
495.355	99.62
495.573	80.62
495.79	84.62
496.008	80.62
496.225	74.62
496.442	87.62
496.66	97.62
496.877	90.62
497.094	84.62
497.312	84.62
497.529	87.62
497.746	95.62
497.963	86.62
498.181	88.62
498.398	104.62
498.615	118.62
498.832	98.62
499.049	92.62
499.267	97.62
499.484	82.62
499.701	87.62
499.918	83.62
500.135	84.62
500.352	78.62
500.569	94.62
500.786	79.62
501.003	87.62
501.22	85.62
501.437	87.62
501.654	76.62
501.871	104.62
502.088	95.62
502.305	108.62
502.522	95.62
502.739	85.62
502.956	103.62
503.172	85.62
503.389	110.62
503.606	105.62
503.823	95.62
504.04	87.62
504.256	93.62
504.473	85.62
504.69	89.62
504.907	89.62
505.123	90.62
505.34	90.62
505.557	90.62
505.773	84.62
505.99	87.62
506.207	82.62
506.423	92.62
506.64	108.62
506.856	85.62
507.073	99.62
507.289	80.62
507.506	108.62
507.722	89.62
507.939	100.62
508.155	101.62
508.372	100.62
508.588	86.62
508.805	82.62
509.021	94.62
509.238	96.62
509.454	89.62
509.67	98.62
509.887	99.62
510.103	116.62
510.319	188.62
510.536	704.62
510.752	2130.62
510.968	598.62
511.184	134.62
511.401	95.62
511.617	88.62
511.833	106.62
512.049	89.62
512.265	77.62
512.481	90.62
512.698	84.62
512.914	88.62
513.13	88.62
513.346	91.62
513.562	102.62
513.778	80.62
513.994	96.62
514.21	81.62
514.426	115.62
514.642	133.62
514.858	126.62
515.074	158.62
515.29	415.62
515.506	1337.62
515.721	481.62
515.937	159.62
516.153	112.62
516.369	80.62
516.585	86.62
516.801	84.62
