Data from Uncirc_1996_H10_HRD10591_00004.txt Node
Date: Wed Jan 03 11:32:03 EST 2024
User: Yrep
Spectrometer: HR+D1059
Trigger mode: 1
Integration Time (sec): 1.000000E-1
Scans to average: 1
Electric dark correction enabled: true
Nonlinearity correction enabled: false
Boxcar width: 0
XAxis mode: Wavelengths
Number of Pixels in Spectrum: 2048
>>>>>Begin Spectral Data<<<<<
223.165	-19.38
223.4	-19.38
223.635	-19.38
223.869	-24.38
224.104	-23.38
224.338	-17.38
224.573	-23.38
224.808	-8.38
225.042	-8.38
225.277	-13.38
225.511	-1.38
225.746	16.62
225.98	4.62
226.215	26.62
226.449	16.62
226.683	9.62
226.918	31.62
227.152	33.62
227.387	32.62
227.621	46.62
227.856	50.62
228.09	40.62
228.324	65.62
228.559	52.62
228.793	50.62
229.027	52.62
229.262	59.62
229.496	76.62
229.73	76.62
229.964	77.62
230.199	80.62
230.433	67.62
230.667	81.62
230.901	65.62
231.136	72.62
231.37	69.62
231.604	85.62
231.838	92.62
232.072	80.62
232.306	87.62
232.541	79.62
232.775	91.62
233.009	73.62
233.243	85.62
233.477	96.62
233.711	86.62
233.945	81.62
234.179	69.62
234.413	95.62
234.647	81.62
234.881	83.62
235.115	71.62
235.349	75.62
235.583	84.62
235.817	72.62
236.051	72.62
236.285	66.62
236.519	81.62
236.753	67.62
236.987	78.62
237.221	88.62
237.455	87.62
237.689	81.62
237.922	71.62
238.156	75.62
238.39	79.62
238.624	81.62
238.858	85.62
239.091	80.62
239.325	84.62
239.559	76.62
239.793	84.62
240.027	83.62
240.26	84.62
240.494	80.62
240.728	84.62
240.961	68.62
241.195	84.62
241.429	91.62
241.662	62.62
241.896	79.62
242.13	63.62
242.363	76.62
242.597	84.62
242.83	73.62
243.064	74.62
243.298	84.62
243.531	69.62
243.765	81.62
243.998	73.62
244.232	93.62
244.465	84.62
244.699	79.62
244.932	77.62
245.166	90.62
245.399	75.62
245.633	93.62
245.866	75.62
246.099	83.62
246.333	73.62
246.566	74.62
246.8	77.62
247.033	91.62
247.266	76.62
247.5	79.62
247.733	81.62
247.966	76.62
248.2	74.62
248.433	64.62
248.666	80.62
248.899	80.62
249.133	81.62
249.366	81.62
249.599	83.62
249.832	82.62
250.066	79.62
250.299	89.62
250.532	81.62
250.765	83.62
250.998	67.62
251.231	72.62
251.465	74.62
251.698	85.62
251.931	75.62
252.164	73.62
252.397	63.62
252.63	97.62
252.863	85.62
253.096	88.62
253.329	78.62
253.562	74.62
253.795	83.62
254.028	77.62
254.261	87.62
254.494	77.62
254.727	79.62
254.96	85.62
255.193	69.62
255.426	72.62
255.659	83.62
255.892	81.62
256.124	89.62
256.357	95.62
256.59	84.62
256.823	84.62
257.056	80.62
257.289	88.62
257.521	84.62
257.754	84.62
257.987	83.62
258.22	69.62
258.452	99.62
258.685	76.62
258.918	84.62
259.151	83.62
259.383	82.62
259.616	80.62
259.849	76.62
260.081	67.62
260.314	87.62
260.547	88.62
260.779	79.62
261.012	81.62
261.244	74.62
261.477	90.62
261.71	92.62
261.942	90.62
262.175	112.62
262.407	83.62
262.64	94.62
262.872	91.62
263.105	89.62
263.337	97.62
263.57	99.62
263.802	78.62
264.035	71.62
264.267	83.62
264.499	75.62
264.732	80.62
264.964	91.62
265.197	79.62
265.429	76.62
265.661	75.62
265.894	86.62
266.126	96.62
266.358	82.62
266.591	84.62
266.823	89.62
267.055	68.62
267.287	87.62
267.52	93.62
267.752	102.62
267.984	85.62
268.216	86.62
268.448	86.62
268.681	79.62
268.913	84.62
269.145	78.62
269.377	66.62
269.609	85.62
269.841	87.62
270.073	98.62
270.306	92.62
270.538	84.62
270.77	88.62
271.002	98.62
271.234	73.62
271.466	85.62
271.698	81.62
271.93	86.62
272.162	76.62
272.394	83.62
272.626	83.62
272.858	99.62
273.09	91.62
273.322	104.62
273.553	85.62
273.785	93.62
274.017	102.62
274.249	97.62
274.481	87.62
274.713	89.62
274.945	84.62
275.176	96.62
275.408	96.62
275.64	77.62
275.872	94.62
276.104	87.62
276.335	87.62
276.567	108.62
276.799	99.62
277.031	101.62
277.262	82.62
277.494	99.62
277.726	92.62
277.957	88.62
278.189	85.62
278.421	87.62
278.652	87.62
278.884	97.62
279.115	83.62
279.347	95.62
279.579	80.62
279.81	85.62
280.042	86.62
280.273	84.62
280.505	75.62
280.736	104.62
280.968	92.62
281.199	89.62
281.431	95.62
281.662	90.62
281.894	87.62
282.125	100.62
282.356	118.62
282.588	116.62
282.819	100.62
283.051	94.62
283.282	90.62
283.513	81.62
283.745	75.62
283.976	90.62
284.207	84.62
284.439	92.62
284.67	81.62
284.901	93.62
285.132	92.62
285.364	91.62
285.595	86.62
285.826	88.62
286.057	80.62
286.288	80.62
286.52	95.62
286.751	86.62
286.982	81.62
287.213	87.62
287.444	83.62
287.675	89.62
287.906	92.62
288.138	96.62
288.369	79.62
288.6	93.62
288.831	87.62
289.062	90.62
289.293	101.62
289.524	93.62
289.755	80.62
289.986	83.62
290.217	83.62
290.448	94.62
290.679	78.62
290.91	97.62
291.141	93.62
291.371	91.62
291.602	88.62
291.833	96.62
292.064	85.62
292.295	95.62
292.526	72.62
292.757	96.62
292.987	87.62
293.218	81.62
293.449	84.62
293.68	92.62
293.91	108.62
294.141	107.62
294.372	91.62
294.603	93.62
294.833	82.62
295.064	86.62
295.295	92.62
295.525	93.62
295.756	95.62
295.987	116.62
296.217	122.62
296.448	102.62
296.679	99.62
296.909	106.62
297.14	92.62
297.37	98.62
297.601	93.62
297.831	96.62
298.062	96.62
298.292	92.62
298.523	90.62
298.753	91.62
298.984	92.62
299.214	90.62
299.445	101.62
299.675	97.62
299.905	102.62
300.136	88.62
300.366	97.62
300.597	89.62
300.827	97.62
301.057	99.62
301.288	93.62
301.518	88.62
301.748	97.62
301.979	111.62
302.209	81.62
302.439	90.62
302.669	89.62
302.9	95.62
303.13	81.62
303.36	87.62
303.59	91.62
303.82	93.62
304.051	99.62
304.281	84.62
304.511	83.62
304.741	88.62
304.971	93.62
305.201	104.62
305.431	84.62
305.661	81.62
305.891	88.62
306.121	101.62
306.352	98.62
306.582	100.62
306.812	91.62
307.042	88.62
307.272	103.62
307.502	75.62
307.731	101.62
307.961	89.62
308.191	89.62
308.421	89.62
308.651	89.62
308.881	70.62
309.111	98.62
309.341	95.62
309.571	96.62
309.8	97.62
310.03	97.62
310.26	103.62
310.49	105.62
310.72	98.62
310.949	115.62
311.179	101.62
311.409	101.62
311.639	107.62
311.868	96.62
312.098	98.62
312.328	101.62
312.557	93.62
312.787	96.62
313.017	89.62
313.246	92.62
313.476	88.62
313.706	80.62
313.935	104.62
314.165	98.62
314.394	84.62
314.624	92.62
314.853	91.62
315.083	101.62
315.312	93.62
315.542	93.62
315.771	83.62
316.001	87.62
316.23	96.62
316.46	89.62
316.689	89.62
316.919	103.62
317.148	82.62
317.377	91.62
317.607	100.62
317.836	92.62
318.065	99.62
318.295	91.62
318.524	90.62
318.753	87.62
318.983	106.62
319.212	94.62
319.441	101.62
319.67	104.62
319.9	91.62
320.129	82.62
320.358	102.62
320.587	101.62
320.816	96.62
321.046	106.62
321.275	84.62
321.504	79.62
321.733	105.62
321.962	100.62
322.191	109.62
322.42	99.62
322.649	122.62
322.878	116.62
323.108	120.62
323.337	109.62
323.566	95.62
323.795	137.62
324.024	182.62
324.253	348.62
324.482	715.62
324.71	1422.62
324.939	1885.62
325.168	704.62
325.397	227.62
325.626	131.62
325.855	119.62
326.084	113.62
326.313	123.62
326.542	141.62
326.77	212.62
326.999	390.62
327.228	795.62
327.457	1460.62
327.686	1198.62
327.914	339.62
328.143	208.62
328.372	172.62
328.6	115.62
328.829	110.62
329.058	115.62
329.287	127.62
329.515	105.62
329.744	96.62
329.972	105.62
330.201	98.62
330.43	91.62
330.658	116.62
330.887	109.62
331.115	101.62
331.344	92.62
331.572	91.62
331.801	96.62
332.03	92.62
332.258	109.62
332.486	82.62
332.715	99.62
332.943	83.62
333.172	92.62
333.4	94.62
333.629	98.62
333.857	102.62
334.085	107.62
334.314	94.62
334.542	98.62
334.771	89.62
334.999	89.62
335.227	85.62
335.455	100.62
335.684	101.62
335.912	86.62
336.14	86.62
336.369	103.62
336.597	96.62
336.825	90.62
337.053	107.62
337.281	107.62
337.51	105.62
337.738	105.62
337.966	105.62
338.194	114.62
338.422	143.62
338.65	104.62
338.878	92.62
339.106	101.62
339.334	92.62
339.562	93.62
339.79	91.62
340.018	94.62
340.246	79.62
340.474	85.62
340.702	84.62
340.93	79.62
341.158	88.62
341.386	95.62
341.614	84.62
341.842	88.62
342.07	93.62
342.298	87.62
342.526	74.62
342.754	97.62
342.981	104.62
343.209	86.62
343.437	98.62
343.665	81.62
343.893	97.62
344.12	97.62
344.348	103.62
344.576	87.62
344.804	97.62
345.031	87.62
345.259	97.62
345.487	116.62
345.714	106.62
345.942	86.62
346.17	86.62
346.397	98.62
346.625	81.62
346.853	88.62
347.08	85.62
347.308	92.62
347.535	100.62
347.763	103.62
347.99	96.62
348.218	110.62
348.445	98.62
348.673	97.62
348.9	93.62
349.128	95.62
349.355	104.62
349.583	88.62
349.81	101.62
350.037	97.62
350.265	91.62
350.492	98.62
350.72	93.62
350.947	105.62
351.174	99.62
351.402	97.62
351.629	100.62
351.856	108.62
352.083	105.62
352.311	110.62
352.538	115.62
352.765	105.62
352.992	124.62
353.22	109.62
353.447	103.62
353.674	106.62
353.901	99.62
354.128	114.62
354.355	91.62
354.583	108.62
354.81	100.62
355.037	105.62
355.264	107.62
355.491	97.62
355.718	89.62
355.945	99.62
356.172	100.62
356.399	109.62
356.626	94.62
356.853	93.62
357.08	85.62
357.307	101.62
357.534	84.62
357.761	101.62
357.988	99.62
358.215	105.62
358.441	101.62
358.668	98.62
358.895	84.62
359.122	90.62
359.349	88.62
359.576	80.62
359.802	83.62
360.029	105.62
360.256	93.62
360.483	85.62
360.709	76.62
360.936	92.62
361.163	81.62
361.39	92.62
361.616	84.62
361.843	81.62
362.07	98.62
362.296	92.62
362.523	97.62
362.749	91.62
362.976	72.62
363.203	97.62
363.429	83.62
363.656	104.62
363.882	87.62
364.109	94.62
364.335	103.62
364.562	85.62
364.788	95.62
365.015	99.62
365.241	89.62
365.468	99.62
365.694	92.62
365.92	95.62
366.147	100.62
366.373	90.62
366.599	88.62
366.826	93.62
367.052	95.62
367.278	98.62
367.505	76.62
367.731	101.62
367.957	95.62
368.184	82.62
368.41	112.62
368.636	108.62
368.862	122.62
369.089	108.62
369.315	88.62
369.541	89.62
369.767	85.62
369.993	84.62
370.219	100.62
370.445	96.62
370.672	81.62
370.898	94.62
371.124	95.62
371.35	83.62
371.576	84.62
371.802	93.62
372.028	79.62
372.254	88.62
372.48	78.62
372.706	102.62
372.932	95.62
373.158	81.62
373.384	103.62
373.61	83.62
373.835	87.62
374.061	92.62
374.287	92.62
374.513	90.62
374.739	93.62
374.965	87.62
375.191	78.62
375.416	88.62
375.642	90.62
375.868	98.62
376.094	83.62
376.319	90.62
376.545	82.62
376.771	89.62
376.997	81.62
377.222	91.62
377.448	97.62
377.674	74.62
377.899	79.62
378.125	84.62
378.35	87.62
378.576	109.62
378.802	92.62
379.027	84.62
379.253	95.62
379.478	87.62
379.704	85.62
379.929	89.62
380.155	101.62
380.38	91.62
380.606	98.62
380.831	104.62
381.057	103.62
381.282	81.62
381.507	99.62
381.733	101.62
381.958	88.62
382.184	94.62
382.409	100.62
382.634	100.62
382.86	90.62
383.085	108.62
383.31	90.62
383.535	97.62
383.761	110.62
383.986	91.62
384.211	109.62
384.436	116.62
384.662	100.62
384.887	103.62
385.112	110.62
385.337	114.62
385.562	115.62
385.787	102.62
386.013	118.62
386.238	116.62
386.463	122.62
386.688	117.62
386.913	105.62
387.138	124.62
387.363	101.62
387.588	114.62
387.813	101.62
388.038	101.62
388.263	126.62
388.488	126.62
388.713	111.62
388.938	102.62
389.163	87.62
389.387	90.62
389.612	84.62
389.837	88.62
390.062	91.62
390.287	101.62
390.512	98.62
390.736	110.62
390.961	78.62
391.186	106.62
391.411	105.62
391.636	79.62
391.86	93.62
392.085	85.62
392.31	96.62
392.534	79.62
392.759	113.62
392.984	104.62
393.208	123.62
393.433	119.62
393.658	103.62
393.882	96.62
394.107	83.62
394.331	84.62
394.556	87.62
394.78	102.62
395.005	80.62
395.229	96.62
395.454	92.62
395.678	88.62
395.903	77.62
396.127	83.62
396.352	95.62
396.576	85.62
396.801	84.62
397.025	104.62
397.249	101.62
397.474	81.62
397.698	96.62
397.922	90.62
398.147	81.62
398.371	95.62
398.595	79.62
398.82	91.62
399.044	86.62
399.268	79.62
399.492	97.62
399.717	87.62
399.941	94.62
400.165	92.62
400.389	88.62
400.613	84.62
400.837	89.62
401.062	98.62
401.286	88.62
401.51	89.62
401.734	76.62
401.958	109.62
402.182	120.62
402.406	131.62
402.63	98.62
402.854	87.62
403.078	94.62
403.302	97.62
403.526	80.62
403.75	99.62
403.974	85.62
404.198	88.62
404.422	107.62
404.645	81.62
404.869	87.62
405.093	92.62
405.317	91.62
405.541	96.62
405.765	89.62
405.988	104.62
406.212	152.62
406.436	173.62
406.66	127.62
406.883	92.62
407.107	104.62
407.331	99.62
407.555	107.62
407.778	99.62
408.002	86.62
408.226	91.62
408.449	100.62
408.673	104.62
408.896	100.62
409.12	101.62
409.344	81.62
409.567	88.62
409.791	98.62
410.014	86.62
410.238	101.62
410.461	93.62
410.685	103.62
410.908	104.62
411.132	118.62
411.355	95.62
411.578	91.62
411.802	90.62
412.025	73.62
412.249	91.62
412.472	92.62
412.695	86.62
412.919	96.62
413.142	97.62
413.365	88.62
413.589	92.62
413.812	81.62
414.035	97.62
414.258	90.62
414.482	81.62
414.705	99.62
414.928	100.62
415.151	96.62
415.374	93.62
415.597	91.62
415.821	113.62
416.044	91.62
416.267	90.62
416.49	92.62
416.713	87.62
416.936	88.62
417.159	95.62
417.382	103.62
417.605	94.62
417.828	84.62
418.051	95.62
418.274	79.62
418.497	92.62
418.72	93.62
418.943	86.62
419.166	90.62
419.389	89.62
419.611	92.62
419.834	84.62
420.057	79.62
420.28	92.62
420.503	91.62
420.726	82.62
420.948	93.62
421.171	93.62
421.394	93.62
421.617	96.62
421.839	100.62
422.062	88.62
422.285	89.62
422.507	98.62
422.73	104.62
422.953	100.62
423.175	85.62
423.398	80.62
423.621	87.62
423.843	77.62
424.066	91.62
424.288	96.62
424.511	78.62
424.733	87.62
424.956	100.62
425.178	105.62
425.401	103.62
425.623	98.62
425.846	88.62
426.068	89.62
426.291	90.62
426.513	76.62
426.735	79.62
426.958	95.62
427.18	100.62
427.402	127.62
427.625	144.62
427.847	111.62
428.069	87.62
428.292	89.62
428.514	90.62
428.736	94.62
428.958	106.62
429.181	75.62
429.403	74.62
429.625	79.62
429.847	82.62
430.069	82.62
430.292	84.62
430.514	88.62
430.736	90.62
430.958	71.62
431.18	82.62
431.402	84.62
431.624	80.62
431.846	83.62
432.068	80.62
432.29	89.62
432.512	93.62
432.734	73.62
432.956	77.62
433.178	92.62
433.4	93.62
433.622	90.62
433.844	107.62
434.066	97.62
434.287	74.62
434.509	76.62
434.731	92.62
434.953	96.62
435.175	81.62
435.397	83.62
435.618	98.62
435.84	89.62
436.062	115.62
436.284	107.62
436.505	96.62
436.727	87.62
436.949	80.62
437.17	83.62
437.392	92.62
437.614	79.62
437.835	105.62
438.057	109.62
438.278	123.62
438.5	95.62
438.721	123.62
438.943	105.62
439.165	93.62
439.386	77.62
439.608	97.62
439.829	96.62
440.05	113.62
440.272	133.62
440.493	85.62
440.715	95.62
440.936	89.62
441.158	91.62
441.379	85.62
441.6	98.62
441.822	93.62
442.043	86.62
442.264	102.62
442.486	104.62
442.707	93.62
442.928	95.62
443.149	122.62
443.371	114.62
443.592	97.62
443.813	120.62
444.034	113.62
444.255	96.62
444.476	95.62
444.698	85.62
444.919	77.62
445.14	124.62
445.361	124.62
445.582	106.62
445.803	133.62
446.024	133.62
446.245	117.62
446.466	105.62
446.687	96.62
446.908	79.62
447.129	89.62
447.35	72.62
447.571	79.62
447.792	88.62
448.013	96.62
448.234	97.62
448.455	98.62
448.675	111.62
448.896	119.62
449.117	94.62
449.338	88.62
449.559	130.62
449.779	124.62
450	90.62
450.221	96.62
450.442	98.62
450.662	89.62
450.883	89.62
451.104	95.62
451.324	84.62
451.545	92.62
451.766	76.62
451.986	87.62
452.207	95.62
452.428	106.62
452.648	109.62
452.869	105.62
453.089	108.62
453.31	103.62
453.53	75.62
453.751	95.62
453.971	94.62
454.192	111.62
454.412	95.62
454.633	100.62
454.853	92.62
455.073	92.62
455.294	87.62
455.514	94.62
455.734	79.62
455.955	87.62
456.175	91.62
456.395	91.62
456.616	85.62
456.836	80.62
457.056	80.62
457.276	87.62
457.497	80.62
457.717	77.62
457.937	80.62
458.157	89.62
458.377	88.62
458.598	101.62
458.818	128.62
459.038	133.62
459.258	96.62
459.478	89.62
459.698	83.62
459.918	75.62
460.138	90.62
460.358	66.62
460.578	87.62
460.798	99.62
461.018	76.62
461.238	89.62
461.458	78.62
461.678	88.62
461.898	92.62
462.118	84.62
462.338	88.62
462.558	92.62
462.777	82.62
462.997	83.62
463.217	85.62
463.437	83.62
463.657	83.62
463.876	80.62
464.096	83.62
464.316	81.62
464.536	100.62
464.755	93.62
464.975	115.62
465.195	133.62
465.414	132.62
465.634	92.62
465.854	96.62
466.073	96.62
466.293	90.62
466.512	81.62
466.732	76.62
466.951	79.62
467.171	95.62
467.391	91.62
467.61	101.62
467.829	85.62
468.049	74.62
468.268	85.62
468.488	75.62
468.707	93.62
468.927	79.62
469.146	76.62
469.365	86.62
469.585	85.62
469.804	94.62
470.023	102.62
470.243	84.62
470.462	83.62
470.681	88.62
470.901	97.62
471.12	83.62
471.339	92.62
471.558	97.62
471.777	80.62
471.997	99.62
472.216	94.62
472.435	85.62
472.654	89.62
472.873	86.62
473.092	89.62
473.311	80.62
473.53	75.62
473.749	81.62
473.968	99.62
474.187	86.62
474.406	95.62
474.625	99.62
474.844	100.62
475.063	98.62
475.282	90.62
475.501	84.62
475.72	78.62
475.939	91.62
476.158	83.62
476.377	78.62
476.596	109.62
476.814	86.62
477.033	92.62
477.252	88.62
477.471	101.62
477.69	102.62
477.908	82.62
478.127	94.62
478.346	91.62
478.564	83.62
478.783	97.62
479.002	90.62
479.22	99.62
479.439	94.62
479.658	88.62
479.876	87.62
480.095	73.62
480.313	68.62
480.532	89.62
480.751	87.62
480.969	92.62
481.188	88.62
481.406	83.62
481.624	96.62
481.843	106.62
482.061	106.62
482.28	79.62
482.498	73.62
482.717	80.62
482.935	98.62
483.153	81.62
483.372	92.62
483.59	89.62
483.808	93.62
484.027	91.62
484.245	86.62
484.463	91.62
484.681	92.62
484.9	90.62
485.118	92.62
485.336	89.62
485.554	109.62
485.772	107.62
485.99	115.62
486.209	88.62
486.427	108.62
486.645	92.62
486.863	117.62
487.081	101.62
487.299	105.62
487.517	99.62
487.735	90.62
487.953	90.62
488.171	96.62
488.389	82.62
488.607	94.62
488.825	105.62
489.043	96.62
489.261	93.62
489.479	96.62
489.696	81.62
489.914	77.62
490.132	73.62
490.35	92.62
490.568	97.62
490.786	98.62
491.003	75.62
491.221	82.62
491.439	100.62
491.657	88.62
491.874	89.62
492.092	103.62
492.31	78.62
492.527	101.62
492.745	91.62
492.963	91.62
493.18	90.62
493.398	92.62
493.615	97.62
493.833	89.62
494.05	97.62
494.268	87.62
494.485	101.62
494.703	96.62
494.92	101.62
495.138	103.62
495.355	93.62
495.573	93.62
495.79	101.62
496.008	88.62
496.225	81.62
496.442	95.62
496.66	86.62
496.877	93.62
497.094	79.62
497.312	96.62
497.529	95.62
497.746	87.62
497.963	75.62
498.181	103.62
498.398	89.62
498.615	104.62
498.832	96.62
499.049	92.62
499.267	85.62
499.484	83.62
499.701	94.62
499.918	90.62
500.135	87.62
500.352	90.62
500.569	89.62
500.786	94.62
501.003	89.62
501.22	91.62
501.437	86.62
501.654	89.62
501.871	99.62
502.088	98.62
502.305	97.62
502.522	92.62
502.739	85.62
502.956	84.62
503.172	80.62
503.389	100.62
503.606	96.62
503.823	99.62
504.04	89.62
504.256	103.62
504.473	84.62
504.69	86.62
504.907	99.62
505.123	90.62
505.34	81.62
505.557	96.62
505.773	93.62
505.99	77.62
506.207	79.62
506.423	96.62
506.64	91.62
506.856	88.62
507.073	73.62
507.289	88.62
507.506	96.62
507.722	101.62
507.939	105.62
508.155	88.62
508.372	88.62
508.588	94.62
508.805	100.62
509.021	72.62
509.238	90.62
509.454	106.62
509.67	106.62
509.887	107.62
510.103	124.62
510.319	175.62
510.536	507.62
510.752	1547.62
510.968	446.62
511.184	135.62
511.401	116.62
511.617	99.62
511.833	95.62
512.049	92.62
512.265	91.62
512.481	102.62
512.698	88.62
512.914	101.62
513.13	101.62
513.346	92.62
513.562	101.62
513.778	101.62
513.994	80.62
514.21	84.62
514.426	102.62
514.642	114.62
514.858	108.62
515.074	125.62
515.29	306.62
515.506	984.62
515.721	394.62
