Data from Uncirc_1996_H10_HRD10591_00056.txt Node
Date: Wed Jan 03 11:32:13 EST 2024
User: Yrep
Spectrometer: HR+D1059
Trigger mode: 1
Integration Time (sec): 1.000000E-1
Scans to average: 1
Electric dark correction enabled: true
Nonlinearity correction enabled: false
Boxcar width: 0
XAxis mode: Wavelengths
Number of Pixels in Spectrum: 2048
>>>>>Begin Spectral Data<<<<<
223.165	-13.56
223.4	-13.56
223.635	-13.56
223.869	-20.56
224.104	-21.56
224.338	-12.56
224.573	-8.56
224.808	-10.56
225.042	-11.56
225.277	-4.56
225.511	0.44
225.746	-5.56
225.98	14.44
226.215	11.44
226.449	20.44
226.683	19.44
226.918	19.44
227.152	23.44
227.387	56.44
227.621	38.44
227.856	47.44
228.09	39.44
228.324	48.44
228.559	72.44
228.793	65.44
229.027	55.44
229.262	83.44
229.496	77.44
229.73	80.44
229.964	83.44
230.199	86.44
230.433	77.44
230.667	80.44
230.901	79.44
231.136	89.44
231.37	80.44
231.604	74.44
231.838	86.44
232.072	92.44
232.306	79.44
232.541	83.44
232.775	73.44
233.009	86.44
233.243	75.44
233.477	89.44
233.711	84.44
233.945	85.44
234.179	78.44
234.413	89.44
234.647	80.44
234.881	72.44
235.115	90.44
235.349	78.44
235.583	85.44
235.817	78.44
236.051	84.44
236.285	72.44
236.519	76.44
236.753	92.44
236.987	90.44
237.221	75.44
237.455	83.44
237.689	86.44
237.922	77.44
238.156	76.44
238.39	90.44
238.624	84.44
238.858	74.44
239.091	83.44
239.325	63.44
239.559	80.44
239.793	92.44
240.027	91.44
240.26	79.44
240.494	76.44
240.728	75.44
240.961	76.44
241.195	75.44
241.429	92.44
241.662	95.44
241.896	86.44
242.13	79.44
242.363	82.44
242.597	75.44
242.83	79.44
243.064	96.44
243.298	75.44
243.531	74.44
243.765	80.44
243.998	83.44
244.232	87.44
244.465	84.44
244.699	86.44
244.932	68.44
245.166	70.44
245.399	75.44
245.633	75.44
245.866	85.44
246.099	69.44
246.333	87.44
246.566	78.44
246.8	85.44
247.033	91.44
247.266	82.44
247.5	83.44
247.733	71.44
247.966	82.44
248.2	95.44
248.433	80.44
248.666	89.44
248.899	94.44
249.133	80.44
249.366	89.44
249.599	119.44
249.832	68.44
250.066	82.44
250.299	88.44
250.532	85.44
250.765	69.44
250.998	81.44
251.231	65.44
251.465	105.44
251.698	96.44
251.931	84.44
252.164	80.44
252.397	74.44
252.63	87.44
252.863	93.44
253.096	82.44
253.329	88.44
253.562	68.44
253.795	58.44
254.028	77.44
254.261	95.44
254.494	91.44
254.727	76.44
254.96	75.44
255.193	89.44
255.426	98.44
255.659	89.44
255.892	76.44
256.124	83.44
256.357	88.44
256.59	79.44
256.823	85.44
257.056	79.44
257.289	84.44
257.521	83.44
257.754	75.44
257.987	88.44
258.22	89.44
258.452	74.44
258.685	83.44
258.918	77.44
259.151	91.44
259.383	89.44
259.616	80.44
259.849	75.44
260.081	79.44
260.314	108.44
260.547	84.44
260.779	73.44
261.012	67.44
261.244	87.44
261.477	75.44
261.71	93.44
261.942	104.44
262.175	110.44
262.407	95.44
262.64	82.44
262.872	73.44
263.105	76.44
263.337	75.44
263.57	75.44
263.802	80.44
264.035	77.44
264.267	78.44
264.499	99.44
264.732	86.44
264.964	89.44
265.197	91.44
265.429	73.44
265.661	81.44
265.894	73.44
266.126	97.44
266.358	76.44
266.591	88.44
266.823	92.44
267.055	81.44
267.287	79.44
267.52	76.44
267.752	93.44
267.984	77.44
268.216	94.44
268.448	98.44
268.681	73.44
268.913	89.44
269.145	80.44
269.377	94.44
269.609	89.44
269.841	87.44
270.073	95.44
270.306	88.44
270.538	72.44
270.77	90.44
271.002	92.44
271.234	97.44
271.466	77.44
271.698	78.44
271.93	87.44
272.162	79.44
272.394	88.44
272.626	94.44
272.858	88.44
273.09	77.44
273.322	89.44
273.553	87.44
273.785	74.44
274.017	82.44
274.249	82.44
274.481	98.44
274.713	75.44
274.945	96.44
275.176	95.44
275.408	73.44
275.64	80.44
275.872	102.44
276.104	86.44
276.335	93.44
276.567	84.44
276.799	103.44
277.031	105.44
277.262	84.44
277.494	90.44
277.726	87.44
277.957	94.44
278.189	78.44
278.421	88.44
278.652	89.44
278.884	95.44
279.115	91.44
279.347	84.44
279.579	89.44
279.81	88.44
280.042	94.44
280.273	96.44
280.505	83.44
280.736	91.44
280.968	89.44
281.199	93.44
281.431	75.44
281.662	89.44
281.894	83.44
282.125	93.44
282.356	129.44
282.588	139.44
282.819	113.44
283.051	98.44
283.282	90.44
283.513	87.44
283.745	77.44
283.976	85.44
284.207	86.44
284.439	93.44
284.67	98.44
284.901	100.44
285.132	90.44
285.364	86.44
285.595	97.44
285.826	87.44
286.057	76.44
286.288	92.44
286.52	85.44
286.751	93.44
286.982	93.44
287.213	97.44
287.444	96.44
287.675	91.44
287.906	89.44
288.138	87.44
288.369	104.44
288.6	96.44
288.831	90.44
289.062	88.44
289.293	100.44
289.524	97.44
289.755	78.44
289.986	77.44
290.217	70.44
290.448	91.44
290.679	77.44
290.91	97.44
291.141	87.44
291.371	85.44
291.602	92.44
291.833	73.44
292.064	95.44
292.295	93.44
292.526	95.44
292.757	106.44
292.987	94.44
293.218	91.44
293.449	92.44
293.68	88.44
293.91	81.44
294.141	83.44
294.372	87.44
294.603	85.44
294.833	83.44
295.064	101.44
295.295	97.44
295.525	99.44
295.756	111.44
295.987	112.44
296.217	133.44
296.448	124.44
296.679	87.44
296.909	98.44
297.14	83.44
297.37	79.44
297.601	88.44
297.831	93.44
298.062	95.44
298.292	100.44
298.523	88.44
298.753	87.44
298.984	100.44
299.214	81.44
299.445	93.44
299.675	91.44
299.905	100.44
300.136	104.44
300.366	92.44
300.597	80.44
300.827	103.44
301.057	97.44
301.288	117.44
301.518	99.44
301.748	80.44
301.979	95.44
302.209	95.44
302.439	89.44
302.669	83.44
302.9	96.44
303.13	87.44
303.36	89.44
303.59	87.44
303.82	90.44
304.051	96.44
304.281	77.44
304.511	93.44
304.741	83.44
304.971	85.44
305.201	99.44
305.431	86.44
305.661	84.44
305.891	94.44
306.121	76.44
306.352	82.44
306.582	102.44
306.812	90.44
307.042	80.44
307.272	92.44
307.502	92.44
307.731	90.44
307.961	87.44
308.191	92.44
308.421	96.44
308.651	98.44
308.881	96.44
309.111	103.44
309.341	94.44
309.571	89.44
309.8	92.44
310.03	89.44
310.26	99.44
310.49	91.44
310.72	96.44
310.949	96.44
311.179	88.44
311.409	89.44
311.639	92.44
311.868	93.44
312.098	91.44
312.328	100.44
312.557	105.44
312.787	103.44
313.017	104.44
313.246	93.44
313.476	83.44
313.706	93.44
313.935	97.44
314.165	106.44
314.394	97.44
314.624	100.44
314.853	108.44
315.083	88.44
315.312	95.44
315.542	89.44
315.771	96.44
316.001	107.44
316.23	85.44
316.46	93.44
316.689	95.44
316.919	80.44
317.148	98.44
317.377	99.44
317.607	91.44
317.836	87.44
318.065	88.44
318.295	86.44
318.524	90.44
318.753	84.44
318.983	106.44
319.212	100.44
319.441	115.44
319.67	101.44
319.9	85.44
320.129	100.44
320.358	92.44
320.587	100.44
320.816	104.44
321.046	108.44
321.275	85.44
321.504	90.44
321.733	98.44
321.962	106.44
322.191	114.44
322.42	119.44
322.649	114.44
322.878	100.44
323.108	106.44
323.337	123.44
323.566	146.44
323.795	145.44
324.024	204.44
324.253	371.44
324.482	769.44
324.71	1580.44
324.939	2045.44
325.168	778.44
325.397	228.44
325.626	155.44
325.855	126.44
326.084	128.44
326.313	136.44
326.542	153.44
326.77	215.44
326.999	434.44
327.228	889.44
327.457	1601.44
327.686	1287.44
327.914	361.44
328.143	211.44
328.372	161.44
328.6	118.44
328.829	112.44
329.058	117.44
329.287	117.44
329.515	101.44
329.744	106.44
329.972	93.44
330.201	107.44
330.43	94.44
330.658	124.44
330.887	139.44
331.115	121.44
331.344	94.44
331.572	105.44
331.801	103.44
332.03	98.44
332.258	88.44
332.486	89.44
332.715	92.44
332.943	80.44
333.172	108.44
333.4	84.44
333.629	121.44
333.857	112.44
334.085	98.44
334.314	105.44
334.542	102.44
334.771	96.44
334.999	91.44
335.227	95.44
335.455	103.44
335.684	91.44
335.912	111.44
336.14	92.44
336.369	96.44
336.597	81.44
336.825	95.44
337.053	94.44
337.281	101.44
337.51	94.44
337.738	94.44
337.966	111.44
338.194	105.44
338.422	111.44
338.65	108.44
338.878	102.44
339.106	85.44
339.334	93.44
339.562	77.44
339.79	92.44
340.018	80.44
340.246	100.44
340.474	108.44
340.702	97.44
340.93	96.44
341.158	92.44
341.386	106.44
341.614	90.44
341.842	97.44
342.07	85.44
342.298	89.44
342.526	92.44
342.754	85.44
342.981	99.44
343.209	88.44
343.437	106.44
343.665	103.44
343.893	95.44
344.12	90.44
344.348	90.44
344.576	90.44
344.804	71.44
345.031	96.44
345.259	94.44
345.487	96.44
345.714	109.44
345.942	89.44
346.17	83.44
346.397	86.44
346.625	91.44
346.853	104.44
347.08	89.44
347.308	95.44
347.535	95.44
347.763	92.44
347.99	97.44
348.218	84.44
348.445	115.44
348.673	92.44
348.9	102.44
349.128	84.44
349.355	89.44
349.583	96.44
349.81	102.44
350.037	105.44
350.265	88.44
350.492	94.44
350.72	90.44
350.947	99.44
351.174	107.44
351.402	112.44
351.629	104.44
351.856	116.44
352.083	107.44
352.311	105.44
352.538	107.44
352.765	110.44
352.992	113.44
353.22	128.44
353.447	101.44
353.674	110.44
353.901	100.44
354.128	101.44
354.355	93.44
354.583	85.44
354.81	93.44
355.037	85.44
355.264	99.44
355.491	93.44
355.718	109.44
355.945	93.44
356.172	104.44
356.399	90.44
356.626	101.44
356.853	92.44
357.08	109.44
357.307	98.44
357.534	92.44
357.761	101.44
357.988	99.44
358.215	101.44
358.441	97.44
358.668	73.44
358.895	87.44
359.122	88.44
359.349	91.44
359.576	91.44
359.802	86.44
360.029	107.44
360.256	108.44
360.483	108.44
360.709	95.44
360.936	91.44
361.163	94.44
361.39	95.44
361.616	92.44
361.843	86.44
362.07	80.44
362.296	100.44
362.523	86.44
362.749	98.44
362.976	87.44
363.203	92.44
363.429	80.44
363.656	85.44
363.882	83.44
364.109	88.44
364.335	71.44
364.562	84.44
364.788	89.44
365.015	91.44
365.241	100.44
365.468	93.44
365.694	117.44
365.92	91.44
366.147	94.44
366.373	97.44
366.599	95.44
366.826	90.44
367.052	92.44
367.278	98.44
367.505	77.44
367.731	98.44
367.957	110.44
368.184	96.44
368.41	108.44
368.636	109.44
368.862	119.44
369.089	113.44
369.315	101.44
369.541	91.44
369.767	96.44
369.993	91.44
370.219	95.44
370.445	98.44
370.672	85.44
370.898	83.44
371.124	83.44
371.35	82.44
371.576	97.44
371.802	86.44
372.028	87.44
372.254	93.44
372.48	92.44
372.706	98.44
372.932	83.44
373.158	91.44
373.384	92.44
373.61	85.44
373.835	101.44
374.061	85.44
374.287	102.44
374.513	87.44
374.739	83.44
374.965	107.44
375.191	96.44
375.416	93.44
375.642	87.44
375.868	82.44
376.094	84.44
376.319	86.44
376.545	104.44
376.771	93.44
376.997	99.44
377.222	83.44
377.448	107.44
377.674	84.44
377.899	87.44
378.125	95.44
378.35	88.44
378.576	86.44
378.802	90.44
379.027	99.44
379.253	102.44
379.478	95.44
379.704	83.44
379.929	99.44
380.155	99.44
380.38	88.44
380.606	92.44
380.831	81.44
381.057	101.44
381.282	107.44
381.507	87.44
381.733	97.44
381.958	99.44
382.184	107.44
382.409	98.44
382.634	113.44
382.86	106.44
383.085	105.44
383.31	96.44
383.535	89.44
383.761	100.44
383.986	104.44
384.211	99.44
384.436	93.44
384.662	102.44
384.887	95.44
385.112	109.44
385.337	100.44
385.562	116.44
385.787	95.44
386.013	103.44
386.238	122.44
386.463	109.44
386.688	89.44
386.913	89.44
387.138	94.44
387.363	101.44
387.588	99.44
387.813	88.44
388.038	101.44
388.263	110.44
388.488	106.44
388.713	88.44
388.938	89.44
389.163	85.44
389.387	110.44
389.612	105.44
389.837	91.44
390.062	104.44
390.287	91.44
390.512	96.44
390.736	89.44
390.961	112.44
391.186	98.44
391.411	98.44
391.636	84.44
391.86	89.44
392.085	97.44
392.31	85.44
392.534	84.44
392.759	89.44
392.984	81.44
393.208	102.44
393.433	98.44
393.658	98.44
393.882	95.44
394.107	92.44
394.331	91.44
394.556	84.44
394.78	92.44
395.005	98.44
395.229	75.44
395.454	87.44
395.678	89.44
395.903	81.44
396.127	83.44
396.352	84.44
396.576	94.44
396.801	101.44
397.025	86.44
397.249	86.44
397.474	99.44
397.698	83.44
397.922	90.44
398.147	79.44
398.371	87.44
398.595	73.44
398.82	79.44
399.044	88.44
399.268	87.44
399.492	81.44
399.717	81.44
399.941	84.44
400.165	90.44
400.389	107.44
400.613	100.44
400.837	88.44
401.062	81.44
401.286	93.44
401.51	90.44
401.734	84.44
401.958	104.44
402.182	133.44
402.406	154.44
402.63	121.44
402.854	94.44
403.078	87.44
403.302	87.44
403.526	79.44
403.75	94.44
403.974	95.44
404.198	92.44
404.422	94.44
404.645	99.44
404.869	98.44
405.093	95.44
405.317	75.44
405.541	91.44
405.765	88.44
405.988	97.44
406.212	170.44
406.436	231.44
406.66	143.44
406.883	116.44
407.107	93.44
407.331	92.44
407.555	91.44
407.778	93.44
408.002	83.44
408.226	105.44
408.449	103.44
408.673	91.44
408.896	102.44
409.12	96.44
409.344	79.44
409.567	85.44
409.791	94.44
410.014	91.44
410.238	96.44
410.461	95.44
410.685	79.44
410.908	89.44
411.132	101.44
411.355	86.44
411.578	81.44
411.802	94.44
412.025	96.44
412.249	83.44
412.472	76.44
412.695	99.44
412.919	82.44
413.142	84.44
413.365	80.44
413.589	81.44
413.812	93.44
414.035	89.44
414.258	92.44
414.482	76.44
414.705	92.44
414.928	100.44
415.151	91.44
415.374	87.44
415.597	92.44
415.821	93.44
416.044	83.44
416.267	92.44
416.49	80.44
416.713	97.44
416.936	96.44
417.159	88.44
417.382	85.44
417.605	84.44
417.828	94.44
418.051	100.44
418.274	96.44
418.497	78.44
418.72	87.44
418.943	83.44
419.166	97.44
419.389	83.44
419.611	80.44
419.834	81.44
420.057	78.44
420.28	83.44
420.503	101.44
420.726	80.44
420.948	83.44
421.171	80.44
421.394	96.44
421.617	93.44
421.839	94.44
422.062	99.44
422.285	80.44
422.507	106.44
422.73	100.44
422.953	104.44
423.175	95.44
423.398	82.44
423.621	83.44
423.843	87.44
424.066	100.44
424.288	82.44
424.511	90.44
424.733	92.44
424.956	107.44
425.178	117.44
425.401	101.44
425.623	105.44
425.846	95.44
426.068	105.44
426.291	101.44
426.513	110.44
426.735	92.44
426.958	89.44
427.18	114.44
427.402	124.44
427.625	150.44
427.847	139.44
428.069	97.44
428.292	87.44
428.514	70.44
428.736	87.44
428.958	84.44
429.181	84.44
429.403	112.44
429.625	87.44
429.847	89.44
430.069	100.44
430.292	104.44
430.514	83.44
430.736	81.44
430.958	78.44
431.18	87.44
431.402	101.44
431.624	88.44
431.846	93.44
432.068	93.44
432.29	79.44
432.512	89.44
432.734	99.44
432.956	73.44
433.178	103.44
433.4	91.44
433.622	96.44
433.844	95.44
434.066	91.44
434.287	86.44
434.509	89.44
434.731	87.44
434.953	84.44
435.175	81.44
435.397	84.44
435.618	88.44
435.84	104.44
436.062	126.44
436.284	104.44
436.505	91.44
436.727	92.44
436.949	91.44
437.17	79.44
437.392	89.44
437.614	79.44
437.835	111.44
438.057	111.44
438.278	120.44
438.5	107.44
438.721	111.44
438.943	104.44
439.165	91.44
439.386	98.44
439.608	97.44
439.829	109.44
440.05	121.44
440.272	125.44
440.493	85.44
440.715	80.44
440.936	95.44
441.158	89.44
441.379	75.44
441.6	94.44
441.822	89.44
442.043	93.44
442.264	94.44
442.486	95.44
442.707	99.44
442.928	100.44
443.149	122.44
443.371	119.44
443.592	109.44
443.813	100.44
444.034	97.44
444.255	97.44
444.476	80.44
444.698	79.44
444.919	79.44
445.14	128.44
445.361	105.44
445.582	116.44
445.803	130.44
446.024	137.44
446.245	129.44
446.466	107.44
446.687	98.44
446.908	100.44
447.129	80.44
447.35	79.44
447.571	98.44
447.792	89.44
448.013	98.44
448.234	96.44
448.455	100.44
448.675	105.44
448.896	124.44
449.117	100.44
449.338	105.44
449.559	124.44
449.779	114.44
450	110.44
450.221	87.44
450.442	85.44
450.662	81.44
450.883	99.44
451.104	107.44
451.324	90.44
451.545	89.44
451.766	95.44
451.986	90.44
452.207	93.44
452.428	107.44
452.648	88.44
452.869	109.44
453.089	119.44
453.31	115.44
453.53	98.44
453.751	93.44
453.971	103.44
454.192	98.44
454.412	86.44
454.633	84.44
454.853	70.44
455.073	90.44
455.294	87.44
455.514	98.44
455.734	75.44
455.955	74.44
456.175	89.44
456.395	92.44
456.616	78.44
456.836	88.44
457.056	100.44
457.276	97.44
457.497	89.44
457.717	84.44
457.937	84.44
458.157	90.44
458.377	93.44
458.598	102.44
458.818	143.44
459.038	165.44
459.258	119.44
459.478	87.44
459.698	90.44
459.918	77.44
460.138	93.44
460.358	84.44
460.578	72.44
460.798	84.44
461.018	100.44
461.238	79.44
461.458	78.44
461.678	93.44
461.898	90.44
462.118	90.44
462.338	91.44
462.558	80.44
462.777	95.44
462.997	91.44
463.217	80.44
463.437	80.44
463.657	91.44
463.876	78.44
464.096	92.44
464.316	92.44
464.536	84.44
464.755	91.44
464.975	106.44
465.195	159.44
465.414	151.44
465.634	89.44
465.854	83.44
466.073	85.44
466.293	87.44
466.512	109.44
466.732	83.44
466.951	90.44
467.171	85.44
467.391	84.44
467.61	103.44
467.829	103.44
468.049	99.44
468.268	87.44
468.488	80.44
468.707	72.44
468.927	89.44
469.146	92.44
469.365	79.44
469.585	101.44
469.804	94.44
470.023	103.44
470.243	86.44
470.462	104.44
470.681	92.44
470.901	83.44
471.12	90.44
471.339	80.44
471.558	89.44
471.777	93.44
471.997	87.44
472.216	83.44
472.435	76.44
472.654	86.44
472.873	87.44
473.092	99.44
473.311	92.44
473.53	91.44
473.749	76.44
473.968	78.44
474.187	102.44
474.406	108.44
474.625	91.44
474.844	90.44
475.063	88.44
475.282	80.44
475.501	78.44
475.72	88.44
475.939	87.44
476.158	107.44
476.377	81.44
476.596	91.44
476.814	91.44
477.033	87.44
477.252	93.44
477.471	96.44
477.69	85.44
477.908	86.44
478.127	87.44
478.346	90.44
478.564	81.44
478.783	89.44
479.002	87.44
479.22	93.44
479.439	106.44
479.658	119.44
479.876	103.44
480.095	88.44
480.313	101.44
480.532	89.44
480.751	84.44
480.969	80.44
481.188	104.44
481.406	88.44
481.624	89.44
481.843	115.44
482.061	83.44
482.28	89.44
482.498	96.44
482.717	83.44
482.935	93.44
483.153	82.44
483.372	95.44
483.59	113.44
483.808	99.44
484.027	90.44
484.245	102.44
484.463	84.44
484.681	82.44
484.9	96.44
485.118	91.44
485.336	91.44
485.554	103.44
485.772	103.44
485.99	115.44
486.209	114.44
486.427	106.44
486.645	113.44
486.863	102.44
487.081	100.44
487.299	92.44
487.517	106.44
487.735	92.44
487.953	97.44
488.171	87.44
488.389	97.44
488.607	81.44
488.825	111.44
489.043	106.44
489.261	91.44
489.479	92.44
489.696	96.44
489.914	100.44
490.132	94.44
490.35	84.44
490.568	77.44
490.786	94.44
491.003	88.44
491.221	84.44
491.439	100.44
491.657	92.44
491.874	89.44
492.092	99.44
492.31	98.44
492.527	81.44
492.745	88.44
492.963	87.44
493.18	99.44
493.398	88.44
493.615	100.44
493.833	100.44
494.05	87.44
494.268	104.44
494.485	96.44
494.703	98.44
494.92	94.44
495.138	92.44
495.355	100.44
495.573	98.44
495.79	86.44
496.008	98.44
496.225	98.44
496.442	100.44
496.66	91.44
496.877	89.44
497.094	97.44
497.312	81.44
497.529	87.44
497.746	98.44
497.963	84.44
498.181	91.44
498.398	102.44
498.615	114.44
498.832	105.44
499.049	77.44
499.267	76.44
499.484	90.44
499.701	92.44
499.918	92.44
500.135	80.44
500.352	87.44
500.569	105.44
500.786	76.44
501.003	89.44
501.22	90.44
501.437	89.44
501.654	81.44
501.871	92.44
502.088	77.44
502.305	86.44
502.522	93.44
502.739	85.44
502.956	75.44
503.172	105.44
503.389	92.44
503.606	107.44
503.823	87.44
504.04	94.44
504.256	84.44
504.473	75.44
504.69	100.44
504.907	85.44
505.123	82.44
505.34	92.44
505.557	88.44
505.773	90.44
505.99	96.44
506.207	83.44
506.423	91.44
506.64	98.44
506.856	71.44
507.073	92.44
507.289	112.44
507.506	109.44
507.722	119.44
507.939	101.44
508.155	101.44
508.372	92.44
508.588	96.44
508.805	97.44
509.021	91.44
509.238	98.44
509.454	108.44
509.67	97.44
509.887	111.44
510.103	134.44
510.319	215.44
510.536	755.44
510.752	2320.44
510.968	621.44
511.184	156.44
511.401	102.44
511.617	97.44
511.833	95.44
512.049	92.44
512.265	95.44
512.481	91.44
512.698	84.44
512.914	93.44
513.13	89.44
513.346	93.44
513.562	93.44
513.778	97.44
513.994	92.44
514.21	102.44
514.426	121.44
514.642	139.44
514.858	111.44
515.074	151.44
515.29	447.44
515.506	1461.44
