Data from Uncirc_1996_H10_HRD10591_00051.txt Node
Date: Wed Jan 03 11:32:12 EST 2024
User: Yrep
Spectrometer: HR+D1059
Trigger mode: 1
Integration Time (sec): 1.000000E-1
Scans to average: 1
Electric dark correction enabled: true
Nonlinearity correction enabled: false
Boxcar width: 0
XAxis mode: Wavelengths
Number of Pixels in Spectrum: 2048
>>>>>Begin Spectral Data<<<<<
223.165	-26.31
223.4	-26.31
223.635	-26.31
223.869	-13.31
224.104	-20.31
224.338	-20.31
224.573	-20.31
224.808	-7.31
225.042	-8.31
225.277	1.69
225.511	-13.31
225.746	14.69
225.98	16.69
226.215	19.69
226.449	10.69
226.683	9.69
226.918	27.69
227.152	28.69
227.387	44.69
227.621	31.69
227.856	42.69
228.09	47.69
228.324	39.69
228.559	59.69
228.793	56.69
229.027	62.69
229.262	81.69
229.496	68.69
229.73	76.69
229.964	72.69
230.199	63.69
230.433	78.69
230.667	68.69
230.901	76.69
231.136	75.69
231.37	59.69
231.604	81.69
231.838	85.69
232.072	82.69
232.306	100.69
232.541	64.69
232.775	97.69
233.009	86.69
233.243	76.69
233.477	79.69
233.711	82.69
233.945	76.69
234.179	80.69
234.413	90.69
234.647	86.69
234.881	66.69
235.115	75.69
235.349	88.69
235.583	80.69
235.817	81.69
236.051	81.69
236.285	78.69
236.519	80.69
236.753	84.69
236.987	73.69
237.221	72.69
237.455	88.69
237.689	85.69
237.922	86.69
238.156	78.69
238.39	92.69
238.624	78.69
238.858	70.69
239.091	90.69
239.325	71.69
239.559	61.69
239.793	82.69
240.027	82.69
240.26	76.69
240.494	65.69
240.728	74.69
240.961	82.69
241.195	85.69
241.429	72.69
241.662	78.69
241.896	81.69
242.13	78.69
242.363	80.69
242.597	84.69
242.83	83.69
243.064	70.69
243.298	78.69
243.531	86.69
243.765	74.69
243.998	77.69
244.232	94.69
244.465	91.69
244.699	83.69
244.932	84.69
245.166	76.69
245.399	64.69
245.633	72.69
245.866	84.69
246.099	83.69
246.333	64.69
246.566	78.69
246.8	83.69
247.033	77.69
247.266	77.69
247.5	78.69
247.733	83.69
247.966	77.69
248.2	81.69
248.433	73.69
248.666	75.69
248.899	98.69
249.133	73.69
249.366	92.69
249.599	86.69
249.832	81.69
250.066	91.69
250.299	80.69
250.532	78.69
250.765	79.69
250.998	94.69
251.231	87.69
251.465	101.69
251.698	77.69
251.931	76.69
252.164	90.69
252.397	78.69
252.63	79.69
252.863	82.69
253.096	78.69
253.329	75.69
253.562	76.69
253.795	74.69
254.028	86.69
254.261	86.69
254.494	88.69
254.727	98.69
254.96	76.69
255.193	65.69
255.426	68.69
255.659	79.69
255.892	76.69
256.124	71.69
256.357	83.69
256.59	84.69
256.823	78.69
257.056	67.69
257.289	92.69
257.521	80.69
257.754	82.69
257.987	90.69
258.22	90.69
258.452	82.69
258.685	85.69
258.918	71.69
259.151	88.69
259.383	87.69
259.616	78.69
259.849	85.69
260.081	83.69
260.314	87.69
260.547	73.69
260.779	90.69
261.012	81.69
261.244	84.69
261.477	97.69
261.71	90.69
261.942	101.69
262.175	98.69
262.407	87.69
262.64	86.69
262.872	87.69
263.105	92.69
263.337	82.69
263.57	76.69
263.802	89.69
264.035	74.69
264.267	83.69
264.499	77.69
264.732	83.69
264.964	74.69
265.197	86.69
265.429	78.69
265.661	104.69
265.894	74.69
266.126	83.69
266.358	95.69
266.591	88.69
266.823	77.69
267.055	82.69
267.287	90.69
267.52	66.69
267.752	73.69
267.984	77.69
268.216	79.69
268.448	103.69
268.681	85.69
268.913	83.69
269.145	79.69
269.377	86.69
269.609	84.69
269.841	88.69
270.073	94.69
270.306	74.69
270.538	87.69
270.77	82.69
271.002	91.69
271.234	78.69
271.466	90.69
271.698	66.69
271.93	85.69
272.162	80.69
272.394	88.69
272.626	82.69
272.858	88.69
273.09	90.69
273.322	84.69
273.553	90.69
273.785	91.69
274.017	83.69
274.249	87.69
274.481	82.69
274.713	93.69
274.945	95.69
275.176	89.69
275.408	81.69
275.64	94.69
275.872	86.69
276.104	91.69
276.335	90.69
276.567	91.69
276.799	94.69
277.031	81.69
277.262	89.69
277.494	76.69
277.726	80.69
277.957	76.69
278.189	71.69
278.421	87.69
278.652	79.69
278.884	70.69
279.115	87.69
279.347	96.69
279.579	88.69
279.81	94.69
280.042	83.69
280.273	93.69
280.505	99.69
280.736	90.69
280.968	90.69
281.199	81.69
281.431	91.69
281.662	87.69
281.894	88.69
282.125	96.69
282.356	96.69
282.588	129.69
282.819	98.69
283.051	83.69
283.282	91.69
283.513	98.69
283.745	85.69
283.976	81.69
284.207	92.69
284.439	93.69
284.67	86.69
284.901	79.69
285.132	92.69
285.364	75.69
285.595	93.69
285.826	84.69
286.057	98.69
286.288	86.69
286.52	96.69
286.751	98.69
286.982	100.69
287.213	105.69
287.444	97.69
287.675	95.69
287.906	82.69
288.138	84.69
288.369	90.69
288.6	79.69
288.831	85.69
289.062	85.69
289.293	99.69
289.524	83.69
289.755	69.69
289.986	83.69
290.217	87.69
290.448	89.69
290.679	96.69
290.91	96.69
291.141	92.69
291.371	107.69
291.602	93.69
291.833	94.69
292.064	77.69
292.295	85.69
292.526	87.69
292.757	100.69
292.987	92.69
293.218	87.69
293.449	95.69
293.68	96.69
293.91	74.69
294.141	74.69
294.372	90.69
294.603	91.69
294.833	79.69
295.064	92.69
295.295	82.69
295.525	83.69
295.756	94.69
295.987	119.69
296.217	123.69
296.448	131.69
296.679	97.69
296.909	90.69
297.14	78.69
297.37	98.69
297.601	99.69
297.831	92.69
298.062	95.69
298.292	104.69
298.523	99.69
298.753	87.69
298.984	94.69
299.214	79.69
299.445	92.69
299.675	82.69
299.905	78.69
300.136	86.69
300.366	98.69
300.597	79.69
300.827	94.69
301.057	105.69
301.288	84.69
301.518	102.69
301.748	86.69
301.979	94.69
302.209	87.69
302.439	105.69
302.669	99.69
302.9	106.69
303.13	103.69
303.36	99.69
303.59	85.69
303.82	95.69
304.051	97.69
304.281	85.69
304.511	104.69
304.741	102.69
304.971	81.69
305.201	92.69
305.431	87.69
305.661	99.69
305.891	89.69
306.121	90.69
306.352	94.69
306.582	103.69
306.812	95.69
307.042	76.69
307.272	90.69
307.502	86.69
307.731	70.69
307.961	88.69
308.191	97.69
308.421	90.69
308.651	92.69
308.881	104.69
309.111	102.69
309.341	97.69
309.571	91.69
309.8	97.69
310.03	100.69
310.26	102.69
310.49	110.69
310.72	94.69
310.949	97.69
311.179	89.69
311.409	87.69
311.639	102.69
311.868	95.69
312.098	88.69
312.328	96.69
312.557	96.69
312.787	100.69
313.017	98.69
313.246	100.69
313.476	97.69
313.706	101.69
313.935	73.69
314.165	105.69
314.394	89.69
314.624	85.69
314.853	89.69
315.083	106.69
315.312	93.69
315.542	90.69
315.771	90.69
316.001	74.69
316.23	89.69
316.46	84.69
316.689	88.69
316.919	89.69
317.148	92.69
317.377	103.69
317.607	98.69
317.836	99.69
318.065	94.69
318.295	97.69
318.524	89.69
318.753	92.69
318.983	110.69
319.212	95.69
319.441	98.69
319.67	97.69
319.9	89.69
320.129	78.69
320.358	91.69
320.587	92.69
320.816	102.69
321.046	95.69
321.275	83.69
321.504	96.69
321.733	99.69
321.962	99.69
322.191	88.69
322.42	106.69
322.649	104.69
322.878	98.69
323.108	103.69
323.337	126.69
323.566	118.69
323.795	139.69
324.024	188.69
324.253	342.69
324.482	751.69
324.71	1489.69
324.939	1956.69
325.168	715.69
325.397	217.69
325.626	130.69
325.855	110.69
326.084	115.69
326.313	126.69
326.542	143.69
326.77	205.69
326.999	454.69
327.228	828.69
327.457	1554.69
327.686	1242.69
327.914	362.69
328.143	184.69
328.372	142.69
328.6	119.69
328.829	113.69
329.058	138.69
329.287	127.69
329.515	116.69
329.744	106.69
329.972	99.69
330.201	96.69
330.43	99.69
330.658	102.69
330.887	122.69
331.115	95.69
331.344	91.69
331.572	97.69
331.801	108.69
332.03	94.69
332.258	96.69
332.486	86.69
332.715	99.69
332.943	105.69
333.172	92.69
333.4	106.69
333.629	104.69
333.857	106.69
334.085	94.69
334.314	107.69
334.542	97.69
334.771	100.69
334.999	98.69
335.227	98.69
335.455	88.69
335.684	86.69
335.912	92.69
336.14	97.69
336.369	99.69
336.597	95.69
336.825	95.69
337.053	91.69
337.281	93.69
337.51	91.69
337.738	97.69
337.966	102.69
338.194	104.69
338.422	100.69
338.65	96.69
338.878	88.69
339.106	98.69
339.334	102.69
339.562	92.69
339.79	96.69
340.018	96.69
340.246	78.69
340.474	100.69
340.702	94.69
340.93	96.69
341.158	90.69
341.386	91.69
341.614	92.69
341.842	97.69
342.07	99.69
342.298	83.69
342.526	92.69
342.754	82.69
342.981	91.69
343.209	89.69
343.437	87.69
343.665	97.69
343.893	94.69
344.12	93.69
344.348	92.69
344.576	92.69
344.804	85.69
345.031	96.69
345.259	93.69
345.487	97.69
345.714	92.69
345.942	90.69
346.17	91.69
346.397	104.69
346.625	88.69
346.853	84.69
347.08	101.69
347.308	102.69
347.535	106.69
347.763	94.69
347.99	75.69
348.218	96.69
348.445	98.69
348.673	91.69
348.9	96.69
349.128	98.69
349.355	100.69
349.583	91.69
349.81	97.69
350.037	92.69
350.265	96.69
350.492	116.69
350.72	91.69
350.947	105.69
351.174	107.69
351.402	103.69
351.629	110.69
351.856	92.69
352.083	111.69
352.311	95.69
352.538	114.69
352.765	103.69
352.992	114.69
353.22	102.69
353.447	97.69
353.674	95.69
353.901	102.69
354.128	106.69
354.355	97.69
354.583	100.69
354.81	98.69
355.037	108.69
355.264	113.69
355.491	99.69
355.718	93.69
355.945	101.69
356.172	88.69
356.399	106.69
356.626	86.69
356.853	92.69
357.08	92.69
357.307	100.69
357.534	95.69
357.761	98.69
357.988	90.69
358.215	82.69
358.441	95.69
358.668	82.69
358.895	92.69
359.122	96.69
359.349	107.69
359.576	86.69
359.802	80.69
360.029	104.69
360.256	97.69
360.483	98.69
360.709	93.69
360.936	103.69
361.163	100.69
361.39	93.69
361.616	100.69
361.843	90.69
362.07	86.69
362.296	103.69
362.523	94.69
362.749	98.69
362.976	92.69
363.203	91.69
363.429	79.69
363.656	92.69
363.882	88.69
364.109	90.69
364.335	96.69
364.562	91.69
364.788	94.69
365.015	95.69
365.241	91.69
365.468	97.69
365.694	97.69
365.92	104.69
366.147	84.69
366.373	97.69
366.599	92.69
366.826	95.69
367.052	107.69
367.278	105.69
367.505	83.69
367.731	89.69
367.957	84.69
368.184	78.69
368.41	92.69
368.636	115.69
368.862	141.69
369.089	111.69
369.315	96.69
369.541	106.69
369.767	96.69
369.993	83.69
370.219	93.69
370.445	89.69
370.672	86.69
370.898	79.69
371.124	81.69
371.35	97.69
371.576	95.69
371.802	79.69
372.028	83.69
372.254	86.69
372.48	87.69
372.706	88.69
372.932	88.69
373.158	82.69
373.384	97.69
373.61	98.69
373.835	90.69
374.061	84.69
374.287	88.69
374.513	86.69
374.739	92.69
374.965	96.69
375.191	94.69
375.416	99.69
375.642	90.69
375.868	97.69
376.094	99.69
376.319	78.69
376.545	105.69
376.771	87.69
376.997	88.69
377.222	90.69
377.448	87.69
377.674	92.69
377.899	100.69
378.125	90.69
378.35	98.69
378.576	95.69
378.802	94.69
379.027	91.69
379.253	97.69
379.478	84.69
379.704	94.69
379.929	91.69
380.155	95.69
380.38	94.69
380.606	82.69
380.831	80.69
381.057	91.69
381.282	103.69
381.507	106.69
381.733	100.69
381.958	104.69
382.184	112.69
382.409	107.69
382.634	114.69
382.86	98.69
383.085	104.69
383.31	103.69
383.535	105.69
383.761	91.69
383.986	105.69
384.211	90.69
384.436	102.69
384.662	91.69
384.887	92.69
385.112	107.69
385.337	91.69
385.562	111.69
385.787	111.69
386.013	103.69
386.238	112.69
386.463	104.69
386.688	101.69
386.913	101.69
387.138	98.69
387.363	94.69
387.588	94.69
387.813	105.69
388.038	104.69
388.263	106.69
388.488	92.69
388.713	96.69
388.938	92.69
389.163	108.69
389.387	89.69
389.612	97.69
389.837	93.69
390.062	96.69
390.287	105.69
390.512	94.69
390.736	83.69
390.961	87.69
391.186	103.69
391.411	91.69
391.636	84.69
391.86	84.69
392.085	89.69
392.31	103.69
392.534	86.69
392.759	74.69
392.984	74.69
393.208	93.69
393.433	91.69
393.658	84.69
393.882	82.69
394.107	99.69
394.331	80.69
394.556	83.69
394.78	92.69
395.005	89.69
395.229	87.69
395.454	91.69
395.678	83.69
395.903	90.69
396.127	88.69
396.352	88.69
396.576	88.69
396.801	91.69
397.025	91.69
397.249	89.69
397.474	97.69
397.698	91.69
397.922	97.69
398.147	89.69
398.371	89.69
398.595	88.69
398.82	93.69
399.044	86.69
399.268	87.69
399.492	80.69
399.717	78.69
399.941	103.69
400.165	103.69
400.389	74.69
400.613	87.69
400.837	90.69
401.062	82.69
401.286	80.69
401.51	81.69
401.734	75.69
401.958	100.69
402.182	109.69
402.406	138.69
402.63	117.69
402.854	92.69
403.078	87.69
403.302	78.69
403.526	88.69
403.75	105.69
403.974	103.69
404.198	96.69
404.422	82.69
404.645	79.69
404.869	82.69
405.093	106.69
405.317	100.69
405.541	99.69
405.765	91.69
405.988	110.69
406.212	156.69
406.436	214.69
406.66	146.69
406.883	96.69
407.107	94.69
407.331	98.69
407.555	112.69
407.778	114.69
408.002	85.69
408.226	95.69
408.449	95.69
408.673	94.69
408.896	106.69
409.12	88.69
409.344	108.69
409.567	78.69
409.791	90.69
410.014	94.69
410.238	102.69
410.461	82.69
410.685	108.69
410.908	108.69
411.132	100.69
411.355	104.69
411.578	91.69
411.802	104.69
412.025	91.69
412.249	87.69
412.472	90.69
412.695	84.69
412.919	92.69
413.142	88.69
413.365	95.69
413.589	92.69
413.812	86.69
414.035	82.69
414.258	102.69
414.482	96.69
414.705	91.69
414.928	90.69
415.151	83.69
415.374	88.69
415.597	97.69
415.821	86.69
416.044	82.69
416.267	77.69
416.49	76.69
416.713	92.69
416.936	90.69
417.159	94.69
417.382	94.69
417.605	97.69
417.828	90.69
418.051	93.69
418.274	89.69
418.497	95.69
418.72	91.69
418.943	99.69
419.166	82.69
419.389	73.69
419.611	96.69
419.834	92.69
420.057	87.69
420.28	95.69
420.503	88.69
420.726	85.69
420.948	84.69
421.171	92.69
421.394	87.69
421.617	84.69
421.839	104.69
422.062	89.69
422.285	83.69
422.507	98.69
422.73	104.69
422.953	87.69
423.175	78.69
423.398	91.69
423.621	96.69
423.843	87.69
424.066	94.69
424.288	86.69
424.511	86.69
424.733	94.69
424.956	94.69
425.178	96.69
425.401	109.69
425.623	108.69
425.846	87.69
426.068	91.69
426.291	94.69
426.513	89.69
426.735	88.69
426.958	87.69
427.18	100.69
427.402	126.69
427.625	137.69
427.847	111.69
428.069	103.69
428.292	81.69
428.514	92.69
428.736	87.69
428.958	98.69
429.181	88.69
429.403	89.69
429.625	88.69
429.847	86.69
430.069	92.69
430.292	86.69
430.514	94.69
430.736	86.69
430.958	79.69
431.18	89.69
431.402	79.69
431.624	97.69
431.846	90.69
432.068	104.69
432.29	81.69
432.512	80.69
432.734	87.69
432.956	100.69
433.178	97.69
433.4	90.69
433.622	90.69
433.844	95.69
434.066	89.69
434.287	79.69
434.509	83.69
434.731	98.69
434.953	90.69
435.175	89.69
435.397	89.69
435.618	89.69
435.84	99.69
436.062	122.69
436.284	123.69
436.505	98.69
436.727	82.69
436.949	90.69
437.17	85.69
437.392	88.69
437.614	101.69
437.835	94.69
438.057	108.69
438.278	108.69
438.5	95.69
438.721	115.69
438.943	113.69
439.165	90.69
439.386	90.69
439.608	85.69
439.829	96.69
440.05	114.69
440.272	120.69
440.493	106.69
440.715	83.69
440.936	91.69
441.158	74.69
441.379	82.69
441.6	89.69
441.822	102.69
442.043	97.69
442.264	112.69
442.486	98.69
442.707	108.69
442.928	103.69
443.149	126.69
443.371	124.69
443.592	99.69
443.813	110.69
444.034	96.69
444.255	85.69
444.476	78.69
444.698	87.69
444.919	92.69
445.14	137.69
445.361	114.69
445.582	108.69
445.803	128.69
446.024	122.69
446.245	132.69
446.466	102.69
446.687	90.69
446.908	92.69
447.129	87.69
447.35	99.69
447.571	98.69
447.792	97.69
448.013	93.69
448.234	99.69
448.455	99.69
448.675	120.69
448.896	116.69
449.117	94.69
449.338	106.69
449.559	112.69
449.779	122.69
450	99.69
450.221	81.69
450.442	85.69
450.662	94.69
450.883	110.69
451.104	102.69
451.324	75.69
451.545	74.69
451.766	79.69
451.986	88.69
452.207	92.69
452.428	88.69
452.648	106.69
452.869	103.69
453.089	102.69
453.31	102.69
453.53	103.69
453.751	82.69
453.971	102.69
454.192	96.69
454.412	80.69
454.633	68.69
454.853	98.69
455.073	82.69
455.294	101.69
455.514	106.69
455.734	95.69
455.955	90.69
456.175	100.69
456.395	76.69
456.616	93.69
456.836	90.69
457.056	82.69
457.276	82.69
457.497	95.69
457.717	87.69
457.937	86.69
458.157	83.69
458.377	95.69
458.598	114.69
458.818	131.69
459.038	137.69
459.258	125.69
459.478	86.69
459.698	83.69
459.918	100.69
460.138	88.69
460.358	92.69
460.578	88.69
460.798	83.69
461.018	87.69
461.238	88.69
461.458	97.69
461.678	91.69
461.898	93.69
462.118	89.69
462.338	81.69
462.558	94.69
462.777	83.69
462.997	86.69
463.217	81.69
463.437	80.69
463.657	76.69
463.876	84.69
464.096	81.69
464.316	79.69
464.536	87.69
464.755	96.69
464.975	97.69
465.195	148.69
465.414	146.69
465.634	114.69
465.854	82.69
466.073	87.69
466.293	92.69
466.512	75.69
466.732	95.69
466.951	92.69
467.171	83.69
467.391	103.69
467.61	98.69
467.829	82.69
468.049	95.69
468.268	103.69
468.488	83.69
468.707	87.69
468.927	79.69
469.146	88.69
469.365	99.69
469.585	71.69
469.804	94.69
470.023	88.69
470.243	80.69
470.462	99.69
470.681	108.69
470.901	89.69
471.12	89.69
471.339	91.69
471.558	77.69
471.777	90.69
471.997	94.69
472.216	87.69
472.435	81.69
472.654	74.69
472.873	93.69
473.092	79.69
473.311	95.69
473.53	88.69
473.749	99.69
473.968	91.69
474.187	101.69
474.406	96.69
474.625	86.69
474.844	94.69
475.063	90.69
475.282	84.69
475.501	76.69
475.72	87.69
475.939	87.69
476.158	95.69
476.377	77.69
476.596	86.69
476.814	89.69
477.033	78.69
477.252	80.69
477.471	86.69
477.69	71.69
477.908	81.69
478.127	97.69
478.346	87.69
478.564	93.69
478.783	100.69
479.002	91.69
479.22	74.69
479.439	99.69
479.658	86.69
479.876	102.69
480.095	80.69
480.313	91.69
480.532	89.69
480.751	77.69
480.969	88.69
481.188	84.69
481.406	106.69
481.624	88.69
481.843	87.69
482.061	87.69
482.28	90.69
482.498	95.69
482.717	83.69
482.935	90.69
483.153	95.69
483.372	82.69
483.59	86.69
483.808	95.69
484.027	89.69
484.245	88.69
484.463	64.69
484.681	89.69
484.9	100.69
485.118	91.69
485.336	104.69
485.554	115.69
485.772	113.69
485.99	106.69
486.209	109.69
486.427	105.69
486.645	103.69
486.863	100.69
487.081	101.69
487.299	80.69
487.517	90.69
487.735	100.69
487.953	83.69
488.171	98.69
488.389	100.69
488.607	94.69
488.825	72.69
489.043	99.69
489.261	86.69
489.479	74.69
489.696	92.69
489.914	89.69
490.132	96.69
490.35	86.69
490.568	86.69
490.786	98.69
491.003	101.69
491.221	92.69
491.439	84.69
491.657	102.69
491.874	94.69
492.092	86.69
492.31	79.69
492.527	97.69
492.745	80.69
492.963	88.69
493.18	91.69
493.398	94.69
493.615	95.69
493.833	99.69
494.05	84.69
494.268	88.69
494.485	96.69
494.703	92.69
494.92	84.69
495.138	89.69
495.355	92.69
495.573	89.69
495.79	85.69
496.008	79.69
496.225	84.69
496.442	77.69
496.66	82.69
496.877	95.69
497.094	97.69
497.312	94.69
497.529	91.69
497.746	100.69
497.963	100.69
498.181	96.69
498.398	95.69
498.615	100.69
498.832	98.69
499.049	98.69
499.267	103.69
499.484	99.69
499.701	89.69
499.918	91.69
500.135	82.69
500.352	92.69
500.569	91.69
500.786	89.69
501.003	97.69
501.22	85.69
501.437	89.69
501.654	81.69
501.871	97.69
502.088	92.69
502.305	100.69
502.522	80.69
502.739	96.69
502.956	95.69
503.172	84.69
503.389	86.69
503.606	103.69
503.823	98.69
504.04	107.69
504.256	101.69
504.473	93.69
504.69	107.69
504.907	88.69
505.123	91.69
505.34	98.69
505.557	89.69
505.773	91.69
505.99	88.69
506.207	87.69
506.423	105.69
506.64	106.69
506.856	86.69
507.073	84.69
507.289	94.69
507.506	98.69
507.722	111.69
507.939	107.69
508.155	101.69
508.372	97.69
508.588	97.69
508.805	87.69
509.021	99.69
509.238	95.69
509.454	80.69
509.67	88.69
509.887	104.69
510.103	123.69
510.319	195.69
510.536	632.69
510.752	1939.69
510.968	549.69
511.184	156.69
511.401	115.69
511.617	100.69
511.833	99.69
512.049	96.69
512.265	88.69
512.481	82.69
512.698	96.69
512.914	107.69
513.13	92.69
513.346	100.69
513.562	99.69
513.778	89.69
513.994	96.69
514.21	97.69
514.426	98.69
514.642	114.69
514.858	106.69
515.074	137.69
515.29	392.69
515.506	1202.69
515.721	422.69
515.937	143.69
