Data from Uncirc_1996_H10_HRD10591_00077.txt Node
Date: Wed Jan 03 11:32:17 EST 2024
User: Yrep
Spectrometer: HR+D1059
Trigger mode: 1
Integration Time (sec): 1.000000E-1
Scans to average: 1
Electric dark correction enabled: true
Nonlinearity correction enabled: false
Boxcar width: 0
XAxis mode: Wavelengths
Number of Pixels in Spectrum: 2048
>>>>>Begin Spectral Data<<<<<
223.165	-21.06
223.4	-21.06
223.635	-21.06
223.869	-8.06
224.104	-21.06
224.338	-12.06
224.573	-10.06
224.808	-5.06
225.042	-5.06
225.277	-18.06
225.511	0.94
225.746	-3.06
225.98	2.94
226.215	9.94
226.449	12.94
226.683	14.94
226.918	24.94
227.152	36.94
227.387	39.94
227.621	37.94
227.856	49.94
228.09	45.94
228.324	51.94
228.559	44.94
228.793	61.94
229.027	88.94
229.262	79.94
229.496	75.94
229.73	80.94
229.964	87.94
230.199	82.94
230.433	67.94
230.667	80.94
230.901	80.94
231.136	84.94
231.37	77.94
231.604	78.94
231.838	78.94
232.072	76.94
232.306	76.94
232.541	80.94
232.775	80.94
233.009	70.94
233.243	77.94
233.477	88.94
233.711	86.94
233.945	83.94
234.179	83.94
234.413	75.94
234.647	75.94
234.881	87.94
235.115	83.94
235.349	90.94
235.583	92.94
235.817	74.94
236.051	73.94
236.285	67.94
236.519	66.94
236.753	85.94
236.987	80.94
237.221	94.94
237.455	72.94
237.689	83.94
237.922	67.94
238.156	63.94
238.39	85.94
238.624	95.94
238.858	80.94
239.091	67.94
239.325	92.94
239.559	76.94
239.793	84.94
240.027	80.94
240.26	81.94
240.494	85.94
240.728	85.94
240.961	87.94
241.195	73.94
241.429	77.94
241.662	82.94
241.896	72.94
242.13	81.94
242.363	74.94
242.597	67.94
242.83	76.94
243.064	74.94
243.298	70.94
243.531	86.94
243.765	89.94
243.998	94.94
244.232	76.94
244.465	91.94
244.699	90.94
244.932	88.94
245.166	67.94
245.399	83.94
245.633	70.94
245.866	81.94
246.099	66.94
246.333	66.94
246.566	88.94
246.8	94.94
247.033	75.94
247.266	70.94
247.5	76.94
247.733	63.94
247.966	72.94
248.2	78.94
248.433	92.94
248.666	81.94
248.899	82.94
249.133	89.94
249.366	96.94
249.599	89.94
249.832	76.94
250.066	82.94
250.299	75.94
250.532	71.94
250.765	92.94
250.998	72.94
251.231	74.94
251.465	82.94
251.698	94.94
251.931	69.94
252.164	79.94
252.397	87.94
252.63	78.94
252.863	66.94
253.096	74.94
253.329	86.94
253.562	76.94
253.795	74.94
254.028	87.94
254.261	88.94
254.494	82.94
254.727	92.94
254.96	89.94
255.193	67.94
255.426	75.94
255.659	81.94
255.892	76.94
256.124	84.94
256.357	100.94
256.59	71.94
256.823	89.94
257.056	79.94
257.289	87.94
257.521	83.94
257.754	83.94
257.987	78.94
258.22	83.94
258.452	75.94
258.685	78.94
258.918	88.94
259.151	76.94
259.383	84.94
259.616	88.94
259.849	91.94
260.081	77.94
260.314	73.94
260.547	94.94
260.779	86.94
261.012	81.94
261.244	93.94
261.477	87.94
261.71	72.94
261.942	98.94
262.175	113.94
262.407	83.94
262.64	77.94
262.872	76.94
263.105	75.94
263.337	79.94
263.57	82.94
263.802	91.94
264.035	76.94
264.267	70.94
264.499	85.94
264.732	86.94
264.964	79.94
265.197	90.94
265.429	79.94
265.661	84.94
265.894	82.94
266.126	79.94
266.358	78.94
266.591	101.94
266.823	80.94
267.055	90.94
267.287	86.94
267.52	83.94
267.752	76.94
267.984	76.94
268.216	67.94
268.448	74.94
268.681	84.94
268.913	92.94
269.145	96.94
269.377	85.94
269.609	84.94
269.841	83.94
270.073	92.94
270.306	91.94
270.538	86.94
270.77	83.94
271.002	97.94
271.234	85.94
271.466	92.94
271.698	97.94
271.93	104.94
272.162	83.94
272.394	79.94
272.626	94.94
272.858	99.94
273.09	86.94
273.322	67.94
273.553	82.94
273.785	98.94
274.017	87.94
274.249	98.94
274.481	91.94
274.713	76.94
274.945	91.94
275.176	75.94
275.408	84.94
275.64	79.94
275.872	95.94
276.104	91.94
276.335	92.94
276.567	93.94
276.799	110.94
277.031	105.94
277.262	92.94
277.494	91.94
277.726	85.94
277.957	78.94
278.189	88.94
278.421	88.94
278.652	80.94
278.884	85.94
279.115	97.94
279.347	98.94
279.579	75.94
279.81	92.94
280.042	74.94
280.273	78.94
280.505	85.94
280.736	90.94
280.968	79.94
281.199	87.94
281.431	83.94
281.662	85.94
281.894	82.94
282.125	83.94
282.356	113.94
282.588	145.94
282.819	118.94
283.051	90.94
283.282	89.94
283.513	89.94
283.745	94.94
283.976	95.94
284.207	91.94
284.439	83.94
284.67	92.94
284.901	97.94
285.132	91.94
285.364	96.94
285.595	89.94
285.826	87.94
286.057	92.94
286.288	92.94
286.52	95.94
286.751	67.94
286.982	82.94
287.213	92.94
287.444	91.94
287.675	87.94
287.906	96.94
288.138	97.94
288.369	97.94
288.6	92.94
288.831	84.94
289.062	95.94
289.293	81.94
289.524	88.94
289.755	89.94
289.986	87.94
290.217	90.94
290.448	83.94
290.679	89.94
290.91	95.94
291.141	106.94
291.371	84.94
291.602	83.94
291.833	83.94
292.064	92.94
292.295	88.94
292.526	80.94
292.757	84.94
292.987	79.94
293.218	65.94
293.449	84.94
293.68	91.94
293.91	94.94
294.141	73.94
294.372	102.94
294.603	78.94
294.833	90.94
295.064	97.94
295.295	97.94
295.525	92.94
295.756	78.94
295.987	98.94
296.217	124.94
296.448	120.94
296.679	100.94
296.909	85.94
297.14	95.94
297.37	104.94
297.601	100.94
297.831	95.94
298.062	82.94
298.292	79.94
298.523	86.94
298.753	72.94
298.984	96.94
299.214	70.94
299.445	91.94
299.675	92.94
299.905	88.94
300.136	102.94
300.366	82.94
300.597	87.94
300.827	99.94
301.057	103.94
301.288	97.94
301.518	103.94
301.748	88.94
301.979	90.94
302.209	99.94
302.439	75.94
302.669	93.94
302.9	91.94
303.13	99.94
303.36	85.94
303.59	95.94
303.82	94.94
304.051	78.94
304.281	94.94
304.511	98.94
304.741	90.94
304.971	86.94
305.201	86.94
305.431	101.94
305.661	105.94
305.891	95.94
306.121	99.94
306.352	89.94
306.582	96.94
306.812	83.94
307.042	81.94
307.272	86.94
307.502	100.94
307.731	88.94
307.961	89.94
308.191	93.94
308.421	99.94
308.651	89.94
308.881	96.94
309.111	93.94
309.341	89.94
309.571	103.94
309.8	98.94
310.03	116.94
310.26	91.94
310.49	112.94
310.72	97.94
310.949	104.94
311.179	94.94
311.409	108.94
311.639	84.94
311.868	91.94
312.098	96.94
312.328	90.94
312.557	95.94
312.787	99.94
313.017	99.94
313.246	94.94
313.476	107.94
313.706	90.94
313.935	109.94
314.165	92.94
314.394	84.94
314.624	97.94
314.853	89.94
315.083	98.94
315.312	99.94
315.542	96.94
315.771	101.94
316.001	90.94
316.23	86.94
316.46	89.94
316.689	84.94
316.919	93.94
317.148	105.94
317.377	108.94
317.607	95.94
317.836	99.94
318.065	89.94
318.295	94.94
318.524	88.94
318.753	90.94
318.983	89.94
319.212	108.94
319.441	106.94
319.67	119.94
319.9	86.94
320.129	91.94
320.358	107.94
320.587	88.94
320.816	86.94
321.046	96.94
321.275	99.94
321.504	87.94
321.733	85.94
321.962	93.94
322.191	99.94
322.42	95.94
322.649	84.94
322.878	107.94
323.108	122.94
323.337	128.94
323.566	122.94
323.795	162.94
324.024	188.94
324.253	352.94
324.482	726.94
324.71	1554.94
324.939	1955.94
325.168	726.94
325.397	228.94
325.626	141.94
325.855	136.94
326.084	120.94
326.313	128.94
326.542	155.94
326.77	218.94
326.999	433.94
327.228	842.94
327.457	1540.94
327.686	1202.94
327.914	344.94
328.143	194.94
328.372	137.94
328.6	113.94
328.829	117.94
329.058	123.94
329.287	117.94
329.515	117.94
329.744	106.94
329.972	113.94
330.201	97.94
330.43	113.94
330.658	119.94
330.887	120.94
331.115	112.94
331.344	90.94
331.572	98.94
331.801	107.94
332.03	91.94
332.258	89.94
332.486	83.94
332.715	96.94
332.943	86.94
333.172	89.94
333.4	105.94
333.629	97.94
333.857	121.94
334.085	82.94
334.314	105.94
334.542	88.94
334.771	97.94
334.999	96.94
335.227	106.94
335.455	96.94
335.684	103.94
335.912	73.94
336.14	94.94
336.369	103.94
336.597	93.94
336.825	97.94
337.053	92.94
337.281	82.94
337.51	83.94
337.738	104.94
337.966	96.94
338.194	106.94
338.422	103.94
338.65	90.94
338.878	89.94
339.106	100.94
339.334	91.94
339.562	94.94
339.79	88.94
340.018	91.94
340.246	74.94
340.474	84.94
340.702	93.94
340.93	92.94
341.158	103.94
341.386	110.94
341.614	91.94
341.842	90.94
342.07	92.94
342.298	104.94
342.526	86.94
342.754	86.94
342.981	89.94
343.209	93.94
343.437	94.94
343.665	86.94
343.893	88.94
344.12	92.94
344.348	82.94
344.576	80.94
344.804	98.94
345.031	83.94
345.259	99.94
345.487	108.94
345.714	92.94
345.942	91.94
346.17	95.94
346.397	89.94
346.625	82.94
346.853	101.94
347.08	90.94
347.308	114.94
347.535	98.94
347.763	104.94
347.99	97.94
348.218	110.94
348.445	99.94
348.673	99.94
348.9	89.94
349.128	80.94
349.355	96.94
349.583	102.94
349.81	105.94
350.037	83.94
350.265	97.94
350.492	102.94
350.72	108.94
350.947	107.94
351.174	90.94
351.402	99.94
351.629	108.94
351.856	89.94
352.083	100.94
352.311	85.94
352.538	87.94
352.765	113.94
352.992	95.94
353.22	112.94
353.447	92.94
353.674	108.94
353.901	92.94
354.128	86.94
354.355	108.94
354.583	95.94
354.81	95.94
355.037	87.94
355.264	91.94
355.491	92.94
355.718	86.94
355.945	88.94
356.172	83.94
356.399	95.94
356.626	97.94
356.853	106.94
357.08	98.94
357.307	98.94
357.534	96.94
357.761	103.94
357.988	94.94
358.215	96.94
358.441	96.94
358.668	84.94
358.895	90.94
359.122	82.94
359.349	84.94
359.576	89.94
359.802	93.94
360.029	96.94
360.256	105.94
360.483	97.94
360.709	80.94
360.936	99.94
361.163	104.94
361.39	108.94
361.616	103.94
361.843	102.94
362.07	94.94
362.296	93.94
362.523	102.94
362.749	95.94
362.976	98.94
363.203	93.94
363.429	95.94
363.656	94.94
363.882	80.94
364.109	91.94
364.335	72.94
364.562	75.94
364.788	110.94
365.015	101.94
365.241	100.94
365.468	104.94
365.694	110.94
365.92	96.94
366.147	105.94
366.373	87.94
366.599	95.94
366.826	108.94
367.052	88.94
367.278	93.94
367.505	98.94
367.731	88.94
367.957	96.94
368.184	98.94
368.41	99.94
368.636	117.94
368.862	122.94
369.089	106.94
369.315	83.94
369.541	89.94
369.767	84.94
369.993	90.94
370.219	98.94
370.445	95.94
370.672	86.94
370.898	83.94
371.124	92.94
371.35	81.94
371.576	80.94
371.802	90.94
372.028	74.94
372.254	97.94
372.48	99.94
372.706	85.94
372.932	88.94
373.158	98.94
373.384	87.94
373.61	90.94
373.835	92.94
374.061	86.94
374.287	92.94
374.513	85.94
374.739	97.94
374.965	80.94
375.191	95.94
375.416	94.94
375.642	84.94
375.868	88.94
376.094	98.94
376.319	86.94
376.545	91.94
376.771	110.94
376.997	89.94
377.222	92.94
377.448	96.94
377.674	87.94
377.899	92.94
378.125	95.94
378.35	100.94
378.576	95.94
378.802	91.94
379.027	98.94
379.253	95.94
379.478	87.94
379.704	90.94
379.929	102.94
380.155	95.94
380.38	83.94
380.606	100.94
380.831	96.94
381.057	99.94
381.282	91.94
381.507	101.94
381.733	87.94
381.958	81.94
382.184	91.94
382.409	97.94
382.634	101.94
382.86	107.94
383.085	103.94
383.31	98.94
383.535	87.94
383.761	92.94
383.986	99.94
384.211	94.94
384.436	92.94
384.662	91.94
384.887	90.94
385.112	106.94
385.337	108.94
385.562	92.94
385.787	87.94
386.013	124.94
386.238	101.94
386.463	93.94
386.688	109.94
386.913	105.94
387.138	100.94
387.363	92.94
387.588	88.94
387.813	85.94
388.038	117.94
388.263	107.94
388.488	124.94
388.713	108.94
388.938	99.94
389.163	98.94
389.387	94.94
389.612	107.94
389.837	90.94
390.062	102.94
390.287	99.94
390.512	92.94
390.736	104.94
390.961	95.94
391.186	88.94
391.411	87.94
391.636	72.94
391.86	86.94
392.085	86.94
392.31	98.94
392.534	74.94
392.759	75.94
392.984	83.94
393.208	81.94
393.433	88.94
393.658	101.94
393.882	80.94
394.107	81.94
394.331	80.94
394.556	100.94
394.78	95.94
395.005	91.94
395.229	82.94
395.454	82.94
395.678	82.94
395.903	82.94
396.127	86.94
396.352	82.94
396.576	98.94
396.801	88.94
397.025	91.94
397.249	89.94
397.474	78.94
397.698	81.94
397.922	84.94
398.147	94.94
398.371	93.94
398.595	88.94
398.82	82.94
399.044	91.94
399.268	81.94
399.492	82.94
399.717	80.94
399.941	91.94
400.165	86.94
400.389	87.94
400.613	94.94
400.837	103.94
401.062	92.94
401.286	95.94
401.51	90.94
401.734	95.94
401.958	98.94
402.182	127.94
402.406	146.94
402.63	102.94
402.854	84.94
403.078	105.94
403.302	89.94
403.526	78.94
403.75	90.94
403.974	93.94
404.198	84.94
404.422	88.94
404.645	71.94
404.869	79.94
405.093	82.94
405.317	101.94
405.541	100.94
405.765	80.94
405.988	114.94
406.212	146.94
406.436	200.94
406.66	135.94
406.883	94.94
407.107	100.94
407.331	78.94
407.555	96.94
407.778	104.94
408.002	80.94
408.226	89.94
408.449	89.94
408.673	105.94
408.896	78.94
409.12	101.94
409.344	94.94
409.567	90.94
409.791	91.94
410.014	89.94
410.238	101.94
410.461	86.94
410.685	93.94
410.908	94.94
411.132	105.94
411.355	96.94
411.578	99.94
411.802	81.94
412.025	83.94
412.249	82.94
412.472	86.94
412.695	93.94
412.919	88.94
413.142	78.94
413.365	79.94
413.589	79.94
413.812	70.94
414.035	97.94
414.258	80.94
414.482	113.94
414.705	86.94
414.928	92.94
415.151	94.94
415.374	93.94
415.597	98.94
415.821	98.94
416.044	83.94
416.267	100.94
416.49	100.94
416.713	82.94
416.936	91.94
417.159	82.94
417.382	80.94
417.605	81.94
417.828	88.94
418.051	81.94
418.274	89.94
418.497	84.94
418.72	86.94
418.943	87.94
419.166	95.94
419.389	90.94
419.611	84.94
419.834	96.94
420.057	88.94
420.28	94.94
420.503	97.94
420.726	74.94
420.948	80.94
421.171	90.94
421.394	107.94
421.617	97.94
421.839	88.94
422.062	75.94
422.285	82.94
422.507	96.94
422.73	96.94
422.953	86.94
423.175	90.94
423.398	91.94
423.621	81.94
423.843	81.94
424.066	90.94
424.288	82.94
424.511	99.94
424.733	108.94
424.956	97.94
425.178	97.94
425.401	114.94
425.623	107.94
425.846	110.94
426.068	91.94
426.291	92.94
426.513	92.94
426.735	106.94
426.958	92.94
427.18	97.94
427.402	133.94
427.625	160.94
427.847	123.94
428.069	91.94
428.292	73.94
428.514	79.94
428.736	93.94
428.958	84.94
429.181	82.94
429.403	86.94
429.625	79.94
429.847	101.94
430.069	98.94
430.292	107.94
430.514	78.94
430.736	86.94
430.958	84.94
431.18	98.94
431.402	88.94
431.624	77.94
431.846	91.94
432.068	86.94
432.29	90.94
432.512	72.94
432.734	90.94
432.956	109.94
433.178	92.94
433.4	86.94
433.622	89.94
433.844	72.94
434.066	98.94
434.287	74.94
434.509	83.94
434.731	78.94
434.953	90.94
435.175	94.94
435.397	101.94
435.618	87.94
435.84	100.94
436.062	119.94
436.284	99.94
436.505	115.94
436.727	88.94
436.949	102.94
437.17	91.94
437.392	74.94
437.614	97.94
437.835	106.94
438.057	107.94
438.278	116.94
438.5	108.94
438.721	109.94
438.943	105.94
439.165	98.94
439.386	89.94
439.608	84.94
439.829	94.94
440.05	114.94
440.272	135.94
440.493	104.94
440.715	82.94
440.936	76.94
441.158	88.94
441.379	76.94
441.6	94.94
441.822	113.94
442.043	96.94
442.264	100.94
442.486	102.94
442.707	102.94
442.928	83.94
443.149	135.94
443.371	141.94
443.592	97.94
443.813	109.94
444.034	96.94
444.255	75.94
444.476	91.94
444.698	102.94
444.919	85.94
445.14	133.94
445.361	121.94
445.582	118.94
445.803	133.94
446.024	140.94
446.245	131.94
446.466	122.94
446.687	91.94
446.908	86.94
447.129	75.94
447.35	88.94
447.571	87.94
447.792	90.94
448.013	89.94
448.234	80.94
448.455	79.94
448.675	96.94
448.896	95.94
449.117	98.94
449.338	105.94
449.559	120.94
449.779	125.94
450	99.94
450.221	87.94
450.442	83.94
450.662	87.94
450.883	94.94
451.104	96.94
451.324	100.94
451.545	92.94
451.766	82.94
451.986	95.94
452.207	91.94
452.428	94.94
452.648	95.94
452.869	107.94
453.089	103.94
453.31	110.94
453.53	84.94
453.751	89.94
453.971	97.94
454.192	103.94
454.412	104.94
454.633	82.94
454.853	76.94
455.073	90.94
455.294	84.94
455.514	121.94
455.734	101.94
455.955	95.94
456.175	92.94
456.395	91.94
456.616	98.94
456.836	81.94
457.056	92.94
457.276	86.94
457.497	65.94
457.717	85.94
457.937	78.94
458.157	80.94
458.377	93.94
458.598	97.94
458.818	145.94
459.038	149.94
459.258	110.94
459.478	108.94
459.698	67.94
459.918	88.94
460.138	82.94
460.358	83.94
460.578	95.94
460.798	102.94
461.018	90.94
461.238	89.94
461.458	91.94
461.678	74.94
461.898	76.94
462.118	90.94
462.338	74.94
462.558	91.94
462.777	91.94
462.997	95.94
463.217	101.94
463.437	90.94
463.657	83.94
463.876	81.94
464.096	88.94
464.316	87.94
464.536	93.94
464.755	91.94
464.975	97.94
465.195	139.94
465.414	137.94
465.634	85.94
465.854	80.94
466.073	90.94
466.293	91.94
466.512	93.94
466.732	86.94
466.951	84.94
467.171	93.94
467.391	93.94
467.61	86.94
467.829	83.94
468.049	86.94
468.268	91.94
468.488	86.94
468.707	93.94
468.927	92.94
469.146	68.94
469.365	88.94
469.585	90.94
469.804	88.94
470.023	104.94
470.243	91.94
470.462	99.94
470.681	118.94
470.901	83.94
471.12	86.94
471.339	89.94
471.558	77.94
471.777	74.94
471.997	89.94
472.216	78.94
472.435	83.94
472.654	96.94
472.873	83.94
473.092	96.94
473.311	91.94
473.53	90.94
473.749	94.94
473.968	98.94
474.187	119.94
474.406	98.94
474.625	90.94
474.844	97.94
475.063	72.94
475.282	82.94
475.501	87.94
475.72	82.94
475.939	96.94
476.158	82.94
476.377	84.94
476.596	86.94
476.814	112.94
477.033	81.94
477.252	77.94
477.471	78.94
477.69	82.94
477.908	88.94
478.127	88.94
478.346	91.94
478.564	90.94
478.783	93.94
479.002	82.94
479.22	91.94
479.439	93.94
479.658	81.94
479.876	102.94
480.095	102.94
480.313	88.94
480.532	100.94
480.751	87.94
480.969	96.94
481.188	94.94
481.406	76.94
481.624	88.94
481.843	88.94
482.061	97.94
482.28	96.94
482.498	94.94
482.717	81.94
482.935	85.94
483.153	91.94
483.372	90.94
483.59	83.94
483.808	72.94
484.027	94.94
484.245	78.94
484.463	91.94
484.681	103.94
484.9	92.94
485.118	95.94
485.336	102.94
485.554	106.94
485.772	100.94
485.99	103.94
486.209	93.94
486.427	99.94
486.645	100.94
486.863	93.94
487.081	99.94
487.299	95.94
487.517	106.94
487.735	104.94
487.953	99.94
488.171	90.94
488.389	85.94
488.607	92.94
488.825	100.94
489.043	87.94
489.261	98.94
489.479	87.94
489.696	99.94
489.914	97.94
490.132	83.94
490.35	91.94
490.568	99.94
490.786	91.94
491.003	88.94
491.221	91.94
491.439	102.94
491.657	85.94
491.874	81.94
492.092	100.94
492.31	93.94
492.527	95.94
492.745	81.94
492.963	93.94
493.18	93.94
493.398	103.94
493.615	99.94
493.833	95.94
494.05	90.94
494.268	92.94
494.485	77.94
494.703	78.94
494.92	103.94
495.138	94.94
495.355	86.94
495.573	92.94
495.79	88.94
496.008	108.94
496.225	92.94
496.442	85.94
496.66	82.94
496.877	82.94
497.094	102.94
497.312	91.94
497.529	80.94
497.746	87.94
497.963	84.94
498.181	100.94
498.398	94.94
498.615	100.94
498.832	102.94
499.049	88.94
499.267	103.94
499.484	97.94
499.701	90.94
499.918	88.94
500.135	92.94
500.352	89.94
500.569	98.94
500.786	98.94
501.003	95.94
501.22	94.94
501.437	95.94
501.654	84.94
501.871	102.94
502.088	104.94
502.305	95.94
502.522	88.94
502.739	83.94
502.956	99.94
503.172	93.94
503.389	99.94
503.606	93.94
503.823	92.94
504.04	89.94
504.256	89.94
504.473	90.94
504.69	113.94
504.907	101.94
505.123	97.94
505.34	75.94
505.557	86.94
505.773	93.94
505.99	89.94
506.207	86.94
506.423	94.94
506.64	90.94
506.856	96.94
507.073	94.94
507.289	98.94
507.506	91.94
507.722	107.94
507.939	114.94
508.155	92.94
508.372	92.94
508.588	95.94
508.805	97.94
509.021	85.94
509.238	107.94
509.454	92.94
509.67	101.94
509.887	92.94
510.103	132.94
510.319	202.94
510.536	686.94
510.752	2059.94
510.968	568.94
511.184	154.94
511.401	101.94
511.617	105.94
511.833	92.94
512.049	88.94
512.265	81.94
512.481	95.94
512.698	83.94
512.914	88.94
513.13	82.94
513.346	98.94
513.562	96.94
513.778	94.94
513.994	89.94
514.21	103.94
514.426	116.94
514.642	122.94
514.858	110.94
515.074	155.94
515.29	416.94
515.506	1275.94
515.721	472.94
515.937	154.94
516.153	97.94
