Data from Uncirc_1996_H10_HRD10591_00088.txt Node
Date: Wed Jan 03 11:32:20 EST 2024
User: Yrep
Spectrometer: HR+D1059
Trigger mode: 1
Integration Time (sec): 1.000000E-1
Scans to average: 1
Electric dark correction enabled: true
Nonlinearity correction enabled: false
Boxcar width: 0
XAxis mode: Wavelengths
Number of Pixels in Spectrum: 2048
>>>>>Begin Spectral Data<<<<<
223.165	-14.06
223.4	-14.06
223.635	-14.06
223.869	-18.06
224.104	-23.06
224.338	-18.06
224.573	-10.06
224.808	-11.06
225.042	2.94
225.277	-5.06
225.511	-7.06
225.746	2.94
225.98	4.94
226.215	7.94
226.449	-0.06
226.683	21.94
226.918	32.94
227.152	32.94
227.387	41.94
227.621	41.94
227.856	49.94
228.09	41.94
228.324	38.94
228.559	59.94
228.793	45.94
229.027	66.94
229.262	58.94
229.496	63.94
229.73	83.94
229.964	93.94
230.199	88.94
230.433	65.94
230.667	82.94
230.901	70.94
231.136	81.94
231.37	81.94
231.604	86.94
231.838	82.94
232.072	80.94
232.306	78.94
232.541	97.94
232.775	78.94
233.009	69.94
233.243	75.94
233.477	77.94
233.711	81.94
233.945	69.94
234.179	80.94
234.413	81.94
234.647	92.94
234.881	78.94
235.115	79.94
235.349	79.94
235.583	90.94
235.817	77.94
236.051	82.94
236.285	77.94
236.519	71.94
236.753	79.94
236.987	67.94
237.221	63.94
237.455	80.94
237.689	81.94
237.922	81.94
238.156	81.94
238.39	75.94
238.624	80.94
238.858	73.94
239.091	77.94
239.325	78.94
239.559	82.94
239.793	87.94
240.027	79.94
240.26	67.94
240.494	73.94
240.728	66.94
240.961	81.94
241.195	73.94
241.429	79.94
241.662	75.94
241.896	83.94
242.13	79.94
242.363	81.94
242.597	85.94
242.83	85.94
243.064	90.94
243.298	80.94
243.531	74.94
243.765	70.94
243.998	75.94
244.232	89.94
244.465	71.94
244.699	79.94
244.932	63.94
245.166	72.94
245.399	69.94
245.633	89.94
245.866	78.94
246.099	61.94
246.333	75.94
246.566	86.94
246.8	85.94
247.033	95.94
247.266	77.94
247.5	90.94
247.733	77.94
247.966	78.94
248.2	86.94
248.433	85.94
248.666	76.94
248.899	78.94
249.133	88.94
249.366	103.94
249.599	96.94
249.832	79.94
250.066	90.94
250.299	73.94
250.532	70.94
250.765	73.94
250.998	76.94
251.231	89.94
251.465	68.94
251.698	69.94
251.931	74.94
252.164	85.94
252.397	92.94
252.63	87.94
252.863	57.94
253.096	69.94
253.329	82.94
253.562	98.94
253.795	87.94
254.028	89.94
254.261	79.94
254.494	66.94
254.727	74.94
254.96	75.94
255.193	79.94
255.426	91.94
255.659	85.94
255.892	66.94
256.124	70.94
256.357	91.94
256.59	80.94
256.823	88.94
257.056	78.94
257.289	79.94
257.521	75.94
257.754	73.94
257.987	84.94
258.22	82.94
258.452	72.94
258.685	82.94
258.918	75.94
259.151	77.94
259.383	78.94
259.616	92.94
259.849	91.94
260.081	88.94
260.314	85.94
260.547	95.94
260.779	81.94
261.012	85.94
261.244	86.94
261.477	95.94
261.71	97.94
261.942	111.94
262.175	110.94
262.407	107.94
262.64	79.94
262.872	84.94
263.105	90.94
263.337	61.94
263.57	75.94
263.802	89.94
264.035	79.94
264.267	75.94
264.499	83.94
264.732	82.94
264.964	84.94
265.197	87.94
265.429	77.94
265.661	92.94
265.894	79.94
266.126	72.94
266.358	75.94
266.591	81.94
266.823	98.94
267.055	78.94
267.287	82.94
267.52	76.94
267.752	82.94
267.984	88.94
268.216	81.94
268.448	78.94
268.681	74.94
268.913	81.94
269.145	86.94
269.377	98.94
269.609	85.94
269.841	84.94
270.073	91.94
270.306	74.94
270.538	76.94
270.77	92.94
271.002	91.94
271.234	80.94
271.466	82.94
271.698	77.94
271.93	86.94
272.162	93.94
272.394	88.94
272.626	83.94
272.858	81.94
273.09	79.94
273.322	78.94
273.553	81.94
273.785	76.94
274.017	95.94
274.249	90.94
274.481	77.94
274.713	89.94
274.945	94.94
275.176	92.94
275.408	73.94
275.64	62.94
275.872	85.94
276.104	88.94
276.335	97.94
276.567	109.94
276.799	96.94
277.031	98.94
277.262	87.94
277.494	76.94
277.726	88.94
277.957	77.94
278.189	74.94
278.421	81.94
278.652	77.94
278.884	89.94
279.115	82.94
279.347	93.94
279.579	89.94
279.81	82.94
280.042	93.94
280.273	84.94
280.505	94.94
280.736	89.94
280.968	86.94
281.199	88.94
281.431	81.94
281.662	85.94
281.894	85.94
282.125	91.94
282.356	110.94
282.588	153.94
282.819	96.94
283.051	91.94
283.282	70.94
283.513	92.94
283.745	90.94
283.976	97.94
284.207	84.94
284.439	86.94
284.67	88.94
284.901	95.94
285.132	83.94
285.364	89.94
285.595	89.94
285.826	82.94
286.057	79.94
286.288	94.94
286.52	97.94
286.751	84.94
286.982	78.94
287.213	87.94
287.444	77.94
287.675	79.94
287.906	98.94
288.138	92.94
288.369	89.94
288.6	88.94
288.831	93.94
289.062	90.94
289.293	78.94
289.524	73.94
289.755	86.94
289.986	83.94
290.217	92.94
290.448	85.94
290.679	103.94
290.91	87.94
291.141	62.94
291.371	84.94
291.602	89.94
291.833	88.94
292.064	84.94
292.295	96.94
292.526	93.94
292.757	88.94
292.987	80.94
293.218	85.94
293.449	70.94
293.68	96.94
293.91	92.94
294.141	91.94
294.372	88.94
294.603	88.94
294.833	80.94
295.064	98.94
295.295	82.94
295.525	95.94
295.756	89.94
295.987	113.94
296.217	122.94
296.448	113.94
296.679	91.94
296.909	98.94
297.14	92.94
297.37	99.94
297.601	82.94
297.831	84.94
298.062	95.94
298.292	87.94
298.523	89.94
298.753	82.94
298.984	91.94
299.214	88.94
299.445	98.94
299.675	90.94
299.905	96.94
300.136	94.94
300.366	91.94
300.597	84.94
300.827	90.94
301.057	97.94
301.288	106.94
301.518	101.94
301.748	107.94
301.979	102.94
302.209	103.94
302.439	98.94
302.669	95.94
302.9	92.94
303.13	95.94
303.36	102.94
303.59	107.94
303.82	101.94
304.051	99.94
304.281	79.94
304.511	96.94
304.741	87.94
304.971	73.94
305.201	84.94
305.431	98.94
305.661	89.94
305.891	87.94
306.121	89.94
306.352	87.94
306.582	101.94
306.812	90.94
307.042	88.94
307.272	91.94
307.502	98.94
307.731	87.94
307.961	91.94
308.191	94.94
308.421	97.94
308.651	76.94
308.881	95.94
309.111	99.94
309.341	91.94
309.571	103.94
309.8	89.94
310.03	114.94
310.26	94.94
310.49	85.94
310.72	87.94
310.949	101.94
311.179	110.94
311.409	98.94
311.639	87.94
311.868	89.94
312.098	100.94
312.328	98.94
312.557	105.94
312.787	114.94
313.017	106.94
313.246	114.94
313.476	105.94
313.706	87.94
313.935	87.94
314.165	101.94
314.394	110.94
314.624	99.94
314.853	85.94
315.083	87.94
315.312	81.94
315.542	84.94
315.771	83.94
316.001	98.94
316.23	100.94
316.46	86.94
316.689	94.94
316.919	91.94
317.148	93.94
317.377	103.94
317.607	103.94
317.836	90.94
318.065	95.94
318.295	79.94
318.524	88.94
318.753	84.94
318.983	96.94
319.212	102.94
319.441	96.94
319.67	110.94
319.9	92.94
320.129	98.94
320.358	91.94
320.587	102.94
320.816	106.94
321.046	98.94
321.275	89.94
321.504	100.94
321.733	97.94
321.962	94.94
322.191	107.94
322.42	103.94
322.649	106.94
322.878	102.94
323.108	119.94
323.337	121.94
323.566	118.94
323.795	139.94
324.024	193.94
324.253	393.94
324.482	809.94
324.71	1644.94
324.939	2181.94
325.168	782.94
325.397	241.94
325.626	153.94
325.855	133.94
326.084	125.94
326.313	121.94
326.542	136.94
326.77	225.94
326.999	461.94
327.228	923.94
327.457	1717.94
327.686	1349.94
327.914	358.94
328.143	190.94
328.372	155.94
328.6	113.94
328.829	112.94
329.058	126.94
329.287	121.94
329.515	104.94
329.744	113.94
329.972	106.94
330.201	96.94
330.43	93.94
330.658	122.94
330.887	132.94
331.115	112.94
331.344	107.94
331.572	88.94
331.801	86.94
332.03	109.94
332.258	105.94
332.486	80.94
332.715	85.94
332.943	81.94
333.172	103.94
333.4	101.94
333.629	121.94
333.857	106.94
334.085	111.94
334.314	93.94
334.542	105.94
334.771	96.94
334.999	93.94
335.227	87.94
335.455	109.94
335.684	93.94
335.912	105.94
336.14	96.94
336.369	91.94
336.597	91.94
336.825	77.94
337.053	81.94
337.281	99.94
337.51	87.94
337.738	95.94
337.966	91.94
338.194	118.94
338.422	103.94
338.65	83.94
338.878	99.94
339.106	89.94
339.334	94.94
339.562	92.94
339.79	108.94
340.018	83.94
340.246	79.94
340.474	100.94
340.702	98.94
340.93	79.94
341.158	94.94
341.386	85.94
341.614	90.94
341.842	83.94
342.07	89.94
342.298	89.94
342.526	91.94
342.754	95.94
342.981	102.94
343.209	88.94
343.437	93.94
343.665	90.94
343.893	92.94
344.12	92.94
344.348	81.94
344.576	88.94
344.804	79.94
345.031	98.94
345.259	101.94
345.487	89.94
345.714	95.94
345.942	102.94
346.17	98.94
346.397	83.94
346.625	96.94
346.853	89.94
347.08	102.94
347.308	93.94
347.535	93.94
347.763	104.94
347.99	104.94
348.218	98.94
348.445	99.94
348.673	97.94
348.9	110.94
349.128	89.94
349.355	100.94
349.583	100.94
349.81	86.94
350.037	92.94
350.265	101.94
350.492	95.94
350.72	101.94
350.947	99.94
351.174	105.94
351.402	106.94
351.629	99.94
351.856	104.94
352.083	108.94
352.311	100.94
352.538	109.94
352.765	111.94
352.992	133.94
353.22	114.94
353.447	103.94
353.674	104.94
353.901	104.94
354.128	99.94
354.355	113.94
354.583	99.94
354.81	108.94
355.037	88.94
355.264	100.94
355.491	95.94
355.718	89.94
355.945	88.94
356.172	111.94
356.399	92.94
356.626	98.94
356.853	86.94
357.08	95.94
357.307	104.94
357.534	92.94
357.761	94.94
357.988	94.94
358.215	92.94
358.441	95.94
358.668	85.94
358.895	97.94
359.122	87.94
359.349	79.94
359.576	89.94
359.802	103.94
360.029	110.94
360.256	113.94
360.483	98.94
360.709	110.94
360.936	87.94
361.163	96.94
361.39	97.94
361.616	85.94
361.843	101.94
362.07	90.94
362.296	86.94
362.523	100.94
362.749	89.94
362.976	87.94
363.203	90.94
363.429	91.94
363.656	92.94
363.882	93.94
364.109	91.94
364.335	87.94
364.562	88.94
364.788	97.94
365.015	88.94
365.241	103.94
365.468	111.94
365.694	101.94
365.92	88.94
366.147	74.94
366.373	91.94
366.599	80.94
366.826	98.94
367.052	95.94
367.278	88.94
367.505	84.94
367.731	94.94
367.957	88.94
368.184	98.94
368.41	99.94
368.636	111.94
368.862	113.94
369.089	103.94
369.315	80.94
369.541	92.94
369.767	92.94
369.993	89.94
370.219	93.94
370.445	78.94
370.672	87.94
370.898	79.94
371.124	70.94
371.35	85.94
371.576	98.94
371.802	88.94
372.028	83.94
372.254	98.94
372.48	102.94
372.706	88.94
372.932	96.94
373.158	82.94
373.384	82.94
373.61	93.94
373.835	74.94
374.061	98.94
374.287	88.94
374.513	68.94
374.739	90.94
374.965	93.94
375.191	82.94
375.416	81.94
375.642	88.94
375.868	101.94
376.094	88.94
376.319	82.94
376.545	94.94
376.771	90.94
376.997	85.94
377.222	75.94
377.448	94.94
377.674	85.94
377.899	78.94
378.125	98.94
378.35	83.94
378.576	84.94
378.802	81.94
379.027	94.94
379.253	95.94
379.478	88.94
379.704	94.94
379.929	82.94
380.155	89.94
380.38	88.94
380.606	93.94
380.831	88.94
381.057	114.94
381.282	99.94
381.507	90.94
381.733	78.94
381.958	95.94
382.184	98.94
382.409	104.94
382.634	101.94
382.86	79.94
383.085	75.94
383.31	109.94
383.535	105.94
383.761	92.94
383.986	102.94
384.211	93.94
384.436	93.94
384.662	95.94
384.887	99.94
385.112	100.94
385.337	106.94
385.562	89.94
385.787	95.94
386.013	106.94
386.238	122.94
386.463	104.94
386.688	106.94
386.913	88.94
387.138	110.94
387.363	89.94
387.588	101.94
387.813	108.94
388.038	106.94
388.263	87.94
388.488	96.94
388.713	99.94
388.938	95.94
389.163	93.94
389.387	103.94
389.612	94.94
389.837	94.94
390.062	92.94
390.287	82.94
390.512	103.94
390.736	93.94
390.961	69.94
391.186	99.94
391.411	96.94
391.636	89.94
391.86	83.94
392.085	91.94
392.31	78.94
392.534	78.94
392.759	83.94
392.984	88.94
393.208	97.94
393.433	91.94
393.658	94.94
393.882	82.94
394.107	95.94
394.331	77.94
394.556	89.94
394.78	87.94
395.005	86.94
395.229	80.94
395.454	81.94
395.678	86.94
395.903	112.94
396.127	98.94
396.352	91.94
396.576	86.94
396.801	91.94
397.025	87.94
397.249	81.94
397.474	75.94
397.698	88.94
397.922	86.94
398.147	89.94
398.371	93.94
398.595	84.94
398.82	95.94
399.044	85.94
399.268	80.94
399.492	95.94
399.717	86.94
399.941	94.94
400.165	100.94
400.389	106.94
400.613	95.94
400.837	88.94
401.062	83.94
401.286	97.94
401.51	95.94
401.734	84.94
401.958	98.94
402.182	102.94
402.406	149.94
402.63	117.94
402.854	89.94
403.078	82.94
403.302	81.94
403.526	79.94
403.75	80.94
403.974	94.94
404.198	85.94
404.422	79.94
404.645	79.94
404.869	79.94
405.093	90.94
405.317	86.94
405.541	101.94
405.765	96.94
405.988	114.94
406.212	162.94
406.436	215.94
406.66	137.94
406.883	95.94
407.107	80.94
407.331	99.94
407.555	86.94
407.778	91.94
408.002	73.94
408.226	77.94
408.449	94.94
408.673	92.94
408.896	96.94
409.12	98.94
409.344	80.94
409.567	89.94
409.791	98.94
410.014	91.94
410.238	94.94
410.461	90.94
410.685	95.94
410.908	106.94
411.132	102.94
411.355	88.94
411.578	85.94
411.802	84.94
412.025	75.94
412.249	95.94
412.472	82.94
412.695	88.94
412.919	102.94
413.142	97.94
413.365	87.94
413.589	86.94
413.812	85.94
414.035	89.94
414.258	87.94
414.482	85.94
414.705	82.94
414.928	91.94
415.151	91.94
415.374	81.94
415.597	86.94
415.821	90.94
416.044	85.94
416.267	83.94
416.49	78.94
416.713	85.94
416.936	85.94
417.159	88.94
417.382	80.94
417.605	92.94
417.828	104.94
418.051	93.94
418.274	66.94
418.497	88.94
418.72	93.94
418.943	86.94
419.166	81.94
419.389	79.94
419.611	90.94
419.834	86.94
420.057	86.94
420.28	82.94
420.503	83.94
420.726	83.94
420.948	85.94
421.171	75.94
421.394	86.94
421.617	89.94
421.839	81.94
422.062	83.94
422.285	100.94
422.507	108.94
422.73	103.94
422.953	102.94
423.175	91.94
423.398	97.94
423.621	80.94
423.843	83.94
424.066	84.94
424.288	90.94
424.511	85.94
424.733	97.94
424.956	112.94
425.178	99.94
425.401	105.94
425.623	98.94
425.846	99.94
426.068	87.94
426.291	79.94
426.513	81.94
426.735	79.94
426.958	96.94
427.18	102.94
427.402	133.94
427.625	152.94
427.847	131.94
428.069	103.94
428.292	98.94
428.514	87.94
428.736	68.94
428.958	104.94
429.181	89.94
429.403	81.94
429.625	85.94
429.847	85.94
430.069	107.94
430.292	89.94
430.514	78.94
430.736	87.94
430.958	96.94
431.18	69.94
431.402	83.94
431.624	78.94
431.846	72.94
432.068	91.94
432.29	95.94
432.512	85.94
432.734	91.94
432.956	97.94
433.178	94.94
433.4	81.94
433.622	93.94
433.844	99.94
434.066	105.94
434.287	83.94
434.509	98.94
434.731	84.94
434.953	88.94
435.175	84.94
435.397	95.94
435.618	88.94
435.84	98.94
436.062	122.94
436.284	109.94
436.505	95.94
436.727	98.94
436.949	88.94
437.17	81.94
437.392	79.94
437.614	107.94
437.835	103.94
438.057	113.94
438.278	105.94
438.5	125.94
438.721	122.94
438.943	96.94
439.165	88.94
439.386	87.94
439.608	95.94
439.829	101.94
440.05	111.94
440.272	142.94
440.493	92.94
440.715	75.94
440.936	85.94
441.158	86.94
441.379	70.94
441.6	107.94
441.822	89.94
442.043	93.94
442.264	118.94
442.486	107.94
442.707	90.94
442.928	102.94
443.149	130.94
443.371	135.94
443.592	116.94
443.813	116.94
444.034	97.94
444.255	89.94
444.476	90.94
444.698	77.94
444.919	89.94
445.14	142.94
445.361	112.94
445.582	118.94
445.803	143.94
446.024	144.94
446.245	143.94
446.466	114.94
446.687	107.94
446.908	80.94
447.129	88.94
447.35	88.94
447.571	102.94
447.792	93.94
448.013	86.94
448.234	98.94
448.455	94.94
448.675	113.94
448.896	120.94
449.117	99.94
449.338	105.94
449.559	124.94
449.779	125.94
450	90.94
450.221	82.94
450.442	95.94
450.662	85.94
450.883	88.94
451.104	94.94
451.324	91.94
451.545	76.94
451.766	88.94
451.986	85.94
452.207	81.94
452.428	97.94
452.648	105.94
452.869	95.94
453.089	115.94
453.31	114.94
453.53	93.94
453.751	92.94
453.971	101.94
454.192	117.94
454.412	86.94
454.633	87.94
454.853	75.94
455.073	93.94
455.294	86.94
455.514	95.94
455.734	89.94
455.955	86.94
456.175	80.94
456.395	97.94
456.616	86.94
456.836	77.94
457.056	77.94
457.276	87.94
457.497	73.94
457.717	95.94
457.937	76.94
458.157	95.94
458.377	92.94
458.598	121.94
458.818	130.94
459.038	159.94
459.258	111.94
459.478	85.94
459.698	80.94
459.918	76.94
460.138	83.94
460.358	73.94
460.578	94.94
460.798	89.94
461.018	102.94
461.238	89.94
461.458	90.94
461.678	88.94
461.898	88.94
462.118	76.94
462.338	74.94
462.558	98.94
462.777	91.94
462.997	88.94
463.217	85.94
463.437	90.94
463.657	97.94
463.876	92.94
464.096	85.94
464.316	96.94
464.536	93.94
464.755	86.94
464.975	90.94
465.195	140.94
465.414	162.94
465.634	91.94
465.854	80.94
466.073	90.94
466.293	85.94
466.512	88.94
466.732	86.94
466.951	88.94
467.171	69.94
467.391	54.94
467.61	97.94
467.829	98.94
468.049	88.94
468.268	90.94
468.488	75.94
468.707	77.94
468.927	78.94
469.146	77.94
469.365	62.94
469.585	81.94
469.804	95.94
470.023	113.94
470.243	95.94
470.462	95.94
470.681	95.94
470.901	93.94
471.12	95.94
471.339	73.94
471.558	99.94
471.777	88.94
471.997	95.94
472.216	74.94
472.435	85.94
472.654	82.94
472.873	97.94
473.092	82.94
473.311	73.94
473.53	93.94
473.749	94.94
473.968	87.94
474.187	106.94
474.406	95.94
474.625	85.94
474.844	88.94
475.063	95.94
475.282	84.94
475.501	89.94
475.72	86.94
475.939	87.94
476.158	74.94
476.377	86.94
476.596	83.94
476.814	100.94
477.033	85.94
477.252	88.94
477.471	83.94
477.69	90.94
477.908	98.94
478.127	96.94
478.346	89.94
478.564	102.94
478.783	84.94
479.002	85.94
479.22	86.94
479.439	106.94
479.658	96.94
479.876	94.94
480.095	90.94
480.313	88.94
480.532	97.94
480.751	89.94
480.969	84.94
481.188	96.94
481.406	82.94
481.624	88.94
481.843	99.94
482.061	84.94
482.28	98.94
482.498	92.94
482.717	89.94
482.935	101.94
483.153	94.94
483.372	70.94
483.59	75.94
483.808	94.94
484.027	87.94
484.245	91.94
484.463	98.94
484.681	89.94
484.9	102.94
485.118	88.94
485.336	93.94
485.554	97.94
485.772	98.94
485.99	112.94
486.209	106.94
486.427	117.94
486.645	121.94
486.863	109.94
487.081	77.94
487.299	101.94
487.517	110.94
487.735	85.94
487.953	106.94
488.171	82.94
488.389	89.94
488.607	97.94
488.825	98.94
489.043	85.94
489.261	92.94
489.479	85.94
489.696	99.94
489.914	86.94
490.132	78.94
490.35	102.94
490.568	87.94
490.786	88.94
491.003	94.94
491.221	87.94
491.439	86.94
491.657	94.94
491.874	79.94
492.092	88.94
492.31	101.94
492.527	88.94
492.745	90.94
492.963	81.94
493.18	87.94
493.398	90.94
493.615	104.94
493.833	95.94
494.05	85.94
494.268	89.94
494.485	98.94
494.703	97.94
494.92	95.94
495.138	93.94
495.355	85.94
495.573	87.94
495.79	88.94
496.008	89.94
496.225	88.94
496.442	91.94
496.66	89.94
496.877	89.94
497.094	96.94
497.312	93.94
497.529	76.94
497.746	79.94
497.963	91.94
498.181	85.94
498.398	88.94
498.615	106.94
498.832	103.94
499.049	104.94
499.267	84.94
499.484	83.94
499.701	80.94
499.918	87.94
500.135	92.94
500.352	96.94
500.569	89.94
500.786	90.94
501.003	94.94
501.22	91.94
501.437	97.94
501.654	92.94
501.871	104.94
502.088	95.94
502.305	90.94
502.522	95.94
502.739	97.94
502.956	83.94
503.172	70.94
503.389	87.94
503.606	91.94
503.823	106.94
504.04	97.94
504.256	103.94
504.473	89.94
504.69	105.94
504.907	97.94
505.123	91.94
505.34	101.94
505.557	80.94
505.773	94.94
505.99	98.94
506.207	77.94
506.423	81.94
506.64	69.94
506.856	86.94
507.073	86.94
507.289	104.94
507.506	98.94
507.722	90.94
507.939	105.94
508.155	103.94
508.372	91.94
508.588	96.94
508.805	77.94
509.021	91.94
509.238	93.94
509.454	103.94
509.67	98.94
509.887	106.94
510.103	117.94
510.319	208.94
510.536	740.94
510.752	2306.94
510.968	634.94
511.184	152.94
511.401	100.94
511.617	109.94
511.833	92.94
512.049	82.94
512.265	92.94
512.481	93.94
512.698	96.94
512.914	102.94
513.13	88.94
513.346	72.94
513.562	96.94
513.778	97.94
513.994	93.94
514.21	108.94
514.426	123.94
514.642	133.94
514.858	128.94
515.074	153.94
515.29	437.94
515.506	1431.94
515.721	546.94
515.937	142.94
516.153	101.94
