Data from Uncirc_1996_H10_HRD10591_00078.txt Node
Date: Wed Jan 03 11:32:18 EST 2024
User: Yrep
Spectrometer: HR+D1059
Trigger mode: 1
Integration Time (sec): 1.000000E-1
Scans to average: 1
Electric dark correction enabled: true
Nonlinearity correction enabled: false
Boxcar width: 0
XAxis mode: Wavelengths
Number of Pixels in Spectrum: 2048
>>>>>Begin Spectral Data<<<<<
223.165	-19.81
223.4	-19.81
223.635	-19.81
223.869	-13.81
224.104	-20.81
224.338	-1.81
224.573	-8.81
224.808	-17.81
225.042	-3.81
225.277	-8.81
225.511	-0.81
225.746	-3.81
225.98	6.19
226.215	6.19
226.449	9.19
226.683	24.19
226.918	26.19
227.152	28.19
227.387	37.19
227.621	30.19
227.856	48.19
228.09	48.19
228.324	43.19
228.559	62.19
228.793	62.19
229.027	63.19
229.262	61.19
229.496	68.19
229.73	78.19
229.964	92.19
230.199	81.19
230.433	72.19
230.667	75.19
230.901	77.19
231.136	89.19
231.37	63.19
231.604	85.19
231.838	83.19
232.072	75.19
232.306	66.19
232.541	84.19
232.775	81.19
233.009	74.19
233.243	75.19
233.477	66.19
233.711	86.19
233.945	91.19
234.179	75.19
234.413	74.19
234.647	70.19
234.881	78.19
235.115	76.19
235.349	80.19
235.583	74.19
235.817	76.19
236.051	65.19
236.285	62.19
236.519	66.19
236.753	79.19
236.987	80.19
237.221	97.19
237.455	92.19
237.689	77.19
237.922	70.19
238.156	66.19
238.39	68.19
238.624	79.19
238.858	74.19
239.091	87.19
239.325	73.19
239.559	75.19
239.793	85.19
240.027	89.19
240.26	73.19
240.494	65.19
240.728	86.19
240.961	71.19
241.195	79.19
241.429	89.19
241.662	88.19
241.896	79.19
242.13	86.19
242.363	65.19
242.597	83.19
242.83	81.19
243.064	76.19
243.298	74.19
243.531	84.19
243.765	79.19
243.998	66.19
244.232	85.19
244.465	96.19
244.699	73.19
244.932	87.19
245.166	82.19
245.399	70.19
245.633	77.19
245.866	73.19
246.099	84.19
246.333	80.19
246.566	75.19
246.8	78.19
247.033	73.19
247.266	80.19
247.5	76.19
247.733	81.19
247.966	88.19
248.2	70.19
248.433	87.19
248.666	84.19
248.899	89.19
249.133	85.19
249.366	83.19
249.599	95.19
249.832	74.19
250.066	94.19
250.299	78.19
250.532	94.19
250.765	62.19
250.998	61.19
251.231	84.19
251.465	84.19
251.698	76.19
251.931	71.19
252.164	67.19
252.397	66.19
252.63	80.19
252.863	82.19
253.096	74.19
253.329	76.19
253.562	73.19
253.795	84.19
254.028	88.19
254.261	77.19
254.494	83.19
254.727	85.19
254.96	84.19
255.193	75.19
255.426	81.19
255.659	74.19
255.892	98.19
256.124	57.19
256.357	74.19
256.59	84.19
256.823	94.19
257.056	86.19
257.289	77.19
257.521	80.19
257.754	80.19
257.987	82.19
258.22	70.19
258.452	83.19
258.685	88.19
258.918	75.19
259.151	73.19
259.383	88.19
259.616	89.19
259.849	88.19
260.081	83.19
260.314	72.19
260.547	88.19
260.779	84.19
261.012	87.19
261.244	83.19
261.477	90.19
261.71	82.19
261.942	114.19
262.175	123.19
262.407	90.19
262.64	81.19
262.872	83.19
263.105	89.19
263.337	85.19
263.57	86.19
263.802	88.19
264.035	95.19
264.267	84.19
264.499	83.19
264.732	84.19
264.964	75.19
265.197	78.19
265.429	88.19
265.661	74.19
265.894	60.19
266.126	76.19
266.358	86.19
266.591	75.19
266.823	64.19
267.055	78.19
267.287	86.19
267.52	73.19
267.752	99.19
267.984	74.19
268.216	93.19
268.448	84.19
268.681	88.19
268.913	89.19
269.145	92.19
269.377	94.19
269.609	94.19
269.841	86.19
270.073	99.19
270.306	94.19
270.538	91.19
270.77	83.19
271.002	72.19
271.234	84.19
271.466	92.19
271.698	76.19
271.93	70.19
272.162	79.19
272.394	79.19
272.626	85.19
272.858	80.19
273.09	84.19
273.322	79.19
273.553	76.19
273.785	84.19
274.017	81.19
274.249	78.19
274.481	86.19
274.713	92.19
274.945	77.19
275.176	83.19
275.408	95.19
275.64	73.19
275.872	84.19
276.104	85.19
276.335	76.19
276.567	101.19
276.799	95.19
277.031	96.19
277.262	96.19
277.494	81.19
277.726	100.19
277.957	91.19
278.189	94.19
278.421	83.19
278.652	94.19
278.884	87.19
279.115	81.19
279.347	83.19
279.579	96.19
279.81	79.19
280.042	86.19
280.273	74.19
280.505	95.19
280.736	84.19
280.968	78.19
281.199	88.19
281.431	88.19
281.662	94.19
281.894	73.19
282.125	104.19
282.356	118.19
282.588	138.19
282.819	103.19
283.051	98.19
283.282	81.19
283.513	82.19
283.745	89.19
283.976	99.19
284.207	87.19
284.439	77.19
284.67	86.19
284.901	86.19
285.132	86.19
285.364	86.19
285.595	84.19
285.826	83.19
286.057	95.19
286.288	98.19
286.52	87.19
286.751	86.19
286.982	86.19
287.213	82.19
287.444	95.19
287.675	92.19
287.906	88.19
288.138	87.19
288.369	98.19
288.6	84.19
288.831	84.19
289.062	92.19
289.293	71.19
289.524	88.19
289.755	92.19
289.986	93.19
290.217	87.19
290.448	81.19
290.679	81.19
290.91	84.19
291.141	80.19
291.371	89.19
291.602	85.19
291.833	81.19
292.064	78.19
292.295	84.19
292.526	90.19
292.757	96.19
292.987	76.19
293.218	86.19
293.449	106.19
293.68	85.19
293.91	84.19
294.141	77.19
294.372	93.19
294.603	82.19
294.833	87.19
295.064	83.19
295.295	87.19
295.525	104.19
295.756	96.19
295.987	116.19
296.217	137.19
296.448	117.19
296.679	94.19
296.909	91.19
297.14	88.19
297.37	107.19
297.601	82.19
297.831	102.19
298.062	90.19
298.292	100.19
298.523	83.19
298.753	89.19
298.984	79.19
299.214	91.19
299.445	96.19
299.675	98.19
299.905	95.19
300.136	95.19
300.366	105.19
300.597	111.19
300.827	97.19
301.057	107.19
301.288	97.19
301.518	97.19
301.748	88.19
301.979	113.19
302.209	92.19
302.439	91.19
302.669	84.19
302.9	92.19
303.13	98.19
303.36	92.19
303.59	87.19
303.82	97.19
304.051	93.19
304.281	104.19
304.511	84.19
304.741	90.19
304.971	94.19
305.201	88.19
305.431	83.19
305.661	83.19
305.891	97.19
306.121	87.19
306.352	95.19
306.582	111.19
306.812	114.19
307.042	77.19
307.272	89.19
307.502	86.19
307.731	80.19
307.961	88.19
308.191	98.19
308.421	84.19
308.651	73.19
308.881	92.19
309.111	112.19
309.341	106.19
309.571	98.19
309.8	95.19
310.03	99.19
310.26	95.19
310.49	102.19
310.72	94.19
310.949	98.19
311.179	101.19
311.409	102.19
311.639	89.19
311.868	99.19
312.098	95.19
312.328	95.19
312.557	91.19
312.787	107.19
313.017	96.19
313.246	94.19
313.476	82.19
313.706	99.19
313.935	90.19
314.165	104.19
314.394	88.19
314.624	90.19
314.853	91.19
315.083	92.19
315.312	99.19
315.542	92.19
315.771	90.19
316.001	82.19
316.23	95.19
316.46	98.19
316.689	87.19
316.919	90.19
317.148	95.19
317.377	106.19
317.607	111.19
317.836	102.19
318.065	87.19
318.295	91.19
318.524	87.19
318.753	94.19
318.983	97.19
319.212	105.19
319.441	104.19
319.67	100.19
319.9	89.19
320.129	83.19
320.358	88.19
320.587	91.19
320.816	88.19
321.046	94.19
321.275	88.19
321.504	87.19
321.733	106.19
321.962	100.19
322.191	93.19
322.42	100.19
322.649	112.19
322.878	107.19
323.108	115.19
323.337	102.19
323.566	115.19
323.795	138.19
324.024	182.19
324.253	333.19
324.482	702.19
324.71	1443.19
324.939	1836.19
325.168	692.19
325.397	223.19
325.626	150.19
325.855	127.19
326.084	117.19
326.313	122.19
326.542	136.19
326.77	193.19
326.999	415.19
327.228	797.19
327.457	1469.19
327.686	1174.19
327.914	329.19
328.143	194.19
328.372	146.19
328.6	123.19
328.829	129.19
329.058	121.19
329.287	115.19
329.515	107.19
329.744	92.19
329.972	106.19
330.201	93.19
330.43	106.19
330.658	108.19
330.887	128.19
331.115	102.19
331.344	99.19
331.572	102.19
331.801	106.19
332.03	95.19
332.258	100.19
332.486	86.19
332.715	95.19
332.943	103.19
333.172	104.19
333.4	95.19
333.629	106.19
333.857	109.19
334.085	94.19
334.314	82.19
334.542	88.19
334.771	83.19
334.999	97.19
335.227	93.19
335.455	81.19
335.684	97.19
335.912	101.19
336.14	103.19
336.369	95.19
336.597	108.19
336.825	104.19
337.053	94.19
337.281	89.19
337.51	92.19
337.738	103.19
337.966	95.19
338.194	98.19
338.422	96.19
338.65	107.19
338.878	82.19
339.106	88.19
339.334	82.19
339.562	91.19
339.79	97.19
340.018	96.19
340.246	87.19
340.474	74.19
340.702	86.19
340.93	88.19
341.158	98.19
341.386	97.19
341.614	99.19
341.842	100.19
342.07	86.19
342.298	94.19
342.526	98.19
342.754	103.19
342.981	79.19
343.209	86.19
343.437	115.19
343.665	81.19
343.893	92.19
344.12	89.19
344.348	100.19
344.576	90.19
344.804	84.19
345.031	95.19
345.259	94.19
345.487	87.19
345.714	98.19
345.942	96.19
346.17	100.19
346.397	84.19
346.625	74.19
346.853	107.19
347.08	82.19
347.308	90.19
347.535	96.19
347.763	101.19
347.99	90.19
348.218	112.19
348.445	95.19
348.673	86.19
348.9	95.19
349.128	108.19
349.355	94.19
349.583	95.19
349.81	107.19
350.037	93.19
350.265	98.19
350.492	91.19
350.72	81.19
350.947	94.19
351.174	103.19
351.402	105.19
351.629	118.19
351.856	109.19
352.083	81.19
352.311	100.19
352.538	96.19
352.765	106.19
352.992	100.19
353.22	97.19
353.447	100.19
353.674	102.19
353.901	94.19
354.128	97.19
354.355	83.19
354.583	91.19
354.81	91.19
355.037	96.19
355.264	94.19
355.491	100.19
355.718	94.19
355.945	99.19
356.172	107.19
356.399	100.19
356.626	104.19
356.853	99.19
357.08	102.19
357.307	78.19
357.534	80.19
357.761	98.19
357.988	114.19
358.215	94.19
358.441	82.19
358.668	98.19
358.895	88.19
359.122	83.19
359.349	89.19
359.576	99.19
359.802	109.19
360.029	108.19
360.256	127.19
360.483	96.19
360.709	87.19
360.936	91.19
361.163	86.19
361.39	95.19
361.616	89.19
361.843	89.19
362.07	101.19
362.296	90.19
362.523	90.19
362.749	89.19
362.976	105.19
363.203	105.19
363.429	81.19
363.656	81.19
363.882	90.19
364.109	98.19
364.335	80.19
364.562	91.19
364.788	100.19
365.015	110.19
365.241	112.19
365.468	107.19
365.694	97.19
365.92	99.19
366.147	87.19
366.373	97.19
366.599	86.19
366.826	90.19
367.052	95.19
367.278	94.19
367.505	94.19
367.731	97.19
367.957	111.19
368.184	100.19
368.41	96.19
368.636	100.19
368.862	115.19
369.089	106.19
369.315	97.19
369.541	80.19
369.767	87.19
369.993	82.19
370.219	90.19
370.445	98.19
370.672	73.19
370.898	78.19
371.124	83.19
371.35	89.19
371.576	96.19
371.802	96.19
372.028	82.19
372.254	92.19
372.48	82.19
372.706	89.19
372.932	90.19
373.158	95.19
373.384	92.19
373.61	81.19
373.835	99.19
374.061	98.19
374.287	96.19
374.513	94.19
374.739	76.19
374.965	79.19
375.191	94.19
375.416	92.19
375.642	86.19
375.868	94.19
376.094	83.19
376.319	92.19
376.545	97.19
376.771	83.19
376.997	81.19
377.222	77.19
377.448	73.19
377.674	87.19
377.899	92.19
378.125	88.19
378.35	88.19
378.576	83.19
378.802	92.19
379.027	92.19
379.253	92.19
379.478	95.19
379.704	94.19
379.929	101.19
380.155	100.19
380.38	102.19
380.606	78.19
380.831	100.19
381.057	93.19
381.282	87.19
381.507	101.19
381.733	95.19
381.958	93.19
382.184	81.19
382.409	103.19
382.634	111.19
382.86	106.19
383.085	96.19
383.31	90.19
383.535	104.19
383.761	102.19
383.986	67.19
384.211	88.19
384.436	107.19
384.662	99.19
384.887	91.19
385.112	103.19
385.337	108.19
385.562	103.19
385.787	88.19
386.013	94.19
386.238	103.19
386.463	98.19
386.688	94.19
386.913	105.19
387.138	104.19
387.363	105.19
387.588	94.19
387.813	99.19
388.038	99.19
388.263	120.19
388.488	113.19
388.713	91.19
388.938	92.19
389.163	91.19
389.387	99.19
389.612	107.19
389.837	105.19
390.062	81.19
390.287	88.19
390.512	107.19
390.736	86.19
390.961	90.19
391.186	91.19
391.411	85.19
391.636	95.19
391.86	72.19
392.085	84.19
392.31	78.19
392.534	100.19
392.759	83.19
392.984	104.19
393.208	91.19
393.433	75.19
393.658	86.19
393.882	95.19
394.107	83.19
394.331	97.19
394.556	97.19
394.78	82.19
395.005	102.19
395.229	73.19
395.454	84.19
395.678	88.19
395.903	94.19
396.127	83.19
396.352	83.19
396.576	86.19
396.801	80.19
397.025	86.19
397.249	88.19
397.474	96.19
397.698	98.19
397.922	108.19
398.147	83.19
398.371	91.19
398.595	87.19
398.82	85.19
399.044	84.19
399.268	92.19
399.492	92.19
399.717	81.19
399.941	84.19
400.165	99.19
400.389	80.19
400.613	90.19
400.837	78.19
401.062	92.19
401.286	90.19
401.51	90.19
401.734	82.19
401.958	94.19
402.182	103.19
402.406	129.19
402.63	115.19
402.854	93.19
403.078	88.19
403.302	95.19
403.526	83.19
403.75	79.19
403.974	93.19
404.198	87.19
404.422	87.19
404.645	91.19
404.869	95.19
405.093	104.19
405.317	88.19
405.541	74.19
405.765	114.19
405.988	109.19
406.212	155.19
406.436	206.19
406.66	154.19
406.883	105.19
407.107	86.19
407.331	93.19
407.555	100.19
407.778	91.19
408.002	98.19
408.226	88.19
408.449	94.19
408.673	89.19
408.896	91.19
409.12	84.19
409.344	84.19
409.567	90.19
409.791	84.19
410.014	93.19
410.238	88.19
410.461	93.19
410.685	93.19
410.908	99.19
411.132	104.19
411.355	94.19
411.578	99.19
411.802	85.19
412.025	78.19
412.249	83.19
412.472	100.19
412.695	94.19
412.919	84.19
413.142	90.19
413.365	78.19
413.589	92.19
413.812	92.19
414.035	99.19
414.258	90.19
414.482	86.19
414.705	68.19
414.928	88.19
415.151	98.19
415.374	78.19
415.597	91.19
415.821	89.19
416.044	80.19
416.267	83.19
416.49	86.19
416.713	94.19
416.936	93.19
417.159	80.19
417.382	97.19
417.605	100.19
417.828	101.19
418.051	96.19
418.274	85.19
418.497	99.19
418.72	88.19
418.943	100.19
419.166	80.19
419.389	79.19
419.611	86.19
419.834	80.19
420.057	89.19
420.28	103.19
420.503	80.19
420.726	90.19
420.948	95.19
421.171	79.19
421.394	71.19
421.617	92.19
421.839	90.19
422.062	86.19
422.285	78.19
422.507	100.19
422.73	100.19
422.953	99.19
423.175	90.19
423.398	83.19
423.621	94.19
423.843	98.19
424.066	105.19
424.288	93.19
424.511	107.19
424.733	105.19
424.956	82.19
425.178	103.19
425.401	82.19
425.623	86.19
425.846	93.19
426.068	97.19
426.291	100.19
426.513	85.19
426.735	81.19
426.958	92.19
427.18	97.19
427.402	117.19
427.625	151.19
427.847	119.19
428.069	78.19
428.292	81.19
428.514	95.19
428.736	84.19
428.958	72.19
429.181	84.19
429.403	93.19
429.625	90.19
429.847	92.19
430.069	83.19
430.292	94.19
430.514	92.19
430.736	100.19
430.958	79.19
431.18	96.19
431.402	75.19
431.624	94.19
431.846	83.19
432.068	92.19
432.29	86.19
432.512	80.19
432.734	98.19
432.956	90.19
433.178	93.19
433.4	92.19
433.622	102.19
433.844	95.19
434.066	88.19
434.287	95.19
434.509	79.19
434.731	83.19
434.953	88.19
435.175	93.19
435.397	83.19
435.618	92.19
435.84	90.19
436.062	109.19
436.284	88.19
436.505	93.19
436.727	95.19
436.949	89.19
437.17	78.19
437.392	84.19
437.614	95.19
437.835	104.19
438.057	114.19
438.278	106.19
438.5	93.19
438.721	112.19
438.943	97.19
439.165	87.19
439.386	85.19
439.608	90.19
439.829	84.19
440.05	100.19
440.272	129.19
440.493	81.19
440.715	93.19
440.936	94.19
441.158	73.19
441.379	89.19
441.6	86.19
441.822	88.19
442.043	92.19
442.264	106.19
442.486	95.19
442.707	102.19
442.928	106.19
443.149	131.19
443.371	121.19
443.592	121.19
443.813	112.19
444.034	104.19
444.255	77.19
444.476	94.19
444.698	92.19
444.919	84.19
445.14	139.19
445.361	112.19
445.582	112.19
445.803	136.19
446.024	125.19
446.245	129.19
446.466	112.19
446.687	99.19
446.908	97.19
447.129	92.19
447.35	105.19
447.571	96.19
447.792	94.19
448.013	103.19
448.234	100.19
448.455	99.19
448.675	114.19
448.896	101.19
449.117	99.19
449.338	101.19
449.559	123.19
449.779	120.19
450	94.19
450.221	90.19
450.442	83.19
450.662	98.19
450.883	92.19
451.104	87.19
451.324	111.19
451.545	88.19
451.766	90.19
451.986	90.19
452.207	97.19
452.428	78.19
452.648	85.19
452.869	105.19
453.089	120.19
453.31	132.19
453.53	93.19
453.751	88.19
453.971	97.19
454.192	116.19
454.412	89.19
454.633	81.19
454.853	87.19
455.073	88.19
455.294	76.19
455.514	106.19
455.734	96.19
455.955	70.19
456.175	83.19
456.395	84.19
456.616	76.19
456.836	91.19
457.056	88.19
457.276	79.19
457.497	66.19
457.717	74.19
457.937	81.19
458.157	85.19
458.377	83.19
458.598	110.19
458.818	128.19
459.038	148.19
459.258	101.19
459.478	86.19
459.698	84.19
459.918	90.19
460.138	83.19
460.358	81.19
460.578	89.19
460.798	82.19
461.018	97.19
461.238	93.19
461.458	90.19
461.678	83.19
461.898	78.19
462.118	90.19
462.338	71.19
462.558	86.19
462.777	90.19
462.997	87.19
463.217	92.19
463.437	80.19
463.657	77.19
463.876	82.19
464.096	74.19
464.316	98.19
464.536	103.19
464.755	106.19
464.975	98.19
465.195	142.19
465.414	131.19
465.634	94.19
465.854	90.19
466.073	64.19
466.293	76.19
466.512	88.19
466.732	77.19
466.951	90.19
467.171	98.19
467.391	91.19
467.61	99.19
467.829	82.19
468.049	84.19
468.268	80.19
468.488	81.19
468.707	78.19
468.927	78.19
469.146	78.19
469.365	77.19
469.585	91.19
469.804	77.19
470.023	96.19
470.243	90.19
470.462	88.19
470.681	110.19
470.901	96.19
471.12	73.19
471.339	81.19
471.558	85.19
471.777	90.19
471.997	87.19
472.216	90.19
472.435	86.19
472.654	91.19
472.873	81.19
473.092	64.19
473.311	87.19
473.53	84.19
473.749	83.19
473.968	92.19
474.187	84.19
474.406	93.19
474.625	88.19
474.844	79.19
475.063	87.19
475.282	71.19
475.501	86.19
475.72	100.19
475.939	73.19
476.158	80.19
476.377	75.19
476.596	95.19
476.814	106.19
477.033	91.19
477.252	89.19
477.471	82.19
477.69	87.19
477.908	76.19
478.127	93.19
478.346	93.19
478.564	98.19
478.783	92.19
479.002	88.19
479.22	91.19
479.439	106.19
479.658	93.19
479.876	95.19
480.095	96.19
480.313	87.19
480.532	93.19
480.751	92.19
480.969	86.19
481.188	75.19
481.406	101.19
481.624	95.19
481.843	89.19
482.061	78.19
482.28	86.19
482.498	88.19
482.717	83.19
482.935	88.19
483.153	75.19
483.372	79.19
483.59	109.19
483.808	86.19
484.027	96.19
484.245	89.19
484.463	91.19
484.681	86.19
484.9	89.19
485.118	102.19
485.336	95.19
485.554	94.19
485.772	95.19
485.99	98.19
486.209	106.19
486.427	107.19
486.645	114.19
486.863	104.19
487.081	91.19
487.299	86.19
487.517	89.19
487.735	82.19
487.953	86.19
488.171	95.19
488.389	87.19
488.607	70.19
488.825	74.19
489.043	90.19
489.261	94.19
489.479	90.19
489.696	75.19
489.914	82.19
490.132	99.19
490.35	95.19
490.568	78.19
490.786	91.19
491.003	88.19
491.221	88.19
491.439	98.19
491.657	91.19
491.874	95.19
492.092	97.19
492.31	92.19
492.527	78.19
492.745	81.19
492.963	75.19
493.18	98.19
493.398	96.19
493.615	101.19
493.833	82.19
494.05	88.19
494.268	87.19
494.485	91.19
494.703	97.19
494.92	91.19
495.138	88.19
495.355	97.19
495.573	89.19
495.79	88.19
496.008	80.19
496.225	105.19
496.442	77.19
496.66	93.19
496.877	79.19
497.094	104.19
497.312	86.19
497.529	93.19
497.746	90.19
497.963	91.19
498.181	88.19
498.398	92.19
498.615	109.19
498.832	111.19
499.049	98.19
499.267	92.19
499.484	99.19
499.701	95.19
499.918	90.19
500.135	92.19
500.352	75.19
500.569	81.19
500.786	93.19
501.003	86.19
501.22	85.19
501.437	86.19
501.654	104.19
501.871	98.19
502.088	84.19
502.305	91.19
502.522	90.19
502.739	95.19
502.956	96.19
503.172	93.19
503.389	94.19
503.606	104.19
503.823	84.19
504.04	95.19
504.256	93.19
504.473	100.19
504.69	92.19
504.907	90.19
505.123	83.19
505.34	90.19
505.557	91.19
505.773	90.19
505.99	87.19
506.207	93.19
506.423	76.19
506.64	91.19
506.856	86.19
507.073	83.19
507.289	89.19
507.506	102.19
507.722	101.19
507.939	99.19
508.155	82.19
508.372	80.19
508.588	98.19
508.805	100.19
509.021	87.19
509.238	100.19
509.454	99.19
509.67	86.19
509.887	115.19
510.103	131.19
510.319	192.19
510.536	706.19
510.752	2016.19
510.968	575.19
511.184	140.19
511.401	113.19
511.617	94.19
511.833	87.19
512.049	83.19
512.265	97.19
512.481	84.19
512.698	90.19
512.914	93.19
513.13	109.19
513.346	90.19
513.562	80.19
513.778	92.19
513.994	94.19
514.21	98.19
514.426	113.19
514.642	124.19
514.858	105.19
515.074	159.19
515.29	382.19
515.506	1246.19
515.721	463.19
515.937	136.19
516.153	106.19
516.369	92.19
