Data from Uncirc_1996_H10_HRD10591_00032.txt Node
Date: Wed Jan 03 11:32:08 EST 2024
User: Yrep
Spectrometer: HR+D1059
Trigger mode: 1
Integration Time (sec): 1.000000E-1
Scans to average: 1
Electric dark correction enabled: true
Nonlinearity correction enabled: false
Boxcar width: 0
XAxis mode: Wavelengths
Number of Pixels in Spectrum: 2048
>>>>>Begin Spectral Data<<<<<
223.165	-6.62
223.4	-6.62
223.635	-6.62
223.869	-9.62
224.104	-10.62
224.338	-6.62
224.573	-7.62
224.808	-17.62
225.042	-18.62
225.277	-17.62
225.511	-1.62
225.746	0.38
225.98	7.38
226.215	15.38
226.449	15.38
226.683	18.38
226.918	10.38
227.152	29.38
227.387	21.38
227.621	31.38
227.856	32.38
228.09	41.38
228.324	36.38
228.559	61.38
228.793	161.38
229.027	452.38
229.262	515.38
229.496	613.38
229.73	818.38
229.964	802.38
230.199	555.38
230.433	461.38
230.667	452.38
230.901	466.38
231.136	440.38
231.37	448.38
231.604	457.38
231.838	448.38
232.072	454.38
232.306	482.38
232.541	478.38
232.775	476.38
233.009	466.38
233.243	457.38
233.477	472.38
233.711	486.38
233.945	502.38
234.179	518.38
234.413	507.38
234.647	492.38
234.881	501.38
235.115	527.38
235.349	551.38
235.583	554.38
235.817	605.38
236.051	658.38
236.285	624.38
236.519	600.38
236.753	716.38
236.987	932.38
237.221	1402.38
237.455	1503.38
237.689	916.38
237.922	744.38
238.156	722.38
238.39	695.38
238.624	665.38
238.858	651.38
239.091	669.38
239.325	676.38
239.559	688.38
239.793	703.38
240.027	784.38
240.26	943.38
240.494	998.38
240.728	962.38
240.961	923.38
241.195	826.38
241.429	767.38
241.662	774.38
241.896	782.38
242.13	780.38
242.363	776.38
242.597	790.38
242.83	832.38
243.064	827.38
243.298	834.38
243.531	828.38
243.765	818.38
243.998	846.38
244.232	881.38
244.465	895.38
244.699	897.38
244.932	906.38
245.166	922.38
245.399	906.38
245.633	929.38
245.866	889.38
246.099	910.38
246.333	938.38
246.566	951.38
246.8	991.38
247.033	1006.38
247.266	1056.38
247.5	1098.38
247.733	1157.38
247.966	1145.38
248.2	1145.38
248.433	1146.38
248.666	1226.38
248.899	1347.38
249.133	1456.38
249.366	1448.38
249.599	1309.38
249.832	1259.38
250.066	1226.38
250.299	1255.38
250.532	1356.38
250.765	1519.38
250.998	1736.38
251.231	1651.38
251.465	1527.38
251.698	1407.38
251.931	1414.38
252.164	1383.38
252.397	1431.38
252.63	1459.38
252.863	1556.38
253.096	1752.38
253.329	1776.38
253.562	1661.38
253.795	1581.38
254.028	1589.38
254.261	1650.38
254.494	1843.38
254.727	2178.38
254.96	2303.38
255.193	1929.38
255.426	1766.38
255.659	1613.38
255.892	1575.38
256.124	1546.38
256.357	1530.38
256.59	1513.38
256.823	1531.38
257.056	1504.38
257.289	1533.38
257.521	1568.38
257.754	1541.38
257.987	1560.38
258.22	1524.38
258.452	1527.38
258.685	1551.38
258.918	1565.38
259.151	1629.38
259.383	1735.38
259.616	1737.38
259.849	1814.38
260.081	1980.38
260.314	2140.38
260.547	2066.38
260.779	1839.38
261.012	1754.38
261.244	1747.38
261.477	1700.38
261.71	1729.38
261.942	1767.38
262.175	1767.38
262.407	1750.38
262.64	1655.38
262.872	1647.38
263.105	1662.38
263.337	1678.38
263.57	1686.38
263.802	1708.38
264.035	1701.38
264.267	1723.38
264.499	1719.38
264.732	1698.38
264.964	1699.38
265.197	1707.38
265.429	1708.38
265.661	1752.38
265.894	1737.38
266.126	1755.38
266.358	1772.38
266.591	1794.38
266.823	1884.38
267.055	1868.38
267.287	1898.38
267.52	1900.38
267.752	1846.38
267.984	1904.38
268.216	1940.38
268.448	1946.38
268.681	2012.38
268.913	2147.38
269.145	2375.38
269.377	2428.38
269.609	2343.38
269.841	2291.38
270.073	2399.38
270.306	2714.38
270.538	2880.38
270.77	2710.38
271.002	2542.38
271.234	2496.38
271.466	2640.38
271.698	2777.38
271.93	2809.38
272.162	2802.38
272.394	2707.38
272.626	2584.38
272.858	2436.38
273.09	2315.38
273.322	2270.38
273.553	2255.38
273.785	2291.38
274.017	2227.38
274.249	2276.38
274.481	2281.38
274.713	2283.38
274.945	2329.38
275.176	2309.38
275.408	2279.38
275.64	2279.38
275.872	2266.38
276.104	2288.38
276.335	2323.38
276.567	2411.38
276.799	2610.38
277.031	2817.38
277.262	2934.38
277.494	2768.38
277.726	2608.38
277.957	2531.38
278.189	2480.38
278.421	2420.38
278.652	2390.38
278.884	2398.38
279.115	2368.38
279.347	2413.38
279.579	2383.38
279.81	2396.38
280.042	2358.38
280.273	2404.38
280.505	2451.38
280.736	2436.38
280.968	2454.38
281.199	2435.38
281.431	2488.38
281.662	2456.38
281.894	2535.38
282.125	2525.38
282.356	2674.38
282.588	2913.38
282.819	2694.38
283.051	2611.38
283.282	2528.38
283.513	2591.38
283.745	2653.38
283.976	2686.38
284.207	2706.38
284.439	2608.38
284.67	2637.38
284.901	2655.38
285.132	2642.38
285.364	2612.38
285.595	2678.38
285.826	2695.38
286.057	2654.38
286.288	2686.38
286.52	2679.38
286.751	2703.38
286.982	2720.38
287.213	2760.38
287.444	2772.38
287.675	2825.38
287.906	2935.38
288.138	2971.38
288.369	2963.38
288.6	2956.38
288.831	2902.38
289.062	2879.38
289.293	2845.38
289.524	2879.38
289.755	2852.38
289.986	2847.38
290.217	2779.38
290.448	2852.38
290.679	2815.38
290.91	2830.38
291.141	2796.38
291.371	2865.38
291.602	2896.38
291.833	2818.38
292.064	2878.38
292.295	2867.38
292.526	2865.38
292.757	2864.38
292.987	2852.38
293.218	2839.38
293.449	2872.38
293.68	2894.38
293.91	2924.38
294.141	2888.38
294.372	2869.38
294.603	2908.38
294.833	2921.38
295.064	2923.38
295.295	2956.38
295.525	2953.38
295.756	3007.38
295.987	3034.38
296.217	3243.38
296.448	3191.38
296.679	2972.38
296.909	2972.38
297.14	3021.38
297.37	3044.38
297.601	3053.38
297.831	3059.38
298.062	3062.38
298.292	3151.38
298.523	3173.38
298.753	3202.38
298.984	3130.38
299.214	3128.38
299.445	3134.38
299.675	3163.38
299.905	3190.38
300.136	3172.38
300.366	3197.38
300.597	3220.38
300.827	3341.38
301.057	3414.38
301.288	3438.38
301.518	3437.38
301.748	3430.38
301.979	3442.38
302.209	3451.38
302.439	3415.38
302.669	3421.38
302.9	3376.38
303.13	3373.38
303.36	3368.38
303.59	3422.38
303.82	3382.38
304.051	3374.38
304.281	3399.38
304.511	3347.38
304.741	3329.38
304.971	3296.38
305.201	3334.38
305.431	3323.38
305.661	3307.38
305.891	3365.38
306.121	3338.38
306.352	3346.38
306.582	3338.38
306.812	3278.38
307.042	3354.38
307.272	3320.38
307.502	3293.38
307.731	3320.38
307.961	3310.38
308.191	3301.38
308.421	3319.38
308.651	3383.38
308.881	3312.38
309.111	3387.38
309.341	3414.38
309.571	3479.38
309.8	3581.38
310.03	3664.38
310.26	3612.38
310.49	3602.38
310.72	3736.38
310.949	3835.38
311.179	3814.38
311.409	3667.38
311.639	3731.38
311.868	3698.38
312.098	3756.38
312.328	3798.38
312.557	3984.38
312.787	4067.38
313.017	3898.38
313.246	3880.38
313.476	3762.38
313.706	3844.38
313.935	3906.38
314.165	4029.38
314.394	3975.38
314.624	3940.38
314.853	3819.38
315.083	3923.38
315.312	3827.38
315.542	3754.38
315.771	3706.38
316.001	3736.38
316.23	3707.38
316.46	3754.38
316.689	3771.38
316.919	3838.38
317.148	3839.38
317.377	3853.38
317.607	3786.38
317.836	3734.38
318.065	3772.38
318.295	3752.38
318.524	3763.38
318.753	3662.38
318.983	3721.38
319.212	3695.38
319.441	3818.38
319.67	3783.38
319.9	3758.38
320.129	3728.38
320.358	3796.38
320.587	3800.38
320.816	3816.38
321.046	3928.38
321.275	3838.38
321.504	3880.38
321.733	3890.38
321.962	3994.38
322.191	4010.38
322.42	4194.38
322.649	4244.38
322.878	4290.38
323.108	4284.38
323.337	4594.38
323.566	4712.38
323.795	4968.38
324.024	5567.38
324.253	7261.38
324.482	10798.38
324.71	15178.38
324.939	15616.38
325.168	13200.38
325.397	6647.38
325.626	5319.38
325.855	4819.38
326.084	4750.38
326.313	4792.38
326.542	4942.38
326.77	5548.38
326.999	6916.38
327.228	10192.38
327.457	14308.38
327.686	13662.38
327.914	7394.38
328.143	5992.38
328.372	5557.38
328.6	5254.38
328.829	5273.38
329.058	5346.38
329.287	5296.38
329.515	4998.38
329.744	4760.38
329.972	4761.38
330.201	4882.38
330.43	5035.38
330.658	5421.38
330.887	5740.38
331.115	5366.38
331.344	5051.38
331.572	4940.38
331.801	5007.38
332.03	5011.38
332.258	4967.38
332.486	5001.38
332.715	5021.38
332.943	5234.38
333.172	5402.38
333.4	5446.38
333.629	5570.38
333.857	5652.38
334.085	5554.38
334.314	5513.38
334.542	5324.38
334.771	5370.38
334.999	5261.38
335.227	5269.38
335.455	5130.38
335.684	5073.38
335.912	5089.38
336.14	5020.38
336.369	5003.38
336.597	5038.38
336.825	4971.38
337.053	4938.38
337.281	4809.38
337.51	4883.38
337.738	4885.38
337.966	4814.38
338.194	4829.38
338.422	4775.38
338.65	4682.38
338.878	4600.38
339.106	4582.38
339.334	4591.38
339.562	4458.38
339.79	4447.38
340.018	4451.38
340.246	4514.38
340.474	4471.38
340.702	4544.38
340.93	4436.38
341.158	4451.38
341.386	4460.38
341.614	4514.38
341.842	4433.38
342.07	4335.38
342.298	4368.38
342.526	4329.38
342.754	4301.38
342.981	4387.38
343.209	4472.38
343.437	4741.38
343.665	4983.38
343.893	5210.38
344.12	5277.38
344.348	5022.38
344.576	4836.38
344.804	4750.38
345.031	4719.38
345.259	4612.38
345.487	4494.38
345.714	4431.38
345.942	4242.38
346.17	4303.38
346.397	4263.38
346.625	4317.38
346.853	4249.38
347.08	4201.38
347.308	4292.38
347.535	4376.38
347.763	4431.38
347.99	4378.38
348.218	4349.38
348.445	4420.38
348.673	4343.38
348.9	4219.38
349.128	4190.38
349.355	4100.38
349.583	4210.38
349.81	4179.38
350.037	4166.38
350.265	4114.38
350.492	4087.38
350.72	4117.38
350.947	4147.38
351.174	4284.38
351.402	4278.38
351.629	4189.38
351.856	4338.38
352.083	4266.38
352.311	4278.38
352.538	4321.38
352.765	4286.38
352.992	4254.38
353.22	4158.38
353.447	4104.38
353.674	4069.38
353.901	4064.38
354.128	3969.38
354.355	4010.38
354.583	4016.38
354.81	4012.38
355.037	3988.38
355.264	4000.38
355.491	4022.38
355.718	3985.38
355.945	4010.38
356.172	4006.38
356.399	4041.38
356.626	4034.38
356.853	4038.38
357.08	3998.38
357.307	4034.38
357.534	3967.38
357.761	4008.38
357.988	4041.38
358.215	3999.38
358.441	4036.38
358.668	4069.38
358.895	4101.38
359.122	4154.38
359.349	4256.38
359.576	4351.38
359.802	4541.38
360.029	4692.38
360.256	4694.38
360.483	4406.38
360.709	4277.38
360.936	4296.38
361.163	4297.38
361.39	4319.38
361.616	4284.38
361.843	4218.38
362.07	4249.38
362.296	4283.38
362.523	4235.38
362.749	4243.38
362.976	4174.38
363.203	4162.38
363.429	4084.38
363.656	4144.38
363.882	4070.38
364.109	4076.38
364.335	4095.38
364.562	4064.38
364.788	4115.38
365.015	4111.38
365.241	4134.38
365.468	4154.38
365.694	4207.38
365.92	4173.38
366.147	4096.38
366.373	4111.38
366.599	4039.38
366.826	4091.38
367.052	4116.38
367.278	4142.38
367.505	4025.38
367.731	4153.38
367.957	4099.38
368.184	4196.38
368.41	4210.38
368.636	4316.38
368.862	4328.38
369.089	4188.38
369.315	4134.38
369.541	4180.38
369.767	4222.38
369.993	4224.38
370.219	4308.38
370.445	4212.38
370.672	4288.38
370.898	4400.38
371.124	4349.38
371.35	4424.38
371.576	4343.38
371.802	4278.38
372.028	4323.38
372.254	4378.38
372.48	4427.38
372.706	4539.38
372.932	4514.38
373.158	4461.38
373.384	4370.38
373.61	4379.38
373.835	4419.38
374.061	4382.38
374.287	4568.38
374.513	4548.38
374.739	4731.38
374.965	4792.38
375.191	4835.38
375.416	4715.38
375.642	4596.38
375.868	4582.38
376.094	4465.38
376.319	4414.38
376.545	4402.38
376.771	4391.38
376.997	4453.38
377.222	4443.38
377.448	4343.38
377.674	4370.38
377.899	4331.38
378.125	4386.38
378.35	4347.38
378.576	4342.38
378.802	4289.38
379.027	4292.38
379.253	4334.38
379.478	4307.38
379.704	4285.38
379.929	4375.38
380.155	4402.38
380.38	4360.38
380.606	4380.38
380.831	4388.38
381.057	4469.38
381.282	4394.38
381.507	4408.38
381.733	4414.38
381.958	4440.38
382.184	4578.38
382.409	4594.38
382.634	4616.38
382.86	4593.38
383.085	4690.38
383.31	4775.38
383.535	4826.38
383.761	4822.38
383.986	5000.38
384.211	5031.38
384.436	5042.38
384.662	5112.38
384.887	5281.38
385.112	5261.38
385.337	5290.38
385.562	5310.38
385.787	5378.38
386.013	5337.38
386.238	5354.38
386.463	5326.38
386.688	5333.38
386.913	5192.38
387.138	5235.38
387.363	5230.38
387.588	5144.38
387.813	5243.38
388.038	5214.38
388.263	5205.38
388.488	5222.38
388.713	5265.38
388.938	5227.38
389.163	5230.38
389.387	5216.38
389.612	5109.38
389.837	5199.38
390.062	5102.38
390.287	5148.38
390.512	5238.38
390.736	5209.38
390.961	5308.38
391.186	5445.38
391.411	5565.38
391.636	5716.38
391.86	5854.38
392.085	5882.38
392.31	5786.38
392.534	5660.38
392.759	5563.38
392.984	5467.38
393.208	5485.38
393.433	5440.38
393.658	5434.38
393.882	5504.38
394.107	5408.38
394.331	5530.38
394.556	5502.38
394.78	5557.38
395.005	5603.38
395.229	5620.38
395.454	5792.38
395.678	5871.38
395.903	5894.38
396.127	6048.38
396.352	5804.38
396.576	5613.38
396.801	5509.38
397.025	5610.38
397.249	5826.38
397.474	5862.38
397.698	5884.38
397.922	6064.38
398.147	6174.38
398.371	6279.38
398.595	6373.38
398.82	6679.38
399.044	7154.38
399.268	7966.38
399.492	9116.38
399.717	9809.38
399.941	9560.38
400.165	8917.38
400.389	8182.38
400.613	7390.38
400.837	6934.38
401.062	6838.38
401.286	6715.38
401.51	6577.38
401.734	6626.38
401.958	6678.38
402.182	6840.38
402.406	6929.38
402.63	7015.38
402.854	7156.38
403.078	7172.38
403.302	7286.38
403.526	7462.38
403.75	7533.38
403.974	7516.38
404.198	7492.38
404.422	7672.38
404.645	7515.38
404.869	7463.38
405.093	7536.38
405.317	7576.38
405.541	7626.38
405.765	7291.38
405.988	7314.38
406.212	7553.38
406.436	7694.38
406.66	7893.38
406.883	7763.38
407.107	8379.38
407.331	8934.38
407.555	9550.38
407.778	9166.38
408.002	8379.38
408.226	8036.38
408.449	7919.38
408.673	7858.38
408.896	7880.38
409.12	8187.38
409.344	7603.38
409.567	7319.38
409.791	7242.38
410.014	7130.38
410.238	7119.38
410.461	7092.38
410.685	7137.38
410.908	7314.38
411.132	7444.38
411.355	7570.38
411.578	7034.38
411.802	6839.38
412.025	6886.38
412.249	6903.38
412.472	6817.38
412.695	6766.38
412.919	6596.38
413.142	6538.38
413.365	6557.38
413.589	6538.38
413.812	6333.38
414.035	6428.38
414.258	6424.38
414.482	6535.38
414.705	6574.38
414.928	6500.38
415.151	6438.38
415.374	6555.38
415.597	6415.38
415.821	6384.38
416.044	6346.38
416.267	6283.38
416.49	6288.38
416.713	6255.38
416.936	6404.38
417.159	6371.38
417.382	6484.38
417.605	6478.38
417.828	6568.38
418.051	6787.38
418.274	6576.38
418.497	6603.38
418.72	6592.38
418.943	6588.38
419.166	6978.38
419.389	7410.38
419.611	7279.38
419.834	7061.38
420.057	6856.38
420.28	6682.38
420.503	6516.38
420.726	6523.38
420.948	6703.38
421.171	7166.38
421.394	7172.38
421.617	6614.38
421.839	6612.38
422.062	6691.38
422.285	6904.38
422.507	7515.38
422.73	8071.38
422.953	7436.38
423.175	7079.38
423.398	7140.38
423.621	7093.38
423.843	7437.38
424.066	7272.38
424.288	7158.38
424.511	7443.38
424.733	7842.38
424.956	8341.38
425.178	7870.38
425.401	8036.38
425.623	7949.38
425.846	6917.38
426.068	6785.38
426.291	6669.38
426.513	6660.38
426.735	6782.38
426.958	7270.38
427.18	8100.38
427.402	9180.38
427.625	9164.38
427.847	7710.38
428.069	6807.38
428.292	6496.38
428.514	6203.38
428.736	6026.38
428.958	6113.38
429.181	5878.38
429.403	5895.38
429.625	6078.38
429.847	6422.38
430.069	7068.38
430.292	6523.38
430.514	5989.38
430.736	5897.38
430.958	5851.38
431.18	5727.38
431.402	5754.38
431.624	5727.38
431.846	5794.38
432.068	5808.38
432.29	5983.38
432.512	5802.38
432.734	5941.38
432.956	5914.38
433.178	5965.38
433.4	5971.38
433.622	5839.38
433.844	5880.38
434.066	5962.38
434.287	6046.38
434.509	6235.38
434.731	6396.38
434.953	6603.38
435.175	6766.38
435.397	6870.38
435.618	6698.38
435.84	7176.38
436.062	8057.38
436.284	7840.38
436.505	6676.38
436.727	6417.38
436.949	6095.38
437.17	5946.38
437.392	5890.38
437.614	6028.38
437.835	6480.38
438.057	7515.38
438.278	8168.38
438.5	8058.38
438.721	8926.38
438.943	7835.38
439.165	6557.38
439.386	6383.38
439.608	6363.38
439.829	6426.38
440.05	6794.38
440.272	7157.38
440.493	6642.38
440.715	6355.38
440.936	6306.38
441.158	6274.38
441.379	6367.38
441.6	6765.38
441.822	6988.38
442.043	7498.38
442.264	8229.38
442.486	7982.38
442.707	7021.38
442.928	6792.38
443.149	7101.38
443.371	7343.38
443.592	7904.38
443.813	8900.38
444.034	8799.38
444.255	7678.38
444.476	7456.38
444.698	7655.38
444.919	7733.38
445.14	7544.38
445.361	7397.38
445.582	7608.38
445.803	8146.38
446.024	8797.38
446.245	8429.38
446.466	7609.38
446.687	6645.38
446.908	6212.38
447.129	5906.38
447.35	5732.38
447.571	5788.38
447.792	5647.38
448.013	5766.38
448.234	6036.38
448.455	6624.38
448.675	7876.38
448.896	8241.38
449.117	6947.38
449.338	7062.38
449.559	8482.38
449.779	8678.38
450	6579.38
450.221	5933.38
450.442	5644.38
450.662	5651.38
450.883	5674.38
451.104	5738.38
451.324	5647.38
451.545	5450.38
451.766	5253.38
451.986	5203.38
452.207	5160.38
452.428	5128.38
452.648	5132.38
452.869	5137.38
453.089	5266.38
453.31	5380.38
453.53	5156.38
453.751	5053.38
453.971	5117.38
454.192	5206.38
454.412	5090.38
454.633	5042.38
454.853	5075.38
455.073	5062.38
455.294	5456.38
455.514	5990.38
455.734	5507.38
455.955	4908.38
456.175	4828.38
456.395	4731.38
456.616	4756.38
456.836	4854.38
457.056	4758.38
457.276	4691.38
457.497	4814.38
457.717	4800.38
457.937	4887.38
458.157	4926.38
458.377	5092.38
458.598	5432.38
458.818	6128.38
459.038	6843.38
459.258	6766.38
459.478	6098.38
459.698	5922.38
459.918	5976.38
460.138	6282.38
460.358	6431.38
460.578	6484.38
460.798	6543.38
461.018	6444.38
461.238	6312.38
461.458	6333.38
461.678	6296.38
461.898	6431.38
462.118	6414.38
462.338	6905.38
462.558	6969.38
462.777	7293.38
462.997	7896.38
463.217	8258.38
463.437	7988.38
463.657	7435.38
463.876	7268.38
464.096	7320.38
464.316	7355.38
464.536	7351.38
464.755	7093.38
464.975	6962.38
465.195	7158.38
465.414	7155.38
465.634	6269.38
465.854	5996.38
466.073	5720.38
466.293	5609.38
466.512	5433.38
466.732	5375.38
466.951	5285.38
467.171	5321.38
467.391	5366.38
467.61	5375.38
467.829	5394.38
468.049	5234.38
468.268	5134.38
468.488	5062.38
468.707	5061.38
468.927	5044.38
469.146	5083.38
469.365	5162.38
469.585	5162.38
469.804	5337.38
470.023	5534.38
470.243	5486.38
470.462	5670.38
470.681	5784.38
470.901	5539.38
471.12	5442.38
471.339	5383.38
471.558	5346.38
471.777	5278.38
471.997	5102.38
472.216	5122.38
472.435	4998.38
472.654	5086.38
472.873	5044.38
473.092	4987.38
473.311	5090.38
473.53	5037.38
473.749	5181.38
473.968	5744.38
474.187	6854.38
474.406	6413.38
474.625	5415.38
474.844	5186.38
475.063	5090.38
475.282	5085.38
475.501	5135.38
475.72	5260.38
475.939	5246.38
476.158	5274.38
476.377	5243.38
476.596	5270.38
476.814	5464.38
477.033	5491.38
477.252	5540.38
477.471	5637.38
477.69	5758.38
477.908	5866.38
478.127	5938.38
478.346	6015.38
478.564	6134.38
478.783	6263.38
479.002	6470.38
479.22	6409.38
479.439	6615.38
479.658	6630.38
479.876	6662.38
480.095	6877.38
480.313	7348.38
480.532	7054.38
480.751	7005.38
480.969	6922.38
481.188	6751.38
481.406	6530.38
481.624	6428.38
481.843	6143.38
482.061	6082.38
482.28	5983.38
482.498	5995.38
482.717	5918.38
482.935	5964.38
483.153	5897.38
483.372	5983.38
483.59	5942.38
483.808	5956.38
484.027	6037.38
484.245	6040.38
484.463	6042.38
484.681	6186.38
484.9	6214.38
485.118	6144.38
485.336	6258.38
485.554	6334.38
485.772	6366.38
485.99	6397.38
486.209	6510.38
486.427	6423.38
486.645	6427.38
486.863	6631.38
487.081	6486.38
487.299	6495.38
487.517	6398.38
487.735	6354.38
487.953	6399.38
