Data from Uncirc_1996_H10_HRD10591_00096.txt Node
Date: Wed Jan 03 11:32:21 EST 2024
User: Yrep
Spectrometer: HR+D1059
Trigger mode: 1
Integration Time (sec): 1.000000E-1
Scans to average: 1
Electric dark correction enabled: true
Nonlinearity correction enabled: false
Boxcar width: 0
XAxis mode: Wavelengths
Number of Pixels in Spectrum: 2048
>>>>>Begin Spectral Data<<<<<
223.165	-14.62
223.4	-14.62
223.635	-14.62
223.869	-10.62
224.104	-6.62
224.338	-14.62
224.573	-18.62
224.808	-20.62
225.042	-11.62
225.277	-14.62
225.511	-1.62
225.746	2.38
225.98	12.38
226.215	0.38
226.449	19.38
226.683	11.38
226.918	32.38
227.152	35.38
227.387	25.38
227.621	46.38
227.856	40.38
228.09	45.38
228.324	50.38
228.559	58.38
228.793	64.38
229.027	64.38
229.262	53.38
229.496	68.38
229.73	77.38
229.964	79.38
230.199	77.38
230.433	88.38
230.667	67.38
230.901	67.38
231.136	82.38
231.37	63.38
231.604	65.38
231.838	84.38
232.072	74.38
232.306	83.38
232.541	81.38
232.775	91.38
233.009	80.38
233.243	84.38
233.477	71.38
233.711	81.38
233.945	94.38
234.179	94.38
234.413	74.38
234.647	75.38
234.881	83.38
235.115	84.38
235.349	80.38
235.583	83.38
235.817	74.38
236.051	77.38
236.285	69.38
236.519	86.38
236.753	71.38
236.987	75.38
237.221	92.38
237.455	98.38
237.689	66.38
237.922	65.38
238.156	71.38
238.39	79.38
238.624	72.38
238.858	86.38
239.091	76.38
239.325	87.38
239.559	89.38
239.793	73.38
240.027	73.38
240.26	80.38
240.494	73.38
240.728	77.38
240.961	83.38
241.195	74.38
241.429	79.38
241.662	87.38
241.896	77.38
242.13	65.38
242.363	77.38
242.597	80.38
242.83	84.38
243.064	87.38
243.298	79.38
243.531	51.38
243.765	76.38
243.998	81.38
244.232	81.38
244.465	78.38
244.699	88.38
244.932	79.38
245.166	88.38
245.399	83.38
245.633	81.38
245.866	74.38
246.099	87.38
246.333	85.38
246.566	68.38
246.8	79.38
247.033	77.38
247.266	91.38
247.5	84.38
247.733	84.38
247.966	77.38
248.2	76.38
248.433	75.38
248.666	76.38
248.899	68.38
249.133	92.38
249.366	87.38
249.599	85.38
249.832	84.38
250.066	84.38
250.299	84.38
250.532	88.38
250.765	81.38
250.998	83.38
251.231	83.38
251.465	87.38
251.698	75.38
251.931	87.38
252.164	77.38
252.397	76.38
252.63	73.38
252.863	87.38
253.096	86.38
253.329	75.38
253.562	92.38
253.795	96.38
254.028	88.38
254.261	84.38
254.494	72.38
254.727	96.38
254.96	93.38
255.193	89.38
255.426	63.38
255.659	83.38
255.892	77.38
256.124	90.38
256.357	84.38
256.59	82.38
256.823	76.38
257.056	87.38
257.289	88.38
257.521	81.38
257.754	81.38
257.987	88.38
258.22	88.38
258.452	97.38
258.685	81.38
258.918	67.38
259.151	73.38
259.383	79.38
259.616	72.38
259.849	83.38
260.081	85.38
260.314	92.38
260.547	79.38
260.779	75.38
261.012	88.38
261.244	89.38
261.477	77.38
261.71	90.38
261.942	99.38
262.175	107.38
262.407	83.38
262.64	83.38
262.872	83.38
263.105	96.38
263.337	83.38
263.57	81.38
263.802	98.38
264.035	79.38
264.267	83.38
264.499	75.38
264.732	87.38
264.964	75.38
265.197	96.38
265.429	96.38
265.661	90.38
265.894	84.38
266.126	79.38
266.358	81.38
266.591	88.38
266.823	107.38
267.055	83.38
267.287	95.38
267.52	83.38
267.752	73.38
267.984	89.38
268.216	81.38
268.448	98.38
268.681	85.38
268.913	81.38
269.145	83.38
269.377	76.38
269.609	73.38
269.841	80.38
270.073	78.38
270.306	94.38
270.538	83.38
270.77	93.38
271.002	84.38
271.234	75.38
271.466	100.38
271.698	83.38
271.93	77.38
272.162	94.38
272.394	96.38
272.626	84.38
272.858	85.38
273.09	84.38
273.322	81.38
273.553	98.38
273.785	89.38
274.017	82.38
274.249	90.38
274.481	86.38
274.713	86.38
274.945	105.38
275.176	90.38
275.408	85.38
275.64	89.38
275.872	81.38
276.104	92.38
276.335	87.38
276.567	96.38
276.799	115.38
277.031	99.38
277.262	94.38
277.494	91.38
277.726	81.38
277.957	97.38
278.189	110.38
278.421	75.38
278.652	73.38
278.884	88.38
279.115	80.38
279.347	75.38
279.579	73.38
279.81	87.38
280.042	92.38
280.273	79.38
280.505	69.38
280.736	91.38
280.968	82.38
281.199	100.38
281.431	78.38
281.662	88.38
281.894	80.38
282.125	104.38
282.356	116.38
282.588	150.38
282.819	113.38
283.051	98.38
283.282	90.38
283.513	87.38
283.745	78.38
283.976	100.38
284.207	97.38
284.439	104.38
284.67	94.38
284.901	88.38
285.132	85.38
285.364	85.38
285.595	89.38
285.826	71.38
286.057	84.38
286.288	87.38
286.52	84.38
286.751	87.38
286.982	91.38
287.213	86.38
287.444	94.38
287.675	92.38
287.906	95.38
288.138	97.38
288.369	76.38
288.6	88.38
288.831	91.38
289.062	95.38
289.293	98.38
289.524	82.38
289.755	89.38
289.986	91.38
290.217	81.38
290.448	103.38
290.679	79.38
290.91	88.38
291.141	93.38
291.371	89.38
291.602	85.38
291.833	98.38
292.064	75.38
292.295	87.38
292.526	90.38
292.757	88.38
292.987	79.38
293.218	85.38
293.449	93.38
293.68	94.38
293.91	90.38
294.141	94.38
294.372	87.38
294.603	82.38
294.833	84.38
295.064	86.38
295.295	100.38
295.525	92.38
295.756	96.38
295.987	113.38
296.217	127.38
296.448	128.38
296.679	81.38
296.909	95.38
297.14	92.38
297.37	104.38
297.601	90.38
297.831	89.38
298.062	82.38
298.292	90.38
298.523	79.38
298.753	94.38
298.984	85.38
299.214	84.38
299.445	92.38
299.675	89.38
299.905	100.38
300.136	112.38
300.366	90.38
300.597	91.38
300.827	88.38
301.057	86.38
301.288	96.38
301.518	93.38
301.748	87.38
301.979	98.38
302.209	91.38
302.439	92.38
302.669	97.38
302.9	85.38
303.13	80.38
303.36	95.38
303.59	109.38
303.82	100.38
304.051	85.38
304.281	82.38
304.511	105.38
304.741	91.38
304.971	95.38
305.201	92.38
305.431	78.38
305.661	80.38
305.891	89.38
306.121	104.38
306.352	79.38
306.582	88.38
306.812	104.38
307.042	88.38
307.272	94.38
307.502	103.38
307.731	82.38
307.961	101.38
308.191	102.38
308.421	91.38
308.651	91.38
308.881	96.38
309.111	96.38
309.341	88.38
309.571	105.38
309.8	103.38
310.03	94.38
310.26	96.38
310.49	92.38
310.72	99.38
310.949	99.38
311.179	88.38
311.409	107.38
311.639	93.38
311.868	95.38
312.098	95.38
312.328	95.38
312.557	93.38
312.787	112.38
313.017	107.38
313.246	96.38
313.476	101.38
313.706	91.38
313.935	97.38
314.165	97.38
314.394	97.38
314.624	100.38
314.853	106.38
315.083	103.38
315.312	80.38
315.542	103.38
315.771	93.38
316.001	79.38
316.23	80.38
316.46	93.38
316.689	101.38
316.919	95.38
317.148	99.38
317.377	83.38
317.607	95.38
317.836	98.38
318.065	95.38
318.295	82.38
318.524	96.38
318.753	103.38
318.983	90.38
319.212	105.38
319.441	101.38
319.67	106.38
319.9	95.38
320.129	97.38
320.358	96.38
320.587	93.38
320.816	94.38
321.046	112.38
321.275	97.38
321.504	90.38
321.733	102.38
321.962	92.38
322.191	100.38
322.42	106.38
322.649	115.38
322.878	112.38
323.108	119.38
323.337	139.38
323.566	140.38
323.795	162.38
324.024	202.38
324.253	396.38
324.482	836.38
324.71	1776.38
324.939	2293.38
325.168	853.38
325.397	258.38
325.626	139.38
325.855	108.38
326.084	122.38
326.313	133.38
326.542	144.38
326.77	238.38
326.999	481.38
327.228	1017.38
327.457	1796.38
327.686	1381.38
327.914	389.38
328.143	184.38
328.372	153.38
328.6	116.38
328.829	123.38
329.058	125.38
329.287	115.38
329.515	107.38
329.744	100.38
329.972	89.38
330.201	108.38
330.43	98.38
330.658	122.38
330.887	125.38
331.115	136.38
331.344	117.38
331.572	113.38
331.801	107.38
332.03	98.38
332.258	88.38
332.486	97.38
332.715	97.38
332.943	101.38
333.172	99.38
333.4	100.38
333.629	111.38
333.857	108.38
334.085	115.38
334.314	113.38
334.542	105.38
334.771	106.38
334.999	109.38
335.227	88.38
335.455	108.38
335.684	87.38
335.912	112.38
336.14	84.38
336.369	87.38
336.597	98.38
336.825	105.38
337.053	96.38
337.281	91.38
337.51	107.38
337.738	100.38
337.966	101.38
338.194	103.38
338.422	97.38
338.65	114.38
338.878	99.38
339.106	87.38
339.334	84.38
339.562	93.38
339.79	95.38
340.018	94.38
340.246	89.38
340.474	93.38
340.702	93.38
340.93	93.38
341.158	95.38
341.386	94.38
341.614	93.38
341.842	86.38
342.07	89.38
342.298	96.38
342.526	86.38
342.754	84.38
342.981	84.38
343.209	106.38
343.437	89.38
343.665	100.38
343.893	103.38
344.12	93.38
344.348	78.38
344.576	95.38
344.804	101.38
345.031	100.38
345.259	98.38
345.487	112.38
345.714	91.38
345.942	103.38
346.17	102.38
346.397	113.38
346.625	96.38
346.853	98.38
347.08	92.38
347.308	91.38
347.535	95.38
347.763	96.38
347.99	95.38
348.218	106.38
348.445	105.38
348.673	109.38
348.9	96.38
349.128	79.38
349.355	93.38
349.583	95.38
349.81	95.38
350.037	105.38
350.265	97.38
350.492	100.38
350.72	106.38
350.947	105.38
351.174	109.38
351.402	124.38
351.629	105.38
351.856	91.38
352.083	94.38
352.311	113.38
352.538	106.38
352.765	98.38
352.992	105.38
353.22	111.38
353.447	109.38
353.674	114.38
353.901	91.38
354.128	101.38
354.355	93.38
354.583	102.38
354.81	94.38
355.037	107.38
355.264	75.38
355.491	105.38
355.718	110.38
355.945	101.38
356.172	100.38
356.399	94.38
356.626	107.38
356.853	93.38
357.08	92.38
357.307	100.38
357.534	96.38
357.761	82.38
357.988	87.38
358.215	94.38
358.441	91.38
358.668	101.38
358.895	98.38
359.122	87.38
359.349	100.38
359.576	108.38
359.802	107.38
360.029	100.38
360.256	110.38
360.483	95.38
360.709	86.38
360.936	85.38
361.163	105.38
361.39	84.38
361.616	101.38
361.843	88.38
362.07	97.38
362.296	112.38
362.523	98.38
362.749	92.38
362.976	88.38
363.203	90.38
363.429	90.38
363.656	80.38
363.882	84.38
364.109	74.38
364.335	88.38
364.562	98.38
364.788	88.38
365.015	109.38
365.241	97.38
365.468	105.38
365.694	101.38
365.92	100.38
366.147	84.38
366.373	90.38
366.599	78.38
366.826	81.38
367.052	89.38
367.278	77.38
367.505	76.38
367.731	92.38
367.957	95.38
368.184	84.38
368.41	100.38
368.636	127.38
368.862	114.38
369.089	110.38
369.315	102.38
369.541	91.38
369.767	87.38
369.993	90.38
370.219	93.38
370.445	92.38
370.672	90.38
370.898	96.38
371.124	93.38
371.35	98.38
371.576	95.38
371.802	91.38
372.028	95.38
372.254	85.38
372.48	76.38
372.706	91.38
372.932	96.38
373.158	87.38
373.384	88.38
373.61	84.38
373.835	91.38
374.061	92.38
374.287	83.38
374.513	95.38
374.739	95.38
374.965	89.38
375.191	94.38
375.416	91.38
375.642	103.38
375.868	96.38
376.094	99.38
376.319	88.38
376.545	89.38
376.771	92.38
376.997	92.38
377.222	80.38
377.448	84.38
377.674	88.38
377.899	85.38
378.125	98.38
378.35	83.38
378.576	106.38
378.802	86.38
379.027	86.38
379.253	83.38
379.478	103.38
379.704	97.38
379.929	92.38
380.155	85.38
380.38	88.38
380.606	82.38
380.831	96.38
381.057	96.38
381.282	90.38
381.507	94.38
381.733	85.38
381.958	96.38
382.184	100.38
382.409	100.38
382.634	101.38
382.86	102.38
383.085	107.38
383.31	80.38
383.535	106.38
383.761	88.38
383.986	91.38
384.211	94.38
384.436	100.38
384.662	94.38
384.887	97.38
385.112	88.38
385.337	107.38
385.562	103.38
385.787	104.38
386.013	113.38
386.238	116.38
386.463	124.38
386.688	105.38
386.913	104.38
387.138	115.38
387.363	94.38
387.588	97.38
387.813	112.38
388.038	103.38
388.263	104.38
388.488	102.38
388.713	112.38
388.938	83.38
389.163	109.38
389.387	99.38
389.612	98.38
389.837	98.38
390.062	77.38
390.287	81.38
390.512	96.38
390.736	96.38
390.961	86.38
391.186	96.38
391.411	97.38
391.636	85.38
391.86	85.38
392.085	92.38
392.31	98.38
392.534	88.38
392.759	98.38
392.984	86.38
393.208	92.38
393.433	87.38
393.658	98.38
393.882	77.38
394.107	82.38
394.331	92.38
394.556	85.38
394.78	87.38
395.005	92.38
395.229	91.38
395.454	86.38
395.678	67.38
395.903	91.38
396.127	87.38
396.352	90.38
396.576	92.38
396.801	95.38
397.025	91.38
397.249	79.38
397.474	80.38
397.698	87.38
397.922	97.38
398.147	104.38
398.371	79.38
398.595	85.38
398.82	80.38
399.044	75.38
399.268	80.38
399.492	99.38
399.717	93.38
399.941	89.38
400.165	95.38
400.389	91.38
400.613	94.38
400.837	93.38
401.062	83.38
401.286	89.38
401.51	83.38
401.734	88.38
401.958	104.38
402.182	136.38
402.406	145.38
402.63	135.38
402.854	96.38
403.078	81.38
403.302	76.38
403.526	93.38
403.75	87.38
403.974	88.38
404.198	90.38
404.422	83.38
404.645	94.38
404.869	76.38
405.093	95.38
405.317	112.38
405.541	104.38
405.765	93.38
405.988	110.38
406.212	155.38
406.436	203.38
406.66	140.38
406.883	83.38
407.107	92.38
407.331	105.38
407.555	106.38
407.778	98.38
408.002	98.38
408.226	77.38
408.449	76.38
408.673	84.38
408.896	102.38
409.12	87.38
409.344	83.38
409.567	89.38
409.791	95.38
410.014	99.38
410.238	100.38
410.461	93.38
410.685	93.38
410.908	111.38
411.132	95.38
411.355	92.38
411.578	102.38
411.802	93.38
412.025	89.38
412.249	93.38
412.472	93.38
412.695	99.38
412.919	82.38
413.142	74.38
413.365	89.38
413.589	88.38
413.812	86.38
414.035	97.38
414.258	85.38
414.482	81.38
414.705	78.38
414.928	72.38
415.151	80.38
415.374	97.38
415.597	94.38
415.821	100.38
416.044	93.38
416.267	95.38
416.49	105.38
416.713	83.38
416.936	72.38
417.159	72.38
417.382	76.38
417.605	104.38
417.828	102.38
418.051	97.38
418.274	98.38
418.497	96.38
418.72	87.38
418.943	83.38
419.166	97.38
419.389	82.38
419.611	105.38
419.834	92.38
420.057	91.38
420.28	95.38
420.503	90.38
420.726	82.38
420.948	87.38
421.171	98.38
421.394	106.38
421.617	82.38
421.839	93.38
422.062	89.38
422.285	93.38
422.507	104.38
422.73	88.38
422.953	83.38
423.175	90.38
423.398	75.38
423.621	95.38
423.843	83.38
424.066	92.38
424.288	98.38
424.511	91.38
424.733	92.38
424.956	102.38
425.178	91.38
425.401	91.38
425.623	93.38
425.846	92.38
426.068	99.38
426.291	87.38
426.513	93.38
426.735	92.38
426.958	102.38
427.18	90.38
427.402	135.38
427.625	159.38
427.847	135.38
428.069	114.38
428.292	87.38
428.514	91.38
428.736	85.38
428.958	93.38
429.181	85.38
429.403	104.38
429.625	89.38
429.847	97.38
430.069	109.38
430.292	109.38
430.514	76.38
430.736	101.38
430.958	85.38
431.18	83.38
431.402	95.38
431.624	82.38
431.846	96.38
432.068	95.38
432.29	88.38
432.512	93.38
432.734	88.38
432.956	91.38
433.178	96.38
433.4	101.38
433.622	97.38
433.844	92.38
434.066	101.38
434.287	98.38
434.509	100.38
434.731	90.38
434.953	82.38
435.175	92.38
435.397	88.38
435.618	104.38
435.84	119.38
436.062	131.38
436.284	125.38
436.505	101.38
436.727	107.38
436.949	105.38
437.17	87.38
437.392	91.38
437.614	86.38
437.835	100.38
438.057	110.38
438.278	96.38
438.5	97.38
438.721	127.38
438.943	107.38
439.165	105.38
439.386	93.38
439.608	110.38
439.829	94.38
440.05	112.38
440.272	148.38
440.493	95.38
440.715	98.38
440.936	92.38
441.158	90.38
441.379	101.38
441.6	101.38
441.822	103.38
442.043	105.38
442.264	99.38
442.486	106.38
442.707	103.38
442.928	104.38
443.149	127.38
443.371	110.38
443.592	114.38
443.813	116.38
444.034	108.38
444.255	113.38
444.476	87.38
444.698	69.38
444.919	91.38
445.14	137.38
445.361	136.38
445.582	111.38
445.803	149.38
446.024	136.38
446.245	145.38
446.466	114.38
446.687	91.38
446.908	91.38
447.129	97.38
447.35	84.38
447.571	79.38
447.792	101.38
448.013	99.38
448.234	98.38
448.455	105.38
448.675	124.38
448.896	139.38
449.117	98.38
449.338	107.38
449.559	131.38
449.779	140.38
450	76.38
450.221	80.38
450.442	75.38
450.662	80.38
450.883	119.38
451.104	88.38
451.324	80.38
451.545	96.38
451.766	94.38
451.986	93.38
452.207	74.38
452.428	108.38
452.648	100.38
452.869	94.38
453.089	103.38
453.31	101.38
453.53	86.38
453.751	100.38
453.971	101.38
454.192	112.38
454.412	94.38
454.633	90.38
454.853	86.38
455.073	86.38
455.294	100.38
455.514	98.38
455.734	101.38
455.955	83.38
456.175	87.38
456.395	100.38
456.616	90.38
456.836	60.38
457.056	85.38
457.276	79.38
457.497	76.38
457.717	86.38
457.937	85.38
458.157	77.38
458.377	89.38
458.598	101.38
458.818	143.38
459.038	148.38
459.258	113.38
459.478	94.38
459.698	96.38
459.918	95.38
460.138	92.38
460.358	93.38
460.578	94.38
460.798	81.38
461.018	96.38
461.238	85.38
461.458	92.38
461.678	89.38
461.898	85.38
462.118	85.38
462.338	95.38
462.558	92.38
462.777	85.38
462.997	89.38
463.217	90.38
463.437	87.38
463.657	81.38
463.876	92.38
464.096	89.38
464.316	87.38
464.536	83.38
464.755	98.38
464.975	122.38
465.195	146.38
465.414	164.38
465.634	95.38
465.854	91.38
466.073	83.38
466.293	97.38
466.512	83.38
466.732	95.38
466.951	89.38
467.171	99.38
467.391	89.38
467.61	94.38
467.829	90.38
468.049	92.38
468.268	86.38
468.488	78.38
468.707	88.38
468.927	77.38
469.146	73.38
469.365	87.38
469.585	87.38
469.804	98.38
470.023	89.38
470.243	82.38
470.462	101.38
470.681	113.38
470.901	80.38
471.12	99.38
471.339	78.38
471.558	104.38
471.777	100.38
471.997	79.38
472.216	105.38
472.435	77.38
472.654	82.38
472.873	89.38
473.092	83.38
473.311	85.38
473.53	82.38
473.749	97.38
473.968	96.38
474.187	101.38
474.406	99.38
474.625	95.38
474.844	90.38
475.063	85.38
475.282	83.38
475.501	90.38
475.72	89.38
475.939	81.38
476.158	76.38
476.377	86.38
476.596	88.38
476.814	89.38
477.033	99.38
477.252	92.38
477.471	95.38
477.69	85.38
477.908	95.38
478.127	95.38
478.346	102.38
478.564	100.38
478.783	97.38
479.002	83.38
479.22	106.38
479.439	98.38
479.658	99.38
479.876	85.38
480.095	80.38
480.313	108.38
480.532	96.38
480.751	79.38
480.969	87.38
481.188	79.38
481.406	90.38
481.624	85.38
481.843	95.38
482.061	79.38
482.28	89.38
482.498	87.38
482.717	92.38
482.935	82.38
483.153	82.38
483.372	96.38
483.59	91.38
483.808	79.38
484.027	107.38
484.245	108.38
484.463	103.38
484.681	111.38
484.9	76.38
485.118	96.38
485.336	98.38
485.554	95.38
485.772	94.38
485.99	96.38
486.209	109.38
486.427	115.38
486.645	113.38
486.863	113.38
487.081	96.38
487.299	81.38
487.517	87.38
487.735	107.38
487.953	92.38
488.171	88.38
488.389	95.38
488.607	93.38
488.825	92.38
489.043	95.38
489.261	95.38
489.479	102.38
489.696	95.38
489.914	89.38
490.132	88.38
490.35	95.38
490.568	92.38
490.786	81.38
491.003	89.38
491.221	97.38
491.439	87.38
491.657	98.38
491.874	89.38
492.092	98.38
492.31	84.38
492.527	100.38
492.745	82.38
492.963	91.38
493.18	81.38
493.398	92.38
493.615	95.38
493.833	94.38
494.05	76.38
494.268	90.38
494.485	84.38
494.703	83.38
494.92	92.38
495.138	94.38
495.355	89.38
495.573	92.38
495.79	81.38
496.008	93.38
496.225	82.38
496.442	74.38
496.66	88.38
496.877	70.38
497.094	82.38
497.312	99.38
497.529	84.38
497.746	103.38
497.963	97.38
498.181	99.38
498.398	100.38
498.615	92.38
498.832	107.38
499.049	95.38
499.267	90.38
499.484	90.38
499.701	93.38
499.918	97.38
500.135	84.38
500.352	90.38
500.569	90.38
500.786	101.38
501.003	95.38
501.22	99.38
501.437	95.38
501.654	98.38
501.871	97.38
502.088	87.38
502.305	99.38
502.522	101.38
502.739	101.38
502.956	83.38
503.172	97.38
503.389	93.38
503.606	93.38
503.823	95.38
504.04	91.38
504.256	130.38
504.473	99.38
504.69	89.38
504.907	85.38
505.123	81.38
505.34	91.38
505.557	88.38
505.773	98.38
505.99	93.38
506.207	93.38
506.423	87.38
506.64	90.38
506.856	94.38
507.073	89.38
507.289	95.38
507.506	107.38
507.722	105.38
507.939	97.38
508.155	93.38
508.372	95.38
508.588	86.38
508.805	96.38
509.021	104.38
509.238	96.38
509.454	90.38
509.67	100.38
509.887	113.38
510.103	122.38
510.319	230.38
510.536	717.38
510.752	2259.38
510.968	619.38
511.184	156.38
511.401	116.38
511.617	90.38
511.833	96.38
512.049	91.38
512.265	100.38
512.481	98.38
512.698	98.38
512.914	98.38
513.13	84.38
513.346	106.38
513.562	99.38
513.778	86.38
513.994	79.38
514.21	102.38
514.426	122.38
514.642	136.38
514.858	115.38
515.074	167.38
515.29	425.38
