Data from Uncirc_1996_H10_HRD10591_00007.txt Node
Date: Wed Jan 03 11:32:03 EST 2024
User: Yrep
Spectrometer: HR+D1059
Trigger mode: 1
Integration Time (sec): 1.000000E-1
Scans to average: 1
Electric dark correction enabled: true
Nonlinearity correction enabled: false
Boxcar width: 0
XAxis mode: Wavelengths
Number of Pixels in Spectrum: 2048
>>>>>Begin Spectral Data<<<<<
223.165	-15.88
223.4	-15.88
223.635	-15.88
223.869	-23.88
224.104	-23.88
224.338	-18.88
224.573	-4.88
224.808	-17.88
225.042	1.12
225.277	-16.88
225.511	-18.88
225.746	-4.88
225.98	-5.88
226.215	19.12
226.449	35.12
226.683	34.12
226.918	30.12
227.152	32.12
227.387	33.12
227.621	43.12
227.856	45.12
228.09	54.12
228.324	72.12
228.559	51.12
228.793	52.12
229.027	50.12
229.262	63.12
229.496	70.12
229.73	91.12
229.964	86.12
230.199	82.12
230.433	78.12
230.667	79.12
230.901	84.12
231.136	75.12
231.37	75.12
231.604	81.12
231.838	88.12
232.072	81.12
232.306	67.12
232.541	60.12
232.775	76.12
233.009	84.12
233.243	65.12
233.477	86.12
233.711	75.12
233.945	69.12
234.179	71.12
234.413	83.12
234.647	77.12
234.881	76.12
235.115	81.12
235.349	72.12
235.583	77.12
235.817	73.12
236.051	82.12
236.285	79.12
236.519	83.12
236.753	73.12
236.987	84.12
237.221	86.12
237.455	81.12
237.689	77.12
237.922	69.12
238.156	79.12
238.39	86.12
238.624	82.12
238.858	83.12
239.091	83.12
239.325	88.12
239.559	77.12
239.793	75.12
240.027	84.12
240.26	78.12
240.494	77.12
240.728	87.12
240.961	75.12
241.195	73.12
241.429	73.12
241.662	88.12
241.896	76.12
242.13	80.12
242.363	67.12
242.597	63.12
242.83	73.12
243.064	63.12
243.298	77.12
243.531	74.12
243.765	80.12
243.998	75.12
244.232	75.12
244.465	72.12
244.699	87.12
244.932	71.12
245.166	68.12
245.399	77.12
245.633	67.12
245.866	65.12
246.099	77.12
246.333	65.12
246.566	71.12
246.8	69.12
247.033	77.12
247.266	72.12
247.5	83.12
247.733	72.12
247.966	74.12
248.2	83.12
248.433	93.12
248.666	71.12
248.899	76.12
249.133	81.12
249.366	89.12
249.599	86.12
249.832	73.12
250.066	86.12
250.299	73.12
250.532	82.12
250.765	75.12
250.998	83.12
251.231	79.12
251.465	81.12
251.698	78.12
251.931	84.12
252.164	60.12
252.397	62.12
252.63	74.12
252.863	70.12
253.096	65.12
253.329	98.12
253.562	82.12
253.795	86.12
254.028	86.12
254.261	76.12
254.494	81.12
254.727	100.12
254.96	80.12
255.193	84.12
255.426	77.12
255.659	81.12
255.892	73.12
256.124	71.12
256.357	85.12
256.59	73.12
256.823	76.12
257.056	72.12
257.289	77.12
257.521	84.12
257.754	76.12
257.987	78.12
258.22	70.12
258.452	62.12
258.685	81.12
258.918	70.12
259.151	72.12
259.383	79.12
259.616	76.12
259.849	75.12
260.081	90.12
260.314	88.12
260.547	63.12
260.779	87.12
261.012	94.12
261.244	84.12
261.477	86.12
261.71	71.12
261.942	98.12
262.175	101.12
262.407	77.12
262.64	87.12
262.872	77.12
263.105	80.12
263.337	85.12
263.57	83.12
263.802	87.12
264.035	83.12
264.267	64.12
264.499	78.12
264.732	87.12
264.964	69.12
265.197	88.12
265.429	76.12
265.661	79.12
265.894	74.12
266.126	82.12
266.358	71.12
266.591	77.12
266.823	105.12
267.055	76.12
267.287	88.12
267.52	86.12
267.752	77.12
267.984	91.12
268.216	92.12
268.448	101.12
268.681	89.12
268.913	83.12
269.145	83.12
269.377	73.12
269.609	87.12
269.841	84.12
270.073	80.12
270.306	84.12
270.538	80.12
270.77	91.12
271.002	87.12
271.234	84.12
271.466	75.12
271.698	74.12
271.93	74.12
272.162	82.12
272.394	91.12
272.626	97.12
272.858	76.12
273.09	83.12
273.322	84.12
273.553	72.12
273.785	94.12
274.017	74.12
274.249	79.12
274.481	99.12
274.713	91.12
274.945	87.12
275.176	97.12
275.408	93.12
275.64	79.12
275.872	93.12
276.104	79.12
276.335	74.12
276.567	91.12
276.799	105.12
277.031	88.12
277.262	79.12
277.494	85.12
277.726	78.12
277.957	69.12
278.189	78.12
278.421	73.12
278.652	84.12
278.884	86.12
279.115	76.12
279.347	83.12
279.579	75.12
279.81	84.12
280.042	75.12
280.273	84.12
280.505	92.12
280.736	85.12
280.968	80.12
281.199	84.12
281.431	73.12
281.662	83.12
281.894	87.12
282.125	90.12
282.356	88.12
282.588	124.12
282.819	107.12
283.051	85.12
283.282	75.12
283.513	91.12
283.745	89.12
283.976	76.12
284.207	69.12
284.439	85.12
284.67	85.12
284.901	76.12
285.132	79.12
285.364	91.12
285.595	94.12
285.826	84.12
286.057	79.12
286.288	91.12
286.52	69.12
286.751	71.12
286.982	76.12
287.213	88.12
287.444	85.12
287.675	83.12
287.906	91.12
288.138	88.12
288.369	81.12
288.6	76.12
288.831	82.12
289.062	88.12
289.293	97.12
289.524	78.12
289.755	84.12
289.986	82.12
290.217	73.12
290.448	76.12
290.679	88.12
290.91	89.12
291.141	90.12
291.371	86.12
291.602	79.12
291.833	86.12
292.064	90.12
292.295	87.12
292.526	87.12
292.757	73.12
292.987	85.12
293.218	89.12
293.449	85.12
293.68	89.12
293.91	85.12
294.141	83.12
294.372	82.12
294.603	76.12
294.833	92.12
295.064	82.12
295.295	90.12
295.525	96.12
295.756	92.12
295.987	101.12
296.217	129.12
296.448	109.12
296.679	92.12
296.909	85.12
297.14	77.12
297.37	75.12
297.601	67.12
297.831	77.12
298.062	82.12
298.292	88.12
298.523	87.12
298.753	96.12
298.984	81.12
299.214	79.12
299.445	87.12
299.675	97.12
299.905	100.12
300.136	76.12
300.366	102.12
300.597	79.12
300.827	97.12
301.057	91.12
301.288	102.12
301.518	83.12
301.748	93.12
301.979	107.12
302.209	79.12
302.439	75.12
302.669	91.12
302.9	93.12
303.13	90.12
303.36	92.12
303.59	93.12
303.82	103.12
304.051	89.12
304.281	84.12
304.511	95.12
304.741	85.12
304.971	88.12
305.201	91.12
305.431	93.12
305.661	96.12
305.891	94.12
306.121	83.12
306.352	95.12
306.582	89.12
306.812	90.12
307.042	89.12
307.272	88.12
307.502	70.12
307.731	95.12
307.961	95.12
308.191	86.12
308.421	90.12
308.651	73.12
308.881	99.12
309.111	100.12
309.341	96.12
309.571	102.12
309.8	104.12
310.03	86.12
310.26	101.12
310.49	91.12
310.72	108.12
310.949	92.12
311.179	94.12
311.409	91.12
311.639	89.12
311.868	96.12
312.098	96.12
312.328	95.12
312.557	92.12
312.787	99.12
313.017	98.12
313.246	101.12
313.476	80.12
313.706	94.12
313.935	107.12
314.165	100.12
314.394	116.12
314.624	98.12
314.853	89.12
315.083	98.12
315.312	81.12
315.542	77.12
315.771	92.12
316.001	82.12
316.23	91.12
316.46	88.12
316.689	88.12
316.919	96.12
317.148	94.12
317.377	101.12
317.607	90.12
317.836	88.12
318.065	85.12
318.295	79.12
318.524	92.12
318.753	78.12
318.983	81.12
319.212	88.12
319.441	101.12
319.67	106.12
319.9	107.12
320.129	93.12
320.358	80.12
320.587	97.12
320.816	104.12
321.046	111.12
321.275	112.12
321.504	94.12
321.733	95.12
321.962	101.12
322.191	97.12
322.42	106.12
322.649	103.12
322.878	103.12
323.108	103.12
323.337	111.12
323.566	137.12
323.795	168.12
324.024	198.12
324.253	394.12
324.482	799.12
324.71	1728.12
324.939	2277.12
325.168	852.12
325.397	238.12
325.626	169.12
325.855	151.12
326.084	123.12
326.313	133.12
326.542	148.12
326.77	229.12
326.999	442.12
327.228	958.12
327.457	1795.12
327.686	1457.12
327.914	413.12
328.143	229.12
328.372	192.12
328.6	121.12
328.829	93.12
329.058	110.12
329.287	128.12
329.515	104.12
329.744	83.12
329.972	88.12
330.201	99.12
330.43	99.12
330.658	111.12
330.887	122.12
331.115	120.12
331.344	91.12
331.572	101.12
331.801	119.12
332.03	96.12
332.258	100.12
332.486	94.12
332.715	85.12
332.943	78.12
333.172	99.12
333.4	93.12
333.629	98.12
333.857	94.12
334.085	94.12
334.314	93.12
334.542	100.12
334.771	98.12
334.999	88.12
335.227	77.12
335.455	87.12
335.684	88.12
335.912	94.12
336.14	92.12
336.369	96.12
336.597	79.12
336.825	84.12
337.053	87.12
337.281	99.12
337.51	83.12
337.738	98.12
337.966	96.12
338.194	126.12
338.422	138.12
338.65	122.12
338.878	97.12
339.106	94.12
339.334	79.12
339.562	79.12
339.79	81.12
340.018	87.12
340.246	90.12
340.474	104.12
340.702	80.12
340.93	80.12
341.158	91.12
341.386	93.12
341.614	84.12
341.842	98.12
342.07	91.12
342.298	85.12
342.526	78.12
342.754	91.12
342.981	97.12
343.209	99.12
343.437	98.12
343.665	94.12
343.893	90.12
344.12	98.12
344.348	89.12
344.576	74.12
344.804	76.12
345.031	79.12
345.259	97.12
345.487	82.12
345.714	96.12
345.942	88.12
346.17	79.12
346.397	95.12
346.625	95.12
346.853	98.12
347.08	89.12
347.308	93.12
347.535	103.12
347.763	91.12
347.99	104.12
348.218	101.12
348.445	111.12
348.673	103.12
348.9	84.12
349.128	97.12
349.355	97.12
349.583	101.12
349.81	91.12
350.037	102.12
350.265	88.12
350.492	100.12
350.72	101.12
350.947	104.12
351.174	102.12
351.402	106.12
351.629	104.12
351.856	91.12
352.083	104.12
352.311	100.12
352.538	99.12
352.765	102.12
352.992	100.12
353.22	102.12
353.447	98.12
353.674	107.12
353.901	81.12
354.128	94.12
354.355	101.12
354.583	94.12
354.81	99.12
355.037	89.12
355.264	85.12
355.491	91.12
355.718	91.12
355.945	74.12
356.172	109.12
356.399	93.12
356.626	87.12
356.853	78.12
357.08	102.12
357.307	75.12
357.534	96.12
357.761	91.12
357.988	88.12
358.215	93.12
358.441	81.12
358.668	89.12
358.895	88.12
359.122	97.12
359.349	78.12
359.576	101.12
359.802	93.12
360.029	94.12
360.256	95.12
360.483	97.12
360.709	79.12
360.936	87.12
361.163	83.12
361.39	84.12
361.616	97.12
361.843	96.12
362.07	92.12
362.296	92.12
362.523	92.12
362.749	89.12
362.976	94.12
363.203	106.12
363.429	95.12
363.656	84.12
363.882	72.12
364.109	84.12
364.335	84.12
364.562	93.12
364.788	93.12
365.015	74.12
365.241	99.12
365.468	96.12
365.694	98.12
365.92	100.12
366.147	76.12
366.373	88.12
366.599	81.12
366.826	100.12
367.052	81.12
367.278	95.12
367.505	96.12
367.731	72.12
367.957	93.12
368.184	83.12
368.41	94.12
368.636	90.12
368.862	122.12
369.089	112.12
369.315	99.12
369.541	90.12
369.767	81.12
369.993	92.12
370.219	99.12
370.445	89.12
370.672	87.12
370.898	82.12
371.124	100.12
371.35	92.12
371.576	85.12
371.802	92.12
372.028	68.12
372.254	100.12
372.48	95.12
372.706	87.12
372.932	80.12
373.158	100.12
373.384	98.12
373.61	89.12
373.835	75.12
374.061	86.12
374.287	88.12
374.513	102.12
374.739	88.12
374.965	81.12
375.191	85.12
375.416	95.12
375.642	90.12
375.868	96.12
376.094	96.12
376.319	92.12
376.545	103.12
376.771	95.12
376.997	87.12
377.222	84.12
377.448	94.12
377.674	84.12
377.899	86.12
378.125	92.12
378.35	75.12
378.576	99.12
378.802	92.12
379.027	97.12
379.253	91.12
379.478	101.12
379.704	97.12
379.929	99.12
380.155	101.12
380.38	92.12
380.606	90.12
380.831	99.12
381.057	94.12
381.282	93.12
381.507	95.12
381.733	95.12
381.958	96.12
382.184	95.12
382.409	98.12
382.634	102.12
382.86	104.12
383.085	103.12
383.31	87.12
383.535	112.12
383.761	90.12
383.986	104.12
384.211	90.12
384.436	94.12
384.662	100.12
384.887	105.12
385.112	92.12
385.337	108.12
385.562	98.12
385.787	86.12
386.013	102.12
386.238	110.12
386.463	109.12
386.688	101.12
386.913	97.12
387.138	110.12
387.363	104.12
387.588	92.12
387.813	108.12
388.038	99.12
388.263	112.12
388.488	93.12
388.713	89.12
388.938	93.12
389.163	101.12
389.387	97.12
389.612	95.12
389.837	79.12
390.062	89.12
390.287	94.12
390.512	91.12
390.736	78.12
390.961	94.12
391.186	93.12
391.411	84.12
391.636	96.12
391.86	78.12
392.085	87.12
392.31	79.12
392.534	91.12
392.759	71.12
392.984	87.12
393.208	86.12
393.433	108.12
393.658	98.12
393.882	81.12
394.107	91.12
394.331	80.12
394.556	84.12
394.78	81.12
395.005	83.12
395.229	77.12
395.454	111.12
395.678	88.12
395.903	85.12
396.127	82.12
396.352	80.12
396.576	79.12
396.801	93.12
397.025	103.12
397.249	104.12
397.474	87.12
397.698	87.12
397.922	77.12
398.147	85.12
398.371	86.12
398.595	95.12
398.82	85.12
399.044	85.12
399.268	73.12
399.492	64.12
399.717	95.12
399.941	83.12
400.165	104.12
400.389	96.12
400.613	78.12
400.837	87.12
401.062	78.12
401.286	80.12
401.51	85.12
401.734	86.12
401.958	100.12
402.182	110.12
402.406	150.12
402.63	108.12
402.854	87.12
403.078	87.12
403.302	96.12
403.526	93.12
403.75	84.12
403.974	95.12
404.198	92.12
404.422	89.12
404.645	88.12
404.869	85.12
405.093	87.12
405.317	88.12
405.541	91.12
405.765	92.12
405.988	118.12
406.212	147.12
406.436	203.12
406.66	128.12
406.883	110.12
407.107	99.12
407.331	94.12
407.555	98.12
407.778	96.12
408.002	99.12
408.226	83.12
408.449	81.12
408.673	84.12
408.896	97.12
409.12	102.12
409.344	91.12
409.567	68.12
409.791	88.12
410.014	84.12
410.238	97.12
410.461	95.12
410.685	93.12
410.908	88.12
411.132	105.12
411.355	91.12
411.578	100.12
411.802	101.12
412.025	92.12
412.249	87.12
412.472	87.12
412.695	87.12
412.919	81.12
413.142	79.12
413.365	88.12
413.589	80.12
413.812	93.12
414.035	86.12
414.258	72.12
414.482	77.12
414.705	93.12
414.928	93.12
415.151	85.12
415.374	97.12
415.597	85.12
415.821	84.12
416.044	91.12
416.267	90.12
416.49	78.12
416.713	87.12
416.936	97.12
417.159	83.12
417.382	85.12
417.605	76.12
417.828	86.12
418.051	92.12
418.274	79.12
418.497	100.12
418.72	87.12
418.943	91.12
419.166	83.12
419.389	101.12
419.611	73.12
419.834	80.12
420.057	82.12
420.28	89.12
420.503	71.12
420.726	87.12
420.948	94.12
421.171	106.12
421.394	96.12
421.617	88.12
421.839	87.12
422.062	88.12
422.285	108.12
422.507	105.12
422.73	108.12
422.953	101.12
423.175	76.12
423.398	80.12
423.621	88.12
423.843	76.12
424.066	78.12
424.288	82.12
424.511	95.12
424.733	101.12
424.956	102.12
425.178	75.12
425.401	93.12
425.623	88.12
425.846	84.12
426.068	82.12
426.291	79.12
426.513	88.12
426.735	77.12
426.958	99.12
427.18	104.12
427.402	131.12
427.625	156.12
427.847	120.12
428.069	102.12
428.292	88.12
428.514	73.12
428.736	83.12
428.958	79.12
429.181	76.12
429.403	83.12
429.625	85.12
429.847	84.12
430.069	100.12
430.292	93.12
430.514	95.12
430.736	85.12
430.958	88.12
431.18	90.12
431.402	79.12
431.624	85.12
431.846	88.12
432.068	86.12
432.29	77.12
432.512	79.12
432.734	79.12
432.956	85.12
433.178	92.12
433.4	111.12
433.622	85.12
433.844	91.12
434.066	89.12
434.287	90.12
434.509	75.12
434.731	96.12
434.953	89.12
435.175	79.12
435.397	75.12
435.618	103.12
435.84	105.12
436.062	137.12
436.284	103.12
436.505	99.12
436.727	79.12
436.949	94.12
437.17	91.12
437.392	87.12
437.614	94.12
437.835	109.12
438.057	108.12
438.278	105.12
438.5	107.12
438.721	134.12
438.943	93.12
439.165	98.12
439.386	85.12
439.608	84.12
439.829	91.12
440.05	111.12
440.272	133.12
440.493	91.12
440.715	85.12
440.936	83.12
441.158	85.12
441.379	96.12
441.6	95.12
441.822	102.12
442.043	96.12
442.264	104.12
442.486	94.12
442.707	94.12
442.928	95.12
443.149	130.12
443.371	123.12
443.592	114.12
443.813	115.12
444.034	106.12
444.255	91.12
444.476	81.12
444.698	80.12
444.919	89.12
445.14	134.12
445.361	123.12
445.582	121.12
445.803	152.12
446.024	149.12
446.245	131.12
446.466	123.12
446.687	83.12
446.908	90.12
447.129	71.12
447.35	73.12
447.571	106.12
447.792	95.12
448.013	87.12
448.234	100.12
448.455	100.12
448.675	118.12
448.896	133.12
449.117	101.12
449.338	104.12
449.559	143.12
449.779	151.12
450	97.12
450.221	90.12
450.442	70.12
450.662	88.12
450.883	103.12
451.104	103.12
451.324	78.12
451.545	72.12
451.766	86.12
451.986	87.12
452.207	96.12
452.428	97.12
452.648	100.12
452.869	94.12
453.089	115.12
453.31	112.12
453.53	83.12
453.751	79.12
453.971	94.12
454.192	87.12
454.412	73.12
454.633	70.12
454.853	86.12
455.073	94.12
455.294	106.12
455.514	91.12
455.734	81.12
455.955	73.12
456.175	89.12
456.395	75.12
456.616	83.12
456.836	87.12
457.056	76.12
457.276	85.12
457.497	87.12
457.717	84.12
457.937	93.12
458.157	84.12
458.377	91.12
458.598	93.12
458.818	155.12
459.038	161.12
459.258	116.12
459.478	74.12
459.698	70.12
459.918	85.12
460.138	86.12
460.358	78.12
460.578	91.12
460.798	87.12
461.018	85.12
461.238	98.12
461.458	80.12
461.678	97.12
461.898	86.12
462.118	80.12
462.338	83.12
462.558	90.12
462.777	93.12
462.997	98.12
463.217	92.12
463.437	78.12
463.657	83.12
463.876	80.12
464.096	83.12
464.316	102.12
464.536	103.12
464.755	95.12
464.975	99.12
465.195	149.12
465.414	146.12
465.634	96.12
465.854	89.12
466.073	94.12
466.293	92.12
466.512	79.12
466.732	89.12
466.951	74.12
467.171	87.12
467.391	81.12
467.61	88.12
467.829	85.12
468.049	72.12
468.268	93.12
468.488	87.12
468.707	92.12
468.927	82.12
469.146	88.12
469.365	101.12
469.585	80.12
469.804	91.12
470.023	84.12
470.243	102.12
470.462	93.12
470.681	120.12
470.901	84.12
471.12	76.12
471.339	83.12
471.558	83.12
471.777	86.12
471.997	77.12
472.216	81.12
472.435	80.12
472.654	74.12
472.873	80.12
473.092	76.12
473.311	77.12
473.53	84.12
473.749	75.12
473.968	101.12
474.187	104.12
474.406	95.12
474.625	85.12
474.844	91.12
475.063	82.12
475.282	78.12
475.501	81.12
475.72	97.12
475.939	68.12
476.158	91.12
476.377	88.12
476.596	94.12
476.814	81.12
477.033	81.12
477.252	95.12
477.471	79.12
477.69	83.12
477.908	85.12
478.127	95.12
478.346	76.12
478.564	94.12
478.783	96.12
479.002	77.12
479.22	95.12
479.439	93.12
479.658	90.12
479.876	83.12
480.095	96.12
480.313	91.12
480.532	87.12
480.751	92.12
480.969	78.12
481.188	101.12
481.406	82.12
481.624	88.12
481.843	92.12
482.061	86.12
482.28	88.12
482.498	81.12
482.717	88.12
482.935	90.12
483.153	77.12
483.372	103.12
483.59	88.12
483.808	88.12
484.027	88.12
484.245	97.12
484.463	88.12
484.681	85.12
484.9	96.12
485.118	82.12
485.336	101.12
485.554	110.12
485.772	106.12
485.99	95.12
486.209	106.12
486.427	97.12
486.645	110.12
486.863	98.12
487.081	119.12
487.299	88.12
487.517	88.12
487.735	97.12
487.953	92.12
488.171	89.12
488.389	97.12
488.607	97.12
488.825	86.12
489.043	91.12
489.261	89.12
489.479	91.12
489.696	92.12
489.914	100.12
490.132	93.12
490.35	90.12
490.568	79.12
490.786	72.12
491.003	84.12
491.221	83.12
491.439	103.12
491.657	101.12
491.874	95.12
492.092	80.12
492.31	74.12
492.527	87.12
492.745	82.12
492.963	69.12
493.18	97.12
493.398	84.12
493.615	105.12
493.833	105.12
494.05	95.12
494.268	81.12
494.485	94.12
494.703	87.12
494.92	85.12
495.138	75.12
495.355	97.12
495.573	91.12
495.79	99.12
496.008	95.12
496.225	107.12
496.442	97.12
496.66	109.12
496.877	85.12
497.094	85.12
497.312	92.12
497.529	101.12
497.746	79.12
497.963	93.12
498.181	80.12
498.398	95.12
498.615	101.12
498.832	93.12
499.049	87.12
499.267	86.12
499.484	89.12
499.701	89.12
499.918	88.12
500.135	88.12
500.352	77.12
500.569	73.12
500.786	79.12
501.003	77.12
501.22	97.12
501.437	78.12
501.654	94.12
501.871	105.12
502.088	86.12
502.305	91.12
502.522	85.12
502.739	85.12
502.956	88.12
503.172	90.12
503.389	97.12
503.606	113.12
503.823	91.12
504.04	91.12
504.256	94.12
504.473	95.12
504.69	90.12
504.907	92.12
505.123	98.12
505.34	96.12
505.557	91.12
505.773	92.12
505.99	95.12
506.207	94.12
506.423	93.12
506.64	84.12
506.856	74.12
507.073	98.12
507.289	95.12
507.506	83.12
507.722	112.12
507.939	111.12
508.155	100.12
508.372	99.12
508.588	84.12
508.805	98.12
509.021	97.12
509.238	109.12
509.454	105.12
509.67	94.12
509.887	103.12
510.103	128.12
510.319	189.12
510.536	635.12
510.752	1970.12
510.968	570.12
511.184	154.12
511.401	101.12
511.617	89.12
511.833	90.12
512.049	79.12
512.265	85.12
512.481	79.12
512.698	97.12
512.914	91.12
513.13	100.12
513.346	90.12
513.562	95.12
513.778	100.12
513.994	87.12
514.21	98.12
514.426	113.12
514.642	129.12
514.858	129.12
515.074	152.12
515.29	427.12
515.506	1347.12
515.721	514.12
515.937	139.12
516.153	103.12
516.369	108.12
