Data from Uncirc_1996_H10_HRD10591_00079.txt Node
Date: Wed Jan 03 11:32:18 EST 2024
User: Yrep
Spectrometer: HR+D1059
Trigger mode: 1
Integration Time (sec): 1.000000E-1
Scans to average: 1
Electric dark correction enabled: true
Nonlinearity correction enabled: false
Boxcar width: 0
XAxis mode: Wavelengths
Number of Pixels in Spectrum: 2048
>>>>>Begin Spectral Data<<<<<
223.165	-20.56
223.4	-20.56
223.635	-20.56
223.869	-23.56
224.104	-24.56
224.338	-16.56
224.573	-14.56
224.808	-3.56
225.042	-5.56
225.277	-0.56
225.511	7.44
225.746	-0.56
225.98	-5.56
226.215	12.44
226.449	14.44
226.683	14.44
226.918	30.44
227.152	36.44
227.387	34.44
227.621	42.44
227.856	48.44
228.09	55.44
228.324	66.44
228.559	48.44
228.793	70.44
229.027	70.44
229.262	66.44
229.496	75.44
229.73	88.44
229.964	75.44
230.199	74.44
230.433	66.44
230.667	67.44
230.901	65.44
231.136	73.44
231.37	80.44
231.604	83.44
231.838	91.44
232.072	90.44
232.306	82.44
232.541	80.44
232.775	99.44
233.009	82.44
233.243	77.44
233.477	84.44
233.711	80.44
233.945	84.44
234.179	60.44
234.413	77.44
234.647	74.44
234.881	82.44
235.115	83.44
235.349	90.44
235.583	65.44
235.817	83.44
236.051	70.44
236.285	89.44
236.519	73.44
236.753	92.44
236.987	74.44
237.221	77.44
237.455	65.44
237.689	78.44
237.922	78.44
238.156	65.44
238.39	71.44
238.624	68.44
238.858	92.44
239.091	91.44
239.325	88.44
239.559	63.44
239.793	67.44
240.027	84.44
240.26	73.44
240.494	66.44
240.728	65.44
240.961	71.44
241.195	75.44
241.429	75.44
241.662	63.44
241.896	70.44
242.13	58.44
242.363	78.44
242.597	67.44
242.83	77.44
243.064	75.44
243.298	76.44
243.531	79.44
243.765	95.44
243.998	72.44
244.232	82.44
244.465	78.44
244.699	70.44
244.932	80.44
245.166	72.44
245.399	71.44
245.633	78.44
245.866	86.44
246.099	78.44
246.333	79.44
246.566	87.44
246.8	73.44
247.033	88.44
247.266	79.44
247.5	70.44
247.733	90.44
247.966	69.44
248.2	84.44
248.433	78.44
248.666	86.44
248.899	80.44
249.133	89.44
249.366	108.44
249.599	111.44
249.832	90.44
250.066	90.44
250.299	87.44
250.532	86.44
250.765	80.44
250.998	78.44
251.231	91.44
251.465	90.44
251.698	72.44
251.931	79.44
252.164	77.44
252.397	71.44
252.63	75.44
252.863	85.44
253.096	84.44
253.329	85.44
253.562	76.44
253.795	74.44
254.028	81.44
254.261	62.44
254.494	78.44
254.727	76.44
254.96	72.44
255.193	79.44
255.426	73.44
255.659	89.44
255.892	82.44
256.124	75.44
256.357	84.44
256.59	81.44
256.823	88.44
257.056	82.44
257.289	78.44
257.521	85.44
257.754	81.44
257.987	83.44
258.22	85.44
258.452	80.44
258.685	80.44
258.918	81.44
259.151	72.44
259.383	74.44
259.616	85.44
259.849	78.44
260.081	78.44
260.314	83.44
260.547	80.44
260.779	87.44
261.012	79.44
261.244	88.44
261.477	92.44
261.71	79.44
261.942	78.44
262.175	86.44
262.407	89.44
262.64	83.44
262.872	83.44
263.105	96.44
263.337	91.44
263.57	91.44
263.802	78.44
264.035	78.44
264.267	78.44
264.499	91.44
264.732	93.44
264.964	75.44
265.197	88.44
265.429	94.44
265.661	86.44
265.894	68.44
266.126	72.44
266.358	76.44
266.591	88.44
266.823	81.44
267.055	89.44
267.287	86.44
267.52	79.44
267.752	82.44
267.984	83.44
268.216	92.44
268.448	72.44
268.681	79.44
268.913	83.44
269.145	75.44
269.377	70.44
269.609	82.44
269.841	99.44
270.073	84.44
270.306	91.44
270.538	93.44
270.77	78.44
271.002	75.44
271.234	82.44
271.466	90.44
271.698	83.44
271.93	62.44
272.162	85.44
272.394	80.44
272.626	81.44
272.858	82.44
273.09	95.44
273.322	102.44
273.553	82.44
273.785	71.44
274.017	96.44
274.249	91.44
274.481	84.44
274.713	98.44
274.945	92.44
275.176	85.44
275.408	87.44
275.64	91.44
275.872	88.44
276.104	82.44
276.335	95.44
276.567	105.44
276.799	99.44
277.031	98.44
277.262	81.44
277.494	83.44
277.726	79.44
277.957	80.44
278.189	94.44
278.421	79.44
278.652	76.44
278.884	87.44
279.115	83.44
279.347	86.44
279.579	93.44
279.81	95.44
280.042	81.44
280.273	86.44
280.505	80.44
280.736	83.44
280.968	76.44
281.199	91.44
281.431	105.44
281.662	92.44
281.894	94.44
282.125	111.44
282.356	108.44
282.588	123.44
282.819	115.44
283.051	97.44
283.282	86.44
283.513	97.44
283.745	90.44
283.976	86.44
284.207	89.44
284.439	78.44
284.67	86.44
284.901	72.44
285.132	95.44
285.364	104.44
285.595	89.44
285.826	93.44
286.057	95.44
286.288	79.44
286.52	70.44
286.751	74.44
286.982	85.44
287.213	88.44
287.444	86.44
287.675	79.44
287.906	98.44
288.138	88.44
288.369	104.44
288.6	97.44
288.831	88.44
289.062	90.44
289.293	100.44
289.524	81.44
289.755	95.44
289.986	82.44
290.217	102.44
290.448	77.44
290.679	84.44
290.91	96.44
291.141	94.44
291.371	83.44
291.602	88.44
291.833	92.44
292.064	93.44
292.295	98.44
292.526	78.44
292.757	82.44
292.987	88.44
293.218	85.44
293.449	88.44
293.68	94.44
293.91	93.44
294.141	86.44
294.372	99.44
294.603	85.44
294.833	79.44
295.064	84.44
295.295	87.44
295.525	93.44
295.756	104.44
295.987	110.44
296.217	125.44
296.448	133.44
296.679	99.44
296.909	80.44
297.14	92.44
297.37	86.44
297.601	80.44
297.831	85.44
298.062	96.44
298.292	86.44
298.523	87.44
298.753	81.44
298.984	100.44
299.214	87.44
299.445	86.44
299.675	107.44
299.905	107.44
300.136	95.44
300.366	82.44
300.597	85.44
300.827	93.44
301.057	98.44
301.288	105.44
301.518	91.44
301.748	96.44
301.979	107.44
302.209	82.44
302.439	72.44
302.669	101.44
302.9	79.44
303.13	91.44
303.36	96.44
303.59	101.44
303.82	111.44
304.051	96.44
304.281	91.44
304.511	89.44
304.741	78.44
304.971	92.44
305.201	94.44
305.431	88.44
305.661	90.44
305.891	99.44
306.121	97.44
306.352	106.44
306.582	86.44
306.812	97.44
307.042	89.44
307.272	83.44
307.502	107.44
307.731	90.44
307.961	98.44
308.191	101.44
308.421	91.44
308.651	91.44
308.881	92.44
309.111	93.44
309.341	93.44
309.571	103.44
309.8	93.44
310.03	92.44
310.26	74.44
310.49	96.44
310.72	96.44
310.949	98.44
311.179	100.44
311.409	107.44
311.639	111.44
311.868	108.44
312.098	102.44
312.328	108.44
312.557	91.44
312.787	88.44
313.017	98.44
313.246	90.44
313.476	86.44
313.706	84.44
313.935	106.44
314.165	123.44
314.394	104.44
314.624	97.44
314.853	102.44
315.083	100.44
315.312	88.44
315.542	76.44
315.771	83.44
316.001	90.44
316.23	88.44
316.46	93.44
316.689	95.44
316.919	90.44
317.148	94.44
317.377	96.44
317.607	87.44
317.836	94.44
318.065	88.44
318.295	84.44
318.524	88.44
318.753	93.44
318.983	96.44
319.212	98.44
319.441	105.44
319.67	98.44
319.9	86.44
320.129	98.44
320.358	100.44
320.587	98.44
320.816	98.44
321.046	104.44
321.275	90.44
321.504	102.44
321.733	111.44
321.962	104.44
322.191	94.44
322.42	95.44
322.649	103.44
322.878	106.44
323.108	102.44
323.337	113.44
323.566	124.44
323.795	134.44
324.024	196.44
324.253	373.44
324.482	762.44
324.71	1589.44
324.939	2083.44
325.168	761.44
325.397	230.44
325.626	142.44
325.855	123.44
326.084	128.44
326.313	134.44
326.542	151.44
326.77	194.44
326.999	433.44
327.228	847.44
327.457	1619.44
327.686	1299.44
327.914	365.44
328.143	180.44
328.372	141.44
328.6	126.44
328.829	116.44
329.058	121.44
329.287	132.44
329.515	105.44
329.744	95.44
329.972	99.44
330.201	104.44
330.43	96.44
330.658	119.44
330.887	117.44
331.115	117.44
331.344	104.44
331.572	101.44
331.801	103.44
332.03	99.44
332.258	87.44
332.486	103.44
332.715	99.44
332.943	87.44
333.172	105.44
333.4	84.44
333.629	91.44
333.857	105.44
334.085	95.44
334.314	94.44
334.542	87.44
334.771	97.44
334.999	91.44
335.227	99.44
335.455	95.44
335.684	99.44
335.912	104.44
336.14	93.44
336.369	90.44
336.597	86.44
336.825	93.44
337.053	97.44
337.281	100.44
337.51	101.44
337.738	84.44
337.966	91.44
338.194	96.44
338.422	108.44
338.65	99.44
338.878	87.44
339.106	88.44
339.334	91.44
339.562	82.44
339.79	82.44
340.018	90.44
340.246	97.44
340.474	92.44
340.702	91.44
340.93	93.44
341.158	88.44
341.386	100.44
341.614	96.44
341.842	98.44
342.07	84.44
342.298	106.44
342.526	87.44
342.754	82.44
342.981	91.44
343.209	85.44
343.437	96.44
343.665	91.44
343.893	89.44
344.12	79.44
344.348	83.44
344.576	90.44
344.804	94.44
345.031	87.44
345.259	83.44
345.487	99.44
345.714	90.44
345.942	83.44
346.17	87.44
346.397	95.44
346.625	95.44
346.853	78.44
347.08	92.44
347.308	107.44
347.535	92.44
347.763	100.44
347.99	104.44
348.218	110.44
348.445	113.44
348.673	109.44
348.9	103.44
349.128	88.44
349.355	82.44
349.583	90.44
349.81	83.44
350.037	97.44
350.265	91.44
350.492	102.44
350.72	100.44
350.947	106.44
351.174	104.44
351.402	113.44
351.629	110.44
351.856	97.44
352.083	93.44
352.311	101.44
352.538	98.44
352.765	120.44
352.992	126.44
353.22	111.44
353.447	101.44
353.674	106.44
353.901	102.44
354.128	103.44
354.355	101.44
354.583	108.44
354.81	99.44
355.037	89.44
355.264	96.44
355.491	89.44
355.718	86.44
355.945	93.44
356.172	103.44
356.399	101.44
356.626	104.44
356.853	90.44
357.08	92.44
357.307	107.44
357.534	100.44
357.761	96.44
357.988	107.44
358.215	84.44
358.441	97.44
358.668	86.44
358.895	88.44
359.122	82.44
359.349	83.44
359.576	98.44
359.802	96.44
360.029	107.44
360.256	121.44
360.483	98.44
360.709	80.44
360.936	100.44
361.163	87.44
361.39	94.44
361.616	81.44
361.843	100.44
362.07	100.44
362.296	95.44
362.523	104.44
362.749	92.44
362.976	82.44
363.203	91.44
363.429	97.44
363.656	114.44
363.882	94.44
364.109	87.44
364.335	82.44
364.562	90.44
364.788	98.44
365.015	90.44
365.241	89.44
365.468	110.44
365.694	110.44
365.92	94.44
366.147	90.44
366.373	91.44
366.599	87.44
366.826	81.44
367.052	108.44
367.278	99.44
367.505	89.44
367.731	80.44
367.957	100.44
368.184	95.44
368.41	88.44
368.636	95.44
368.862	118.44
369.089	98.44
369.315	90.44
369.541	79.44
369.767	92.44
369.993	90.44
370.219	96.44
370.445	94.44
370.672	91.44
370.898	85.44
371.124	93.44
371.35	76.44
371.576	89.44
371.802	93.44
372.028	84.44
372.254	79.44
372.48	74.44
372.706	94.44
372.932	71.44
373.158	80.44
373.384	95.44
373.61	87.44
373.835	73.44
374.061	103.44
374.287	93.44
374.513	82.44
374.739	100.44
374.965	90.44
375.191	97.44
375.416	85.44
375.642	81.44
375.868	93.44
376.094	98.44
376.319	90.44
376.545	81.44
376.771	84.44
376.997	88.44
377.222	94.44
377.448	88.44
377.674	99.44
377.899	74.44
378.125	93.44
378.35	92.44
378.576	90.44
378.802	90.44
379.027	93.44
379.253	89.44
379.478	88.44
379.704	97.44
379.929	106.44
380.155	70.44
380.38	90.44
380.606	84.44
380.831	97.44
381.057	84.44
381.282	87.44
381.507	96.44
381.733	95.44
381.958	92.44
382.184	108.44
382.409	88.44
382.634	103.44
382.86	91.44
383.085	91.44
383.31	92.44
383.535	106.44
383.761	106.44
383.986	112.44
384.211	97.44
384.436	88.44
384.662	90.44
384.887	102.44
385.112	106.44
385.337	107.44
385.562	110.44
385.787	109.44
386.013	119.44
386.238	94.44
386.463	107.44
386.688	96.44
386.913	91.44
387.138	102.44
387.363	90.44
387.588	110.44
387.813	104.44
388.038	91.44
388.263	94.44
388.488	91.44
388.713	100.44
388.938	84.44
389.163	96.44
389.387	97.44
389.612	104.44
389.837	99.44
390.062	94.44
390.287	91.44
390.512	91.44
390.736	98.44
390.961	91.44
391.186	95.44
391.411	108.44
391.636	86.44
391.86	86.44
392.085	99.44
392.31	90.44
392.534	86.44
392.759	90.44
392.984	77.44
393.208	91.44
393.433	100.44
393.658	86.44
393.882	82.44
394.107	94.44
394.331	86.44
394.556	67.44
394.78	91.44
395.005	88.44
395.229	104.44
395.454	91.44
395.678	94.44
395.903	81.44
396.127	89.44
396.352	86.44
396.576	92.44
396.801	78.44
397.025	79.44
397.249	103.44
397.474	95.44
397.698	87.44
397.922	84.44
398.147	86.44
398.371	80.44
398.595	95.44
398.82	80.44
399.044	86.44
399.268	83.44
399.492	96.44
399.717	87.44
399.941	93.44
400.165	97.44
400.389	93.44
400.613	103.44
400.837	84.44
401.062	97.44
401.286	85.44
401.51	96.44
401.734	81.44
401.958	97.44
402.182	104.44
402.406	148.44
402.63	107.44
402.854	92.44
403.078	95.44
403.302	76.44
403.526	83.44
403.75	94.44
403.974	78.44
404.198	82.44
404.422	81.44
404.645	79.44
404.869	89.44
405.093	95.44
405.317	94.44
405.541	92.44
405.765	87.44
405.988	121.44
406.212	151.44
406.436	194.44
406.66	128.44
406.883	96.44
407.107	96.44
407.331	98.44
407.555	106.44
407.778	97.44
408.002	97.44
408.226	104.44
408.449	87.44
408.673	82.44
408.896	110.44
409.12	106.44
409.344	87.44
409.567	78.44
409.791	99.44
410.014	87.44
410.238	97.44
410.461	96.44
410.685	95.44
410.908	111.44
411.132	98.44
411.355	110.44
411.578	94.44
411.802	89.44
412.025	85.44
412.249	88.44
412.472	101.44
412.695	95.44
412.919	99.44
413.142	91.44
413.365	92.44
413.589	88.44
413.812	96.44
414.035	95.44
414.258	92.44
414.482	92.44
414.705	89.44
414.928	86.44
415.151	96.44
415.374	95.44
415.597	98.44
415.821	98.44
416.044	89.44
416.267	84.44
416.49	102.44
416.713	100.44
416.936	90.44
417.159	88.44
417.382	82.44
417.605	88.44
417.828	90.44
418.051	95.44
418.274	89.44
418.497	89.44
418.72	92.44
418.943	77.44
419.166	88.44
419.389	81.44
419.611	90.44
419.834	92.44
420.057	95.44
420.28	78.44
420.503	91.44
420.726	100.44
420.948	97.44
421.171	100.44
421.394	96.44
421.617	94.44
421.839	76.44
422.062	95.44
422.285	104.44
422.507	106.44
422.73	98.44
422.953	78.44
423.175	93.44
423.398	78.44
423.621	86.44
423.843	89.44
424.066	106.44
424.288	90.44
424.511	87.44
424.733	103.44
424.956	94.44
425.178	103.44
425.401	97.44
425.623	99.44
425.846	97.44
426.068	104.44
426.291	91.44
426.513	95.44
426.735	90.44
426.958	88.44
427.18	87.44
427.402	120.44
427.625	143.44
427.847	109.44
428.069	90.44
428.292	89.44
428.514	90.44
428.736	92.44
428.958	103.44
429.181	79.44
429.403	82.44
429.625	92.44
429.847	92.44
430.069	106.44
430.292	77.44
430.514	76.44
430.736	86.44
430.958	97.44
431.18	95.44
431.402	86.44
431.624	79.44
431.846	74.44
432.068	94.44
432.29	84.44
432.512	79.44
432.734	94.44
432.956	100.44
433.178	91.44
433.4	91.44
433.622	94.44
433.844	83.44
434.066	87.44
434.287	100.44
434.509	99.44
434.731	91.44
434.953	94.44
435.175	78.44
435.397	76.44
435.618	96.44
435.84	96.44
436.062	112.44
436.284	117.44
436.505	92.44
436.727	103.44
436.949	90.44
437.17	99.44
437.392	80.44
437.614	90.44
437.835	112.44
438.057	113.44
438.278	113.44
438.5	101.44
438.721	122.44
438.943	110.44
439.165	86.44
439.386	96.44
439.608	84.44
439.829	105.44
440.05	120.44
440.272	135.44
440.493	100.44
440.715	96.44
440.936	90.44
441.158	102.44
441.379	88.44
441.6	97.44
441.822	101.44
442.043	88.44
442.264	99.44
442.486	110.44
442.707	90.44
442.928	97.44
443.149	137.44
443.371	125.44
443.592	110.44
443.813	103.44
444.034	107.44
444.255	84.44
444.476	83.44
444.698	96.44
444.919	99.44
445.14	133.44
445.361	114.44
445.582	117.44
445.803	134.44
446.024	127.44
446.245	143.44
446.466	114.44
446.687	99.44
446.908	86.44
447.129	82.44
447.35	99.44
447.571	88.44
447.792	105.44
448.013	97.44
448.234	100.44
448.455	92.44
448.675	87.44
448.896	109.44
449.117	88.44
449.338	106.44
449.559	139.44
449.779	135.44
450	80.44
450.221	78.44
450.442	86.44
450.662	95.44
450.883	102.44
451.104	116.44
451.324	81.44
451.545	82.44
451.766	96.44
451.986	90.44
452.207	93.44
452.428	100.44
452.648	113.44
452.869	106.44
453.089	95.44
453.31	112.44
453.53	97.44
453.751	94.44
453.971	93.44
454.192	92.44
454.412	92.44
454.633	80.44
454.853	85.44
455.073	73.44
455.294	94.44
455.514	98.44
455.734	99.44
455.955	95.44
456.175	91.44
456.395	80.44
456.616	83.44
456.836	90.44
457.056	93.44
457.276	90.44
457.497	86.44
457.717	78.44
457.937	70.44
458.157	89.44
458.377	89.44
458.598	99.44
458.818	139.44
459.038	141.44
459.258	107.44
459.478	100.44
459.698	88.44
459.918	88.44
460.138	74.44
460.358	83.44
460.578	85.44
460.798	74.44
461.018	78.44
461.238	76.44
461.458	79.44
461.678	85.44
461.898	86.44
462.118	76.44
462.338	95.44
462.558	95.44
462.777	93.44
462.997	100.44
463.217	78.44
463.437	89.44
463.657	83.44
463.876	98.44
464.096	89.44
464.316	96.44
464.536	96.44
464.755	91.44
464.975	108.44
465.195	169.44
465.414	159.44
465.634	101.44
465.854	93.44
466.073	84.44
466.293	81.44
466.512	95.44
466.732	86.44
466.951	81.44
467.171	83.44
467.391	82.44
467.61	107.44
467.829	95.44
468.049	85.44
468.268	90.44
468.488	88.44
468.707	90.44
468.927	81.44
469.146	90.44
469.365	86.44
469.585	78.44
469.804	88.44
470.023	92.44
470.243	92.44
470.462	90.44
470.681	98.44
470.901	90.44
471.12	97.44
471.339	93.44
471.558	79.44
471.777	83.44
471.997	100.44
472.216	85.44
472.435	82.44
472.654	82.44
472.873	89.44
473.092	93.44
473.311	99.44
473.53	77.44
473.749	92.44
473.968	90.44
474.187	108.44
474.406	94.44
474.625	87.44
474.844	74.44
475.063	77.44
475.282	80.44
475.501	98.44
475.72	82.44
475.939	94.44
476.158	86.44
476.377	93.44
476.596	95.44
476.814	93.44
477.033	92.44
477.252	90.44
477.471	86.44
477.69	86.44
477.908	88.44
478.127	97.44
478.346	105.44
478.564	86.44
478.783	100.44
479.002	97.44
479.22	99.44
479.439	89.44
479.658	105.44
479.876	90.44
480.095	90.44
480.313	90.44
480.532	86.44
480.751	83.44
480.969	88.44
481.188	75.44
481.406	92.44
481.624	98.44
481.843	84.44
482.061	95.44
482.28	77.44
482.498	100.44
482.717	90.44
482.935	85.44
483.153	89.44
483.372	78.44
483.59	90.44
483.808	92.44
484.027	104.44
484.245	91.44
484.463	95.44
484.681	100.44
484.9	104.44
485.118	85.44
485.336	83.44
485.554	109.44
485.772	80.44
485.99	106.44
486.209	103.44
486.427	97.44
486.645	115.44
486.863	117.44
487.081	80.44
487.299	91.44
487.517	101.44
487.735	103.44
487.953	95.44
488.171	98.44
488.389	100.44
488.607	87.44
488.825	90.44
489.043	82.44
489.261	92.44
489.479	86.44
489.696	87.44
489.914	81.44
490.132	99.44
490.35	89.44
490.568	71.44
490.786	79.44
491.003	84.44
491.221	95.44
491.439	94.44
491.657	77.44
491.874	94.44
492.092	80.44
492.31	95.44
492.527	93.44
492.745	82.44
492.963	79.44
493.18	98.44
493.398	92.44
493.615	96.44
493.833	84.44
494.05	82.44
494.268	86.44
494.485	78.44
494.703	83.44
494.92	89.44
495.138	92.44
495.355	92.44
495.573	103.44
495.79	88.44
496.008	88.44
496.225	82.44
496.442	95.44
496.66	98.44
496.877	83.44
497.094	99.44
497.312	81.44
497.529	88.44
497.746	96.44
497.963	87.44
498.181	78.44
498.398	90.44
498.615	102.44
498.832	97.44
499.049	96.44
499.267	86.44
499.484	90.44
499.701	91.44
499.918	87.44
500.135	89.44
500.352	81.44
500.569	83.44
500.786	85.44
501.003	88.44
501.22	94.44
501.437	97.44
501.654	103.44
501.871	98.44
502.088	94.44
502.305	84.44
502.522	100.44
502.739	106.44
502.956	90.44
503.172	89.44
503.389	96.44
503.606	86.44
503.823	102.44
504.04	86.44
504.256	79.44
504.473	88.44
504.69	91.44
504.907	100.44
505.123	95.44
505.34	87.44
505.557	94.44
505.773	89.44
505.99	81.44
506.207	99.44
506.423	83.44
506.64	102.44
506.856	96.44
507.073	96.44
507.289	94.44
507.506	82.44
507.722	98.44
507.939	108.44
508.155	95.44
508.372	92.44
508.588	95.44
508.805	100.44
509.021	93.44
509.238	110.44
509.454	95.44
509.67	101.44
509.887	102.44
510.103	116.44
510.319	210.44
510.536	733.44
510.752	2154.44
510.968	598.44
511.184	137.44
511.401	112.44
511.617	106.44
511.833	104.44
512.049	94.44
512.265	80.44
512.481	100.44
512.698	94.44
512.914	81.44
513.13	92.44
513.346	100.44
513.562	102.44
513.778	97.44
513.994	99.44
514.21	94.44
514.426	118.44
514.642	130.44
514.858	107.44
515.074	154.44
515.29	427.44
515.506	1280.44
515.721	473.44
515.937	155.44
