Data from Uncirc_1996_H10_HRD10591_00058.txt Node
Date: Wed Jan 03 11:32:14 EST 2024
User: Yrep
Spectrometer: HR+D1059
Trigger mode: 1
Integration Time (sec): 1.000000E-1
Scans to average: 1
Electric dark correction enabled: true
Nonlinearity correction enabled: false
Boxcar width: 0
XAxis mode: Wavelengths
Number of Pixels in Spectrum: 2048
>>>>>Begin Spectral Data<<<<<
223.165	-8.38
223.4	-8.38
223.635	-8.38
223.869	-12.38
224.104	-13.38
224.338	-14.38
224.573	-8.38
224.808	-18.38
225.042	-4.38
225.277	-13.38
225.511	-11.38
225.746	-4.38
225.98	10.62
226.215	-1.38
226.449	18.62
226.683	20.62
226.918	25.62
227.152	34.62
227.387	43.62
227.621	34.62
227.856	52.62
228.09	41.62
228.324	65.62
228.559	73.62
228.793	60.62
229.027	75.62
229.262	76.62
229.496	67.62
229.73	77.62
229.964	83.62
230.199	77.62
230.433	82.62
230.667	79.62
230.901	73.62
231.136	87.62
231.37	66.62
231.604	71.62
231.838	83.62
232.072	90.62
232.306	82.62
232.541	75.62
232.775	69.62
233.009	81.62
233.243	86.62
233.477	87.62
233.711	79.62
233.945	99.62
234.179	80.62
234.413	76.62
234.647	88.62
234.881	76.62
235.115	84.62
235.349	74.62
235.583	84.62
235.817	80.62
236.051	84.62
236.285	84.62
236.519	91.62
236.753	87.62
236.987	80.62
237.221	93.62
237.455	73.62
237.689	69.62
237.922	84.62
238.156	75.62
238.39	69.62
238.624	81.62
238.858	79.62
239.091	62.62
239.325	77.62
239.559	85.62
239.793	75.62
240.027	85.62
240.26	73.62
240.494	68.62
240.728	77.62
240.961	79.62
241.195	81.62
241.429	75.62
241.662	84.62
241.896	82.62
242.13	76.62
242.363	81.62
242.597	82.62
242.83	73.62
243.064	69.62
243.298	67.62
243.531	88.62
243.765	88.62
243.998	76.62
244.232	75.62
244.465	101.62
244.699	84.62
244.932	87.62
245.166	79.62
245.399	88.62
245.633	81.62
245.866	81.62
246.099	77.62
246.333	83.62
246.566	93.62
246.8	83.62
247.033	81.62
247.266	79.62
247.5	82.62
247.733	67.62
247.966	82.62
248.2	82.62
248.433	79.62
248.666	78.62
248.899	72.62
249.133	86.62
249.366	88.62
249.599	91.62
249.832	87.62
250.066	78.62
250.299	79.62
250.532	83.62
250.765	82.62
250.998	65.62
251.231	91.62
251.465	84.62
251.698	84.62
251.931	83.62
252.164	88.62
252.397	92.62
252.63	87.62
252.863	87.62
253.096	85.62
253.329	69.62
253.562	77.62
253.795	79.62
254.028	79.62
254.261	80.62
254.494	84.62
254.727	87.62
254.96	71.62
255.193	77.62
255.426	77.62
255.659	78.62
255.892	82.62
256.124	67.62
256.357	67.62
256.59	77.62
256.823	79.62
257.056	85.62
257.289	71.62
257.521	82.62
257.754	79.62
257.987	73.62
258.22	67.62
258.452	88.62
258.685	81.62
258.918	75.62
259.151	68.62
259.383	76.62
259.616	82.62
259.849	83.62
260.081	91.62
260.314	79.62
260.547	73.62
260.779	81.62
261.012	83.62
261.244	80.62
261.477	85.62
261.71	91.62
261.942	111.62
262.175	116.62
262.407	93.62
262.64	88.62
262.872	81.62
263.105	84.62
263.337	68.62
263.57	84.62
263.802	92.62
264.035	91.62
264.267	81.62
264.499	84.62
264.732	87.62
264.964	75.62
265.197	92.62
265.429	96.62
265.661	76.62
265.894	82.62
266.126	81.62
266.358	79.62
266.591	71.62
266.823	78.62
267.055	90.62
267.287	79.62
267.52	98.62
267.752	87.62
267.984	71.62
268.216	93.62
268.448	99.62
268.681	88.62
268.913	72.62
269.145	95.62
269.377	85.62
269.609	85.62
269.841	105.62
270.073	88.62
270.306	84.62
270.538	94.62
270.77	89.62
271.002	96.62
271.234	91.62
271.466	91.62
271.698	87.62
271.93	90.62
272.162	87.62
272.394	86.62
272.626	94.62
272.858	83.62
273.09	71.62
273.322	82.62
273.553	84.62
273.785	95.62
274.017	95.62
274.249	95.62
274.481	90.62
274.713	87.62
274.945	88.62
275.176	90.62
275.408	67.62
275.64	100.62
275.872	87.62
276.104	83.62
276.335	80.62
276.567	93.62
276.799	114.62
277.031	100.62
277.262	99.62
277.494	85.62
277.726	83.62
277.957	82.62
278.189	80.62
278.421	96.62
278.652	77.62
278.884	72.62
279.115	85.62
279.347	85.62
279.579	98.62
279.81	92.62
280.042	80.62
280.273	81.62
280.505	77.62
280.736	75.62
280.968	95.62
281.199	96.62
281.431	90.62
281.662	85.62
281.894	89.62
282.125	105.62
282.356	108.62
282.588	116.62
282.819	108.62
283.051	95.62
283.282	88.62
283.513	71.62
283.745	89.62
283.976	79.62
284.207	89.62
284.439	100.62
284.67	89.62
284.901	87.62
285.132	97.62
285.364	92.62
285.595	79.62
285.826	71.62
286.057	97.62
286.288	78.62
286.52	82.62
286.751	79.62
286.982	92.62
287.213	82.62
287.444	76.62
287.675	97.62
287.906	94.62
288.138	89.62
288.369	84.62
288.6	89.62
288.831	88.62
289.062	87.62
289.293	88.62
289.524	93.62
289.755	92.62
289.986	91.62
290.217	80.62
290.448	99.62
290.679	81.62
290.91	93.62
291.141	102.62
291.371	104.62
291.602	98.62
291.833	100.62
292.064	94.62
292.295	83.62
292.526	105.62
292.757	93.62
292.987	89.62
293.218	103.62
293.449	79.62
293.68	102.62
293.91	83.62
294.141	99.62
294.372	92.62
294.603	80.62
294.833	93.62
295.064	97.62
295.295	97.62
295.525	96.62
295.756	110.62
295.987	104.62
296.217	132.62
296.448	112.62
296.679	91.62
296.909	85.62
297.14	71.62
297.37	97.62
297.601	97.62
297.831	77.62
298.062	96.62
298.292	98.62
298.523	90.62
298.753	97.62
298.984	87.62
299.214	101.62
299.445	93.62
299.675	98.62
299.905	87.62
300.136	89.62
300.366	92.62
300.597	92.62
300.827	104.62
301.057	96.62
301.288	103.62
301.518	84.62
301.748	94.62
301.979	101.62
302.209	93.62
302.439	91.62
302.669	87.62
302.9	84.62
303.13	103.62
303.36	92.62
303.59	95.62
303.82	112.62
304.051	100.62
304.281	93.62
304.511	91.62
304.741	99.62
304.971	87.62
305.201	93.62
305.431	89.62
305.661	84.62
305.891	97.62
306.121	93.62
306.352	108.62
306.582	109.62
306.812	112.62
307.042	95.62
307.272	91.62
307.502	104.62
307.731	102.62
307.961	96.62
308.191	89.62
308.421	93.62
308.651	92.62
308.881	96.62
309.111	92.62
309.341	94.62
309.571	85.62
309.8	93.62
310.03	108.62
310.26	90.62
310.49	99.62
310.72	107.62
310.949	111.62
311.179	120.62
311.409	91.62
311.639	98.62
311.868	106.62
312.098	95.62
312.328	96.62
312.557	96.62
312.787	117.62
313.017	103.62
313.246	89.62
313.476	87.62
313.706	98.62
313.935	79.62
314.165	99.62
314.394	101.62
314.624	104.62
314.853	112.62
315.083	87.62
315.312	109.62
315.542	92.62
315.771	89.62
316.001	95.62
316.23	86.62
316.46	91.62
316.689	84.62
316.919	97.62
317.148	99.62
317.377	94.62
317.607	93.62
317.836	104.62
318.065	99.62
318.295	83.62
318.524	98.62
318.753	117.62
318.983	96.62
319.212	98.62
319.441	98.62
319.67	99.62
319.9	104.62
320.129	95.62
320.358	90.62
320.587	88.62
320.816	100.62
321.046	85.62
321.275	96.62
321.504	76.62
321.733	90.62
321.962	86.62
322.191	101.62
322.42	114.62
322.649	109.62
322.878	125.62
323.108	118.62
323.337	128.62
323.566	132.62
323.795	130.62
324.024	223.62
324.253	392.62
324.482	807.62
324.71	1655.62
324.939	2229.62
325.168	805.62
325.397	254.62
325.626	163.62
325.855	131.62
326.084	146.62
326.313	131.62
326.542	160.62
326.77	226.62
326.999	470.62
327.228	946.62
327.457	1740.62
327.686	1371.62
327.914	364.62
328.143	222.62
328.372	157.62
328.6	132.62
328.829	117.62
329.058	134.62
329.287	125.62
329.515	101.62
329.744	103.62
329.972	100.62
330.201	116.62
330.43	102.62
330.658	109.62
330.887	132.62
331.115	131.62
331.344	85.62
331.572	97.62
331.801	100.62
332.03	92.62
332.258	106.62
332.486	95.62
332.715	100.62
332.943	91.62
333.172	99.62
333.4	98.62
333.629	110.62
333.857	114.62
334.085	109.62
334.314	97.62
334.542	87.62
334.771	105.62
334.999	91.62
335.227	100.62
335.455	87.62
335.684	110.62
335.912	108.62
336.14	115.62
336.369	104.62
336.597	100.62
336.825	96.62
337.053	99.62
337.281	94.62
337.51	95.62
337.738	91.62
337.966	97.62
338.194	98.62
338.422	107.62
338.65	97.62
338.878	101.62
339.106	107.62
339.334	99.62
339.562	94.62
339.79	94.62
340.018	97.62
340.246	98.62
340.474	96.62
340.702	90.62
340.93	82.62
341.158	77.62
341.386	92.62
341.614	99.62
341.842	90.62
342.07	95.62
342.298	101.62
342.526	96.62
342.754	96.62
342.981	97.62
343.209	88.62
343.437	96.62
343.665	104.62
343.893	101.62
344.12	97.62
344.348	97.62
344.576	84.62
344.804	89.62
345.031	99.62
345.259	113.62
345.487	92.62
345.714	122.62
345.942	90.62
346.17	93.62
346.397	94.62
346.625	103.62
346.853	105.62
347.08	91.62
347.308	89.62
347.535	95.62
347.763	103.62
347.99	93.62
348.218	107.62
348.445	107.62
348.673	100.62
348.9	90.62
349.128	96.62
349.355	80.62
349.583	91.62
349.81	82.62
350.037	92.62
350.265	97.62
350.492	104.62
350.72	97.62
350.947	107.62
351.174	111.62
351.402	104.62
351.629	96.62
351.856	101.62
352.083	110.62
352.311	114.62
352.538	108.62
352.765	105.62
352.992	107.62
353.22	113.62
353.447	107.62
353.674	95.62
353.901	96.62
354.128	93.62
354.355	103.62
354.583	106.62
354.81	106.62
355.037	101.62
355.264	96.62
355.491	112.62
355.718	98.62
355.945	88.62
356.172	102.62
356.399	99.62
356.626	89.62
356.853	95.62
357.08	106.62
357.307	89.62
357.534	90.62
357.761	81.62
357.988	89.62
358.215	91.62
358.441	75.62
358.668	92.62
358.895	100.62
359.122	97.62
359.349	95.62
359.576	97.62
359.802	90.62
360.029	123.62
360.256	105.62
360.483	83.62
360.709	82.62
360.936	112.62
361.163	88.62
361.39	103.62
361.616	100.62
361.843	88.62
362.07	99.62
362.296	107.62
362.523	99.62
362.749	86.62
362.976	92.62
363.203	103.62
363.429	98.62
363.656	91.62
363.882	87.62
364.109	98.62
364.335	91.62
364.562	88.62
364.788	103.62
365.015	106.62
365.241	91.62
365.468	108.62
365.694	104.62
365.92	98.62
366.147	82.62
366.373	85.62
366.599	81.62
366.826	100.62
367.052	94.62
367.278	100.62
367.505	87.62
367.731	106.62
367.957	94.62
368.184	88.62
368.41	103.62
368.636	108.62
368.862	127.62
369.089	122.62
369.315	95.62
369.541	74.62
369.767	88.62
369.993	85.62
370.219	96.62
370.445	85.62
370.672	91.62
370.898	84.62
371.124	95.62
371.35	90.62
371.576	99.62
371.802	88.62
372.028	84.62
372.254	80.62
372.48	100.62
372.706	89.62
372.932	79.62
373.158	76.62
373.384	93.62
373.61	95.62
373.835	77.62
374.061	92.62
374.287	90.62
374.513	91.62
374.739	83.62
374.965	89.62
375.191	94.62
375.416	85.62
375.642	89.62
375.868	90.62
376.094	96.62
376.319	83.62
376.545	91.62
376.771	79.62
376.997	90.62
377.222	93.62
377.448	81.62
377.674	87.62
377.899	80.62
378.125	96.62
378.35	96.62
378.576	82.62
378.802	92.62
379.027	95.62
379.253	85.62
379.478	89.62
379.704	90.62
379.929	95.62
380.155	99.62
380.38	114.62
380.606	81.62
380.831	106.62
381.057	96.62
381.282	91.62
381.507	103.62
381.733	90.62
381.958	86.62
382.184	103.62
382.409	106.62
382.634	98.62
382.86	96.62
383.085	94.62
383.31	98.62
383.535	98.62
383.761	104.62
383.986	80.62
384.211	101.62
384.436	103.62
384.662	91.62
384.887	92.62
385.112	95.62
385.337	100.62
385.562	90.62
385.787	98.62
386.013	105.62
386.238	124.62
386.463	100.62
386.688	113.62
386.913	96.62
387.138	92.62
387.363	88.62
387.588	109.62
387.813	102.62
388.038	92.62
388.263	108.62
388.488	123.62
388.713	90.62
388.938	97.62
389.163	87.62
389.387	107.62
389.612	91.62
389.837	87.62
390.062	83.62
390.287	106.62
390.512	97.62
390.736	101.62
390.961	94.62
391.186	95.62
391.411	86.62
391.636	97.62
391.86	92.62
392.085	96.62
392.31	81.62
392.534	106.62
392.759	87.62
392.984	91.62
393.208	96.62
393.433	100.62
393.658	88.62
393.882	90.62
394.107	93.62
394.331	86.62
394.556	99.62
394.78	90.62
395.005	105.62
395.229	80.62
395.454	76.62
395.678	77.62
395.903	88.62
396.127	84.62
396.352	95.62
396.576	92.62
396.801	84.62
397.025	97.62
397.249	91.62
397.474	96.62
397.698	100.62
397.922	87.62
398.147	97.62
398.371	84.62
398.595	83.62
398.82	91.62
399.044	85.62
399.268	88.62
399.492	113.62
399.717	94.62
399.941	94.62
400.165	92.62
400.389	95.62
400.613	80.62
400.837	72.62
401.062	86.62
401.286	84.62
401.51	93.62
401.734	75.62
401.958	108.62
402.182	127.62
402.406	143.62
402.63	118.62
402.854	91.62
403.078	77.62
403.302	88.62
403.526	77.62
403.75	86.62
403.974	87.62
404.198	85.62
404.422	92.62
404.645	82.62
404.869	88.62
405.093	92.62
405.317	95.62
405.541	100.62
405.765	93.62
405.988	124.62
406.212	156.62
406.436	205.62
406.66	137.62
406.883	100.62
407.107	82.62
407.331	99.62
407.555	113.62
407.778	91.62
408.002	87.62
408.226	99.62
408.449	87.62
408.673	99.62
408.896	98.62
409.12	100.62
409.344	88.62
409.567	100.62
409.791	82.62
410.014	96.62
410.238	95.62
410.461	101.62
410.685	96.62
410.908	109.62
411.132	94.62
411.355	98.62
411.578	93.62
411.802	98.62
412.025	91.62
412.249	84.62
412.472	81.62
412.695	98.62
412.919	99.62
413.142	93.62
413.365	100.62
413.589	90.62
413.812	94.62
414.035	89.62
414.258	87.62
414.482	97.62
414.705	93.62
414.928	93.62
415.151	90.62
415.374	104.62
415.597	87.62
415.821	105.62
416.044	83.62
416.267	83.62
416.49	81.62
416.713	82.62
416.936	85.62
417.159	77.62
417.382	87.62
417.605	91.62
417.828	89.62
418.051	95.62
418.274	93.62
418.497	84.62
418.72	90.62
418.943	87.62
419.166	69.62
419.389	100.62
419.611	84.62
419.834	94.62
420.057	87.62
420.28	84.62
420.503	77.62
420.726	75.62
420.948	89.62
421.171	94.62
421.394	87.62
421.617	96.62
421.839	83.62
422.062	100.62
422.285	101.62
422.507	122.62
422.73	107.62
422.953	87.62
423.175	81.62
423.398	89.62
423.621	94.62
423.843	81.62
424.066	77.62
424.288	87.62
424.511	91.62
424.733	99.62
424.956	109.62
425.178	103.62
425.401	101.62
425.623	110.62
425.846	88.62
426.068	95.62
426.291	100.62
426.513	65.62
426.735	82.62
426.958	96.62
427.18	105.62
427.402	123.62
427.625	158.62
427.847	124.62
428.069	96.62
428.292	74.62
428.514	83.62
428.736	76.62
428.958	93.62
429.181	94.62
429.403	91.62
429.625	84.62
429.847	95.62
430.069	111.62
430.292	105.62
430.514	88.62
430.736	92.62
430.958	90.62
431.18	98.62
431.402	87.62
431.624	83.62
431.846	83.62
432.068	95.62
432.29	74.62
432.512	82.62
432.734	86.62
432.956	93.62
433.178	91.62
433.4	109.62
433.622	102.62
433.844	94.62
434.066	97.62
434.287	81.62
434.509	103.62
434.731	81.62
434.953	84.62
435.175	83.62
435.397	82.62
435.618	95.62
435.84	102.62
436.062	114.62
436.284	106.62
436.505	112.62
436.727	101.62
436.949	80.62
437.17	104.62
437.392	96.62
437.614	98.62
437.835	100.62
438.057	111.62
438.278	115.62
438.5	88.62
438.721	130.62
438.943	120.62
439.165	81.62
439.386	99.62
439.608	87.62
439.829	95.62
440.05	132.62
440.272	140.62
440.493	96.62
440.715	85.62
440.936	84.62
441.158	90.62
441.379	95.62
441.6	95.62
441.822	85.62
442.043	90.62
442.264	96.62
442.486	96.62
442.707	105.62
442.928	107.62
443.149	127.62
443.371	131.62
443.592	110.62
443.813	122.62
444.034	89.62
444.255	97.62
444.476	97.62
444.698	103.62
444.919	100.62
445.14	126.62
445.361	128.62
445.582	124.62
445.803	130.62
446.024	151.62
446.245	146.62
446.466	101.62
446.687	99.62
446.908	82.62
447.129	99.62
447.35	89.62
447.571	85.62
447.792	96.62
448.013	116.62
448.234	95.62
448.455	97.62
448.675	115.62
448.896	118.62
449.117	103.62
449.338	107.62
449.559	142.62
449.779	120.62
450	91.62
450.221	92.62
450.442	91.62
450.662	90.62
450.883	105.62
451.104	115.62
451.324	81.62
451.545	87.62
451.766	88.62
451.986	91.62
452.207	97.62
452.428	85.62
452.648	91.62
452.869	113.62
453.089	102.62
453.31	102.62
453.53	90.62
453.751	105.62
453.971	109.62
454.192	114.62
454.412	101.62
454.633	105.62
454.853	89.62
455.073	95.62
455.294	91.62
455.514	97.62
455.734	103.62
455.955	77.62
456.175	82.62
456.395	87.62
456.616	77.62
456.836	92.62
457.056	91.62
457.276	79.62
457.497	77.62
457.717	84.62
457.937	74.62
458.157	84.62
458.377	84.62
458.598	106.62
458.818	140.62
459.038	167.62
459.258	98.62
459.478	85.62
459.698	89.62
459.918	88.62
460.138	101.62
460.358	69.62
460.578	86.62
460.798	109.62
461.018	87.62
461.238	80.62
461.458	81.62
461.678	93.62
461.898	88.62
462.118	89.62
462.338	89.62
462.558	88.62
462.777	83.62
462.997	92.62
463.217	66.62
463.437	87.62
463.657	80.62
463.876	94.62
464.096	100.62
464.316	93.62
464.536	98.62
464.755	82.62
464.975	111.62
465.195	163.62
465.414	158.62
465.634	91.62
465.854	94.62
466.073	93.62
466.293	88.62
466.512	75.62
466.732	77.62
466.951	90.62
467.171	96.62
467.391	97.62
467.61	102.62
467.829	87.62
468.049	94.62
468.268	82.62
468.488	99.62
468.707	84.62
468.927	81.62
469.146	99.62
469.365	91.62
469.585	94.62
469.804	96.62
470.023	89.62
470.243	101.62
470.462	107.62
470.681	104.62
470.901	84.62
471.12	78.62
471.339	92.62
471.558	90.62
471.777	90.62
471.997	88.62
472.216	78.62
472.435	95.62
472.654	79.62
472.873	79.62
473.092	87.62
473.311	87.62
473.53	79.62
473.749	87.62
473.968	85.62
474.187	111.62
474.406	100.62
474.625	87.62
474.844	92.62
475.063	85.62
475.282	86.62
475.501	92.62
475.72	92.62
475.939	89.62
476.158	88.62
476.377	84.62
476.596	79.62
476.814	93.62
477.033	92.62
477.252	100.62
477.471	91.62
477.69	97.62
477.908	76.62
478.127	88.62
478.346	76.62
478.564	87.62
478.783	93.62
479.002	89.62
479.22	87.62
479.439	107.62
479.658	109.62
479.876	105.62
480.095	85.62
480.313	95.62
480.532	79.62
480.751	105.62
480.969	83.62
481.188	79.62
481.406	93.62
481.624	103.62
481.843	76.62
482.061	84.62
482.28	77.62
482.498	81.62
482.717	84.62
482.935	81.62
483.153	90.62
483.372	93.62
483.59	93.62
483.808	103.62
484.027	94.62
484.245	97.62
484.463	95.62
484.681	104.62
484.9	92.62
485.118	90.62
485.336	99.62
485.554	104.62
485.772	86.62
485.99	102.62
486.209	102.62
486.427	99.62
486.645	104.62
486.863	99.62
487.081	99.62
487.299	108.62
487.517	102.62
487.735	107.62
487.953	95.62
488.171	107.62
488.389	99.62
488.607	93.62
488.825	101.62
489.043	80.62
489.261	91.62
489.479	93.62
489.696	95.62
489.914	93.62
490.132	79.62
490.35	82.62
490.568	99.62
490.786	87.62
491.003	94.62
491.221	92.62
491.439	92.62
491.657	99.62
491.874	85.62
492.092	102.62
492.31	89.62
492.527	91.62
492.745	85.62
492.963	91.62
493.18	83.62
493.398	91.62
493.615	96.62
493.833	104.62
494.05	93.62
494.268	105.62
494.485	105.62
494.703	94.62
494.92	103.62
495.138	77.62
495.355	96.62
495.573	94.62
495.79	101.62
496.008	103.62
496.225	98.62
496.442	79.62
496.66	86.62
496.877	89.62
497.094	94.62
497.312	89.62
497.529	87.62
497.746	101.62
497.963	97.62
498.181	92.62
498.398	93.62
498.615	111.62
498.832	103.62
499.049	93.62
499.267	91.62
499.484	105.62
499.701	92.62
499.918	108.62
500.135	79.62
500.352	82.62
500.569	93.62
500.786	95.62
501.003	94.62
501.22	90.62
501.437	82.62
501.654	104.62
501.871	118.62
502.088	100.62
502.305	93.62
502.522	113.62
502.739	104.62
502.956	91.62
503.172	102.62
503.389	95.62
503.606	119.62
503.823	96.62
504.04	90.62
504.256	101.62
504.473	85.62
504.69	79.62
504.907	97.62
505.123	82.62
505.34	92.62
505.557	112.62
505.773	104.62
505.99	95.62
506.207	85.62
506.423	92.62
506.64	89.62
506.856	84.62
507.073	97.62
507.289	95.62
507.506	95.62
507.722	96.62
507.939	109.62
508.155	104.62
508.372	97.62
508.588	104.62
508.805	97.62
509.021	98.62
509.238	100.62
509.454	92.62
509.67	111.62
509.887	106.62
510.103	130.62
510.319	184.62
510.536	707.62
510.752	2146.62
510.968	593.62
511.184	155.62
511.401	99.62
511.617	116.62
511.833	79.62
512.049	95.62
512.265	89.62
512.481	89.62
512.698	92.62
512.914	82.62
513.13	101.62
513.346	109.62
513.562	98.62
513.778	104.62
513.994	107.62
514.21	92.62
514.426	99.62
514.642	131.62
514.858	119.62
515.074	163.62
515.29	430.62
