Data from Uncirc_1996_H10_HRD10591_00044.txt Node
Date: Wed Jan 03 11:32:11 EST 2024
User: Yrep
Spectrometer: HR+D1059
Trigger mode: 1
Integration Time (sec): 1.000000E-1
Scans to average: 1
Electric dark correction enabled: true
Nonlinearity correction enabled: false
Boxcar width: 0
XAxis mode: Wavelengths
Number of Pixels in Spectrum: 2048
>>>>>Begin Spectral Data<<<<<
223.165	-26.25
223.4	-26.25
223.635	-26.25
223.869	-39.25
224.104	-13.25
224.338	-8.25
224.573	-7.25
224.808	-9.25
225.042	-9.25
225.277	-3.25
225.511	-6.25
225.746	11.75
225.98	-9.25
226.215	18.75
226.449	20.75
226.683	14.75
226.918	29.75
227.152	35.75
227.387	19.75
227.621	46.75
227.856	52.75
228.09	38.75
228.324	38.75
228.559	44.75
228.793	41.75
229.027	69.75
229.262	56.75
229.496	70.75
229.73	85.75
229.964	74.75
230.199	75.75
230.433	74.75
230.667	80.75
230.901	58.75
231.136	67.75
231.37	70.75
231.604	82.75
231.838	77.75
232.072	70.75
232.306	83.75
232.541	78.75
232.775	82.75
233.009	77.75
233.243	88.75
233.477	77.75
233.711	76.75
233.945	87.75
234.179	83.75
234.413	75.75
234.647	78.75
234.881	84.75
235.115	63.75
235.349	81.75
235.583	68.75
235.817	79.75
236.051	80.75
236.285	69.75
236.519	73.75
236.753	68.75
236.987	72.75
237.221	88.75
237.455	97.75
237.689	79.75
237.922	81.75
238.156	80.75
238.39	72.75
238.624	73.75
238.858	76.75
239.091	79.75
239.325	69.75
239.559	80.75
239.793	84.75
240.027	91.75
240.26	75.75
240.494	92.75
240.728	77.75
240.961	80.75
241.195	68.75
241.429	76.75
241.662	80.75
241.896	82.75
242.13	58.75
242.363	78.75
242.597	72.75
242.83	75.75
243.064	73.75
243.298	84.75
243.531	66.75
243.765	75.75
243.998	77.75
244.232	71.75
244.465	87.75
244.699	82.75
244.932	78.75
245.166	85.75
245.399	76.75
245.633	80.75
245.866	75.75
246.099	79.75
246.333	81.75
246.566	74.75
246.8	87.75
247.033	74.75
247.266	79.75
247.5	70.75
247.733	77.75
247.966	80.75
248.2	88.75
248.433	84.75
248.666	72.75
248.899	92.75
249.133	82.75
249.366	92.75
249.599	95.75
249.832	90.75
250.066	80.75
250.299	74.75
250.532	63.75
250.765	74.75
250.998	73.75
251.231	80.75
251.465	74.75
251.698	81.75
251.931	64.75
252.164	83.75
252.397	89.75
252.63	74.75
252.863	74.75
253.096	76.75
253.329	88.75
253.562	78.75
253.795	78.75
254.028	72.75
254.261	78.75
254.494	75.75
254.727	75.75
254.96	72.75
255.193	79.75
255.426	73.75
255.659	71.75
255.892	84.75
256.124	89.75
256.357	78.75
256.59	82.75
256.823	81.75
257.056	74.75
257.289	72.75
257.521	81.75
257.754	80.75
257.987	76.75
258.22	89.75
258.452	74.75
258.685	78.75
258.918	78.75
259.151	86.75
259.383	77.75
259.616	69.75
259.849	75.75
260.081	106.75
260.314	68.75
260.547	93.75
260.779	83.75
261.012	75.75
261.244	84.75
261.477	95.75
261.71	102.75
261.942	89.75
262.175	103.75
262.407	99.75
262.64	95.75
262.872	84.75
263.105	79.75
263.337	74.75
263.57	84.75
263.802	65.75
264.035	75.75
264.267	75.75
264.499	77.75
264.732	73.75
264.964	89.75
265.197	84.75
265.429	88.75
265.661	89.75
265.894	77.75
266.126	76.75
266.358	76.75
266.591	95.75
266.823	87.75
267.055	82.75
267.287	68.75
267.52	83.75
267.752	65.75
267.984	72.75
268.216	86.75
268.448	83.75
268.681	84.75
268.913	79.75
269.145	85.75
269.377	76.75
269.609	74.75
269.841	72.75
270.073	87.75
270.306	86.75
270.538	75.75
270.77	85.75
271.002	91.75
271.234	83.75
271.466	89.75
271.698	79.75
271.93	69.75
272.162	76.75
272.394	81.75
272.626	81.75
272.858	84.75
273.09	92.75
273.322	90.75
273.553	81.75
273.785	74.75
274.017	78.75
274.249	80.75
274.481	92.75
274.713	62.75
274.945	85.75
275.176	91.75
275.408	83.75
275.64	87.75
275.872	87.75
276.104	98.75
276.335	85.75
276.567	88.75
276.799	98.75
277.031	108.75
277.262	77.75
277.494	95.75
277.726	90.75
277.957	76.75
278.189	78.75
278.421	84.75
278.652	82.75
278.884	100.75
279.115	78.75
279.347	79.75
279.579	77.75
279.81	88.75
280.042	80.75
280.273	84.75
280.505	74.75
280.736	100.75
280.968	84.75
281.199	82.75
281.431	77.75
281.662	84.75
281.894	78.75
282.125	96.75
282.356	127.75
282.588	125.75
282.819	103.75
283.051	86.75
283.282	79.75
283.513	83.75
283.745	89.75
283.976	76.75
284.207	84.75
284.439	75.75
284.67	78.75
284.901	89.75
285.132	74.75
285.364	77.75
285.595	91.75
285.826	93.75
286.057	91.75
286.288	87.75
286.52	76.75
286.751	84.75
286.982	86.75
287.213	95.75
287.444	78.75
287.675	81.75
287.906	79.75
288.138	84.75
288.369	86.75
288.6	90.75
288.831	88.75
289.062	94.75
289.293	85.75
289.524	82.75
289.755	94.75
289.986	85.75
290.217	97.75
290.448	84.75
290.679	95.75
290.91	94.75
291.141	90.75
291.371	100.75
291.602	94.75
291.833	85.75
292.064	79.75
292.295	90.75
292.526	79.75
292.757	87.75
292.987	82.75
293.218	72.75
293.449	80.75
293.68	72.75
293.91	89.75
294.141	91.75
294.372	84.75
294.603	73.75
294.833	89.75
295.064	94.75
295.295	84.75
295.525	88.75
295.756	97.75
295.987	112.75
296.217	143.75
296.448	118.75
296.679	87.75
296.909	100.75
297.14	74.75
297.37	94.75
297.601	94.75
297.831	86.75
298.062	84.75
298.292	89.75
298.523	96.75
298.753	98.75
298.984	100.75
299.214	84.75
299.445	84.75
299.675	102.75
299.905	90.75
300.136	81.75
300.366	96.75
300.597	91.75
300.827	87.75
301.057	98.75
301.288	101.75
301.518	93.75
301.748	91.75
301.979	103.75
302.209	84.75
302.439	95.75
302.669	93.75
302.9	101.75
303.13	86.75
303.36	85.75
303.59	104.75
303.82	110.75
304.051	86.75
304.281	85.75
304.511	85.75
304.741	86.75
304.971	73.75
305.201	66.75
305.431	96.75
305.661	91.75
305.891	95.75
306.121	96.75
306.352	93.75
306.582	92.75
306.812	97.75
307.042	93.75
307.272	93.75
307.502	101.75
307.731	83.75
307.961	92.75
308.191	85.75
308.421	94.75
308.651	87.75
308.881	89.75
309.111	90.75
309.341	97.75
309.571	95.75
309.8	98.75
310.03	101.75
310.26	94.75
310.49	95.75
310.72	94.75
310.949	98.75
311.179	95.75
311.409	92.75
311.639	91.75
311.868	91.75
312.098	88.75
312.328	103.75
312.557	108.75
312.787	111.75
313.017	104.75
313.246	86.75
313.476	78.75
313.706	90.75
313.935	89.75
314.165	90.75
314.394	102.75
314.624	99.75
314.853	95.75
315.083	95.75
315.312	84.75
315.542	74.75
315.771	91.75
316.001	91.75
316.23	79.75
316.46	86.75
316.689	86.75
316.919	92.75
317.148	82.75
317.377	99.75
317.607	99.75
317.836	96.75
318.065	86.75
318.295	77.75
318.524	87.75
318.753	84.75
318.983	64.75
319.212	92.75
319.441	108.75
319.67	102.75
319.9	95.75
320.129	103.75
320.358	102.75
320.587	86.75
320.816	105.75
321.046	92.75
321.275	99.75
321.504	98.75
321.733	93.75
321.962	97.75
322.191	87.75
322.42	111.75
322.649	92.75
322.878	121.75
323.108	105.75
323.337	117.75
323.566	126.75
323.795	152.75
324.024	200.75
324.253	407.75
324.482	871.75
324.71	1800.75
324.939	2419.75
325.168	865.75
325.397	235.75
325.626	147.75
325.855	115.75
326.084	130.75
326.313	124.75
326.542	165.75
326.77	227.75
326.999	479.75
327.228	1009.75
327.457	1853.75
327.686	1464.75
327.914	401.75
328.143	204.75
328.372	165.75
328.6	119.75
328.829	117.75
329.058	138.75
329.287	146.75
329.515	103.75
329.744	93.75
329.972	98.75
330.201	95.75
330.43	114.75
330.658	113.75
330.887	148.75
331.115	124.75
331.344	117.75
331.572	92.75
331.801	118.75
332.03	97.75
332.258	95.75
332.486	87.75
332.715	87.75
332.943	89.75
333.172	80.75
333.4	104.75
333.629	100.75
333.857	97.75
334.085	108.75
334.314	96.75
334.542	78.75
334.771	83.75
334.999	85.75
335.227	90.75
335.455	93.75
335.684	103.75
335.912	93.75
336.14	92.75
336.369	86.75
336.597	89.75
336.825	89.75
337.053	102.75
337.281	99.75
337.51	90.75
337.738	87.75
337.966	111.75
338.194	104.75
338.422	117.75
338.65	108.75
338.878	100.75
339.106	91.75
339.334	93.75
339.562	94.75
339.79	85.75
340.018	83.75
340.246	87.75
340.474	94.75
340.702	90.75
340.93	90.75
341.158	98.75
341.386	94.75
341.614	97.75
341.842	96.75
342.07	84.75
342.298	92.75
342.526	92.75
342.754	92.75
342.981	88.75
343.209	84.75
343.437	113.75
343.665	95.75
343.893	86.75
344.12	86.75
344.348	98.75
344.576	103.75
344.804	89.75
345.031	98.75
345.259	90.75
345.487	96.75
345.714	93.75
345.942	84.75
346.17	85.75
346.397	88.75
346.625	90.75
346.853	82.75
347.08	73.75
347.308	105.75
347.535	81.75
347.763	88.75
347.99	98.75
348.218	103.75
348.445	113.75
348.673	96.75
348.9	89.75
349.128	91.75
349.355	95.75
349.583	86.75
349.81	92.75
350.037	84.75
350.265	86.75
350.492	92.75
350.72	98.75
350.947	97.75
351.174	114.75
351.402	102.75
351.629	102.75
351.856	102.75
352.083	99.75
352.311	107.75
352.538	111.75
352.765	116.75
352.992	116.75
353.22	98.75
353.447	102.75
353.674	101.75
353.901	82.75
354.128	80.75
354.355	87.75
354.583	92.75
354.81	106.75
355.037	88.75
355.264	85.75
355.491	103.75
355.718	88.75
355.945	96.75
356.172	92.75
356.399	94.75
356.626	87.75
356.853	92.75
357.08	96.75
357.307	94.75
357.534	98.75
357.761	92.75
357.988	93.75
358.215	98.75
358.441	97.75
358.668	87.75
358.895	81.75
359.122	87.75
359.349	89.75
359.576	95.75
359.802	88.75
360.029	97.75
360.256	113.75
360.483	115.75
360.709	91.75
360.936	107.75
361.163	102.75
361.39	94.75
361.616	84.75
361.843	94.75
362.07	84.75
362.296	95.75
362.523	84.75
362.749	82.75
362.976	90.75
363.203	77.75
363.429	103.75
363.656	90.75
363.882	99.75
364.109	85.75
364.335	80.75
364.562	96.75
364.788	84.75
365.015	84.75
365.241	110.75
365.468	124.75
365.694	101.75
365.92	107.75
366.147	80.75
366.373	92.75
366.599	84.75
366.826	87.75
367.052	79.75
367.278	96.75
367.505	89.75
367.731	94.75
367.957	81.75
368.184	89.75
368.41	85.75
368.636	110.75
368.862	105.75
369.089	103.75
369.315	88.75
369.541	85.75
369.767	94.75
369.993	95.75
370.219	100.75
370.445	94.75
370.672	87.75
370.898	95.75
371.124	107.75
371.35	111.75
371.576	89.75
371.802	81.75
372.028	92.75
372.254	84.75
372.48	80.75
372.706	86.75
372.932	91.75
373.158	79.75
373.384	94.75
373.61	82.75
373.835	81.75
374.061	79.75
374.287	73.75
374.513	92.75
374.739	85.75
374.965	93.75
375.191	80.75
375.416	83.75
375.642	96.75
375.868	87.75
376.094	97.75
376.319	89.75
376.545	87.75
376.771	79.75
376.997	79.75
377.222	95.75
377.448	81.75
377.674	89.75
377.899	79.75
378.125	91.75
378.35	96.75
378.576	102.75
378.802	83.75
379.027	97.75
379.253	88.75
379.478	88.75
379.704	96.75
379.929	82.75
380.155	80.75
380.38	86.75
380.606	93.75
380.831	89.75
381.057	106.75
381.282	88.75
381.507	92.75
381.733	97.75
381.958	94.75
382.184	103.75
382.409	87.75
382.634	90.75
382.86	98.75
383.085	103.75
383.31	94.75
383.535	84.75
383.761	90.75
383.986	101.75
384.211	107.75
384.436	95.75
384.662	97.75
384.887	107.75
385.112	90.75
385.337	103.75
385.562	101.75
385.787	100.75
386.013	102.75
386.238	97.75
386.463	99.75
386.688	113.75
386.913	91.75
387.138	88.75
387.363	94.75
387.588	92.75
387.813	98.75
388.038	97.75
388.263	105.75
388.488	100.75
388.713	106.75
388.938	96.75
389.163	92.75
389.387	91.75
389.612	92.75
389.837	87.75
390.062	92.75
390.287	74.75
390.512	90.75
390.736	95.75
390.961	98.75
391.186	91.75
391.411	87.75
391.636	82.75
391.86	79.75
392.085	88.75
392.31	69.75
392.534	90.75
392.759	90.75
392.984	82.75
393.208	92.75
393.433	97.75
393.658	88.75
393.882	85.75
394.107	98.75
394.331	90.75
394.556	73.75
394.78	82.75
395.005	71.75
395.229	70.75
395.454	90.75
395.678	81.75
395.903	79.75
396.127	76.75
396.352	94.75
396.576	90.75
396.801	91.75
397.025	69.75
397.249	96.75
397.474	87.75
397.698	71.75
397.922	88.75
398.147	90.75
398.371	89.75
398.595	83.75
398.82	69.75
399.044	97.75
399.268	94.75
399.492	84.75
399.717	82.75
399.941	84.75
400.165	87.75
400.389	91.75
400.613	72.75
400.837	88.75
401.062	88.75
401.286	77.75
401.51	98.75
401.734	95.75
401.958	86.75
402.182	119.75
402.406	158.75
402.63	104.75
402.854	93.75
403.078	84.75
403.302	88.75
403.526	85.75
403.75	79.75
403.974	76.75
404.198	77.75
404.422	86.75
404.645	80.75
404.869	92.75
405.093	97.75
405.317	83.75
405.541	108.75
405.765	90.75
405.988	116.75
406.212	175.75
406.436	223.75
406.66	146.75
406.883	93.75
407.107	102.75
407.331	94.75
407.555	98.75
407.778	101.75
408.002	92.75
408.226	84.75
408.449	94.75
408.673	101.75
408.896	95.75
409.12	86.75
409.344	96.75
409.567	94.75
409.791	92.75
410.014	86.75
410.238	98.75
410.461	91.75
410.685	89.75
410.908	97.75
411.132	96.75
411.355	112.75
411.578	83.75
411.802	76.75
412.025	71.75
412.249	97.75
412.472	85.75
412.695	91.75
412.919	76.75
413.142	86.75
413.365	76.75
413.589	86.75
413.812	90.75
414.035	94.75
414.258	87.75
414.482	105.75
414.705	96.75
414.928	88.75
415.151	81.75
415.374	92.75
415.597	106.75
415.821	83.75
416.044	94.75
416.267	75.75
416.49	96.75
416.713	70.75
416.936	83.75
417.159	89.75
417.382	96.75
417.605	90.75
417.828	79.75
418.051	91.75
418.274	84.75
418.497	88.75
418.72	97.75
418.943	87.75
419.166	92.75
419.389	89.75
419.611	94.75
419.834	80.75
420.057	90.75
420.28	106.75
420.503	90.75
420.726	75.75
420.948	97.75
421.171	86.75
421.394	101.75
421.617	89.75
421.839	86.75
422.062	90.75
422.285	97.75
422.507	107.75
422.73	112.75
422.953	88.75
423.175	70.75
423.398	89.75
423.621	93.75
423.843	79.75
424.066	90.75
424.288	88.75
424.511	81.75
424.733	97.75
424.956	94.75
425.178	100.75
425.401	97.75
425.623	98.75
425.846	87.75
426.068	98.75
426.291	94.75
426.513	99.75
426.735	94.75
426.958	82.75
427.18	102.75
427.402	142.75
427.625	162.75
427.847	115.75
428.069	102.75
428.292	74.75
428.514	69.75
428.736	83.75
428.958	89.75
429.181	99.75
429.403	88.75
429.625	94.75
429.847	89.75
430.069	102.75
430.292	94.75
430.514	89.75
430.736	91.75
430.958	77.75
431.18	84.75
431.402	96.75
431.624	80.75
431.846	89.75
432.068	102.75
432.29	78.75
432.512	63.75
432.734	90.75
432.956	95.75
433.178	102.75
433.4	107.75
433.622	105.75
433.844	78.75
434.066	75.75
434.287	92.75
434.509	80.75
434.731	77.75
434.953	83.75
435.175	78.75
435.397	82.75
435.618	82.75
435.84	106.75
436.062	128.75
436.284	139.75
436.505	102.75
436.727	113.75
436.949	95.75
437.17	82.75
437.392	87.75
437.614	96.75
437.835	100.75
438.057	117.75
438.278	100.75
438.5	89.75
438.721	134.75
438.943	113.75
439.165	102.75
439.386	80.75
439.608	99.75
439.829	97.75
440.05	124.75
440.272	142.75
440.493	98.75
440.715	83.75
440.936	85.75
441.158	82.75
441.379	92.75
441.6	91.75
441.822	98.75
442.043	94.75
442.264	98.75
442.486	98.75
442.707	91.75
442.928	106.75
443.149	124.75
443.371	122.75
443.592	120.75
443.813	113.75
444.034	113.75
444.255	105.75
444.476	89.75
444.698	96.75
444.919	103.75
445.14	129.75
445.361	125.75
445.582	122.75
445.803	149.75
446.024	156.75
446.245	143.75
446.466	101.75
446.687	98.75
446.908	90.75
447.129	82.75
447.35	88.75
447.571	94.75
447.792	90.75
448.013	90.75
448.234	88.75
448.455	112.75
448.675	111.75
448.896	126.75
449.117	112.75
449.338	98.75
449.559	124.75
449.779	138.75
450	94.75
450.221	80.75
450.442	78.75
450.662	106.75
450.883	100.75
451.104	117.75
451.324	88.75
451.545	97.75
451.766	89.75
451.986	78.75
452.207	97.75
452.428	90.75
452.648	96.75
452.869	112.75
453.089	101.75
453.31	115.75
453.53	71.75
453.751	90.75
453.971	113.75
454.192	101.75
454.412	87.75
454.633	85.75
454.853	80.75
455.073	100.75
455.294	89.75
455.514	101.75
455.734	75.75
455.955	85.75
456.175	84.75
456.395	78.75
456.616	88.75
456.836	77.75
457.056	82.75
457.276	77.75
457.497	90.75
457.717	83.75
457.937	93.75
458.157	88.75
458.377	96.75
458.598	90.75
458.818	145.75
459.038	156.75
459.258	111.75
459.478	91.75
459.698	88.75
459.918	74.75
460.138	89.75
460.358	95.75
460.578	87.75
460.798	87.75
461.018	77.75
461.238	87.75
461.458	93.75
461.678	91.75
461.898	73.75
462.118	87.75
462.338	94.75
462.558	77.75
462.777	88.75
462.997	65.75
463.217	93.75
463.437	76.75
463.657	81.75
463.876	82.75
464.096	88.75
464.316	91.75
464.536	88.75
464.755	95.75
464.975	99.75
465.195	162.75
465.414	146.75
465.634	89.75
465.854	84.75
466.073	79.75
466.293	86.75
466.512	82.75
466.732	74.75
466.951	99.75
467.171	88.75
467.391	89.75
467.61	97.75
467.829	90.75
468.049	97.75
468.268	89.75
468.488	81.75
468.707	86.75
468.927	87.75
469.146	92.75
469.365	79.75
469.585	80.75
469.804	73.75
470.023	98.75
470.243	89.75
470.462	89.75
470.681	108.75
470.901	80.75
471.12	81.75
471.339	89.75
471.558	91.75
471.777	93.75
471.997	83.75
472.216	90.75
472.435	79.75
472.654	75.75
472.873	81.75
473.092	76.75
473.311	103.75
473.53	82.75
473.749	66.75
473.968	99.75
474.187	100.75
474.406	93.75
474.625	93.75
474.844	94.75
475.063	91.75
475.282	85.75
475.501	86.75
475.72	94.75
475.939	94.75
476.158	96.75
476.377	91.75
476.596	88.75
476.814	75.75
477.033	78.75
477.252	86.75
477.471	80.75
477.69	78.75
477.908	95.75
478.127	84.75
478.346	86.75
478.564	93.75
478.783	92.75
479.002	99.75
479.22	89.75
479.439	110.75
479.658	106.75
479.876	96.75
480.095	99.75
480.313	98.75
480.532	90.75
480.751	75.75
480.969	94.75
481.188	98.75
481.406	89.75
481.624	88.75
481.843	81.75
482.061	81.75
482.28	79.75
482.498	85.75
482.717	77.75
482.935	90.75
483.153	89.75
483.372	89.75
483.59	85.75
483.808	74.75
484.027	95.75
484.245	94.75
484.463	100.75
484.681	83.75
484.9	87.75
485.118	98.75
485.336	87.75
485.554	84.75
485.772	106.75
485.99	89.75
486.209	96.75
486.427	97.75
486.645	110.75
486.863	106.75
487.081	92.75
487.299	91.75
487.517	85.75
487.735	98.75
487.953	104.75
488.171	92.75
488.389	86.75
488.607	92.75
488.825	96.75
489.043	99.75
489.261	106.75
489.479	85.75
489.696	81.75
489.914	81.75
490.132	57.75
490.35	76.75
490.568	74.75
490.786	98.75
491.003	85.75
491.221	79.75
491.439	79.75
491.657	87.75
491.874	85.75
492.092	76.75
492.31	96.75
492.527	75.75
492.745	76.75
492.963	87.75
493.18	85.75
493.398	83.75
493.615	93.75
493.833	93.75
494.05	104.75
494.268	86.75
494.485	86.75
494.703	83.75
494.92	86.75
495.138	90.75
495.355	85.75
495.573	96.75
495.79	89.75
496.008	84.75
496.225	92.75
496.442	94.75
496.66	95.75
496.877	90.75
497.094	90.75
497.312	97.75
497.529	85.75
497.746	86.75
497.963	89.75
498.181	93.75
498.398	95.75
498.615	118.75
498.832	97.75
499.049	84.75
499.267	86.75
499.484	87.75
499.701	104.75
499.918	75.75
500.135	106.75
500.352	99.75
500.569	85.75
500.786	80.75
501.003	91.75
501.22	72.75
501.437	73.75
501.654	93.75
501.871	113.75
502.088	92.75
502.305	85.75
502.522	81.75
502.739	81.75
502.956	93.75
503.172	93.75
503.389	101.75
503.606	103.75
503.823	109.75
504.04	102.75
504.256	70.75
504.473	90.75
504.69	76.75
504.907	82.75
505.123	89.75
505.34	83.75
505.557	88.75
505.773	90.75
505.99	77.75
506.207	80.75
506.423	87.75
506.64	90.75
506.856	94.75
507.073	86.75
507.289	88.75
507.506	106.75
507.722	121.75
507.939	105.75
508.155	100.75
508.372	82.75
508.588	97.75
508.805	98.75
509.021	105.75
509.238	88.75
509.454	90.75
509.67	111.75
509.887	111.75
510.103	112.75
510.319	207.75
510.536	737.75
510.752	2312.75
510.968	652.75
511.184	150.75
511.401	91.75
511.617	84.75
511.833	97.75
512.049	82.75
512.265	73.75
512.481	83.75
512.698	87.75
512.914	83.75
513.13	73.75
513.346	76.75
513.562	96.75
513.778	84.75
513.994	78.75
514.21	102.75
514.426	123.75
514.642	126.75
514.858	125.75
515.074	152.75
515.29	430.75
515.506	1498.75
515.721	572.75
515.937	168.75
516.153	102.75
516.369	115.75
516.585	78.75
