Data from Uncirc_1996_H10_HRD10591_00061.txt Node
Date: Wed Jan 03 11:32:14 EST 2024
User: Yrep
Spectrometer: HR+D1059
Trigger mode: 1
Integration Time (sec): 1.000000E-1
Scans to average: 1
Electric dark correction enabled: true
Nonlinearity correction enabled: false
Boxcar width: 0
XAxis mode: Wavelengths
Number of Pixels in Spectrum: 2048
>>>>>Begin Spectral Data<<<<<
223.165	-28.69
223.4	-28.69
223.635	-28.69
223.869	-26.69
224.104	-26.69
224.338	-1.69
224.573	9.31
224.808	-23.69
225.042	-11.69
225.277	-5.69
225.511	-3.69
225.746	17.31
225.98	5.31
226.215	10.31
226.449	11.31
226.683	6.31
226.918	28.31
227.152	40.31
227.387	36.31
227.621	36.31
227.856	58.31
228.09	44.31
228.324	35.31
228.559	54.31
228.793	59.31
229.027	63.31
229.262	69.31
229.496	59.31
229.73	71.31
229.964	90.31
230.199	66.31
230.433	86.31
230.667	81.31
230.901	72.31
231.136	73.31
231.37	78.31
231.604	58.31
231.838	73.31
232.072	76.31
232.306	85.31
232.541	71.31
232.775	72.31
233.009	79.31
233.243	73.31
233.477	80.31
233.711	68.31
233.945	69.31
234.179	78.31
234.413	81.31
234.647	89.31
234.881	72.31
235.115	78.31
235.349	80.31
235.583	60.31
235.817	72.31
236.051	79.31
236.285	66.31
236.519	62.31
236.753	72.31
236.987	74.31
237.221	70.31
237.455	72.31
237.689	72.31
237.922	79.31
238.156	75.31
238.39	69.31
238.624	91.31
238.858	72.31
239.091	87.31
239.325	77.31
239.559	72.31
239.793	68.31
240.027	75.31
240.26	77.31
240.494	76.31
240.728	74.31
240.961	75.31
241.195	66.31
241.429	76.31
241.662	71.31
241.896	75.31
242.13	83.31
242.363	79.31
242.597	80.31
242.83	80.31
243.064	88.31
243.298	75.31
243.531	54.31
243.765	71.31
243.998	75.31
244.232	70.31
244.465	66.31
244.699	85.31
244.932	79.31
245.166	77.31
245.399	74.31
245.633	73.31
245.866	76.31
246.099	71.31
246.333	82.31
246.566	73.31
246.8	73.31
247.033	92.31
247.266	62.31
247.5	72.31
247.733	83.31
247.966	75.31
248.2	82.31
248.433	64.31
248.666	95.31
248.899	80.31
249.133	75.31
249.366	88.31
249.599	89.31
249.832	63.31
250.066	77.31
250.299	73.31
250.532	80.31
250.765	73.31
250.998	62.31
251.231	75.31
251.465	85.31
251.698	83.31
251.931	94.31
252.164	85.31
252.397	71.31
252.63	71.31
252.863	73.31
253.096	75.31
253.329	72.31
253.562	70.31
253.795	66.31
254.028	79.31
254.261	78.31
254.494	84.31
254.727	94.31
254.96	76.31
255.193	85.31
255.426	68.31
255.659	71.31
255.892	86.31
256.124	79.31
256.357	77.31
256.59	91.31
256.823	74.31
257.056	78.31
257.289	75.31
257.521	76.31
257.754	78.31
257.987	83.31
258.22	87.31
258.452	70.31
258.685	86.31
258.918	80.31
259.151	89.31
259.383	73.31
259.616	83.31
259.849	79.31
260.081	80.31
260.314	75.31
260.547	78.31
260.779	89.31
261.012	72.31
261.244	88.31
261.477	77.31
261.71	83.31
261.942	101.31
262.175	95.31
262.407	90.31
262.64	86.31
262.872	82.31
263.105	82.31
263.337	88.31
263.57	95.31
263.802	81.31
264.035	93.31
264.267	82.31
264.499	82.31
264.732	90.31
264.964	78.31
265.197	85.31
265.429	76.31
265.661	100.31
265.894	76.31
266.126	73.31
266.358	78.31
266.591	78.31
266.823	84.31
267.055	88.31
267.287	68.31
267.52	67.31
267.752	87.31
267.984	64.31
268.216	76.31
268.448	90.31
268.681	77.31
268.913	86.31
269.145	80.31
269.377	86.31
269.609	77.31
269.841	87.31
270.073	74.31
270.306	89.31
270.538	84.31
270.77	84.31
271.002	80.31
271.234	88.31
271.466	84.31
271.698	79.31
271.93	77.31
272.162	84.31
272.394	86.31
272.626	82.31
272.858	80.31
273.09	80.31
273.322	85.31
273.553	58.31
273.785	82.31
274.017	86.31
274.249	78.31
274.481	70.31
274.713	87.31
274.945	91.31
275.176	79.31
275.408	86.31
275.64	92.31
275.872	83.31
276.104	71.31
276.335	91.31
276.567	94.31
276.799	99.31
277.031	77.31
277.262	83.31
277.494	90.31
277.726	78.31
277.957	73.31
278.189	83.31
278.421	72.31
278.652	79.31
278.884	73.31
279.115	73.31
279.347	83.31
279.579	87.31
279.81	79.31
280.042	79.31
280.273	59.31
280.505	74.31
280.736	66.31
280.968	69.31
281.199	98.31
281.431	75.31
281.662	73.31
281.894	75.31
282.125	86.31
282.356	95.31
282.588	123.31
282.819	103.31
283.051	92.31
283.282	79.31
283.513	81.31
283.745	91.31
283.976	82.31
284.207	77.31
284.439	93.31
284.67	90.31
284.901	89.31
285.132	79.31
285.364	84.31
285.595	89.31
285.826	87.31
286.057	76.31
286.288	78.31
286.52	80.31
286.751	74.31
286.982	87.31
287.213	92.31
287.444	83.31
287.675	84.31
287.906	87.31
288.138	85.31
288.369	82.31
288.6	78.31
288.831	108.31
289.062	98.31
289.293	74.31
289.524	80.31
289.755	82.31
289.986	80.31
290.217	87.31
290.448	88.31
290.679	71.31
290.91	88.31
291.141	68.31
291.371	80.31
291.602	86.31
291.833	80.31
292.064	97.31
292.295	84.31
292.526	81.31
292.757	95.31
292.987	91.31
293.218	78.31
293.449	77.31
293.68	94.31
293.91	86.31
294.141	89.31
294.372	94.31
294.603	92.31
294.833	85.31
295.064	90.31
295.295	105.31
295.525	81.31
295.756	94.31
295.987	110.31
296.217	112.31
296.448	107.31
296.679	84.31
296.909	90.31
297.14	100.31
297.37	95.31
297.601	86.31
297.831	89.31
298.062	77.31
298.292	74.31
298.523	91.31
298.753	95.31
298.984	58.31
299.214	83.31
299.445	93.31
299.675	81.31
299.905	69.31
300.136	75.31
300.366	68.31
300.597	95.31
300.827	89.31
301.057	99.31
301.288	102.31
301.518	95.31
301.748	83.31
301.979	95.31
302.209	80.31
302.439	86.31
302.669	86.31
302.9	84.31
303.13	74.31
303.36	73.31
303.59	95.31
303.82	93.31
304.051	83.31
304.281	85.31
304.511	91.31
304.741	82.31
304.971	83.31
305.201	75.31
305.431	94.31
305.661	91.31
305.891	92.31
306.121	82.31
306.352	100.31
306.582	105.31
306.812	77.31
307.042	96.31
307.272	87.31
307.502	85.31
307.731	84.31
307.961	89.31
308.191	97.31
308.421	91.31
308.651	89.31
308.881	84.31
309.111	91.31
309.341	100.31
309.571	96.31
309.8	95.31
310.03	94.31
310.26	90.31
310.49	96.31
310.72	96.31
310.949	80.31
311.179	92.31
311.409	88.31
311.639	84.31
311.868	93.31
312.098	100.31
312.328	79.31
312.557	82.31
312.787	107.31
313.017	98.31
313.246	89.31
313.476	92.31
313.706	95.31
313.935	90.31
314.165	80.31
314.394	77.31
314.624	85.31
314.853	92.31
315.083	87.31
315.312	87.31
315.542	83.31
315.771	84.31
316.001	70.31
316.23	91.31
316.46	79.31
316.689	82.31
316.919	96.31
317.148	102.31
317.377	99.31
317.607	107.31
317.836	101.31
318.065	96.31
318.295	74.31
318.524	92.31
318.753	93.31
318.983	90.31
319.212	89.31
319.441	101.31
319.67	95.31
319.9	82.31
320.129	93.31
320.358	86.31
320.587	74.31
320.816	93.31
321.046	82.31
321.275	100.31
321.504	90.31
321.733	105.31
321.962	84.31
322.191	97.31
322.42	94.31
322.649	95.31
322.878	101.31
323.108	109.31
323.337	124.31
323.566	121.31
323.795	159.31
324.024	184.31
324.253	343.31
324.482	760.31
324.71	1565.31
324.939	2002.31
325.168	752.31
325.397	229.31
325.626	139.31
325.855	131.31
326.084	109.31
326.313	126.31
326.542	155.31
326.77	223.31
326.999	446.31
327.228	872.31
327.457	1565.31
327.686	1242.31
327.914	336.31
328.143	182.31
328.372	149.31
328.6	136.31
328.829	103.31
329.058	110.31
329.287	112.31
329.515	101.31
329.744	94.31
329.972	100.31
330.201	116.31
330.43	94.31
330.658	117.31
330.887	128.31
331.115	108.31
331.344	97.31
331.572	96.31
331.801	95.31
332.03	98.31
332.258	101.31
332.486	88.31
332.715	92.31
332.943	84.31
333.172	94.31
333.4	101.31
333.629	97.31
333.857	107.31
334.085	102.31
334.314	86.31
334.542	86.31
334.771	76.31
334.999	101.31
335.227	83.31
335.455	95.31
335.684	92.31
335.912	92.31
336.14	110.31
336.369	104.31
336.597	88.31
336.825	96.31
337.053	90.31
337.281	89.31
337.51	92.31
337.738	93.31
337.966	86.31
338.194	101.31
338.422	103.31
338.65	92.31
338.878	87.31
339.106	95.31
339.334	83.31
339.562	93.31
339.79	86.31
340.018	77.31
340.246	100.31
340.474	92.31
340.702	83.31
340.93	78.31
341.158	86.31
341.386	91.31
341.614	82.31
341.842	93.31
342.07	91.31
342.298	77.31
342.526	76.31
342.754	83.31
342.981	95.31
343.209	80.31
343.437	91.31
343.665	79.31
343.893	104.31
344.12	85.31
344.348	81.31
344.576	84.31
344.804	84.31
345.031	89.31
345.259	86.31
345.487	101.31
345.714	86.31
345.942	84.31
346.17	103.31
346.397	77.31
346.625	74.31
346.853	75.31
347.08	88.31
347.308	97.31
347.535	100.31
347.763	101.31
347.99	86.31
348.218	85.31
348.445	102.31
348.673	97.31
348.9	102.31
349.128	88.31
349.355	88.31
349.583	82.31
349.81	80.31
350.037	86.31
350.265	93.31
350.492	94.31
350.72	84.31
350.947	95.31
351.174	99.31
351.402	95.31
351.629	104.31
351.856	95.31
352.083	88.31
352.311	92.31
352.538	95.31
352.765	97.31
352.992	100.31
353.22	119.31
353.447	100.31
353.674	98.31
353.901	103.31
354.128	95.31
354.355	93.31
354.583	90.31
354.81	76.31
355.037	98.31
355.264	87.31
355.491	93.31
355.718	96.31
355.945	94.31
356.172	96.31
356.399	93.31
356.626	100.31
356.853	99.31
357.08	89.31
357.307	92.31
357.534	89.31
357.761	102.31
357.988	89.31
358.215	97.31
358.441	89.31
358.668	82.31
358.895	76.31
359.122	70.31
359.349	99.31
359.576	84.31
359.802	88.31
360.029	92.31
360.256	95.31
360.483	87.31
360.709	105.31
360.936	83.31
361.163	89.31
361.39	93.31
361.616	95.31
361.843	99.31
362.07	84.31
362.296	93.31
362.523	82.31
362.749	99.31
362.976	91.31
363.203	87.31
363.429	98.31
363.656	93.31
363.882	74.31
364.109	87.31
364.335	93.31
364.562	76.31
364.788	94.31
365.015	98.31
365.241	97.31
365.468	101.31
365.694	95.31
365.92	98.31
366.147	77.31
366.373	74.31
366.599	88.31
366.826	75.31
367.052	88.31
367.278	83.31
367.505	93.31
367.731	88.31
367.957	85.31
368.184	85.31
368.41	96.31
368.636	100.31
368.862	104.31
369.089	108.31
369.315	94.31
369.541	80.31
369.767	84.31
369.993	90.31
370.219	74.31
370.445	82.31
370.672	86.31
370.898	88.31
371.124	70.31
371.35	84.31
371.576	87.31
371.802	73.31
372.028	78.31
372.254	83.31
372.48	96.31
372.706	76.31
372.932	86.31
373.158	81.31
373.384	100.31
373.61	102.31
373.835	79.31
374.061	64.31
374.287	84.31
374.513	86.31
374.739	96.31
374.965	71.31
375.191	99.31
375.416	89.31
375.642	80.31
375.868	89.31
376.094	86.31
376.319	89.31
376.545	80.31
376.771	88.31
376.997	86.31
377.222	90.31
377.448	91.31
377.674	83.31
377.899	91.31
378.125	84.31
378.35	91.31
378.576	101.31
378.802	79.31
379.027	88.31
379.253	92.31
379.478	86.31
379.704	94.31
379.929	89.31
380.155	93.31
380.38	81.31
380.606	84.31
380.831	86.31
381.057	93.31
381.282	97.31
381.507	90.31
381.733	93.31
381.958	93.31
382.184	105.31
382.409	93.31
382.634	92.31
382.86	104.31
383.085	92.31
383.31	99.31
383.535	90.31
383.761	86.31
383.986	87.31
384.211	85.31
384.436	88.31
384.662	74.31
384.887	95.31
385.112	98.31
385.337	94.31
385.562	90.31
385.787	91.31
386.013	102.31
386.238	96.31
386.463	89.31
386.688	106.31
386.913	94.31
387.138	107.31
387.363	93.31
387.588	98.31
387.813	105.31
388.038	94.31
388.263	100.31
388.488	107.31
388.713	91.31
388.938	88.31
389.163	98.31
389.387	86.31
389.612	86.31
389.837	78.31
390.062	83.31
390.287	84.31
390.512	78.31
390.736	85.31
390.961	86.31
391.186	94.31
391.411	86.31
391.636	90.31
391.86	82.31
392.085	85.31
392.31	69.31
392.534	63.31
392.759	63.31
392.984	91.31
393.208	77.31
393.433	90.31
393.658	84.31
393.882	94.31
394.107	61.31
394.331	90.31
394.556	78.31
394.78	77.31
395.005	73.31
395.229	87.31
395.454	96.31
395.678	86.31
395.903	86.31
396.127	85.31
396.352	76.31
396.576	84.31
396.801	96.31
397.025	79.31
397.249	79.31
397.474	84.31
397.698	85.31
397.922	80.31
398.147	71.31
398.371	81.31
398.595	84.31
398.82	79.31
399.044	83.31
399.268	79.31
399.492	78.31
399.717	80.31
399.941	87.31
400.165	87.31
400.389	80.31
400.613	91.31
400.837	82.31
401.062	90.31
401.286	83.31
401.51	79.31
401.734	76.31
401.958	88.31
402.182	124.31
402.406	139.31
402.63	116.31
402.854	68.31
403.078	89.31
403.302	78.31
403.526	91.31
403.75	76.31
403.974	94.31
404.198	88.31
404.422	84.31
404.645	100.31
404.869	84.31
405.093	80.31
405.317	90.31
405.541	93.31
405.765	84.31
405.988	94.31
406.212	150.31
406.436	194.31
406.66	124.31
406.883	92.31
407.107	93.31
407.331	70.31
407.555	94.31
407.778	81.31
408.002	68.31
408.226	75.31
408.449	88.31
408.673	78.31
408.896	94.31
409.12	100.31
409.344	83.31
409.567	61.31
409.791	99.31
410.014	94.31
410.238	91.31
410.461	87.31
410.685	94.31
410.908	89.31
411.132	101.31
411.355	88.31
411.578	88.31
411.802	83.31
412.025	82.31
412.249	74.31
412.472	82.31
412.695	89.31
412.919	99.31
413.142	74.31
413.365	91.31
413.589	83.31
413.812	106.31
414.035	90.31
414.258	88.31
414.482	91.31
414.705	84.31
414.928	87.31
415.151	89.31
415.374	75.31
415.597	82.31
415.821	98.31
416.044	89.31
416.267	86.31
416.49	86.31
416.713	100.31
416.936	99.31
417.159	57.31
417.382	86.31
417.605	83.31
417.828	86.31
418.051	99.31
418.274	93.31
418.497	85.31
418.72	94.31
418.943	93.31
419.166	79.31
419.389	83.31
419.611	81.31
419.834	99.31
420.057	90.31
420.28	88.31
420.503	81.31
420.726	80.31
420.948	90.31
421.171	87.31
421.394	87.31
421.617	100.31
421.839	84.31
422.062	90.31
422.285	94.31
422.507	102.31
422.73	96.31
422.953	90.31
423.175	78.31
423.398	83.31
423.621	87.31
423.843	84.31
424.066	83.31
424.288	91.31
424.511	83.31
424.733	90.31
424.956	108.31
425.178	98.31
425.401	92.31
425.623	108.31
425.846	85.31
426.068	96.31
426.291	80.31
426.513	87.31
426.735	89.31
426.958	74.31
427.18	96.31
427.402	120.31
427.625	152.31
427.847	114.31
428.069	103.31
428.292	87.31
428.514	102.31
428.736	91.31
428.958	83.31
429.181	84.31
429.403	90.31
429.625	89.31
429.847	81.31
430.069	98.31
430.292	100.31
430.514	81.31
430.736	89.31
430.958	79.31
431.18	77.31
431.402	80.31
431.624	89.31
431.846	74.31
432.068	77.31
432.29	77.31
432.512	90.31
432.734	89.31
432.956	79.31
433.178	101.31
433.4	106.31
433.622	93.31
433.844	92.31
434.066	90.31
434.287	80.31
434.509	86.31
434.731	93.31
434.953	83.31
435.175	102.31
435.397	82.31
435.618	91.31
435.84	96.31
436.062	127.31
436.284	114.31
436.505	95.31
436.727	63.31
436.949	84.31
437.17	71.31
437.392	86.31
437.614	74.31
437.835	100.31
438.057	102.31
438.278	112.31
438.5	91.31
438.721	108.31
438.943	95.31
439.165	96.31
439.386	86.31
439.608	94.31
439.829	91.31
440.05	108.31
440.272	138.31
440.493	94.31
440.715	84.31
440.936	94.31
441.158	78.31
441.379	90.31
441.6	93.31
441.822	93.31
442.043	83.31
442.264	107.31
442.486	89.31
442.707	94.31
442.928	98.31
443.149	122.31
443.371	103.31
443.592	101.31
443.813	118.31
444.034	90.31
444.255	93.31
444.476	82.31
444.698	82.31
444.919	82.31
445.14	139.31
445.361	123.31
445.582	106.31
445.803	140.31
446.024	118.31
446.245	121.31
446.466	96.31
446.687	83.31
446.908	92.31
447.129	71.31
447.35	91.31
447.571	88.31
447.792	90.31
448.013	101.31
448.234	99.31
448.455	86.31
448.675	103.31
448.896	111.31
449.117	107.31
449.338	106.31
449.559	123.31
449.779	115.31
450	96.31
450.221	78.31
450.442	77.31
450.662	79.31
450.883	100.31
451.104	108.31
451.324	95.31
451.545	74.31
451.766	74.31
451.986	68.31
452.207	78.31
452.428	80.31
452.648	94.31
452.869	94.31
453.089	99.31
453.31	106.31
453.53	87.31
453.751	81.31
453.971	107.31
454.192	110.31
454.412	75.31
454.633	80.31
454.853	95.31
455.073	74.31
455.294	84.31
455.514	92.31
455.734	83.31
455.955	77.31
456.175	84.31
456.395	72.31
456.616	80.31
456.836	68.31
457.056	77.31
457.276	88.31
457.497	63.31
457.717	75.31
457.937	79.31
458.157	86.31
458.377	83.31
458.598	96.31
458.818	155.31
459.038	138.31
459.258	108.31
459.478	94.31
459.698	91.31
459.918	71.31
460.138	84.31
460.358	82.31
460.578	80.31
460.798	73.31
461.018	80.31
461.238	76.31
461.458	82.31
461.678	89.31
461.898	75.31
462.118	78.31
462.338	85.31
462.558	86.31
462.777	95.31
462.997	100.31
463.217	72.31
463.437	70.31
463.657	85.31
463.876	98.31
464.096	86.31
464.316	90.31
464.536	95.31
464.755	90.31
464.975	107.31
465.195	148.31
465.414	140.31
465.634	100.31
465.854	78.31
466.073	69.31
466.293	72.31
466.512	78.31
466.732	71.31
466.951	87.31
467.171	77.31
467.391	88.31
467.61	84.31
467.829	90.31
468.049	68.31
468.268	75.31
468.488	63.31
468.707	71.31
468.927	78.31
469.146	75.31
469.365	86.31
469.585	71.31
469.804	87.31
470.023	102.31
470.243	93.31
470.462	94.31
470.681	101.31
470.901	84.31
471.12	78.31
471.339	85.31
471.558	84.31
471.777	87.31
471.997	91.31
472.216	80.31
472.435	93.31
472.654	92.31
472.873	94.31
473.092	87.31
473.311	78.31
473.53	71.31
473.749	78.31
473.968	83.31
474.187	99.31
474.406	91.31
474.625	92.31
474.844	84.31
475.063	69.31
475.282	89.31
475.501	93.31
475.72	90.31
475.939	80.31
476.158	73.31
476.377	78.31
476.596	71.31
476.814	86.31
477.033	92.31
477.252	73.31
477.471	78.31
477.69	79.31
477.908	78.31
478.127	80.31
478.346	94.31
478.564	82.31
478.783	96.31
479.002	74.31
479.22	95.31
479.439	90.31
479.658	98.31
479.876	84.31
480.095	88.31
480.313	95.31
480.532	99.31
480.751	79.31
480.969	92.31
481.188	104.31
481.406	63.31
481.624	82.31
481.843	76.31
482.061	64.31
482.28	98.31
482.498	89.31
482.717	87.31
482.935	76.31
483.153	84.31
483.372	88.31
483.59	86.31
483.808	73.31
484.027	86.31
484.245	79.31
484.463	85.31
484.681	95.31
484.9	90.31
485.118	89.31
485.336	72.31
485.554	108.31
485.772	102.31
485.99	90.31
486.209	84.31
486.427	83.31
486.645	106.31
486.863	95.31
487.081	99.31
487.299	82.31
487.517	96.31
487.735	88.31
487.953	80.31
488.171	89.31
488.389	84.31
488.607	97.31
488.825	72.31
489.043	92.31
489.261	70.31
489.479	88.31
489.696	93.31
489.914	91.31
490.132	100.31
490.35	80.31
490.568	84.31
490.786	75.31
491.003	74.31
491.221	84.31
491.439	86.31
491.657	86.31
491.874	86.31
492.092	65.31
492.31	75.31
492.527	89.31
492.745	84.31
492.963	88.31
493.18	77.31
493.398	78.31
493.615	100.31
493.833	95.31
494.05	100.31
494.268	84.31
494.485	92.31
494.703	86.31
494.92	84.31
495.138	93.31
495.355	88.31
495.573	82.31
495.79	93.31
496.008	82.31
496.225	79.31
496.442	87.31
496.66	101.31
496.877	88.31
497.094	83.31
497.312	95.31
497.529	91.31
497.746	77.31
497.963	99.31
498.181	94.31
498.398	88.31
498.615	104.31
498.832	87.31
499.049	80.31
499.267	91.31
499.484	85.31
499.701	79.31
499.918	93.31
500.135	71.31
500.352	74.31
500.569	91.31
500.786	82.31
501.003	88.31
501.22	105.31
501.437	94.31
501.654	76.31
501.871	99.31
502.088	88.31
502.305	100.31
502.522	72.31
502.739	74.31
502.956	94.31
503.172	94.31
503.389	95.31
503.606	97.31
503.823	75.31
504.04	80.31
504.256	76.31
504.473	92.31
504.69	82.31
504.907	98.31
505.123	82.31
505.34	80.31
505.557	86.31
505.773	100.31
505.99	70.31
506.207	70.31
506.423	74.31
506.64	84.31
506.856	86.31
507.073	93.31
507.289	92.31
507.506	90.31
507.722	104.31
507.939	102.31
508.155	104.31
508.372	89.31
508.588	94.31
508.805	90.31
509.021	81.31
509.238	89.31
509.454	102.31
509.67	99.31
509.887	109.31
510.103	114.31
510.319	192.31
510.536	674.31
510.752	1943.31
510.968	558.31
511.184	149.31
511.401	109.31
511.617	93.31
511.833	91.31
512.049	89.31
512.265	84.31
512.481	82.31
512.698	86.31
512.914	87.31
513.13	86.31
513.346	85.31
513.562	86.31
513.778	96.31
513.994	99.31
514.21	101.31
514.426	108.31
514.642	115.31
514.858	102.31
515.074	155.31
515.29	382.31
515.506	1224.31
515.721	470.31
515.937	139.31
516.153	112.31
516.369	91.31
516.585	93.31
516.801	78.31
517.016	98.31
517.232	91.31
