Data from Uncirc_1996_H10_HRD10591_00042.txt Node
Date: Wed Jan 03 11:32:10 EST 2024
User: Yrep
Spectrometer: HR+D1059
Trigger mode: 1
Integration Time (sec): 1.000000E-1
Scans to average: 1
Electric dark correction enabled: true
Nonlinearity correction enabled: false
Boxcar width: 0
XAxis mode: Wavelengths
Number of Pixels in Spectrum: 2048
>>>>>Begin Spectral Data<<<<<
223.165	-20.88
223.4	-20.88
223.635	-20.88
223.869	-18.88
224.104	-17.88
224.338	-16.88
224.573	-16.88
224.808	-5.88
225.042	0.12
225.277	-11.88
225.511	2.12
225.746	9.12
225.98	9.12
226.215	9.12
226.449	21.12
226.683	16.12
226.918	28.12
227.152	14.12
227.387	36.12
227.621	32.12
227.856	30.12
228.09	37.12
228.324	47.12
228.559	47.12
228.793	60.12
229.027	62.12
229.262	84.12
229.496	76.12
229.73	75.12
229.964	70.12
230.199	71.12
230.433	80.12
230.667	76.12
230.901	76.12
231.136	71.12
231.37	94.12
231.604	68.12
231.838	86.12
232.072	61.12
232.306	82.12
232.541	80.12
232.775	71.12
233.009	86.12
233.243	72.12
233.477	77.12
233.711	84.12
233.945	85.12
234.179	68.12
234.413	82.12
234.647	77.12
234.881	63.12
235.115	77.12
235.349	82.12
235.583	73.12
235.817	76.12
236.051	84.12
236.285	70.12
236.519	85.12
236.753	77.12
236.987	71.12
237.221	73.12
237.455	82.12
237.689	72.12
237.922	73.12
238.156	62.12
238.39	78.12
238.624	63.12
238.858	80.12
239.091	71.12
239.325	82.12
239.559	89.12
239.793	79.12
240.027	74.12
240.26	78.12
240.494	75.12
240.728	70.12
240.961	83.12
241.195	75.12
241.429	74.12
241.662	85.12
241.896	69.12
242.13	74.12
242.363	70.12
242.597	73.12
242.83	87.12
243.064	90.12
243.298	76.12
243.531	94.12
243.765	80.12
243.998	80.12
244.232	70.12
244.465	73.12
244.699	68.12
244.932	74.12
245.166	82.12
245.399	75.12
245.633	80.12
245.866	75.12
246.099	70.12
246.333	80.12
246.566	83.12
246.8	62.12
247.033	80.12
247.266	70.12
247.5	80.12
247.733	76.12
247.966	87.12
248.2	76.12
248.433	62.12
248.666	62.12
248.899	74.12
249.133	91.12
249.366	86.12
249.599	98.12
249.832	76.12
250.066	73.12
250.299	86.12
250.532	79.12
250.765	60.12
250.998	82.12
251.231	63.12
251.465	84.12
251.698	72.12
251.931	65.12
252.164	86.12
252.397	71.12
252.63	81.12
252.863	75.12
253.096	63.12
253.329	90.12
253.562	82.12
253.795	75.12
254.028	78.12
254.261	90.12
254.494	90.12
254.727	92.12
254.96	80.12
255.193	68.12
255.426	85.12
255.659	74.12
255.892	77.12
256.124	68.12
256.357	85.12
256.59	78.12
256.823	74.12
257.056	79.12
257.289	85.12
257.521	80.12
257.754	80.12
257.987	77.12
258.22	82.12
258.452	60.12
258.685	70.12
258.918	62.12
259.151	72.12
259.383	78.12
259.616	72.12
259.849	70.12
260.081	84.12
260.314	76.12
260.547	92.12
260.779	84.12
261.012	79.12
261.244	74.12
261.477	87.12
261.71	103.12
261.942	106.12
262.175	101.12
262.407	74.12
262.64	61.12
262.872	86.12
263.105	81.12
263.337	94.12
263.57	92.12
263.802	74.12
264.035	71.12
264.267	98.12
264.499	79.12
264.732	70.12
264.964	76.12
265.197	81.12
265.429	81.12
265.661	78.12
265.894	75.12
266.126	81.12
266.358	79.12
266.591	81.12
266.823	64.12
267.055	75.12
267.287	87.12
267.52	68.12
267.752	102.12
267.984	76.12
268.216	78.12
268.448	84.12
268.681	81.12
268.913	75.12
269.145	81.12
269.377	76.12
269.609	71.12
269.841	90.12
270.073	91.12
270.306	86.12
270.538	70.12
270.77	79.12
271.002	76.12
271.234	95.12
271.466	90.12
271.698	97.12
271.93	84.12
272.162	82.12
272.394	78.12
272.626	79.12
272.858	82.12
273.09	88.12
273.322	73.12
273.553	76.12
273.785	96.12
274.017	76.12
274.249	87.12
274.481	86.12
274.713	72.12
274.945	78.12
275.176	71.12
275.408	70.12
275.64	85.12
275.872	74.12
276.104	81.12
276.335	95.12
276.567	104.12
276.799	84.12
277.031	81.12
277.262	81.12
277.494	83.12
277.726	86.12
277.957	81.12
278.189	87.12
278.421	84.12
278.652	87.12
278.884	93.12
279.115	99.12
279.347	78.12
279.579	78.12
279.81	77.12
280.042	81.12
280.273	79.12
280.505	89.12
280.736	91.12
280.968	69.12
281.199	85.12
281.431	80.12
281.662	80.12
281.894	86.12
282.125	90.12
282.356	103.12
282.588	134.12
282.819	107.12
283.051	92.12
283.282	89.12
283.513	86.12
283.745	89.12
283.976	82.12
284.207	92.12
284.439	86.12
284.67	73.12
284.901	86.12
285.132	74.12
285.364	77.12
285.595	88.12
285.826	86.12
286.057	86.12
286.288	80.12
286.52	73.12
286.751	71.12
286.982	89.12
287.213	71.12
287.444	77.12
287.675	83.12
287.906	110.12
288.138	89.12
288.369	89.12
288.6	78.12
288.831	88.12
289.062	89.12
289.293	89.12
289.524	79.12
289.755	84.12
289.986	78.12
290.217	83.12
290.448	80.12
290.679	74.12
290.91	100.12
291.141	90.12
291.371	87.12
291.602	85.12
291.833	74.12
292.064	85.12
292.295	81.12
292.526	93.12
292.757	92.12
292.987	95.12
293.218	89.12
293.449	98.12
293.68	91.12
293.91	77.12
294.141	80.12
294.372	87.12
294.603	78.12
294.833	99.12
295.064	85.12
295.295	89.12
295.525	97.12
295.756	82.12
295.987	114.12
296.217	112.12
296.448	113.12
296.679	87.12
296.909	103.12
297.14	92.12
297.37	82.12
297.601	88.12
297.831	84.12
298.062	80.12
298.292	85.12
298.523	93.12
298.753	87.12
298.984	97.12
299.214	79.12
299.445	71.12
299.675	87.12
299.905	100.12
300.136	96.12
300.366	86.12
300.597	89.12
300.827	97.12
301.057	86.12
301.288	106.12
301.518	90.12
301.748	85.12
301.979	103.12
302.209	91.12
302.439	85.12
302.669	80.12
302.9	91.12
303.13	90.12
303.36	101.12
303.59	95.12
303.82	99.12
304.051	95.12
304.281	93.12
304.511	95.12
304.741	85.12
304.971	78.12
305.201	97.12
305.431	85.12
305.661	84.12
305.891	89.12
306.121	98.12
306.352	102.12
306.582	106.12
306.812	89.12
307.042	85.12
307.272	85.12
307.502	87.12
307.731	84.12
307.961	80.12
308.191	95.12
308.421	86.12
308.651	90.12
308.881	93.12
309.111	81.12
309.341	85.12
309.571	91.12
309.8	99.12
310.03	96.12
310.26	96.12
310.49	91.12
310.72	98.12
310.949	117.12
311.179	101.12
311.409	97.12
311.639	110.12
311.868	89.12
312.098	88.12
312.328	100.12
312.557	85.12
312.787	95.12
313.017	101.12
313.246	100.12
313.476	101.12
313.706	81.12
313.935	89.12
314.165	106.12
314.394	91.12
314.624	98.12
314.853	90.12
315.083	90.12
315.312	84.12
315.542	92.12
315.771	89.12
316.001	82.12
316.23	87.12
316.46	94.12
316.689	90.12
316.919	95.12
317.148	86.12
317.377	101.12
317.607	101.12
317.836	98.12
318.065	93.12
318.295	86.12
318.524	99.12
318.753	102.12
318.983	97.12
319.212	103.12
319.441	96.12
319.67	96.12
319.9	104.12
320.129	79.12
320.358	89.12
320.587	81.12
320.816	92.12
321.046	86.12
321.275	91.12
321.504	104.12
321.733	91.12
321.962	88.12
322.191	107.12
322.42	108.12
322.649	111.12
322.878	108.12
323.108	101.12
323.337	114.12
323.566	129.12
323.795	148.12
324.024	176.12
324.253	341.12
324.482	718.12
324.71	1494.12
324.939	1941.12
325.168	721.12
325.397	214.12
325.626	135.12
325.855	121.12
326.084	120.12
326.313	120.12
326.542	135.12
326.77	216.12
326.999	413.12
327.228	849.12
327.457	1560.12
327.686	1217.12
327.914	338.12
328.143	198.12
328.372	163.12
328.6	125.12
328.829	110.12
329.058	103.12
329.287	106.12
329.515	100.12
329.744	88.12
329.972	97.12
330.201	87.12
330.43	104.12
330.658	121.12
330.887	132.12
331.115	103.12
331.344	79.12
331.572	94.12
331.801	98.12
332.03	98.12
332.258	98.12
332.486	100.12
332.715	103.12
332.943	78.12
333.172	105.12
333.4	103.12
333.629	97.12
333.857	110.12
334.085	96.12
334.314	80.12
334.542	89.12
334.771	98.12
334.999	93.12
335.227	94.12
335.455	110.12
335.684	98.12
335.912	95.12
336.14	90.12
336.369	95.12
336.597	117.12
336.825	76.12
337.053	82.12
337.281	86.12
337.51	77.12
337.738	109.12
337.966	86.12
338.194	100.12
338.422	82.12
338.65	98.12
338.878	93.12
339.106	81.12
339.334	104.12
339.562	97.12
339.79	92.12
340.018	78.12
340.246	100.12
340.474	96.12
340.702	110.12
340.93	91.12
341.158	82.12
341.386	92.12
341.614	87.12
341.842	88.12
342.07	96.12
342.298	94.12
342.526	75.12
342.754	92.12
342.981	84.12
343.209	81.12
343.437	87.12
343.665	94.12
343.893	97.12
344.12	98.12
344.348	94.12
344.576	84.12
344.804	85.12
345.031	95.12
345.259	94.12
345.487	95.12
345.714	92.12
345.942	93.12
346.17	91.12
346.397	102.12
346.625	108.12
346.853	88.12
347.08	95.12
347.308	91.12
347.535	92.12
347.763	94.12
347.99	84.12
348.218	102.12
348.445	92.12
348.673	97.12
348.9	82.12
349.128	98.12
349.355	89.12
349.583	105.12
349.81	94.12
350.037	93.12
350.265	82.12
350.492	95.12
350.72	104.12
350.947	94.12
351.174	102.12
351.402	101.12
351.629	91.12
351.856	110.12
352.083	102.12
352.311	100.12
352.538	106.12
352.765	98.12
352.992	95.12
353.22	108.12
353.447	105.12
353.674	95.12
353.901	84.12
354.128	106.12
354.355	97.12
354.583	108.12
354.81	96.12
355.037	86.12
355.264	96.12
355.491	86.12
355.718	83.12
355.945	85.12
356.172	88.12
356.399	101.12
356.626	94.12
356.853	90.12
357.08	85.12
357.307	89.12
357.534	84.12
357.761	87.12
357.988	109.12
358.215	97.12
358.441	97.12
358.668	96.12
358.895	88.12
359.122	88.12
359.349	96.12
359.576	89.12
359.802	99.12
360.029	107.12
360.256	103.12
360.483	115.12
360.709	82.12
360.936	76.12
361.163	96.12
361.39	83.12
361.616	94.12
361.843	93.12
362.07	104.12
362.296	93.12
362.523	93.12
362.749	101.12
362.976	103.12
363.203	96.12
363.429	88.12
363.656	94.12
363.882	81.12
364.109	83.12
364.335	79.12
364.562	92.12
364.788	65.12
365.015	90.12
365.241	102.12
365.468	106.12
365.694	109.12
365.92	90.12
366.147	88.12
366.373	92.12
366.599	102.12
366.826	104.12
367.052	95.12
367.278	92.12
367.505	81.12
367.731	79.12
367.957	85.12
368.184	91.12
368.41	93.12
368.636	109.12
368.862	122.12
369.089	99.12
369.315	88.12
369.541	96.12
369.767	87.12
369.993	93.12
370.219	77.12
370.445	102.12
370.672	86.12
370.898	90.12
371.124	85.12
371.35	96.12
371.576	69.12
371.802	92.12
372.028	96.12
372.254	98.12
372.48	89.12
372.706	88.12
372.932	90.12
373.158	94.12
373.384	101.12
373.61	92.12
373.835	81.12
374.061	72.12
374.287	87.12
374.513	94.12
374.739	93.12
374.965	74.12
375.191	87.12
375.416	86.12
375.642	89.12
375.868	90.12
376.094	96.12
376.319	82.12
376.545	80.12
376.771	82.12
376.997	93.12
377.222	90.12
377.448	99.12
377.674	75.12
377.899	95.12
378.125	102.12
378.35	87.12
378.576	94.12
378.802	90.12
379.027	78.12
379.253	82.12
379.478	93.12
379.704	90.12
379.929	93.12
380.155	93.12
380.38	102.12
380.606	107.12
380.831	78.12
381.057	98.12
381.282	100.12
381.507	98.12
381.733	100.12
381.958	81.12
382.184	86.12
382.409	101.12
382.634	92.12
382.86	95.12
383.085	86.12
383.31	95.12
383.535	98.12
383.761	99.12
383.986	75.12
384.211	84.12
384.436	78.12
384.662	105.12
384.887	101.12
385.112	110.12
385.337	99.12
385.562	92.12
385.787	105.12
386.013	105.12
386.238	113.12
386.463	121.12
386.688	99.12
386.913	109.12
387.138	93.12
387.363	85.12
387.588	101.12
387.813	92.12
388.038	100.12
388.263	93.12
388.488	112.12
388.713	89.12
388.938	89.12
389.163	98.12
389.387	88.12
389.612	104.12
389.837	81.12
390.062	88.12
390.287	95.12
390.512	98.12
390.736	87.12
390.961	78.12
391.186	86.12
391.411	97.12
391.636	110.12
391.86	88.12
392.085	77.12
392.31	80.12
392.534	74.12
392.759	86.12
392.984	97.12
393.208	78.12
393.433	85.12
393.658	95.12
393.882	75.12
394.107	96.12
394.331	82.12
394.556	73.12
394.78	90.12
395.005	86.12
395.229	83.12
395.454	83.12
395.678	77.12
395.903	94.12
396.127	94.12
396.352	80.12
396.576	84.12
396.801	86.12
397.025	89.12
397.249	82.12
397.474	86.12
397.698	93.12
397.922	93.12
398.147	80.12
398.371	93.12
398.595	97.12
398.82	98.12
399.044	101.12
399.268	89.12
399.492	89.12
399.717	63.12
399.941	84.12
400.165	90.12
400.389	98.12
400.613	91.12
400.837	74.12
401.062	92.12
401.286	101.12
401.51	90.12
401.734	85.12
401.958	87.12
402.182	106.12
402.406	157.12
402.63	108.12
402.854	91.12
403.078	87.12
403.302	92.12
403.526	98.12
403.75	89.12
403.974	83.12
404.198	88.12
404.422	79.12
404.645	93.12
404.869	98.12
405.093	89.12
405.317	70.12
405.541	96.12
405.765	85.12
405.988	94.12
406.212	157.12
406.436	188.12
406.66	122.12
406.883	95.12
407.107	92.12
407.331	89.12
407.555	95.12
407.778	89.12
408.002	86.12
408.226	94.12
408.449	86.12
408.673	100.12
408.896	95.12
409.12	98.12
409.344	98.12
409.567	93.12
409.791	81.12
410.014	90.12
410.238	75.12
410.461	87.12
410.685	98.12
410.908	98.12
411.132	95.12
411.355	97.12
411.578	77.12
411.802	85.12
412.025	84.12
412.249	104.12
412.472	97.12
412.695	95.12
412.919	95.12
413.142	89.12
413.365	81.12
413.589	98.12
413.812	78.12
414.035	81.12
414.258	85.12
414.482	79.12
414.705	92.12
414.928	90.12
415.151	90.12
415.374	88.12
415.597	88.12
415.821	87.12
416.044	85.12
416.267	89.12
416.49	71.12
416.713	77.12
416.936	86.12
417.159	76.12
417.382	94.12
417.605	85.12
417.828	93.12
418.051	97.12
418.274	76.12
418.497	83.12
418.72	80.12
418.943	98.12
419.166	85.12
419.389	96.12
419.611	86.12
419.834	80.12
420.057	91.12
420.28	98.12
420.503	81.12
420.726	93.12
420.948	81.12
421.171	79.12
421.394	82.12
421.617	99.12
421.839	81.12
422.062	81.12
422.285	84.12
422.507	97.12
422.73	96.12
422.953	97.12
423.175	82.12
423.398	96.12
423.621	98.12
423.843	79.12
424.066	89.12
424.288	90.12
424.511	110.12
424.733	95.12
424.956	92.12
425.178	98.12
425.401	96.12
425.623	90.12
425.846	88.12
426.068	94.12
426.291	86.12
426.513	80.12
426.735	90.12
426.958	77.12
427.18	99.12
427.402	122.12
427.625	154.12
427.847	120.12
428.069	88.12
428.292	96.12
428.514	73.12
428.736	70.12
428.958	75.12
429.181	85.12
429.403	89.12
429.625	81.12
429.847	85.12
430.069	99.12
430.292	78.12
430.514	81.12
430.736	90.12
430.958	80.12
431.18	81.12
431.402	88.12
431.624	68.12
431.846	79.12
432.068	84.12
432.29	76.12
432.512	89.12
432.734	85.12
432.956	84.12
433.178	101.12
433.4	96.12
433.622	94.12
433.844	92.12
434.066	98.12
434.287	95.12
434.509	93.12
434.731	77.12
434.953	85.12
435.175	79.12
435.397	81.12
435.618	81.12
435.84	99.12
436.062	117.12
436.284	119.12
436.505	101.12
436.727	98.12
436.949	95.12
437.17	68.12
437.392	81.12
437.614	88.12
437.835	100.12
438.057	105.12
438.278	105.12
438.5	93.12
438.721	110.12
438.943	104.12
439.165	75.12
439.386	97.12
439.608	88.12
439.829	95.12
440.05	121.12
440.272	146.12
440.493	96.12
440.715	87.12
440.936	79.12
441.158	96.12
441.379	72.12
441.6	90.12
441.822	99.12
442.043	88.12
442.264	115.12
442.486	102.12
442.707	92.12
442.928	96.12
443.149	128.12
443.371	109.12
443.592	109.12
443.813	105.12
444.034	97.12
444.255	100.12
444.476	73.12
444.698	81.12
444.919	86.12
445.14	130.12
445.361	110.12
445.582	110.12
445.803	113.12
446.024	134.12
446.245	137.12
446.466	100.12
446.687	75.12
446.908	82.12
447.129	96.12
447.35	93.12
447.571	94.12
447.792	84.12
448.013	97.12
448.234	97.12
448.455	104.12
448.675	106.12
448.896	120.12
449.117	92.12
449.338	96.12
449.559	121.12
449.779	117.12
450	89.12
450.221	88.12
450.442	92.12
450.662	80.12
450.883	98.12
451.104	94.12
451.324	109.12
451.545	88.12
451.766	101.12
451.986	89.12
452.207	82.12
452.428	88.12
452.648	79.12
452.869	111.12
453.089	118.12
453.31	88.12
453.53	83.12
453.751	89.12
453.971	108.12
454.192	114.12
454.412	87.12
454.633	82.12
454.853	94.12
455.073	88.12
455.294	82.12
455.514	93.12
455.734	88.12
455.955	77.12
456.175	84.12
456.395	87.12
456.616	81.12
456.836	89.12
457.056	92.12
457.276	89.12
457.497	91.12
457.717	87.12
457.937	86.12
458.157	86.12
458.377	92.12
458.598	79.12
458.818	127.12
459.038	147.12
459.258	110.12
459.478	80.12
459.698	85.12
459.918	83.12
460.138	98.12
460.358	92.12
460.578	77.12
460.798	98.12
461.018	91.12
461.238	92.12
461.458	86.12
461.678	94.12
461.898	100.12
462.118	88.12
462.338	88.12
462.558	97.12
462.777	84.12
462.997	78.12
463.217	98.12
463.437	82.12
463.657	79.12
463.876	71.12
464.096	91.12
464.316	85.12
464.536	102.12
464.755	109.12
464.975	98.12
465.195	142.12
465.414	137.12
465.634	97.12
465.854	79.12
466.073	85.12
466.293	80.12
466.512	78.12
466.732	79.12
466.951	88.12
467.171	87.12
467.391	95.12
467.61	91.12
467.829	74.12
468.049	97.12
468.268	82.12
468.488	82.12
468.707	87.12
468.927	78.12
469.146	73.12
469.365	80.12
469.585	86.12
469.804	80.12
470.023	97.12
470.243	70.12
470.462	102.12
470.681	103.12
470.901	86.12
471.12	76.12
471.339	93.12
471.558	72.12
471.777	86.12
471.997	84.12
472.216	89.12
472.435	82.12
472.654	90.12
472.873	92.12
473.092	62.12
473.311	93.12
473.53	72.12
473.749	83.12
473.968	93.12
474.187	91.12
474.406	102.12
474.625	76.12
474.844	77.12
475.063	80.12
475.282	92.12
475.501	80.12
475.72	94.12
475.939	70.12
476.158	76.12
476.377	88.12
476.596	81.12
476.814	84.12
477.033	102.12
477.252	95.12
477.471	88.12
477.69	81.12
477.908	95.12
478.127	96.12
478.346	79.12
478.564	95.12
478.783	103.12
479.002	94.12
479.22	85.12
479.439	87.12
479.658	80.12
479.876	76.12
480.095	81.12
480.313	94.12
480.532	94.12
480.751	90.12
480.969	98.12
481.188	79.12
481.406	88.12
481.624	92.12
481.843	89.12
482.061	93.12
482.28	81.12
482.498	86.12
482.717	87.12
482.935	96.12
483.153	94.12
483.372	78.12
483.59	93.12
483.808	64.12
484.027	101.12
484.245	85.12
484.463	84.12
484.681	94.12
484.9	93.12
485.118	88.12
485.336	82.12
485.554	102.12
485.772	100.12
485.99	97.12
486.209	101.12
486.427	100.12
486.645	95.12
486.863	120.12
487.081	96.12
487.299	100.12
487.517	99.12
487.735	98.12
487.953	98.12
488.171	96.12
488.389	88.12
488.607	95.12
488.825	84.12
489.043	89.12
489.261	96.12
489.479	74.12
489.696	76.12
489.914	73.12
490.132	82.12
490.35	83.12
490.568	95.12
490.786	74.12
491.003	88.12
491.221	98.12
491.439	107.12
491.657	95.12
491.874	76.12
492.092	99.12
492.31	100.12
492.527	76.12
492.745	95.12
492.963	86.12
493.18	81.12
493.398	95.12
493.615	88.12
493.833	103.12
494.05	89.12
494.268	101.12
494.485	89.12
494.703	93.12
494.92	88.12
495.138	81.12
495.355	86.12
495.573	84.12
495.79	93.12
496.008	84.12
496.225	93.12
496.442	77.12
496.66	90.12
496.877	94.12
497.094	99.12
497.312	91.12
497.529	88.12
497.746	98.12
497.963	78.12
498.181	90.12
498.398	98.12
498.615	92.12
498.832	90.12
499.049	86.12
499.267	88.12
499.484	85.12
499.701	89.12
499.918	107.12
500.135	81.12
500.352	85.12
500.569	90.12
500.786	82.12
501.003	88.12
501.22	87.12
501.437	77.12
501.654	97.12
501.871	89.12
502.088	87.12
502.305	88.12
502.522	91.12
502.739	95.12
502.956	97.12
503.172	90.12
503.389	86.12
503.606	106.12
503.823	103.12
504.04	89.12
504.256	81.12
504.473	84.12
504.69	77.12
504.907	74.12
505.123	81.12
505.34	93.12
505.557	88.12
505.773	80.12
505.99	89.12
506.207	94.12
506.423	78.12
506.64	78.12
506.856	93.12
507.073	94.12
507.289	88.12
507.506	90.12
507.722	94.12
507.939	89.12
508.155	93.12
508.372	86.12
508.588	88.12
508.805	86.12
509.021	79.12
509.238	84.12
509.454	108.12
509.67	95.12
509.887	97.12
510.103	107.12
510.319	179.12
510.536	618.12
510.752	1894.12
510.968	535.12
511.184	148.12
511.401	121.12
511.617	93.12
511.833	91.12
512.049	94.12
512.265	94.12
512.481	97.12
512.698	88.12
512.914	89.12
513.13	93.12
513.346	80.12
513.562	91.12
513.778	102.12
513.994	104.12
514.21	86.12
514.426	98.12
514.642	129.12
514.858	118.12
515.074	151.12
515.29	376.12
515.506	1168.12
515.721	428.12
515.937	134.12
516.153	98.12
516.369	98.12
516.585	93.12
516.801	95.12
