Data from Uncirc_1996_H10_HRD10591_00012.txt Node
Date: Wed Jan 03 11:32:04 EST 2024
User: Yrep
Spectrometer: HR+D1059
Trigger mode: 1
Integration Time (sec): 1.000000E-1
Scans to average: 1
Electric dark correction enabled: true
Nonlinearity correction enabled: false
Boxcar width: 0
XAxis mode: Wavelengths
Number of Pixels in Spectrum: 2048
>>>>>Begin Spectral Data<<<<<
223.165	-22.88
223.4	-22.88
223.635	-22.88
223.869	-17.88
224.104	-15.88
224.338	-17.88
224.573	-8.88
224.808	1.12
225.042	-10.88
225.277	-6.88
225.511	-12.88
225.746	2.12
225.98	7.12
226.215	19.12
226.449	10.12
226.683	18.12
226.918	30.12
227.152	26.12
227.387	39.12
227.621	31.12
227.856	40.12
228.09	38.12
228.324	64.12
228.559	46.12
228.793	55.12
229.027	63.12
229.262	71.12
229.496	71.12
229.73	78.12
229.964	83.12
230.199	74.12
230.433	63.12
230.667	88.12
230.901	75.12
231.136	76.12
231.37	75.12
231.604	81.12
231.838	79.12
232.072	84.12
232.306	80.12
232.541	87.12
232.775	85.12
233.009	80.12
233.243	89.12
233.477	69.12
233.711	92.12
233.945	73.12
234.179	68.12
234.413	69.12
234.647	73.12
234.881	79.12
235.115	75.12
235.349	82.12
235.583	71.12
235.817	83.12
236.051	85.12
236.285	78.12
236.519	80.12
236.753	69.12
236.987	80.12
237.221	91.12
237.455	94.12
237.689	59.12
237.922	66.12
238.156	69.12
238.39	60.12
238.624	65.12
238.858	64.12
239.091	85.12
239.325	73.12
239.559	78.12
239.793	80.12
240.027	75.12
240.26	79.12
240.494	77.12
240.728	70.12
240.961	80.12
241.195	83.12
241.429	81.12
241.662	70.12
241.896	78.12
242.13	62.12
242.363	74.12
242.597	73.12
242.83	91.12
243.064	64.12
243.298	84.12
243.531	79.12
243.765	75.12
243.998	78.12
244.232	69.12
244.465	77.12
244.699	75.12
244.932	74.12
245.166	81.12
245.399	89.12
245.633	75.12
245.866	77.12
246.099	58.12
246.333	75.12
246.566	67.12
246.8	72.12
247.033	81.12
247.266	78.12
247.5	69.12
247.733	83.12
247.966	88.12
248.2	80.12
248.433	77.12
248.666	79.12
248.899	58.12
249.133	86.12
249.366	89.12
249.599	87.12
249.832	82.12
250.066	74.12
250.299	79.12
250.532	77.12
250.765	76.12
250.998	73.12
251.231	89.12
251.465	87.12
251.698	66.12
251.931	82.12
252.164	74.12
252.397	70.12
252.63	84.12
252.863	74.12
253.096	93.12
253.329	71.12
253.562	71.12
253.795	73.12
254.028	82.12
254.261	76.12
254.494	85.12
254.727	89.12
254.96	77.12
255.193	79.12
255.426	83.12
255.659	80.12
255.892	99.12
256.124	74.12
256.357	65.12
256.59	81.12
256.823	75.12
257.056	80.12
257.289	77.12
257.521	63.12
257.754	62.12
257.987	88.12
258.22	79.12
258.452	81.12
258.685	75.12
258.918	70.12
259.151	72.12
259.383	70.12
259.616	80.12
259.849	78.12
260.081	79.12
260.314	73.12
260.547	67.12
260.779	71.12
261.012	95.12
261.244	85.12
261.477	89.12
261.71	91.12
261.942	113.12
262.175	91.12
262.407	82.12
262.64	85.12
262.872	85.12
263.105	82.12
263.337	91.12
263.57	78.12
263.802	87.12
264.035	101.12
264.267	73.12
264.499	68.12
264.732	73.12
264.964	83.12
265.197	77.12
265.429	80.12
265.661	87.12
265.894	93.12
266.126	78.12
266.358	75.12
266.591	79.12
266.823	84.12
267.055	77.12
267.287	82.12
267.52	82.12
267.752	71.12
267.984	82.12
268.216	84.12
268.448	76.12
268.681	83.12
268.913	79.12
269.145	77.12
269.377	91.12
269.609	82.12
269.841	77.12
270.073	75.12
270.306	82.12
270.538	71.12
270.77	98.12
271.002	69.12
271.234	91.12
271.466	89.12
271.698	83.12
271.93	76.12
272.162	87.12
272.394	101.12
272.626	84.12
272.858	74.12
273.09	79.12
273.322	91.12
273.553	79.12
273.785	79.12
274.017	74.12
274.249	83.12
274.481	75.12
274.713	81.12
274.945	93.12
275.176	78.12
275.408	80.12
275.64	68.12
275.872	90.12
276.104	94.12
276.335	88.12
276.567	85.12
276.799	93.12
277.031	89.12
277.262	87.12
277.494	72.12
277.726	90.12
277.957	82.12
278.189	96.12
278.421	86.12
278.652	85.12
278.884	74.12
279.115	84.12
279.347	83.12
279.579	81.12
279.81	86.12
280.042	86.12
280.273	87.12
280.505	87.12
280.736	96.12
280.968	78.12
281.199	87.12
281.431	87.12
281.662	83.12
281.894	91.12
282.125	91.12
282.356	110.12
282.588	127.12
282.819	111.12
283.051	94.12
283.282	89.12
283.513	97.12
283.745	92.12
283.976	93.12
284.207	98.12
284.439	89.12
284.67	83.12
284.901	82.12
285.132	95.12
285.364	97.12
285.595	90.12
285.826	95.12
286.057	84.12
286.288	90.12
286.52	89.12
286.751	94.12
286.982	93.12
287.213	82.12
287.444	98.12
287.675	85.12
287.906	107.12
288.138	98.12
288.369	83.12
288.6	91.12
288.831	81.12
289.062	92.12
289.293	88.12
289.524	91.12
289.755	97.12
289.986	89.12
290.217	91.12
290.448	90.12
290.679	78.12
290.91	90.12
291.141	89.12
291.371	98.12
291.602	73.12
291.833	97.12
292.064	94.12
292.295	97.12
292.526	87.12
292.757	91.12
292.987	65.12
293.218	74.12
293.449	93.12
293.68	75.12
293.91	110.12
294.141	90.12
294.372	82.12
294.603	79.12
294.833	93.12
295.064	72.12
295.295	86.12
295.525	89.12
295.756	88.12
295.987	109.12
296.217	136.12
296.448	112.12
296.679	92.12
296.909	87.12
297.14	83.12
297.37	87.12
297.601	90.12
297.831	91.12
298.062	91.12
298.292	103.12
298.523	91.12
298.753	91.12
298.984	108.12
299.214	74.12
299.445	93.12
299.675	85.12
299.905	101.12
300.136	87.12
300.366	81.12
300.597	97.12
300.827	94.12
301.057	81.12
301.288	96.12
301.518	75.12
301.748	78.12
301.979	106.12
302.209	80.12
302.439	81.12
302.669	76.12
302.9	76.12
303.13	84.12
303.36	94.12
303.59	99.12
303.82	107.12
304.051	87.12
304.281	91.12
304.511	89.12
304.741	91.12
304.971	83.12
305.201	86.12
305.431	96.12
305.661	101.12
305.891	98.12
306.121	98.12
306.352	104.12
306.582	95.12
306.812	95.12
307.042	96.12
307.272	99.12
307.502	97.12
307.731	91.12
307.961	86.12
308.191	67.12
308.421	89.12
308.651	91.12
308.881	81.12
309.111	98.12
309.341	99.12
309.571	88.12
309.8	97.12
310.03	94.12
310.26	101.12
310.49	93.12
310.72	97.12
310.949	113.12
311.179	76.12
311.409	96.12
311.639	89.12
311.868	95.12
312.098	99.12
312.328	106.12
312.557	101.12
312.787	103.12
313.017	83.12
313.246	84.12
313.476	82.12
313.706	95.12
313.935	98.12
314.165	101.12
314.394	93.12
314.624	105.12
314.853	89.12
315.083	103.12
315.312	90.12
315.542	91.12
315.771	91.12
316.001	95.12
316.23	93.12
316.46	87.12
316.689	96.12
316.919	76.12
317.148	94.12
317.377	87.12
317.607	94.12
317.836	75.12
318.065	91.12
318.295	102.12
318.524	97.12
318.753	77.12
318.983	95.12
319.212	110.12
319.441	109.12
319.67	99.12
319.9	93.12
320.129	101.12
320.358	91.12
320.587	91.12
320.816	99.12
321.046	87.12
321.275	104.12
321.504	98.12
321.733	80.12
321.962	78.12
322.191	97.12
322.42	105.12
322.649	116.12
322.878	90.12
323.108	98.12
323.337	120.12
323.566	134.12
323.795	149.12
324.024	178.12
324.253	363.12
324.482	710.12
324.71	1555.12
324.939	2004.12
325.168	747.12
325.397	234.12
325.626	144.12
325.855	137.12
326.084	121.12
326.313	128.12
326.542	140.12
326.77	211.12
326.999	421.12
327.228	853.12
327.457	1588.12
327.686	1265.12
327.914	387.12
328.143	227.12
328.372	183.12
328.6	119.12
328.829	111.12
329.058	128.12
329.287	119.12
329.515	104.12
329.744	104.12
329.972	112.12
330.201	104.12
330.43	110.12
330.658	111.12
330.887	128.12
331.115	98.12
331.344	92.12
331.572	98.12
331.801	107.12
332.03	89.12
332.258	93.12
332.486	99.12
332.715	94.12
332.943	86.12
333.172	103.12
333.4	99.12
333.629	107.12
333.857	94.12
334.085	102.12
334.314	81.12
334.542	93.12
334.771	89.12
334.999	95.12
335.227	93.12
335.455	89.12
335.684	98.12
335.912	96.12
336.14	106.12
336.369	107.12
336.597	89.12
336.825	103.12
337.053	87.12
337.281	89.12
337.51	97.12
337.738	90.12
337.966	106.12
338.194	111.12
338.422	147.12
338.65	112.12
338.878	81.12
339.106	91.12
339.334	108.12
339.562	85.12
339.79	90.12
340.018	91.12
340.246	95.12
340.474	85.12
340.702	96.12
340.93	99.12
341.158	87.12
341.386	99.12
341.614	111.12
341.842	98.12
342.07	85.12
342.298	84.12
342.526	89.12
342.754	95.12
342.981	103.12
343.209	92.12
343.437	98.12
343.665	98.12
343.893	96.12
344.12	80.12
344.348	88.12
344.576	102.12
344.804	75.12
345.031	89.12
345.259	97.12
345.487	100.12
345.714	89.12
345.942	104.12
346.17	98.12
346.397	92.12
346.625	89.12
346.853	97.12
347.08	93.12
347.308	82.12
347.535	88.12
347.763	77.12
347.99	104.12
348.218	106.12
348.445	82.12
348.673	102.12
348.9	99.12
349.128	95.12
349.355	104.12
349.583	95.12
349.81	101.12
350.037	88.12
350.265	103.12
350.492	102.12
350.72	94.12
350.947	96.12
351.174	110.12
351.402	105.12
351.629	108.12
351.856	105.12
352.083	106.12
352.311	101.12
352.538	103.12
352.765	112.12
352.992	101.12
353.22	106.12
353.447	104.12
353.674	89.12
353.901	107.12
354.128	108.12
354.355	98.12
354.583	97.12
354.81	99.12
355.037	85.12
355.264	103.12
355.491	90.12
355.718	82.12
355.945	93.12
356.172	87.12
356.399	88.12
356.626	93.12
356.853	84.12
357.08	97.12
357.307	106.12
357.534	94.12
357.761	106.12
357.988	97.12
358.215	96.12
358.441	96.12
358.668	86.12
358.895	82.12
359.122	76.12
359.349	84.12
359.576	106.12
359.802	99.12
360.029	110.12
360.256	106.12
360.483	82.12
360.709	90.12
360.936	97.12
361.163	91.12
361.39	96.12
361.616	99.12
361.843	97.12
362.07	90.12
362.296	113.12
362.523	88.12
362.749	105.12
362.976	90.12
363.203	90.12
363.429	97.12
363.656	98.12
363.882	93.12
364.109	86.12
364.335	83.12
364.562	89.12
364.788	92.12
365.015	102.12
365.241	103.12
365.468	99.12
365.694	95.12
365.92	87.12
366.147	78.12
366.373	107.12
366.599	82.12
366.826	103.12
367.052	97.12
367.278	94.12
367.505	99.12
367.731	78.12
367.957	94.12
368.184	87.12
368.41	96.12
368.636	99.12
368.862	107.12
369.089	99.12
369.315	88.12
369.541	97.12
369.767	104.12
369.993	104.12
370.219	93.12
370.445	85.12
370.672	84.12
370.898	74.12
371.124	81.12
371.35	86.12
371.576	91.12
371.802	79.12
372.028	80.12
372.254	92.12
372.48	90.12
372.706	85.12
372.932	80.12
373.158	86.12
373.384	85.12
373.61	87.12
373.835	85.12
374.061	91.12
374.287	92.12
374.513	86.12
374.739	78.12
374.965	103.12
375.191	93.12
375.416	96.12
375.642	80.12
375.868	96.12
376.094	92.12
376.319	82.12
376.545	79.12
376.771	95.12
376.997	83.12
377.222	76.12
377.448	84.12
377.674	95.12
377.899	94.12
378.125	93.12
378.35	82.12
378.576	87.12
378.802	97.12
379.027	87.12
379.253	103.12
379.478	89.12
379.704	88.12
379.929	99.12
380.155	88.12
380.38	84.12
380.606	79.12
380.831	94.12
381.057	102.12
381.282	84.12
381.507	91.12
381.733	105.12
381.958	93.12
382.184	95.12
382.409	112.12
382.634	90.12
382.86	87.12
383.085	101.12
383.31	90.12
383.535	90.12
383.761	89.12
383.986	96.12
384.211	88.12
384.436	102.12
384.662	102.12
384.887	119.12
385.112	119.12
385.337	109.12
385.562	111.12
385.787	103.12
386.013	109.12
386.238	120.12
386.463	104.12
386.688	113.12
386.913	113.12
387.138	106.12
387.363	97.12
387.588	102.12
387.813	114.12
388.038	87.12
388.263	96.12
388.488	121.12
388.713	93.12
388.938	86.12
389.163	105.12
389.387	97.12
389.612	75.12
389.837	99.12
390.062	77.12
390.287	97.12
390.512	86.12
390.736	89.12
390.961	89.12
391.186	87.12
391.411	94.12
391.636	102.12
391.86	89.12
392.085	90.12
392.31	81.12
392.534	82.12
392.759	91.12
392.984	91.12
393.208	105.12
393.433	102.12
393.658	99.12
393.882	89.12
394.107	87.12
394.331	70.12
394.556	81.12
394.78	90.12
395.005	85.12
395.229	87.12
395.454	82.12
395.678	80.12
395.903	86.12
396.127	87.12
396.352	91.12
396.576	85.12
396.801	93.12
397.025	81.12
397.249	94.12
397.474	90.12
397.698	97.12
397.922	85.12
398.147	81.12
398.371	78.12
398.595	85.12
398.82	86.12
399.044	84.12
399.268	81.12
399.492	89.12
399.717	82.12
399.941	82.12
400.165	74.12
400.389	94.12
400.613	101.12
400.837	75.12
401.062	78.12
401.286	79.12
401.51	83.12
401.734	77.12
401.958	99.12
402.182	115.12
402.406	151.12
402.63	118.12
402.854	89.12
403.078	97.12
403.302	103.12
403.526	94.12
403.75	76.12
403.974	79.12
404.198	74.12
404.422	80.12
404.645	93.12
404.869	86.12
405.093	89.12
405.317	89.12
405.541	102.12
405.765	79.12
405.988	113.12
406.212	159.12
406.436	185.12
406.66	118.12
406.883	85.12
407.107	94.12
407.331	105.12
407.555	104.12
407.778	86.12
408.002	86.12
408.226	81.12
408.449	85.12
408.673	88.12
408.896	70.12
409.12	90.12
409.344	93.12
409.567	87.12
409.791	96.12
410.014	88.12
410.238	92.12
410.461	81.12
410.685	99.12
410.908	94.12
411.132	102.12
411.355	93.12
411.578	85.12
411.802	84.12
412.025	82.12
412.249	96.12
412.472	79.12
412.695	74.12
412.919	80.12
413.142	85.12
413.365	82.12
413.589	89.12
413.812	91.12
414.035	86.12
414.258	93.12
414.482	81.12
414.705	81.12
414.928	94.12
415.151	95.12
415.374	94.12
415.597	92.12
415.821	81.12
416.044	82.12
416.267	74.12
416.49	77.12
416.713	95.12
416.936	89.12
417.159	103.12
417.382	107.12
417.605	86.12
417.828	85.12
418.051	91.12
418.274	98.12
418.497	78.12
418.72	91.12
418.943	90.12
419.166	92.12
419.389	95.12
419.611	86.12
419.834	76.12
420.057	85.12
420.28	78.12
420.503	85.12
420.726	92.12
420.948	76.12
421.171	92.12
421.394	86.12
421.617	79.12
421.839	82.12
422.062	73.12
422.285	93.12
422.507	103.12
422.73	107.12
422.953	104.12
423.175	73.12
423.398	79.12
423.621	77.12
423.843	85.12
424.066	88.12
424.288	86.12
424.511	89.12
424.733	92.12
424.956	100.12
425.178	102.12
425.401	93.12
425.623	97.12
425.846	83.12
426.068	84.12
426.291	85.12
426.513	97.12
426.735	85.12
426.958	77.12
427.18	110.12
427.402	133.12
427.625	160.12
427.847	112.12
428.069	83.12
428.292	80.12
428.514	83.12
428.736	89.12
428.958	71.12
429.181	87.12
429.403	94.12
429.625	83.12
429.847	95.12
430.069	117.12
430.292	100.12
430.514	79.12
430.736	86.12
430.958	70.12
431.18	88.12
431.402	86.12
431.624	88.12
431.846	72.12
432.068	86.12
432.29	77.12
432.512	82.12
432.734	82.12
432.956	88.12
433.178	94.12
433.4	90.12
433.622	89.12
433.844	78.12
434.066	85.12
434.287	96.12
434.509	85.12
434.731	93.12
434.953	86.12
435.175	88.12
435.397	97.12
435.618	83.12
435.84	84.12
436.062	119.12
436.284	116.12
436.505	97.12
436.727	104.12
436.949	95.12
437.17	85.12
437.392	83.12
437.614	99.12
437.835	102.12
438.057	109.12
438.278	86.12
438.5	97.12
438.721	111.12
438.943	92.12
439.165	89.12
439.386	90.12
439.608	82.12
439.829	94.12
440.05	128.12
440.272	156.12
440.493	90.12
440.715	95.12
440.936	89.12
441.158	95.12
441.379	78.12
441.6	90.12
441.822	71.12
442.043	89.12
442.264	119.12
442.486	89.12
442.707	90.12
442.928	115.12
443.149	115.12
443.371	126.12
443.592	113.12
443.813	108.12
444.034	108.12
444.255	94.12
444.476	81.12
444.698	93.12
444.919	93.12
445.14	127.12
445.361	114.12
445.582	104.12
445.803	129.12
446.024	137.12
446.245	127.12
446.466	106.12
446.687	86.12
446.908	93.12
447.129	88.12
447.35	96.12
447.571	86.12
447.792	84.12
448.013	87.12
448.234	104.12
448.455	88.12
448.675	110.12
448.896	105.12
449.117	94.12
449.338	111.12
449.559	135.12
449.779	115.12
450	86.12
450.221	85.12
450.442	87.12
450.662	102.12
450.883	97.12
451.104	99.12
451.324	87.12
451.545	89.12
451.766	85.12
451.986	82.12
452.207	82.12
452.428	95.12
452.648	91.12
452.869	104.12
453.089	105.12
453.31	115.12
453.53	93.12
453.751	97.12
453.971	89.12
454.192	89.12
454.412	89.12
454.633	86.12
454.853	71.12
455.073	73.12
455.294	90.12
455.514	101.12
455.734	82.12
455.955	77.12
456.175	83.12
456.395	83.12
456.616	90.12
456.836	93.12
457.056	86.12
457.276	81.12
457.497	87.12
457.717	96.12
457.937	77.12
458.157	70.12
458.377	72.12
458.598	90.12
458.818	140.12
459.038	142.12
459.258	103.12
459.478	94.12
459.698	66.12
459.918	89.12
460.138	77.12
460.358	82.12
460.578	75.12
460.798	96.12
461.018	78.12
461.238	77.12
461.458	83.12
461.678	89.12
461.898	83.12
462.118	86.12
462.338	78.12
462.558	64.12
462.777	85.12
462.997	83.12
463.217	78.12
463.437	71.12
463.657	94.12
463.876	83.12
464.096	81.12
464.316	79.12
464.536	87.12
464.755	87.12
464.975	102.12
465.195	144.12
465.414	164.12
465.634	93.12
465.854	87.12
466.073	84.12
466.293	76.12
466.512	82.12
466.732	84.12
466.951	87.12
467.171	97.12
467.391	99.12
467.61	103.12
467.829	75.12
468.049	93.12
468.268	79.12
468.488	79.12
468.707	90.12
468.927	93.12
469.146	85.12
469.365	77.12
469.585	94.12
469.804	94.12
470.023	99.12
470.243	91.12
470.462	98.12
470.681	106.12
470.901	92.12
471.12	77.12
471.339	88.12
471.558	87.12
471.777	73.12
471.997	73.12
472.216	104.12
472.435	103.12
472.654	87.12
472.873	92.12
473.092	73.12
473.311	96.12
473.53	98.12
473.749	99.12
473.968	94.12
474.187	106.12
474.406	95.12
474.625	79.12
474.844	77.12
475.063	83.12
475.282	71.12
475.501	79.12
475.72	79.12
475.939	88.12
476.158	79.12
476.377	87.12
476.596	75.12
476.814	98.12
477.033	90.12
477.252	84.12
477.471	87.12
477.69	78.12
477.908	86.12
478.127	89.12
478.346	101.12
478.564	91.12
478.783	95.12
479.002	77.12
479.22	87.12
479.439	81.12
479.658	105.12
479.876	91.12
480.095	97.12
480.313	91.12
480.532	88.12
480.751	95.12
480.969	77.12
481.188	92.12
481.406	98.12
481.624	93.12
481.843	85.12
482.061	80.12
482.28	83.12
482.498	91.12
482.717	107.12
482.935	88.12
483.153	81.12
483.372	80.12
483.59	74.12
483.808	81.12
484.027	77.12
484.245	88.12
484.463	88.12
484.681	94.12
484.9	81.12
485.118	90.12
485.336	78.12
485.554	93.12
485.772	91.12
485.99	104.12
486.209	96.12
486.427	85.12
486.645	106.12
486.863	97.12
487.081	98.12
487.299	80.12
487.517	91.12
487.735	85.12
487.953	89.12
488.171	94.12
488.389	90.12
488.607	95.12
488.825	97.12
489.043	88.12
489.261	98.12
489.479	86.12
489.696	80.12
489.914	76.12
490.132	94.12
490.35	92.12
490.568	83.12
490.786	83.12
491.003	98.12
491.221	84.12
491.439	81.12
491.657	99.12
491.874	98.12
492.092	81.12
492.31	106.12
492.527	78.12
492.745	88.12
492.963	93.12
493.18	90.12
493.398	93.12
493.615	100.12
493.833	89.12
494.05	77.12
494.268	105.12
494.485	90.12
494.703	81.12
494.92	82.12
495.138	84.12
495.355	85.12
495.573	74.12
495.79	91.12
496.008	92.12
496.225	97.12
496.442	95.12
496.66	79.12
496.877	89.12
497.094	104.12
497.312	83.12
497.529	93.12
497.746	87.12
497.963	74.12
498.181	107.12
498.398	92.12
498.615	103.12
498.832	93.12
499.049	103.12
499.267	79.12
499.484	81.12
499.701	93.12
499.918	89.12
500.135	91.12
500.352	85.12
500.569	90.12
500.786	87.12
501.003	76.12
501.22	96.12
501.437	97.12
501.654	86.12
501.871	97.12
502.088	84.12
502.305	85.12
502.522	82.12
502.739	96.12
502.956	99.12
503.172	91.12
503.389	80.12
503.606	85.12
503.823	93.12
504.04	86.12
504.256	86.12
504.473	80.12
504.69	86.12
504.907	107.12
505.123	77.12
505.34	90.12
505.557	101.12
505.773	82.12
505.99	74.12
506.207	86.12
506.423	85.12
506.64	80.12
506.856	97.12
507.073	96.12
507.289	99.12
507.506	87.12
507.722	89.12
507.939	125.12
508.155	93.12
508.372	94.12
508.588	90.12
508.805	97.12
509.021	81.12
509.238	82.12
509.454	91.12
509.67	99.12
509.887	96.12
510.103	121.12
510.319	192.12
510.536	633.12
510.752	2016.12
510.968	571.12
511.184	139.12
511.401	98.12
511.617	94.12
511.833	89.12
512.049	89.12
512.265	91.12
512.481	77.12
512.698	84.12
512.914	82.12
513.13	93.12
513.346	82.12
513.562	95.12
513.778	91.12
513.994	84.12
514.21	94.12
514.426	116.12
514.642	145.12
514.858	117.12
515.074	143.12
515.29	393.12
515.506	1241.12
515.721	486.12
515.937	143.12
516.153	106.12
516.369	103.12
516.585	79.12
