Data from Uncirc_1996_H10_HRD10591_00071.txt Node
Date: Wed Jan 03 11:32:16 EST 2024
User: Yrep
Spectrometer: HR+D1059
Trigger mode: 1
Integration Time (sec): 1.000000E-1
Scans to average: 1
Electric dark correction enabled: true
Nonlinearity correction enabled: false
Boxcar width: 0
XAxis mode: Wavelengths
Number of Pixels in Spectrum: 2048
>>>>>Begin Spectral Data<<<<<
223.165	-28.44
223.4	-28.44
223.635	-28.44
223.869	-7.44
224.104	-22.44
224.338	-17.44
224.573	-15.44
224.808	-19.44
225.042	-9.44
225.277	3.56
225.511	1.56
225.746	-6.44
225.98	10.56
226.215	21.56
226.449	13.56
226.683	15.56
226.918	24.56
227.152	35.56
227.387	40.56
227.621	41.56
227.856	38.56
228.09	47.56
228.324	46.56
228.559	54.56
228.793	172.56
229.027	447.56
229.262	529.56
229.496	629.56
229.73	848.56
229.964	854.56
230.199	558.56
230.433	486.56
230.667	487.56
230.901	475.56
231.136	475.56
231.37	461.56
231.604	459.56
231.838	470.56
232.072	468.56
232.306	482.56
232.541	463.56
232.775	488.56
233.009	471.56
233.243	467.56
233.477	489.56
233.711	503.56
233.945	511.56
234.179	530.56
234.413	533.56
234.647	522.56
234.881	530.56
235.115	541.56
235.349	558.56
235.583	584.56
235.817	620.56
236.051	672.56
236.285	638.56
236.519	644.56
236.753	743.56
236.987	932.56
237.221	1432.56
237.455	1595.56
237.689	901.56
237.922	763.56
238.156	715.56
238.39	681.56
238.624	643.56
238.858	659.56
239.091	685.56
239.325	674.56
239.559	696.56
239.793	714.56
240.027	794.56
240.26	937.56
240.494	996.56
240.728	969.56
240.961	944.56
241.195	828.56
241.429	795.56
241.662	773.56
241.896	768.56
242.13	797.56
242.363	813.56
242.597	810.56
242.83	857.56
243.064	845.56
243.298	834.56
243.531	857.56
243.765	845.56
243.998	846.56
244.232	876.56
244.465	889.56
244.699	941.56
244.932	914.56
245.166	896.56
245.399	927.56
245.633	923.56
245.866	908.56
246.099	975.56
246.333	956.56
246.566	997.56
246.8	993.56
247.033	1049.56
247.266	1065.56
247.5	1117.56
247.733	1213.56
247.966	1185.56
248.2	1167.56
248.433	1166.56
248.666	1245.56
248.899	1391.56
249.133	1503.56
249.366	1495.56
249.599	1331.56
249.832	1238.56
250.066	1268.56
250.299	1295.56
250.532	1353.56
250.765	1519.56
250.998	1757.56
251.231	1690.56
251.465	1483.56
251.698	1446.56
251.931	1419.56
252.164	1417.56
252.397	1474.56
252.63	1494.56
252.863	1596.56
253.096	1753.56
253.329	1789.56
253.562	1706.56
253.795	1592.56
254.028	1581.56
254.261	1658.56
254.494	1883.56
254.727	2175.56
254.96	2297.56
255.193	2029.56
255.426	1753.56
255.659	1684.56
255.892	1609.56
256.124	1564.56
256.357	1553.56
256.59	1514.56
256.823	1538.56
257.056	1539.56
257.289	1517.56
257.521	1544.56
257.754	1571.56
257.987	1553.56
258.22	1531.56
258.452	1583.56
258.685	1603.56
258.918	1625.56
259.151	1638.56
259.383	1734.56
259.616	1774.56
259.849	1812.56
260.081	2001.56
260.314	2173.56
260.547	2135.56
260.779	1933.56
261.012	1835.56
261.244	1775.56
261.477	1709.56
261.71	1737.56
261.942	1761.56
262.175	1846.56
262.407	1752.56
262.64	1690.56
262.872	1687.56
263.105	1717.56
263.337	1689.56
263.57	1705.56
263.802	1714.56
264.035	1706.56
264.267	1713.56
264.499	1711.56
264.732	1720.56
264.964	1753.56
265.197	1735.56
265.429	1747.56
265.661	1772.56
265.894	1765.56
266.126	1776.56
266.358	1816.56
266.591	1839.56
266.823	1899.56
267.055	1901.56
267.287	1925.56
267.52	1876.56
267.752	1888.56
267.984	1950.56
268.216	1970.56
268.448	1996.56
268.681	2068.56
268.913	2165.56
269.145	2354.56
269.377	2452.56
269.609	2341.56
269.841	2317.56
270.073	2453.56
270.306	2733.56
270.538	2906.56
270.77	2777.56
271.002	2593.56
271.234	2537.56
271.466	2731.56
271.698	2823.56
271.93	2864.56
272.162	2865.56
272.394	2722.56
272.626	2603.56
272.858	2448.56
273.09	2348.56
273.322	2337.56
273.553	2314.56
273.785	2277.56
274.017	2325.56
274.249	2328.56
274.481	2286.56
274.713	2329.56
274.945	2334.56
275.176	2332.56
275.408	2332.56
275.64	2307.56
275.872	2269.56
276.104	2367.56
276.335	2381.56
276.567	2481.56
276.799	2639.56
277.031	2867.56
277.262	2959.56
277.494	2790.56
277.726	2613.56
277.957	2533.56
278.189	2477.56
278.421	2416.56
278.652	2452.56
278.884	2451.56
279.115	2396.56
279.347	2409.56
279.579	2433.56
279.81	2414.56
280.042	2439.56
280.273	2461.56
280.505	2425.56
280.736	2459.56
280.968	2464.56
281.199	2496.56
281.431	2529.56
281.662	2505.56
281.894	2496.56
282.125	2558.56
282.356	2789.56
282.588	2883.56
282.819	2719.56
283.051	2603.56
283.282	2582.56
283.513	2607.56
283.745	2663.56
283.976	2731.56
284.207	2696.56
284.439	2690.56
284.67	2694.56
284.901	2640.56
285.132	2642.56
285.364	2680.56
285.595	2694.56
285.826	2649.56
286.057	2748.56
286.288	2709.56
286.52	2725.56
286.751	2753.56
286.982	2789.56
287.213	2752.56
287.444	2774.56
287.675	2870.56
287.906	2972.56
288.138	3022.56
288.369	2988.56
288.6	3005.56
288.831	2892.56
289.062	2866.56
289.293	2849.56
289.524	2864.56
289.755	2896.56
289.986	2893.56
290.217	2857.56
290.448	2945.56
290.679	2878.56
290.91	2891.56
291.141	2834.56
291.371	2888.56
291.602	2858.56
291.833	2862.56
292.064	2875.56
292.295	2906.56
292.526	2951.56
292.757	2925.56
292.987	2947.56
293.218	2895.56
293.449	2962.56
293.68	2924.56
293.91	2921.56
294.141	2866.56
294.372	2896.56
294.603	2919.56
294.833	2975.56
295.064	2973.56
295.295	3018.56
295.525	2955.56
295.756	3062.56
295.987	3078.56
296.217	3256.56
296.448	3176.56
296.679	3051.56
296.909	3019.56
297.14	3011.56
297.37	3116.56
297.601	3128.56
297.831	3088.56
298.062	3102.56
298.292	3150.56
298.523	3181.56
298.753	3185.56
298.984	3152.56
299.214	3149.56
299.445	3173.56
299.675	3161.56
299.905	3186.56
300.136	3213.56
300.366	3211.56
300.597	3247.56
300.827	3314.56
301.057	3448.56
301.288	3507.56
301.518	3416.56
301.748	3425.56
301.979	3509.56
302.209	3489.56
302.439	3429.56
302.669	3413.56
302.9	3354.56
303.13	3349.56
303.36	3410.56
303.59	3427.56
303.82	3472.56
304.051	3458.56
304.281	3414.56
304.511	3402.56
304.741	3353.56
304.971	3374.56
305.201	3357.56
305.431	3337.56
305.661	3361.56
305.891	3335.56
306.121	3296.56
306.352	3401.56
306.582	3391.56
306.812	3299.56
307.042	3344.56
307.272	3331.56
307.502	3343.56
307.731	3351.56
307.961	3394.56
308.191	3345.56
308.421	3341.56
308.651	3384.56
308.881	3365.56
309.111	3481.56
309.341	3415.56
309.571	3543.56
309.8	3561.56
310.03	3674.56
310.26	3670.56
310.49	3634.56
310.72	3743.56
310.949	3887.56
311.179	3805.56
311.409	3690.56
311.639	3753.56
311.868	3789.56
312.098	3808.56
312.328	3882.56
312.557	4015.56
312.787	4083.56
313.017	3983.56
313.246	3888.56
313.476	3836.56
313.706	3821.56
313.935	3912.56
314.165	4120.56
314.394	4084.56
314.624	4009.56
314.853	3871.56
315.083	3879.56
315.312	3832.56
315.542	3795.56
315.771	3747.56
316.001	3759.56
316.23	3795.56
316.46	3788.56
316.689	3861.56
316.919	3859.56
317.148	3896.56
317.377	3881.56
317.607	3777.56
317.836	3866.56
318.065	3785.56
318.295	3723.56
318.524	3756.56
318.753	3765.56
318.983	3817.56
319.212	3717.56
319.441	3877.56
319.67	3843.56
319.9	3771.56
320.129	3777.56
320.358	3791.56
320.587	3845.56
320.816	3883.56
321.046	3952.56
321.275	3905.56
321.504	3913.56
321.733	3972.56
321.962	4017.56
322.191	4123.56
322.42	4189.56
322.649	4303.56
322.878	4344.56
323.108	4428.56
323.337	4649.56
323.566	4828.56
323.795	5108.56
324.024	5666.56
324.253	7532.56
324.482	11267.56
324.71	15454.56
324.939	15619.56
325.168	13442.56
325.397	6865.56
325.626	5417.56
325.855	4981.56
326.084	4896.56
326.313	4870.56
326.542	5047.56
326.77	5617.56
326.999	7152.56
327.228	10583.56
327.457	14620.56
327.686	13980.56
327.914	7549.56
328.143	5938.56
328.372	5617.56
328.6	5397.56
328.829	5313.56
329.058	5526.56
329.287	5449.56
329.515	5094.56
329.744	4875.56
329.972	4912.56
330.201	4950.56
330.43	5165.56
330.658	5543.56
330.887	5917.56
331.115	5511.56
331.344	5076.56
331.572	5002.56
331.801	5105.56
332.03	5134.56
332.258	5090.56
332.486	5023.56
332.715	5076.56
332.943	5288.56
333.172	5461.56
333.4	5533.56
333.629	5694.56
333.857	5641.56
334.085	5588.56
334.314	5543.56
334.542	5482.56
334.771	5409.56
334.999	5334.56
335.227	5313.56
335.455	5283.56
335.684	5155.56
335.912	5150.56
336.14	5049.56
336.369	5059.56
336.597	5132.56
336.825	4993.56
337.053	4941.56
337.281	4861.56
337.51	4864.56
337.738	4864.56
337.966	4789.56
338.194	4781.56
338.422	4762.56
338.65	4606.56
338.878	4598.56
339.106	4649.56
339.334	4602.56
339.562	4533.56
339.79	4457.56
340.018	4505.56
340.246	4506.56
340.474	4520.56
340.702	4551.56
340.93	4587.56
341.158	4546.56
341.386	4462.56
341.614	4554.56
341.842	4423.56
342.07	4421.56
342.298	4411.56
342.526	4379.56
342.754	4406.56
342.981	4498.56
343.209	4529.56
343.437	4740.56
343.665	5090.56
343.893	5278.56
344.12	5238.56
344.348	5080.56
344.576	4875.56
344.804	4847.56
345.031	4800.56
345.259	4722.56
345.487	4563.56
345.714	4470.56
345.942	4375.56
346.17	4330.56
346.397	4289.56
346.625	4318.56
346.853	4343.56
347.08	4335.56
347.308	4330.56
347.535	4458.56
347.763	4361.56
347.99	4371.56
348.218	4434.56
348.445	4386.56
348.673	4343.56
348.9	4272.56
349.128	4202.56
349.355	4210.56
349.583	4172.56
349.81	4144.56
350.037	4105.56
350.265	4199.56
350.492	4194.56
350.72	4203.56
350.947	4231.56
351.174	4285.56
351.402	4377.56
351.629	4252.56
351.856	4296.56
352.083	4399.56
352.311	4376.56
352.538	4339.56
352.765	4358.56
352.992	4329.56
353.22	4243.56
353.447	4216.56
353.674	4130.56
353.901	4123.56
354.128	4074.56
354.355	4089.56
354.583	4067.56
354.81	4000.56
355.037	4077.56
355.264	4104.56
355.491	4030.56
355.718	4025.56
355.945	4082.56
356.172	4060.56
356.399	4119.56
356.626	4109.56
356.853	4052.56
357.08	4002.56
357.307	4050.56
357.534	4053.56
357.761	4055.56
357.988	4109.56
358.215	4070.56
358.441	4117.56
358.668	4093.56
358.895	4129.56
359.122	4195.56
359.349	4267.56
359.576	4381.56
359.802	4602.56
360.029	4673.56
360.256	4709.56
360.483	4546.56
360.709	4353.56
360.936	4283.56
361.163	4315.56
361.39	4352.56
361.616	4402.56
361.843	4277.56
362.07	4289.56
362.296	4346.56
362.523	4328.56
362.749	4314.56
362.976	4271.56
363.203	4159.56
363.429	4124.56
363.656	4207.56
363.882	4188.56
364.109	4140.56
364.335	4192.56
364.562	4109.56
364.788	4075.56
365.015	4131.56
365.241	4148.56
365.468	4095.56
365.694	4215.56
365.92	4189.56
366.147	4163.56
366.373	4126.56
366.599	4111.56
366.826	4124.56
367.052	4130.56
367.278	4105.56
367.505	4208.56
367.731	4199.56
367.957	4148.56
368.184	4256.56
368.41	4259.56
368.636	4360.56
368.862	4357.56
369.089	4297.56
369.315	4204.56
369.541	4227.56
369.767	4233.56
369.993	4348.56
370.219	4212.56
370.445	4353.56
370.672	4302.56
370.898	4308.56
371.124	4396.56
371.35	4410.56
371.576	4445.56
371.802	4409.56
372.028	4305.56
372.254	4401.56
372.48	4438.56
372.706	4577.56
372.932	4596.56
373.158	4503.56
373.384	4483.56
373.61	4434.56
373.835	4451.56
374.061	4471.56
374.287	4586.56
374.513	4597.56
374.739	4733.56
374.965	4850.56
375.191	4872.56
375.416	4745.56
375.642	4639.56
375.868	4617.56
376.094	4562.56
376.319	4479.56
376.545	4425.56
376.771	4433.56
376.997	4430.56
377.222	4466.56
377.448	4444.56
377.674	4422.56
377.899	4382.56
378.125	4370.56
378.35	4376.56
378.576	4368.56
378.802	4437.56
379.027	4388.56
379.253	4370.56
379.478	4339.56
379.704	4433.56
379.929	4453.56
380.155	4437.56
380.38	4401.56
380.606	4432.56
380.831	4423.56
381.057	4486.56
381.282	4414.56
381.507	4464.56
381.733	4520.56
381.958	4504.56
382.184	4577.56
382.409	4607.56
382.634	4698.56
382.86	4618.56
383.085	4740.56
383.31	4803.56
383.535	4870.56
383.761	4919.56
383.986	5000.56
384.211	5083.56
384.436	5165.56
384.662	5213.56
384.887	5277.56
385.112	5269.56
385.337	5354.56
385.562	5356.56
385.787	5347.56
386.013	5494.56
386.238	5460.56
386.463	5391.56
386.688	5303.56
386.913	5239.56
387.138	5260.56
387.363	5375.56
387.588	5207.56
387.813	5246.56
388.038	5220.56
388.263	5275.56
388.488	5317.56
388.713	5277.56
388.938	5225.56
389.163	5246.56
389.387	5175.56
389.612	5105.56
389.837	5197.56
390.062	5198.56
390.287	5189.56
390.512	5141.56
390.736	5330.56
390.961	5365.56
391.186	5383.56
391.411	5587.56
391.636	5710.56
391.86	5868.56
392.085	5927.56
392.31	5785.56
392.534	5755.56
392.759	5616.56
392.984	5491.56
393.208	5552.56
393.433	5460.56
393.658	5463.56
393.882	5480.56
394.107	5516.56
394.331	5547.56
394.556	5604.56
394.78	5574.56
395.005	5638.56
395.229	5675.56
395.454	5833.56
395.678	5934.56
395.903	5995.56
396.127	6018.56
396.352	5837.56
396.576	5598.56
396.801	5638.56
397.025	5662.56
397.249	5829.56
397.474	5930.56
397.698	5907.56
397.922	6167.56
398.147	6260.56
398.371	6245.56
398.595	6394.56
398.82	6709.56
399.044	7356.56
399.268	8111.56
399.492	9169.56
399.717	9819.56
399.941	9576.56
400.165	9013.56
400.389	8272.56
400.613	7383.56
400.837	7013.56
401.062	6813.56
401.286	6739.56
401.51	6643.56
401.734	6642.56
401.958	6800.56
402.182	6872.56
402.406	7082.56
402.63	7065.56
402.854	7225.56
403.078	7286.56
403.302	7323.56
403.526	7543.56
403.75	7547.56
403.974	7544.56
404.198	7594.56
404.422	7634.56
404.645	7595.56
404.869	7408.56
405.093	7627.56
405.317	7687.56
405.541	7662.56
405.765	7491.56
405.988	7452.56
406.212	7631.56
406.436	7760.56
406.66	7938.56
406.883	7914.56
407.107	8418.56
407.331	9024.56
407.555	9570.56
407.778	9243.56
408.002	8457.56
408.226	8127.56
408.449	7853.56
408.673	7808.56
408.896	8029.56
409.12	8170.56
409.344	7611.56
409.567	7312.56
409.791	7337.56
410.014	7152.56
410.238	7145.56
410.461	7170.56
410.685	7186.56
410.908	7329.56
411.132	7499.56
411.355	7591.56
411.578	7079.56
411.802	6946.56
412.025	6887.56
412.249	6958.56
412.472	6934.56
412.695	6757.56
412.919	6522.56
413.142	6527.56
413.365	6601.56
413.589	6624.56
413.812	6479.56
414.035	6392.56
414.258	6449.56
414.482	6543.56
414.705	6564.56
414.928	6467.56
415.151	6544.56
415.374	6525.56
415.597	6553.56
415.821	6457.56
416.044	6425.56
416.267	6422.56
416.49	6372.56
416.713	6315.56
416.936	6457.56
417.159	6419.56
417.382	6562.56
417.605	6528.56
417.828	6653.56
418.051	6860.56
418.274	6674.56
418.497	6603.56
418.72	6715.56
418.943	6531.56
419.166	7075.56
419.389	7493.56
419.611	7310.56
419.834	7060.56
420.057	6870.56
420.28	6737.56
420.503	6558.56
420.726	6607.56
420.948	6886.56
421.171	7151.56
421.394	7187.56
421.617	6732.56
421.839	6677.56
422.062	6755.56
422.285	6875.56
422.507	7650.56
422.73	8221.56
422.953	7550.56
423.175	7137.56
423.398	7153.56
423.621	7211.56
423.843	7520.56
424.066	7477.56
424.288	7304.56
424.511	7584.56
424.733	8039.56
424.956	8562.56
425.178	7953.56
425.401	8130.56
425.623	7964.56
425.846	7006.56
426.068	6826.56
426.291	6697.56
426.513	6738.56
426.735	6868.56
426.958	7377.56
427.18	8152.56
427.402	9294.56
427.625	9414.56
427.847	7795.56
428.069	6932.56
428.292	6580.56
428.514	6287.56
428.736	6146.56
428.958	6185.56
429.181	5941.56
429.403	5995.56
429.625	6242.56
429.847	6552.56
430.069	7115.56
430.292	6654.56
430.514	6003.56
430.736	5985.56
430.958	5886.56
431.18	5854.56
431.402	5842.56
431.624	5801.56
431.846	5939.56
432.068	5951.56
432.29	5965.56
432.512	5833.56
432.734	6027.56
432.956	5907.56
433.178	6000.56
433.4	5981.56
433.622	5936.56
433.844	5997.56
434.066	5909.56
434.287	6006.56
434.509	6305.56
434.731	6477.56
434.953	6674.56
435.175	6761.56
435.397	6892.56
435.618	6778.56
435.84	7273.56
436.062	8130.56
436.284	8062.56
436.505	6771.56
436.727	6497.56
436.949	6067.56
437.17	6028.56
437.392	5979.56
437.614	6152.56
437.835	6532.56
438.057	7552.56
438.278	8313.56
438.5	8182.56
438.721	9038.56
438.943	7909.56
439.165	6615.56
439.386	6500.56
439.608	6511.56
439.829	6541.56
440.05	6946.56
440.272	7335.56
440.493	6717.56
440.715	6342.56
440.936	6317.56
441.158	6278.56
441.379	6414.56
441.6	6756.56
441.822	7050.56
442.043	7445.56
442.264	8341.56
442.486	8057.56
442.707	7078.56
442.928	6856.56
443.149	7172.56
443.371	7415.56
443.592	8013.56
443.813	9011.56
444.034	8933.56
444.255	7781.56
444.476	7561.56
444.698	7699.56
444.919	7823.56
445.14	7607.56
445.361	7507.56
445.582	7665.56
445.803	8262.56
446.024	9014.56
446.245	8633.56
446.466	7682.56
446.687	6653.56
446.908	6392.56
447.129	6033.56
447.35	5938.56
447.571	5796.56
447.792	5733.56
448.013	5851.56
448.234	6061.56
448.455	6817.56
448.675	8049.56
448.896	8410.56
449.117	6965.56
449.338	7267.56
449.559	8619.56
449.779	8695.56
450	6726.56
450.221	5945.56
450.442	5749.56
450.662	5639.56
450.883	5755.56
451.104	5765.56
451.324	5624.56
451.545	5529.56
451.766	5305.56
451.986	5213.56
452.207	5203.56
452.428	5182.56
452.648	5226.56
452.869	5331.56
453.089	5359.56
453.31	5421.56
453.53	5234.56
453.751	5150.56
453.971	5193.56
454.192	5372.56
454.412	5061.56
454.633	5073.56
454.853	5088.56
455.073	5146.56
455.294	5563.56
455.514	6091.56
455.734	5502.56
455.955	4968.56
456.175	4858.56
456.395	4775.56
456.616	4800.56
456.836	4789.56
457.056	4792.56
457.276	4675.56
457.497	4901.56
457.717	4879.56
457.937	4930.56
458.157	5037.56
458.377	5094.56
458.598	5421.56
458.818	6169.56
459.038	7015.56
459.258	6977.56
459.478	6136.56
459.698	5987.56
459.918	6002.56
460.138	6218.56
460.358	6483.56
460.578	6474.56
460.798	6435.56
461.018	6520.56
461.238	6347.56
461.458	6314.56
461.678	6325.56
461.898	6450.56
462.118	6473.56
462.338	6845.56
462.558	7029.56
462.777	7224.56
462.997	7829.56
463.217	8349.56
463.437	8061.56
463.657	7528.56
463.876	7261.56
464.096	7348.56
464.316	7358.56
464.536	7449.56
464.755	7177.56
464.975	7049.56
465.195	7233.56
465.414	7298.56
465.634	6421.56
465.854	6063.56
466.073	5824.56
466.293	5591.56
466.512	5462.56
466.732	5340.56
466.951	5307.56
467.171	5376.56
467.391	5421.56
467.61	5511.56
467.829	5382.56
468.049	5312.56
468.268	5145.56
468.488	5099.56
468.707	5082.56
468.927	5111.56
469.146	5085.56
469.365	5152.56
469.585	5243.56
469.804	5441.56
470.023	5579.56
470.243	5632.56
470.462	5670.56
470.681	5722.56
470.901	5633.56
471.12	5506.56
471.339	5465.56
471.558	5371.56
471.777	5288.56
471.997	5213.56
472.216	5192.56
472.435	5050.56
472.654	5023.56
472.873	5033.56
473.092	5015.56
473.311	5104.56
473.53	5102.56
473.749	5276.56
473.968	5803.56
474.187	6997.56
474.406	6430.56
474.625	5452.56
474.844	5198.56
475.063	5128.56
475.282	5107.56
475.501	5149.56
475.72	5255.56
475.939	5312.56
476.158	5263.56
476.377	5320.56
476.596	5277.56
476.814	5413.56
477.033	5589.56
477.252	5585.56
477.471	5667.56
477.69	5860.56
477.908	5967.56
478.127	5987.56
478.346	6133.56
478.564	6159.56
478.783	6261.56
479.002	6458.56
479.22	6440.56
479.439	6539.56
479.658	6661.56
479.876	6755.56
480.095	6937.56
480.313	7450.56
480.532	7231.56
480.751	6958.56
480.969	6977.56
481.188	6771.56
481.406	6550.56
481.624	6398.56
481.843	6257.56
482.061	6129.56
482.28	6071.56
482.498	6065.56
482.717	6039.56
482.935	6014.56
483.153	5965.56
483.372	5908.56
483.59	6025.56
483.808	6037.56
484.027	6034.56
484.245	6121.56
484.463	6117.56
484.681	6230.56
484.9	6211.56
485.118	6312.56
485.336	6320.56
485.554	6406.56
485.772	6434.56
485.99	6368.56
486.209	6469.56
486.427	6385.56
486.645	6480.56
486.863	6687.56
487.081	6535.56
487.299	6499.56
487.517	6605.56
487.735	6365.56
487.953	6479.56
