Data from Uncirc_1996_H10_HRD10591_00028.txt Node
Date: Wed Jan 03 11:32:08 EST 2024
User: Yrep
Spectrometer: HR+D1059
Trigger mode: 1
Integration Time (sec): 1.000000E-1
Scans to average: 1
Electric dark correction enabled: true
Nonlinearity correction enabled: false
Boxcar width: 0
XAxis mode: Wavelengths
Number of Pixels in Spectrum: 2048
>>>>>Begin Spectral Data<<<<<
223.165	-12.19
223.4	-12.19
223.635	-12.19
223.869	-23.19
224.104	-25.19
224.338	-19.19
224.573	-20.19
224.808	-11.19
225.042	-10.19
225.277	-6.19
225.511	-4.19
225.746	12.81
225.98	13.81
226.215	8.81
226.449	12.81
226.683	19.81
226.918	36.81
227.152	26.81
227.387	32.81
227.621	43.81
227.856	25.81
228.09	40.81
228.324	48.81
228.559	55.81
228.793	46.81
229.027	58.81
229.262	65.81
229.496	69.81
229.73	74.81
229.964	67.81
230.199	66.81
230.433	72.81
230.667	89.81
230.901	72.81
231.136	71.81
231.37	77.81
231.604	91.81
231.838	77.81
232.072	68.81
232.306	70.81
232.541	79.81
232.775	66.81
233.009	64.81
233.243	79.81
233.477	85.81
233.711	71.81
233.945	68.81
234.179	81.81
234.413	90.81
234.647	81.81
234.881	79.81
235.115	63.81
235.349	81.81
235.583	83.81
235.817	72.81
236.051	79.81
236.285	80.81
236.519	78.81
236.753	73.81
236.987	72.81
237.221	87.81
237.455	80.81
237.689	76.81
237.922	78.81
238.156	81.81
238.39	61.81
238.624	81.81
238.858	70.81
239.091	74.81
239.325	78.81
239.559	70.81
239.793	90.81
240.027	77.81
240.26	84.81
240.494	77.81
240.728	81.81
240.961	68.81
241.195	85.81
241.429	82.81
241.662	72.81
241.896	81.81
242.13	84.81
242.363	78.81
242.597	68.81
242.83	85.81
243.064	72.81
243.298	77.81
243.531	61.81
243.765	76.81
243.998	78.81
244.232	91.81
244.465	88.81
244.699	76.81
244.932	80.81
245.166	73.81
245.399	85.81
245.633	76.81
245.866	79.81
246.099	84.81
246.333	76.81
246.566	67.81
246.8	78.81
247.033	65.81
247.266	70.81
247.5	78.81
247.733	82.81
247.966	92.81
248.2	76.81
248.433	77.81
248.666	76.81
248.899	77.81
249.133	83.81
249.366	94.81
249.599	78.81
249.832	83.81
250.066	73.81
250.299	81.81
250.532	71.81
250.765	69.81
250.998	72.81
251.231	64.81
251.465	71.81
251.698	81.81
251.931	71.81
252.164	69.81
252.397	75.81
252.63	73.81
252.863	72.81
253.096	74.81
253.329	82.81
253.562	64.81
253.795	68.81
254.028	80.81
254.261	72.81
254.494	72.81
254.727	82.81
254.96	84.81
255.193	73.81
255.426	82.81
255.659	64.81
255.892	71.81
256.124	75.81
256.357	76.81
256.59	75.81
256.823	94.81
257.056	91.81
257.289	85.81
257.521	78.81
257.754	66.81
257.987	70.81
258.22	76.81
258.452	82.81
258.685	92.81
258.918	74.81
259.151	76.81
259.383	71.81
259.616	75.81
259.849	81.81
260.081	81.81
260.314	90.81
260.547	72.81
260.779	80.81
261.012	88.81
261.244	86.81
261.477	88.81
261.71	83.81
261.942	93.81
262.175	104.81
262.407	88.81
262.64	73.81
262.872	89.81
263.105	81.81
263.337	77.81
263.57	58.81
263.802	88.81
264.035	73.81
264.267	72.81
264.499	75.81
264.732	85.81
264.964	88.81
265.197	96.81
265.429	71.81
265.661	80.81
265.894	85.81
266.126	78.81
266.358	65.81
266.591	88.81
266.823	80.81
267.055	81.81
267.287	71.81
267.52	87.81
267.752	85.81
267.984	79.81
268.216	85.81
268.448	76.81
268.681	81.81
268.913	88.81
269.145	79.81
269.377	85.81
269.609	86.81
269.841	97.81
270.073	90.81
270.306	90.81
270.538	78.81
270.77	81.81
271.002	84.81
271.234	85.81
271.466	74.81
271.698	81.81
271.93	80.81
272.162	84.81
272.394	80.81
272.626	85.81
272.858	71.81
273.09	84.81
273.322	64.81
273.553	80.81
273.785	96.81
274.017	83.81
274.249	91.81
274.481	85.81
274.713	72.81
274.945	91.81
275.176	72.81
275.408	85.81
275.64	97.81
275.872	85.81
276.104	79.81
276.335	97.81
276.567	87.81
276.799	96.81
277.031	103.81
277.262	68.81
277.494	86.81
277.726	85.81
277.957	77.81
278.189	75.81
278.421	84.81
278.652	91.81
278.884	92.81
279.115	82.81
279.347	86.81
279.579	93.81
279.81	98.81
280.042	70.81
280.273	73.81
280.505	80.81
280.736	75.81
280.968	79.81
281.199	101.81
281.431	76.81
281.662	85.81
281.894	88.81
282.125	70.81
282.356	106.81
282.588	103.81
282.819	92.81
283.051	73.81
283.282	94.81
283.513	92.81
283.745	86.81
283.976	78.81
284.207	85.81
284.439	98.81
284.67	78.81
284.901	90.81
285.132	102.81
285.364	75.81
285.595	88.81
285.826	94.81
286.057	80.81
286.288	71.81
286.52	86.81
286.751	80.81
286.982	90.81
287.213	88.81
287.444	78.81
287.675	78.81
287.906	92.81
288.138	87.81
288.369	81.81
288.6	92.81
288.831	87.81
289.062	84.81
289.293	92.81
289.524	87.81
289.755	77.81
289.986	81.81
290.217	76.81
290.448	77.81
290.679	79.81
290.91	81.81
291.141	93.81
291.371	80.81
291.602	69.81
291.833	81.81
292.064	91.81
292.295	85.81
292.526	82.81
292.757	76.81
292.987	75.81
293.218	78.81
293.449	84.81
293.68	79.81
293.91	82.81
294.141	87.81
294.372	88.81
294.603	87.81
294.833	90.81
295.064	83.81
295.295	90.81
295.525	94.81
295.756	96.81
295.987	117.81
296.217	125.81
296.448	105.81
296.679	96.81
296.909	91.81
297.14	84.81
297.37	86.81
297.601	96.81
297.831	80.81
298.062	87.81
298.292	91.81
298.523	97.81
298.753	85.81
298.984	93.81
299.214	88.81
299.445	86.81
299.675	91.81
299.905	96.81
300.136	81.81
300.366	95.81
300.597	105.81
300.827	92.81
301.057	81.81
301.288	90.81
301.518	88.81
301.748	74.81
301.979	102.81
302.209	89.81
302.439	90.81
302.669	84.81
302.9	89.81
303.13	94.81
303.36	92.81
303.59	94.81
303.82	89.81
304.051	89.81
304.281	79.81
304.511	78.81
304.741	82.81
304.971	92.81
305.201	76.81
305.431	85.81
305.661	78.81
305.891	85.81
306.121	91.81
306.352	89.81
306.582	91.81
306.812	86.81
307.042	79.81
307.272	92.81
307.502	98.81
307.731	95.81
307.961	89.81
308.191	84.81
308.421	89.81
308.651	76.81
308.881	90.81
309.111	89.81
309.341	82.81
309.571	99.81
309.8	92.81
310.03	108.81
310.26	95.81
310.49	93.81
310.72	89.81
310.949	101.81
311.179	93.81
311.409	88.81
311.639	76.81
311.868	82.81
312.098	92.81
312.328	104.81
312.557	97.81
312.787	85.81
313.017	88.81
313.246	81.81
313.476	87.81
313.706	86.81
313.935	90.81
314.165	96.81
314.394	90.81
314.624	91.81
314.853	95.81
315.083	101.81
315.312	90.81
315.542	86.81
315.771	89.81
316.001	84.81
316.23	82.81
316.46	91.81
316.689	92.81
316.919	75.81
317.148	102.81
317.377	90.81
317.607	76.81
317.836	89.81
318.065	78.81
318.295	77.81
318.524	85.81
318.753	84.81
318.983	77.81
319.212	94.81
319.441	92.81
319.67	91.81
319.9	93.81
320.129	87.81
320.358	71.81
320.587	86.81
320.816	98.81
321.046	89.81
321.275	87.81
321.504	100.81
321.733	103.81
321.962	90.81
322.191	86.81
322.42	89.81
322.649	95.81
322.878	123.81
323.108	110.81
323.337	102.81
323.566	126.81
323.795	137.81
324.024	177.81
324.253	333.81
324.482	720.81
324.71	1504.81
324.939	1994.81
325.168	716.81
325.397	216.81
325.626	153.81
325.855	114.81
326.084	105.81
326.313	124.81
326.542	142.81
326.77	220.81
326.999	421.81
327.228	865.81
327.457	1596.81
327.686	1247.81
327.914	354.81
328.143	199.81
328.372	168.81
328.6	123.81
328.829	122.81
329.058	109.81
329.287	118.81
329.515	109.81
329.744	93.81
329.972	97.81
330.201	93.81
330.43	97.81
330.658	107.81
330.887	119.81
331.115	114.81
331.344	96.81
331.572	96.81
331.801	99.81
332.03	93.81
332.258	72.81
332.486	90.81
332.715	84.81
332.943	85.81
333.172	92.81
333.4	97.81
333.629	82.81
333.857	107.81
334.085	98.81
334.314	98.81
334.542	89.81
334.771	96.81
334.999	84.81
335.227	96.81
335.455	84.81
335.684	83.81
335.912	91.81
336.14	113.81
336.369	81.81
336.597	97.81
336.825	94.81
337.053	81.81
337.281	95.81
337.51	96.81
337.738	92.81
337.966	114.81
338.194	103.81
338.422	124.81
338.65	108.81
338.878	107.81
339.106	98.81
339.334	74.81
339.562	72.81
339.79	95.81
340.018	80.81
340.246	89.81
340.474	97.81
340.702	94.81
340.93	88.81
341.158	86.81
341.386	98.81
341.614	100.81
341.842	97.81
342.07	99.81
342.298	82.81
342.526	86.81
342.754	89.81
342.981	91.81
343.209	96.81
343.437	99.81
343.665	80.81
343.893	70.81
344.12	94.81
344.348	82.81
344.576	88.81
344.804	87.81
345.031	106.81
345.259	97.81
345.487	92.81
345.714	92.81
345.942	96.81
346.17	86.81
346.397	94.81
346.625	96.81
346.853	93.81
347.08	85.81
347.308	92.81
347.535	94.81
347.763	95.81
347.99	93.81
348.218	94.81
348.445	86.81
348.673	95.81
348.9	87.81
349.128	93.81
349.355	94.81
349.583	93.81
349.81	83.81
350.037	89.81
350.265	98.81
350.492	103.81
350.72	97.81
350.947	107.81
351.174	102.81
351.402	99.81
351.629	96.81
351.856	96.81
352.083	93.81
352.311	88.81
352.538	107.81
352.765	119.81
352.992	102.81
353.22	98.81
353.447	106.81
353.674	104.81
353.901	104.81
354.128	90.81
354.355	97.81
354.583	113.81
354.81	103.81
355.037	89.81
355.264	101.81
355.491	97.81
355.718	82.81
355.945	82.81
356.172	102.81
356.399	96.81
356.626	77.81
356.853	74.81
357.08	87.81
357.307	86.81
357.534	79.81
357.761	109.81
357.988	94.81
358.215	100.81
358.441	82.81
358.668	79.81
358.895	87.81
359.122	74.81
359.349	89.81
359.576	97.81
359.802	88.81
360.029	95.81
360.256	101.81
360.483	90.81
360.709	94.81
360.936	87.81
361.163	93.81
361.39	93.81
361.616	101.81
361.843	101.81
362.07	76.81
362.296	91.81
362.523	81.81
362.749	85.81
362.976	83.81
363.203	85.81
363.429	89.81
363.656	84.81
363.882	90.81
364.109	85.81
364.335	107.81
364.562	93.81
364.788	74.81
365.015	82.81
365.241	88.81
365.468	81.81
365.694	85.81
365.92	88.81
366.147	87.81
366.373	94.81
366.599	87.81
366.826	78.81
367.052	98.81
367.278	84.81
367.505	91.81
367.731	113.81
367.957	81.81
368.184	85.81
368.41	98.81
368.636	91.81
368.862	119.81
369.089	109.81
369.315	99.81
369.541	80.81
369.767	95.81
369.993	88.81
370.219	86.81
370.445	75.81
370.672	94.81
370.898	93.81
371.124	90.81
371.35	100.81
371.576	93.81
371.802	89.81
372.028	95.81
372.254	95.81
372.48	92.81
372.706	89.81
372.932	93.81
373.158	94.81
373.384	81.81
373.61	84.81
373.835	96.81
374.061	82.81
374.287	76.81
374.513	99.81
374.739	89.81
374.965	81.81
375.191	90.81
375.416	88.81
375.642	90.81
375.868	95.81
376.094	76.81
376.319	77.81
376.545	80.81
376.771	87.81
376.997	97.81
377.222	73.81
377.448	93.81
377.674	78.81
377.899	95.81
378.125	82.81
378.35	92.81
378.576	79.81
378.802	98.81
379.027	84.81
379.253	94.81
379.478	103.81
379.704	86.81
379.929	81.81
380.155	91.81
380.38	86.81
380.606	89.81
380.831	89.81
381.057	101.81
381.282	90.81
381.507	82.81
381.733	91.81
381.958	89.81
382.184	88.81
382.409	98.81
382.634	98.81
382.86	84.81
383.085	112.81
383.31	105.81
383.535	93.81
383.761	87.81
383.986	96.81
384.211	94.81
384.436	97.81
384.662	98.81
384.887	104.81
385.112	92.81
385.337	88.81
385.562	99.81
385.787	100.81
386.013	93.81
386.238	110.81
386.463	99.81
386.688	116.81
386.913	91.81
387.138	101.81
387.363	106.81
387.588	94.81
387.813	104.81
388.038	99.81
388.263	110.81
388.488	109.81
388.713	108.81
388.938	93.81
389.163	88.81
389.387	101.81
389.612	81.81
389.837	110.81
390.062	98.81
390.287	90.81
390.512	94.81
390.736	74.81
390.961	85.81
391.186	90.81
391.411	82.81
391.636	89.81
391.86	85.81
392.085	71.81
392.31	94.81
392.534	103.81
392.759	101.81
392.984	88.81
393.208	90.81
393.433	105.81
393.658	110.81
393.882	85.81
394.107	73.81
394.331	89.81
394.556	83.81
394.78	96.81
395.005	87.81
395.229	89.81
395.454	96.81
395.678	81.81
395.903	81.81
396.127	78.81
396.352	88.81
396.576	86.81
396.801	100.81
397.025	101.81
397.249	94.81
397.474	87.81
397.698	91.81
397.922	82.81
398.147	93.81
398.371	91.81
398.595	86.81
398.82	89.81
399.044	88.81
399.268	83.81
399.492	89.81
399.717	88.81
399.941	70.81
400.165	98.81
400.389	88.81
400.613	95.81
400.837	86.81
401.062	91.81
401.286	84.81
401.51	84.81
401.734	103.81
401.958	106.81
402.182	120.81
402.406	145.81
402.63	111.81
402.854	90.81
403.078	97.81
403.302	82.81
403.526	80.81
403.75	85.81
403.974	85.81
404.198	91.81
404.422	89.81
404.645	82.81
404.869	90.81
405.093	92.81
405.317	92.81
405.541	86.81
405.765	105.81
405.988	103.81
406.212	148.81
406.436	190.81
406.66	137.81
406.883	109.81
407.107	90.81
407.331	88.81
407.555	100.81
407.778	84.81
408.002	76.81
408.226	76.81
408.449	90.81
408.673	100.81
408.896	86.81
409.12	91.81
409.344	96.81
409.567	98.81
409.791	95.81
410.014	97.81
410.238	106.81
410.461	90.81
410.685	84.81
410.908	104.81
411.132	90.81
411.355	111.81
411.578	91.81
411.802	86.81
412.025	82.81
412.249	80.81
412.472	91.81
412.695	86.81
412.919	91.81
413.142	78.81
413.365	83.81
413.589	68.81
413.812	91.81
414.035	96.81
414.258	100.81
414.482	76.81
414.705	91.81
414.928	97.81
415.151	93.81
415.374	79.81
415.597	96.81
415.821	95.81
416.044	85.81
416.267	94.81
416.49	83.81
416.713	93.81
416.936	78.81
417.159	95.81
417.382	89.81
417.605	92.81
417.828	88.81
418.051	80.81
418.274	91.81
418.497	93.81
418.72	75.81
418.943	72.81
419.166	89.81
419.389	72.81
419.611	90.81
419.834	81.81
420.057	81.81
420.28	84.81
420.503	86.81
420.726	85.81
420.948	101.81
421.171	92.81
421.394	92.81
421.617	86.81
421.839	92.81
422.062	79.81
422.285	95.81
422.507	118.81
422.73	98.81
422.953	72.81
423.175	79.81
423.398	87.81
423.621	70.81
423.843	103.81
424.066	82.81
424.288	76.81
424.511	78.81
424.733	106.81
424.956	86.81
425.178	109.81
425.401	111.81
425.623	101.81
425.846	83.81
426.068	91.81
426.291	93.81
426.513	79.81
426.735	85.81
426.958	73.81
427.18	94.81
427.402	120.81
427.625	136.81
427.847	104.81
428.069	101.81
428.292	94.81
428.514	81.81
428.736	78.81
428.958	76.81
429.181	76.81
429.403	75.81
429.625	80.81
429.847	87.81
430.069	114.81
430.292	93.81
430.514	92.81
430.736	84.81
430.958	78.81
431.18	84.81
431.402	94.81
431.624	89.81
431.846	94.81
432.068	82.81
432.29	82.81
432.512	97.81
432.734	76.81
432.956	79.81
433.178	96.81
433.4	98.81
433.622	96.81
433.844	90.81
434.066	93.81
434.287	85.81
434.509	87.81
434.731	89.81
434.953	81.81
435.175	92.81
435.397	107.81
435.618	95.81
435.84	92.81
436.062	124.81
436.284	97.81
436.505	96.81
436.727	105.81
436.949	90.81
437.17	95.81
437.392	86.81
437.614	104.81
437.835	105.81
438.057	95.81
438.278	111.81
438.5	105.81
438.721	118.81
438.943	106.81
439.165	87.81
439.386	84.81
439.608	89.81
439.829	95.81
440.05	116.81
440.272	138.81
440.493	81.81
440.715	102.81
440.936	86.81
441.158	74.81
441.379	79.81
441.6	93.81
441.822	92.81
442.043	90.81
442.264	108.81
442.486	105.81
442.707	88.81
442.928	98.81
443.149	130.81
443.371	111.81
443.592	95.81
443.813	101.81
444.034	110.81
444.255	96.81
444.476	87.81
444.698	78.81
444.919	87.81
445.14	140.81
445.361	129.81
445.582	109.81
445.803	117.81
446.024	124.81
446.245	129.81
446.466	103.81
446.687	87.81
446.908	85.81
447.129	87.81
447.35	84.81
447.571	86.81
447.792	90.81
448.013	89.81
448.234	106.81
448.455	92.81
448.675	111.81
448.896	114.81
449.117	90.81
449.338	104.81
449.559	110.81
449.779	126.81
450	93.81
450.221	72.81
450.442	90.81
450.662	81.81
450.883	92.81
451.104	101.81
451.324	87.81
451.545	87.81
451.766	78.81
451.986	78.81
452.207	95.81
452.428	88.81
452.648	88.81
452.869	97.81
453.089	98.81
453.31	108.81
453.53	78.81
453.751	99.81
453.971	85.81
454.192	108.81
454.412	92.81
454.633	97.81
454.853	99.81
455.073	76.81
455.294	92.81
455.514	89.81
455.734	87.81
455.955	81.81
456.175	86.81
456.395	94.81
456.616	90.81
456.836	96.81
457.056	88.81
457.276	101.81
457.497	99.81
457.717	82.81
457.937	84.81
458.157	78.81
458.377	88.81
458.598	104.81
458.818	124.81
459.038	145.81
459.258	104.81
459.478	84.81
459.698	71.81
459.918	83.81
460.138	78.81
460.358	81.81
460.578	86.81
460.798	82.81
461.018	90.81
461.238	79.81
461.458	78.81
461.678	81.81
461.898	91.81
462.118	85.81
462.338	95.81
462.558	92.81
462.777	77.81
462.997	85.81
463.217	95.81
463.437	89.81
463.657	77.81
463.876	79.81
464.096	88.81
464.316	99.81
464.536	87.81
464.755	93.81
464.975	115.81
465.195	152.81
465.414	138.81
465.634	90.81
465.854	86.81
466.073	85.81
466.293	95.81
466.512	81.81
466.732	91.81
466.951	82.81
467.171	82.81
467.391	93.81
467.61	90.81
467.829	93.81
468.049	78.81
468.268	98.81
468.488	78.81
468.707	88.81
468.927	91.81
469.146	102.81
469.365	92.81
469.585	80.81
469.804	90.81
470.023	97.81
470.243	87.81
470.462	94.81
470.681	91.81
470.901	98.81
471.12	74.81
471.339	83.81
471.558	86.81
471.777	88.81
471.997	82.81
472.216	90.81
472.435	81.81
472.654	89.81
472.873	93.81
473.092	88.81
473.311	72.81
473.53	94.81
473.749	86.81
473.968	79.81
474.187	111.81
474.406	84.81
474.625	84.81
474.844	85.81
475.063	92.81
475.282	80.81
475.501	88.81
475.72	79.81
475.939	84.81
476.158	78.81
476.377	82.81
476.596	90.81
476.814	85.81
477.033	88.81
477.252	96.81
477.471	82.81
477.69	94.81
477.908	106.81
478.127	89.81
478.346	86.81
478.564	88.81
478.783	98.81
479.002	88.81
479.22	101.81
479.439	107.81
479.658	106.81
479.876	85.81
480.095	102.81
480.313	83.81
480.532	89.81
480.751	69.81
480.969	91.81
481.188	85.81
481.406	90.81
481.624	81.81
481.843	84.81
482.061	76.81
482.28	100.81
482.498	93.81
482.717	91.81
482.935	62.81
483.153	101.81
483.372	89.81
483.59	95.81
483.808	98.81
484.027	98.81
484.245	93.81
484.463	94.81
484.681	96.81
484.9	89.81
485.118	86.81
485.336	100.81
485.554	92.81
485.772	109.81
485.99	93.81
486.209	94.81
486.427	92.81
486.645	102.81
486.863	104.81
487.081	98.81
487.299	89.81
487.517	81.81
487.735	97.81
487.953	97.81
488.171	91.81
488.389	108.81
488.607	95.81
488.825	74.81
489.043	97.81
489.261	83.81
489.479	94.81
489.696	103.81
489.914	80.81
490.132	84.81
490.35	94.81
490.568	85.81
490.786	100.81
491.003	116.81
491.221	96.81
491.439	94.81
491.657	85.81
491.874	94.81
492.092	86.81
492.31	91.81
492.527	87.81
492.745	88.81
492.963	92.81
493.18	93.81
493.398	90.81
493.615	102.81
493.833	99.81
494.05	87.81
494.268	85.81
494.485	92.81
494.703	83.81
494.92	93.81
495.138	87.81
495.355	88.81
495.573	97.81
495.79	91.81
496.008	94.81
496.225	89.81
496.442	93.81
496.66	85.81
496.877	78.81
497.094	100.81
497.312	89.81
497.529	88.81
497.746	87.81
497.963	97.81
498.181	86.81
498.398	93.81
498.615	93.81
498.832	96.81
499.049	78.81
499.267	93.81
499.484	92.81
499.701	104.81
499.918	89.81
500.135	88.81
500.352	88.81
500.569	79.81
500.786	85.81
501.003	94.81
501.22	79.81
501.437	97.81
501.654	103.81
501.871	102.81
502.088	85.81
502.305	88.81
502.522	83.81
502.739	88.81
502.956	85.81
503.172	93.81
503.389	103.81
503.606	99.81
503.823	100.81
504.04	100.81
504.256	95.81
504.473	89.81
504.69	87.81
504.907	84.81
505.123	88.81
505.34	86.81
505.557	106.81
505.773	85.81
505.99	84.81
506.207	89.81
506.423	98.81
506.64	91.81
506.856	87.81
507.073	94.81
507.289	94.81
507.506	88.81
507.722	97.81
507.939	88.81
508.155	98.81
508.372	84.81
508.588	84.81
508.805	105.81
509.021	89.81
509.238	104.81
509.454	92.81
509.67	104.81
509.887	92.81
510.103	122.81
510.319	196.81
510.536	592.81
510.752	1847.81
510.968	501.81
511.184	134.81
511.401	80.81
511.617	67.81
511.833	96.81
512.049	91.81
512.265	94.81
512.481	88.81
512.698	75.81
512.914	75.81
513.13	99.81
513.346	84.81
513.562	72.81
513.778	96.81
513.994	81.81
514.21	101.81
514.426	111.81
514.642	124.81
514.858	105.81
515.074	150.81
515.29	353.81
515.506	1093.81
515.721	433.81
515.937	131.81
516.153	108.81
516.369	94.81
516.585	96.81
516.801	93.81
