Data from Uncirc_1996_H10_HRD10591_00065.txt Node
Date: Wed Jan 03 11:32:15 EST 2024
User: Yrep
Spectrometer: HR+D1059
Trigger mode: 1
Integration Time (sec): 1.000000E-1
Scans to average: 1
Electric dark correction enabled: true
Nonlinearity correction enabled: false
Boxcar width: 0
XAxis mode: Wavelengths
Number of Pixels in Spectrum: 2048
>>>>>Begin Spectral Data<<<<<
223.165	-19
223.4	-19
223.635	-19
223.869	-29
224.104	-14
224.338	-8
224.573	-24
224.808	-21
225.042	0
225.277	-4
225.511	-12
225.746	7
225.98	13
226.215	18
226.449	14
226.683	11
226.918	25
227.152	43
227.387	26
227.621	31
227.856	36
228.09	51
228.324	60
228.559	55
228.793	41
229.027	67
229.262	75
229.496	63
229.73	75
229.964	87
230.199	69
230.433	75
230.667	82
230.901	76
231.136	84
231.37	82
231.604	66
231.838	72
232.072	80
232.306	80
232.541	79
232.775	80
233.009	85
233.243	82
233.477	79
233.711	93
233.945	76
234.179	75
234.413	75
234.647	68
234.881	81
235.115	97
235.349	75
235.583	90
235.817	71
236.051	88
236.285	79
236.519	89
236.753	78
236.987	74
237.221	78
237.455	77
237.689	68
237.922	68
238.156	81
238.39	72
238.624	91
238.858	83
239.091	76
239.325	71
239.559	80
239.793	85
240.027	73
240.26	79
240.494	77
240.728	71
240.961	76
241.195	65
241.429	83
241.662	73
241.896	78
242.13	86
242.363	77
242.597	58
242.83	73
243.064	82
243.298	87
243.531	86
243.765	74
243.998	87
244.232	89
244.465	80
244.699	83
244.932	96
245.166	75
245.399	84
245.633	85
245.866	72
246.099	71
246.333	73
246.566	79
246.8	76
247.033	81
247.266	69
247.5	83
247.733	81
247.966	69
248.2	83
248.433	95
248.666	74
248.899	79
249.133	83
249.366	96
249.599	91
249.832	75
250.066	92
250.299	91
250.532	99
250.765	87
250.998	88
251.231	91
251.465	78
251.698	82
251.931	79
252.164	80
252.397	67
252.63	73
252.863	77
253.096	94
253.329	91
253.562	76
253.795	87
254.028	91
254.261	79
254.494	93
254.727	76
254.96	97
255.193	87
255.426	86
255.659	83
255.892	74
256.124	88
256.357	91
256.59	86
256.823	79
257.056	89
257.289	84
257.521	83
257.754	73
257.987	75
258.22	73
258.452	77
258.685	79
258.918	81
259.151	79
259.383	63
259.616	70
259.849	68
260.081	81
260.314	75
260.547	79
260.779	87
261.012	88
261.244	82
261.477	91
261.71	78
261.942	89
262.175	113
262.407	80
262.64	89
262.872	92
263.105	81
263.337	83
263.57	73
263.802	82
264.035	84
264.267	64
264.499	86
264.732	87
264.964	85
265.197	94
265.429	79
265.661	75
265.894	83
266.126	93
266.358	81
266.591	83
266.823	75
267.055	76
267.287	83
267.52	87
267.752	83
267.984	92
268.216	89
268.448	92
268.681	79
268.913	70
269.145	86
269.377	73
269.609	85
269.841	78
270.073	89
270.306	97
270.538	101
270.77	91
271.002	80
271.234	94
271.466	76
271.698	77
271.93	92
272.162	74
272.394	77
272.626	59
272.858	84
273.09	83
273.322	79
273.553	87
273.785	79
274.017	95
274.249	94
274.481	84
274.713	82
274.945	82
275.176	68
275.408	91
275.64	85
275.872	87
276.104	95
276.335	93
276.567	96
276.799	120
277.031	82
277.262	77
277.494	80
277.726	85
277.957	85
278.189	78
278.421	99
278.652	73
278.884	91
279.115	87
279.347	76
279.579	93
279.81	101
280.042	89
280.273	83
280.505	87
280.736	88
280.968	92
281.199	105
281.431	94
281.662	85
281.894	80
282.125	80
282.356	104
282.588	125
282.819	108
283.051	86
283.282	88
283.513	104
283.745	100
283.976	91
284.207	90
284.439	100
284.67	85
284.901	80
285.132	75
285.364	84
285.595	96
285.826	86
286.057	95
286.288	82
286.52	84
286.751	81
286.982	87
287.213	90
287.444	90
287.675	85
287.906	93
288.138	98
288.369	87
288.6	79
288.831	100
289.062	98
289.293	95
289.524	95
289.755	104
289.986	99
290.217	89
290.448	95
290.679	82
290.91	84
291.141	96
291.371	86
291.602	82
291.833	96
292.064	74
292.295	85
292.526	87
292.757	91
292.987	96
293.218	92
293.449	80
293.68	100
293.91	102
294.141	107
294.372	93
294.603	75
294.833	93
295.064	92
295.295	88
295.525	89
295.756	108
295.987	114
296.217	123
296.448	113
296.679	87
296.909	98
297.14	96
297.37	88
297.601	97
297.831	88
298.062	97
298.292	70
298.523	87
298.753	103
298.984	95
299.214	93
299.445	101
299.675	102
299.905	88
300.136	80
300.366	85
300.597	87
300.827	87
301.057	90
301.288	105
301.518	89
301.748	91
301.979	90
302.209	93
302.439	99
302.669	96
302.9	81
303.13	86
303.36	91
303.59	104
303.82	101
304.051	101
304.281	89
304.511	79
304.741	75
304.971	82
305.201	88
305.431	85
305.661	84
305.891	89
306.121	96
306.352	98
306.582	94
306.812	99
307.042	87
307.272	102
307.502	83
307.731	89
307.961	93
308.191	90
308.421	98
308.651	107
308.881	91
309.111	110
309.341	101
309.571	91
309.8	86
310.03	102
310.26	89
310.49	97
310.72	94
310.949	81
311.179	100
311.409	89
311.639	96
311.868	104
312.098	91
312.328	92
312.557	99
312.787	88
313.017	83
313.246	85
313.476	100
313.706	95
313.935	101
314.165	95
314.394	103
314.624	94
314.853	97
315.083	94
315.312	87
315.542	100
315.771	87
316.001	107
316.23	93
316.46	89
316.689	86
316.919	92
317.148	94
317.377	100
317.607	98
317.836	97
318.065	77
318.295	96
318.524	75
318.753	101
318.983	97
319.212	96
319.441	90
319.67	112
319.9	107
320.129	91
320.358	86
320.587	97
320.816	109
321.046	108
321.275	105
321.504	95
321.733	99
321.962	103
322.191	98
322.42	106
322.649	100
322.878	113
323.108	101
323.337	100
323.566	125
323.795	137
324.024	172
324.253	333
324.482	681
324.71	1419
324.939	1885
325.168	691
325.397	229
325.626	133
325.855	113
326.084	115
326.313	127
326.542	144
326.77	224
326.999	407
327.228	817
327.457	1469
327.686	1168
327.914	337
328.143	191
328.372	135
328.6	107
328.829	108
329.058	116
329.287	129
329.515	110
329.744	107
329.972	108
330.201	94
330.43	105
330.658	116
330.887	115
331.115	120
331.344	99
331.572	101
331.801	106
332.03	93
332.258	90
332.486	101
332.715	89
332.943	102
333.172	96
333.4	107
333.629	101
333.857	115
334.085	99
334.314	102
334.542	99
334.771	103
334.999	94
335.227	79
335.455	80
335.684	88
335.912	107
336.14	96
336.369	97
336.597	93
336.825	100
337.053	73
337.281	88
337.51	91
337.738	85
337.966	104
338.194	109
338.422	119
338.65	89
338.878	107
339.106	91
339.334	104
339.562	99
339.79	105
340.018	95
340.246	81
340.474	99
340.702	85
340.93	93
341.158	98
341.386	98
341.614	98
341.842	92
342.07	91
342.298	96
342.526	103
342.754	94
342.981	83
343.209	95
343.437	110
343.665	84
343.893	83
344.12	103
344.348	84
344.576	107
344.804	97
345.031	100
345.259	82
345.487	85
345.714	92
345.942	100
346.17	85
346.397	87
346.625	93
346.853	95
347.08	92
347.308	99
347.535	98
347.763	99
347.99	85
348.218	89
348.445	98
348.673	96
348.9	96
349.128	94
349.355	91
349.583	99
349.81	94
350.037	105
350.265	87
350.492	105
350.72	101
350.947	98
351.174	112
351.402	115
351.629	98
351.856	115
352.083	101
352.311	102
352.538	99
352.765	104
352.992	112
353.22	127
353.447	91
353.674	95
353.901	82
354.128	87
354.355	92
354.583	83
354.81	87
355.037	100
355.264	100
355.491	96
355.718	86
355.945	92
356.172	84
356.399	95
356.626	84
356.853	96
357.08	93
357.307	94
357.534	89
357.761	96
357.988	91
358.215	94
358.441	92
358.668	89
358.895	107
359.122	83
359.349	99
359.576	97
359.802	96
360.029	100
360.256	94
360.483	89
360.709	89
360.936	103
361.163	89
361.39	96
361.616	88
361.843	97
362.07	101
362.296	85
362.523	101
362.749	98
362.976	75
363.203	101
363.429	106
363.656	95
363.882	87
364.109	92
364.335	82
364.562	97
364.788	75
365.015	105
365.241	106
365.468	104
365.694	108
365.92	95
366.147	99
366.373	88
366.599	91
366.826	105
367.052	101
367.278	104
367.505	96
367.731	100
367.957	88
368.184	101
368.41	101
368.636	104
368.862	116
369.089	104
369.315	79
369.541	92
369.767	82
369.993	80
370.219	101
370.445	98
370.672	90
370.898	95
371.124	93
371.35	79
371.576	98
371.802	87
372.028	85
372.254	92
372.48	103
372.706	79
372.932	99
373.158	80
373.384	92
373.61	89
373.835	90
374.061	75
374.287	92
374.513	78
374.739	87
374.965	75
375.191	93
375.416	78
375.642	98
375.868	102
376.094	91
376.319	86
376.545	93
376.771	98
376.997	88
377.222	88
377.448	98
377.674	95
377.899	78
378.125	105
378.35	96
378.576	86
378.802	100
379.027	103
379.253	86
379.478	98
379.704	106
379.929	104
380.155	83
380.38	105
380.606	107
380.831	94
381.057	106
381.282	92
381.507	86
381.733	83
381.958	108
382.184	110
382.409	100
382.634	95
382.86	85
383.085	87
383.31	112
383.535	100
383.761	86
383.986	92
384.211	98
384.436	78
384.662	98
384.887	103
385.112	107
385.337	117
385.562	103
385.787	100
386.013	113
386.238	114
386.463	92
386.688	104
386.913	107
387.138	97
387.363	96
387.588	107
387.813	92
388.038	105
388.263	81
388.488	99
388.713	96
388.938	91
389.163	98
389.387	97
389.612	86
389.837	93
390.062	101
390.287	101
390.512	93
390.736	80
390.961	87
391.186	99
391.411	96
391.636	96
391.86	97
392.085	76
392.31	92
392.534	83
392.759	87
392.984	96
393.208	73
393.433	92
393.658	97
393.882	81
394.107	91
394.331	84
394.556	86
394.78	92
395.005	84
395.229	84
395.454	92
395.678	79
395.903	73
396.127	90
396.352	90
396.576	87
396.801	83
397.025	94
397.249	82
397.474	74
397.698	93
397.922	92
398.147	82
398.371	97
398.595	89
398.82	89
399.044	68
399.268	89
399.492	77
399.717	91
399.941	91
400.165	87
400.389	98
400.613	80
400.837	100
401.062	104
401.286	83
401.51	91
401.734	83
401.958	93
402.182	105
402.406	143
402.63	104
402.854	87
403.078	84
403.302	85
403.526	71
403.75	99
403.974	87
404.198	87
404.422	100
404.645	97
404.869	78
405.093	105
405.317	103
405.541	91
405.765	89
405.988	112
406.212	159
406.436	217
406.66	133
406.883	84
407.107	88
407.331	96
407.555	88
407.778	99
408.002	88
408.226	91
408.449	81
408.673	83
408.896	97
409.12	100
409.344	88
409.567	80
409.791	74
410.014	92
410.238	98
410.461	97
410.685	110
410.908	85
411.132	108
411.355	93
411.578	90
411.802	89
412.025	89
412.249	99
412.472	88
412.695	92
412.919	79
413.142	96
413.365	95
413.589	91
413.812	78
414.035	89
414.258	92
414.482	106
414.705	97
414.928	89
415.151	88
415.374	104
415.597	87
415.821	91
416.044	79
416.267	92
416.49	79
416.713	101
416.936	96
417.159	99
417.382	88
417.605	90
417.828	83
418.051	87
418.274	91
418.497	85
418.72	92
418.943	96
419.166	82
419.389	84
419.611	80
419.834	91
420.057	83
420.28	96
420.503	83
420.726	98
420.948	89
421.171	90
421.394	87
421.617	104
421.839	85
422.062	77
422.285	94
422.507	104
422.73	92
422.953	99
423.175	99
423.398	87
423.621	93
423.843	90
424.066	98
424.288	76
424.511	80
424.733	92
424.956	101
425.178	104
425.401	98
425.623	98
425.846	93
426.068	79
426.291	100
426.513	87
426.735	86
426.958	105
427.18	113
427.402	127
427.625	148
427.847	120
428.069	100
428.292	84
428.514	80
428.736	85
428.958	93
429.181	96
429.403	72
429.625	94
429.847	90
430.069	97
430.292	96
430.514	98
430.736	83
430.958	62
431.18	71
431.402	75
431.624	88
431.846	80
432.068	96
432.29	94
432.512	95
432.734	93
432.956	92
433.178	103
433.4	100
433.622	91
433.844	91
434.066	87
434.287	81
434.509	100
434.731	90
434.953	94
435.175	78
435.397	87
435.618	105
435.84	107
436.062	107
436.284	108
436.505	106
436.727	108
436.949	87
437.17	81
437.392	78
437.614	96
437.835	105
438.057	119
438.278	101
438.5	116
438.721	106
438.943	83
439.165	92
439.386	78
439.608	84
439.829	97
440.05	115
440.272	122
440.493	90
440.715	96
440.936	83
441.158	80
441.379	100
441.6	86
441.822	90
442.043	96
442.264	98
442.486	95
442.707	83
442.928	83
443.149	114
443.371	124
443.592	88
443.813	121
444.034	98
444.255	105
444.476	95
444.698	82
444.919	77
445.14	126
445.361	116
445.582	119
445.803	124
446.024	108
446.245	116
446.466	104
446.687	83
446.908	79
447.129	83
447.35	95
447.571	95
447.792	86
448.013	104
448.234	95
448.455	117
448.675	107
448.896	90
449.117	108
449.338	93
449.559	112
449.779	127
450	109
450.221	88
450.442	105
450.662	82
450.883	94
451.104	100
451.324	89
451.545	91
451.766	90
451.986	94
452.207	98
452.428	94
452.648	104
452.869	95
453.089	103
453.31	108
453.53	93
453.751	100
453.971	96
454.192	116
454.412	91
454.633	75
454.853	90
455.073	85
455.294	90
455.514	93
455.734	83
455.955	87
456.175	80
456.395	90
456.616	97
456.836	93
457.056	79
457.276	81
457.497	97
457.717	81
457.937	90
458.157	83
458.377	92
458.598	117
458.818	138
459.038	151
459.258	116
459.478	96
459.698	81
459.918	81
460.138	81
460.358	76
460.578	86
460.798	101
461.018	104
461.238	87
461.458	84
461.678	94
461.898	80
462.118	84
462.338	89
462.558	91
462.777	98
462.997	101
463.217	82
463.437	89
463.657	84
463.876	91
464.096	94
464.316	100
464.536	91
464.755	89
464.975	92
465.195	162
465.414	153
465.634	96
465.854	97
466.073	86
466.293	101
466.512	87
466.732	93
466.951	83
467.171	93
467.391	103
467.61	92
467.829	99
468.049	88
468.268	85
468.488	80
468.707	96
468.927	66
469.146	85
469.365	94
469.585	90
469.804	90
470.023	87
470.243	92
470.462	93
470.681	98
470.901	82
471.12	90
471.339	90
471.558	85
471.777	84
471.997	90
472.216	88
472.435	101
472.654	94
472.873	87
473.092	82
473.311	88
473.53	92
473.749	80
473.968	99
474.187	111
474.406	106
474.625	91
474.844	82
475.063	89
475.282	91
475.501	84
475.72	94
475.939	85
476.158	95
476.377	78
476.596	96
476.814	82
477.033	85
477.252	88
477.471	87
477.69	86
477.908	92
478.127	90
478.346	78
478.564	84
478.783	98
479.002	99
479.22	89
479.439	110
479.658	82
479.876	91
480.095	81
480.313	89
480.532	91
480.751	91
480.969	90
481.188	99
481.406	99
481.624	94
481.843	87
482.061	89
482.28	91
482.498	87
482.717	100
482.935	83
483.153	76
483.372	88
483.59	80
483.808	101
484.027	93
484.245	94
484.463	96
484.681	102
484.9	87
485.118	91
485.336	95
485.554	98
485.772	96
485.99	105
486.209	105
486.427	91
486.645	111
486.863	111
487.081	91
487.299	100
487.517	106
487.735	87
487.953	95
488.171	89
488.389	77
488.607	104
488.825	85
489.043	93
489.261	86
489.479	87
489.696	83
489.914	78
490.132	91
490.35	94
490.568	86
490.786	82
491.003	90
491.221	85
491.439	87
491.657	101
491.874	93
492.092	81
492.31	88
492.527	92
492.745	91
492.963	89
493.18	91
493.398	107
493.615	95
493.833	79
494.05	71
494.268	89
494.485	89
494.703	95
494.92	82
495.138	91
495.355	101
495.573	97
495.79	93
496.008	93
496.225	91
496.442	84
496.66	95
496.877	76
497.094	91
497.312	97
497.529	91
497.746	97
497.963	88
498.181	88
498.398	86
498.615	100
498.832	99
499.049	89
499.267	100
499.484	87
499.701	83
499.918	69
500.135	90
500.352	100
500.569	90
500.786	87
501.003	81
501.22	88
501.437	92
501.654	94
501.871	100
502.088	96
502.305	91
502.522	98
502.739	97
502.956	88
503.172	95
503.389	87
503.606	101
503.823	91
504.04	78
504.256	91
504.473	88
504.69	77
504.907	94
505.123	86
505.34	103
505.557	84
505.773	85
505.99	79
506.207	94
506.423	92
506.64	101
506.856	87
507.073	87
507.289	90
507.506	89
507.722	100
507.939	112
508.155	97
508.372	103
508.588	88
508.805	96
509.021	110
509.238	88
509.454	98
509.67	91
509.887	107
510.103	120
510.319	186
510.536	643
510.752	2019
510.968	566
511.184	150
511.401	104
511.617	104
511.833	85
512.049	96
512.265	97
512.481	108
512.698	82
512.914	98
513.13	92
513.346	87
513.562	97
513.778	95
513.994	95
514.21	97
514.426	111
514.642	109
514.858	134
515.074	170
515.29	384
515.506	1243
515.721	461
515.937	132
516.153	94
516.369	108
516.585	93
516.801	107
517.016	84
517.232	85
517.448	93
517.664	93
517.879	76
518.095	91
518.311	106
518.527	88
518.742	104
518.958	96
519.173	107
519.389	69
519.605	85
519.82	101
520.036	127
520.251	125
520.467	99
520.682	97
520.898	107
521.113	106
521.329	127
521.544	190
521.76	494
521.975	2050
522.19	1250
522.406	279
522.621	116
522.836	99
523.052	96
523.267	104
523.482	83
523.698	90
523.913	115
524.128	90
524.343	96
524.559	89
524.774	91
524.989	95
525.204	117
525.419	94
525.634	79
525.849	104
526.064	101
526.28	82
526.495	89
526.71	95
526.925	81
527.14	83
527.355	87
527.57	78
527.785	92
527.999	77
528.214	94
528.429	107
528.644	94
528.859	96
529.074	92
529.289	136
529.503	159
529.718	98
529.933	99
530.148	90
530.363	95
530.577	96
530.792	101
531.007	90
531.221	84
531.436	96
531.651	94
531.865	91
532.08	91
532.295	96
532.509	87
532.724	93
532.938	98
533.153	83
533.367	88
533.582	83
533.796	89
534.011	98
534.225	96
534.44	93
534.654	81
534.868	90
535.083	89
535.297	101
535.511	101
535.726	110
535.94	103
536.154	93
536.369	76
536.583	96
536.797	90
537.011	95
537.225	97
537.44	82
537.654	94
537.868	84
538.082	79
538.296	88
538.51	91
538.724	88
538.938	87
539.153	95
539.367	98
539.581	105
539.795	98
540.009	94
540.222	79
540.436	97
540.65	97
540.864	87
541.078	82
541.292	81
541.506	98
541.72	91
541.934	100
542.147	96
542.361	93
542.575	102
542.789	84
543.002	78
543.216	97
543.43	91
543.644	88
543.857	100
544.071	101
544.285	101
544.498	100
544.712	92
544.925	79
545.139	95
545.352	87
545.566	86
545.779	101
545.993	94
546.206	81
546.42	102
546.633	79
546.847	95
547.06	90
547.274	95
547.487	89
547.7	88
547.914	82
548.127	101
548.34	90
548.554	98
548.767	81
548.98	83
549.193	96
549.407	97
549.62	93
549.833	90
550.046	93
550.259	110
550.473	89
550.686	99
550.899	85
551.112	90
551.325	84
551.538	105
551.751	83
551.964	90
552.177	101
552.39	84
552.603	83
552.816	84
553.029	90
553.242	90
553.455	97
553.667	101
553.88	101
554.093	84
554.306	97
554.519	91
554.732	86
554.944	85
555.157	87
555.37	96
555.583	104
555.795	95
556.008	85
556.221	89
556.433	89
556.646	90
556.859	101
557.071	91
557.284	93
557.496	92
557.709	78
557.921	100
558.134	105
558.346	83
558.559	102
558.771	85
558.984	78
559.196	82
559.409	96
559.621	96
559.833	95
560.046	95
560.258	80
560.47	98
560.683	98
560.895	99
561.107	90
561.32	98
561.532	87
561.744	90
561.956	100
562.168	92
562.381	86
562.593	91
562.805	90
563.017	85
563.229	79
563.441	81
563.653	97
563.865	102
564.077	80
564.289	93
564.501	89
564.713	107
564.925	95
565.137	93
565.349	75
565.561	92
565.773	88
565.985	87
566.197	79
566.408	90
566.62	105
566.832	83
567.044	91
567.255	77
567.467	76
567.679	92
567.891	71
568.102	97
568.314	79
568.526	79
568.737	88
568.949	98
569.161	82
569.372	91
569.584	101
569.795	113
570.007	129
570.218	234
570.43	141
570.641	89
570.853	79
571.064	97
571.276	84
571.487	87
571.698	87
571.91	85
572.121	87
572.333	82
572.544	92
572.755	87
572.966	92
573.178	86
573.389	79
573.6	80
573.811	88
574.023	85
574.234	88
574.445	92
574.656	88
574.867	96
575.078	79
575.289	89
575.501	104
575.712	90
575.923	88
576.134	92
576.345	84
576.556	83
576.767	85
576.978	90
577.188	87
577.399	91
577.61	92
577.821	91
578.032	113
578.243	247
578.454	690
578.665	203
578.875	108
579.086	100
579.297	79
579.508	95
579.718	96
579.929	96
580.14	81
580.35	89
580.561	93
580.772	90
580.982	92
581.193	86
581.403	90
581.614	87
581.825	84
582.035	97
582.246	87
582.456	90
582.667	90
582.877	96
583.087	98
583.298	90
583.508	88
583.719	91
583.929	93
584.139	71
584.35	79
