Data from Uncirc_1996_H10_HRD10591_00050.txt Node
Date: Wed Jan 03 11:32:12 EST 2024
User: Yrep
Spectrometer: HR+D1059
Trigger mode: 1
Integration Time (sec): 1.000000E-1
Scans to average: 1
Electric dark correction enabled: true
Nonlinearity correction enabled: false
Boxcar width: 0
XAxis mode: Wavelengths
Number of Pixels in Spectrum: 2048
>>>>>Begin Spectral Data<<<<<
223.165	-19.5
223.4	-19.5
223.635	-19.5
223.869	-16.5
224.104	-16.5
224.338	-27.5
224.573	-21.5
224.808	-6.5
225.042	-5.5
225.277	-2.5
225.511	-0.5
225.746	11.5
225.98	-1.5
226.215	14.5
226.449	6.5
226.683	12.5
226.918	30.5
227.152	42.5
227.387	46.5
227.621	40.5
227.856	44.5
228.09	41.5
228.324	50.5
228.559	59.5
228.793	47.5
229.027	72.5
229.262	73.5
229.496	56.5
229.73	71.5
229.964	88.5
230.199	83.5
230.433	62.5
230.667	63.5
230.901	75.5
231.136	80.5
231.37	81.5
231.604	74.5
231.838	72.5
232.072	80.5
232.306	65.5
232.541	78.5
232.775	86.5
233.009	76.5
233.243	82.5
233.477	81.5
233.711	87.5
233.945	84.5
234.179	90.5
234.413	64.5
234.647	88.5
234.881	83.5
235.115	89.5
235.349	79.5
235.583	74.5
235.817	71.5
236.051	63.5
236.285	90.5
236.519	76.5
236.753	76.5
236.987	92.5
237.221	82.5
237.455	94.5
237.689	81.5
237.922	71.5
238.156	82.5
238.39	84.5
238.624	85.5
238.858	72.5
239.091	70.5
239.325	78.5
239.559	86.5
239.793	68.5
240.027	76.5
240.26	78.5
240.494	86.5
240.728	72.5
240.961	70.5
241.195	84.5
241.429	68.5
241.662	67.5
241.896	78.5
242.13	78.5
242.363	81.5
242.597	82.5
242.83	84.5
243.064	87.5
243.298	71.5
243.531	66.5
243.765	74.5
243.998	88.5
244.232	75.5
244.465	99.5
244.699	80.5
244.932	74.5
245.166	70.5
245.399	81.5
245.633	96.5
245.866	79.5
246.099	74.5
246.333	89.5
246.566	72.5
246.8	86.5
247.033	69.5
247.266	81.5
247.5	81.5
247.733	85.5
247.966	81.5
248.2	80.5
248.433	88.5
248.666	74.5
248.899	78.5
249.133	67.5
249.366	106.5
249.599	99.5
249.832	76.5
250.066	81.5
250.299	77.5
250.532	79.5
250.765	78.5
250.998	78.5
251.231	77.5
251.465	84.5
251.698	79.5
251.931	96.5
252.164	94.5
252.397	84.5
252.63	87.5
252.863	53.5
253.096	82.5
253.329	82.5
253.562	81.5
253.795	66.5
254.028	79.5
254.261	89.5
254.494	78.5
254.727	82.5
254.96	80.5
255.193	94.5
255.426	71.5
255.659	79.5
255.892	75.5
256.124	77.5
256.357	87.5
256.59	93.5
256.823	97.5
257.056	86.5
257.289	79.5
257.521	94.5
257.754	81.5
257.987	68.5
258.22	83.5
258.452	78.5
258.685	87.5
258.918	71.5
259.151	76.5
259.383	92.5
259.616	75.5
259.849	77.5
260.081	74.5
260.314	84.5
260.547	85.5
260.779	70.5
261.012	90.5
261.244	90.5
261.477	83.5
261.71	87.5
261.942	100.5
262.175	99.5
262.407	87.5
262.64	71.5
262.872	79.5
263.105	71.5
263.337	82.5
263.57	72.5
263.802	81.5
264.035	81.5
264.267	81.5
264.499	81.5
264.732	88.5
264.964	72.5
265.197	90.5
265.429	91.5
265.661	90.5
265.894	77.5
266.126	84.5
266.358	83.5
266.591	67.5
266.823	87.5
267.055	89.5
267.287	83.5
267.52	85.5
267.752	86.5
267.984	79.5
268.216	94.5
268.448	92.5
268.681	89.5
268.913	82.5
269.145	88.5
269.377	89.5
269.609	94.5
269.841	84.5
270.073	88.5
270.306	79.5
270.538	86.5
270.77	77.5
271.002	74.5
271.234	92.5
271.466	75.5
271.698	97.5
271.93	93.5
272.162	87.5
272.394	95.5
272.626	78.5
272.858	75.5
273.09	94.5
273.322	94.5
273.553	94.5
273.785	76.5
274.017	82.5
274.249	74.5
274.481	86.5
274.713	89.5
274.945	82.5
275.176	96.5
275.408	83.5
275.64	88.5
275.872	89.5
276.104	97.5
276.335	86.5
276.567	101.5
276.799	93.5
277.031	102.5
277.262	85.5
277.494	81.5
277.726	87.5
277.957	89.5
278.189	81.5
278.421	81.5
278.652	79.5
278.884	83.5
279.115	91.5
279.347	81.5
279.579	83.5
279.81	67.5
280.042	91.5
280.273	99.5
280.505	94.5
280.736	95.5
280.968	75.5
281.199	74.5
281.431	86.5
281.662	96.5
281.894	95.5
282.125	98.5
282.356	119.5
282.588	123.5
282.819	93.5
283.051	83.5
283.282	71.5
283.513	88.5
283.745	82.5
283.976	82.5
284.207	84.5
284.439	80.5
284.67	101.5
284.901	88.5
285.132	85.5
285.364	91.5
285.595	80.5
285.826	78.5
286.057	83.5
286.288	87.5
286.52	85.5
286.751	84.5
286.982	92.5
287.213	93.5
287.444	70.5
287.675	87.5
287.906	76.5
288.138	90.5
288.369	98.5
288.6	88.5
288.831	82.5
289.062	98.5
289.293	90.5
289.524	92.5
289.755	87.5
289.986	90.5
290.217	91.5
290.448	78.5
290.679	90.5
290.91	79.5
291.141	66.5
291.371	94.5
291.602	88.5
291.833	92.5
292.064	96.5
292.295	81.5
292.526	75.5
292.757	97.5
292.987	71.5
293.218	83.5
293.449	79.5
293.68	82.5
293.91	81.5
294.141	95.5
294.372	81.5
294.603	97.5
294.833	90.5
295.064	83.5
295.295	78.5
295.525	76.5
295.756	102.5
295.987	102.5
296.217	116.5
296.448	102.5
296.679	90.5
296.909	79.5
297.14	79.5
297.37	78.5
297.601	74.5
297.831	81.5
298.062	75.5
298.292	87.5
298.523	104.5
298.753	84.5
298.984	76.5
299.214	87.5
299.445	71.5
299.675	95.5
299.905	99.5
300.136	86.5
300.366	83.5
300.597	91.5
300.827	79.5
301.057	97.5
301.288	101.5
301.518	86.5
301.748	94.5
301.979	105.5
302.209	97.5
302.439	82.5
302.669	94.5
302.9	90.5
303.13	100.5
303.36	100.5
303.59	97.5
303.82	109.5
304.051	90.5
304.281	107.5
304.511	86.5
304.741	92.5
304.971	92.5
305.201	85.5
305.431	95.5
305.661	78.5
305.891	81.5
306.121	85.5
306.352	92.5
306.582	87.5
306.812	98.5
307.042	99.5
307.272	104.5
307.502	90.5
307.731	97.5
307.961	82.5
308.191	100.5
308.421	101.5
308.651	86.5
308.881	99.5
309.111	83.5
309.341	86.5
309.571	104.5
309.8	86.5
310.03	112.5
310.26	100.5
310.49	110.5
310.72	100.5
310.949	89.5
311.179	96.5
311.409	89.5
311.639	78.5
311.868	93.5
312.098	87.5
312.328	82.5
312.557	94.5
312.787	101.5
313.017	98.5
313.246	99.5
313.476	83.5
313.706	88.5
313.935	94.5
314.165	106.5
314.394	96.5
314.624	97.5
314.853	103.5
315.083	90.5
315.312	93.5
315.542	97.5
315.771	102.5
316.001	95.5
316.23	92.5
316.46	94.5
316.689	83.5
316.919	91.5
317.148	96.5
317.377	102.5
317.607	88.5
317.836	95.5
318.065	98.5
318.295	90.5
318.524	90.5
318.753	86.5
318.983	83.5
319.212	97.5
319.441	109.5
319.67	89.5
319.9	98.5
320.129	86.5
320.358	104.5
320.587	90.5
320.816	93.5
321.046	96.5
321.275	88.5
321.504	95.5
321.733	93.5
321.962	93.5
322.191	95.5
322.42	104.5
322.649	112.5
322.878	100.5
323.108	108.5
323.337	128.5
323.566	121.5
323.795	145.5
324.024	198.5
324.253	369.5
324.482	748.5
324.71	1503.5
324.939	1934.5
325.168	703.5
325.397	203.5
325.626	130.5
325.855	121.5
326.084	114.5
326.313	127.5
326.542	160.5
326.77	209.5
326.999	420.5
327.228	861.5
327.457	1510.5
327.686	1234.5
327.914	322.5
328.143	219.5
328.372	158.5
328.6	123.5
328.829	120.5
329.058	126.5
329.287	130.5
329.515	107.5
329.744	97.5
329.972	82.5
330.201	106.5
330.43	87.5
330.658	96.5
330.887	123.5
331.115	95.5
331.344	101.5
331.572	84.5
331.801	108.5
332.03	112.5
332.258	93.5
332.486	85.5
332.715	88.5
332.943	93.5
333.172	90.5
333.4	101.5
333.629	97.5
333.857	101.5
334.085	109.5
334.314	94.5
334.542	95.5
334.771	97.5
334.999	93.5
335.227	99.5
335.455	116.5
335.684	98.5
335.912	99.5
336.14	91.5
336.369	103.5
336.597	89.5
336.825	93.5
337.053	96.5
337.281	97.5
337.51	90.5
337.738	88.5
337.966	90.5
338.194	113.5
338.422	113.5
338.65	114.5
338.878	107.5
339.106	82.5
339.334	89.5
339.562	97.5
339.79	107.5
340.018	82.5
340.246	94.5
340.474	93.5
340.702	97.5
340.93	95.5
341.158	90.5
341.386	78.5
341.614	92.5
341.842	90.5
342.07	89.5
342.298	95.5
342.526	97.5
342.754	96.5
342.981	84.5
343.209	86.5
343.437	106.5
343.665	95.5
343.893	98.5
344.12	94.5
344.348	87.5
344.576	92.5
344.804	91.5
345.031	87.5
345.259	92.5
345.487	94.5
345.714	96.5
345.942	88.5
346.17	100.5
346.397	88.5
346.625	103.5
346.853	85.5
347.08	78.5
347.308	84.5
347.535	102.5
347.763	93.5
347.99	102.5
348.218	99.5
348.445	87.5
348.673	113.5
348.9	98.5
349.128	93.5
349.355	93.5
349.583	96.5
349.81	85.5
350.037	96.5
350.265	89.5
350.492	102.5
350.72	94.5
350.947	95.5
351.174	100.5
351.402	112.5
351.629	107.5
351.856	110.5
352.083	113.5
352.311	96.5
352.538	99.5
352.765	119.5
352.992	103.5
353.22	94.5
353.447	95.5
353.674	96.5
353.901	115.5
354.128	88.5
354.355	105.5
354.583	86.5
354.81	90.5
355.037	92.5
355.264	82.5
355.491	88.5
355.718	92.5
355.945	111.5
356.172	93.5
356.399	96.5
356.626	103.5
356.853	83.5
357.08	95.5
357.307	91.5
357.534	98.5
357.761	100.5
357.988	90.5
358.215	93.5
358.441	98.5
358.668	90.5
358.895	80.5
359.122	92.5
359.349	94.5
359.576	96.5
359.802	98.5
360.029	109.5
360.256	97.5
360.483	95.5
360.709	86.5
360.936	99.5
361.163	105.5
361.39	97.5
361.616	96.5
361.843	90.5
362.07	101.5
362.296	94.5
362.523	82.5
362.749	90.5
362.976	92.5
363.203	107.5
363.429	88.5
363.656	88.5
363.882	84.5
364.109	95.5
364.335	94.5
364.562	89.5
364.788	105.5
365.015	110.5
365.241	98.5
365.468	97.5
365.694	105.5
365.92	107.5
366.147	94.5
366.373	98.5
366.599	82.5
366.826	95.5
367.052	88.5
367.278	98.5
367.505	102.5
367.731	90.5
367.957	88.5
368.184	88.5
368.41	88.5
368.636	102.5
368.862	107.5
369.089	94.5
369.315	66.5
369.541	94.5
369.767	85.5
369.993	94.5
370.219	102.5
370.445	76.5
370.672	81.5
370.898	89.5
371.124	91.5
371.35	94.5
371.576	97.5
371.802	87.5
372.028	92.5
372.254	106.5
372.48	90.5
372.706	104.5
372.932	89.5
373.158	76.5
373.384	86.5
373.61	96.5
373.835	103.5
374.061	89.5
374.287	86.5
374.513	79.5
374.739	75.5
374.965	90.5
375.191	88.5
375.416	94.5
375.642	81.5
375.868	75.5
376.094	88.5
376.319	89.5
376.545	104.5
376.771	91.5
376.997	99.5
377.222	91.5
377.448	82.5
377.674	89.5
377.899	105.5
378.125	82.5
378.35	91.5
378.576	99.5
378.802	94.5
379.027	96.5
379.253	94.5
379.478	82.5
379.704	91.5
379.929	95.5
380.155	87.5
380.38	94.5
380.606	93.5
380.831	97.5
381.057	105.5
381.282	90.5
381.507	83.5
381.733	98.5
381.958	117.5
382.184	92.5
382.409	95.5
382.634	84.5
382.86	97.5
383.085	84.5
383.31	95.5
383.535	105.5
383.761	104.5
383.986	108.5
384.211	105.5
384.436	104.5
384.662	106.5
384.887	101.5
385.112	100.5
385.337	100.5
385.562	103.5
385.787	92.5
386.013	102.5
386.238	98.5
386.463	90.5
386.688	103.5
386.913	91.5
387.138	92.5
387.363	97.5
387.588	104.5
387.813	94.5
388.038	100.5
388.263	111.5
388.488	106.5
388.713	96.5
388.938	102.5
389.163	104.5
389.387	99.5
389.612	105.5
389.837	101.5
390.062	102.5
390.287	94.5
390.512	84.5
390.736	90.5
390.961	86.5
391.186	99.5
391.411	100.5
391.636	100.5
391.86	73.5
392.085	78.5
392.31	92.5
392.534	83.5
392.759	65.5
392.984	84.5
393.208	80.5
393.433	91.5
393.658	96.5
393.882	100.5
394.107	84.5
394.331	94.5
394.556	92.5
394.78	91.5
395.005	82.5
395.229	87.5
395.454	91.5
395.678	97.5
395.903	98.5
396.127	78.5
396.352	78.5
396.576	72.5
396.801	82.5
397.025	79.5
397.249	107.5
397.474	87.5
397.698	90.5
397.922	83.5
398.147	87.5
398.371	75.5
398.595	91.5
398.82	87.5
399.044	92.5
399.268	76.5
399.492	94.5
399.717	100.5
399.941	105.5
400.165	95.5
400.389	98.5
400.613	89.5
400.837	87.5
401.062	97.5
401.286	95.5
401.51	90.5
401.734	97.5
401.958	93.5
402.182	124.5
402.406	142.5
402.63	114.5
402.854	99.5
403.078	79.5
403.302	87.5
403.526	76.5
403.75	88.5
403.974	103.5
404.198	98.5
404.422	97.5
404.645	86.5
404.869	79.5
405.093	79.5
405.317	104.5
405.541	98.5
405.765	96.5
405.988	110.5
406.212	156.5
406.436	194.5
406.66	127.5
406.883	94.5
407.107	99.5
407.331	97.5
407.555	94.5
407.778	99.5
408.002	92.5
408.226	95.5
408.449	88.5
408.673	82.5
408.896	102.5
409.12	92.5
409.344	96.5
409.567	106.5
409.791	100.5
410.014	87.5
410.238	81.5
410.461	97.5
410.685	93.5
410.908	105.5
411.132	116.5
411.355	100.5
411.578	95.5
411.802	87.5
412.025	85.5
412.249	92.5
412.472	80.5
412.695	95.5
412.919	86.5
413.142	98.5
413.365	99.5
413.589	98.5
413.812	90.5
414.035	78.5
414.258	90.5
414.482	80.5
414.705	95.5
414.928	91.5
415.151	104.5
415.374	97.5
415.597	95.5
415.821	88.5
416.044	96.5
416.267	74.5
416.49	85.5
416.713	104.5
416.936	93.5
417.159	88.5
417.382	86.5
417.605	105.5
417.828	110.5
418.051	99.5
418.274	82.5
418.497	98.5
418.72	85.5
418.943	88.5
419.166	91.5
419.389	85.5
419.611	88.5
419.834	82.5
420.057	76.5
420.28	87.5
420.503	83.5
420.726	86.5
420.948	92.5
421.171	95.5
421.394	101.5
421.617	90.5
421.839	99.5
422.062	84.5
422.285	95.5
422.507	105.5
422.73	99.5
422.953	91.5
423.175	100.5
423.398	91.5
423.621	79.5
423.843	94.5
424.066	86.5
424.288	80.5
424.511	94.5
424.733	91.5
424.956	102.5
425.178	86.5
425.401	95.5
425.623	103.5
425.846	86.5
426.068	94.5
426.291	93.5
426.513	95.5
426.735	95.5
426.958	99.5
427.18	111.5
427.402	122.5
427.625	154.5
427.847	107.5
428.069	89.5
428.292	80.5
428.514	87.5
428.736	83.5
428.958	79.5
429.181	89.5
429.403	100.5
429.625	87.5
429.847	91.5
430.069	113.5
430.292	90.5
430.514	83.5
430.736	94.5
430.958	78.5
431.18	79.5
431.402	82.5
431.624	89.5
431.846	84.5
432.068	91.5
432.29	94.5
432.512	95.5
432.734	71.5
432.956	103.5
433.178	100.5
433.4	90.5
433.622	94.5
433.844	100.5
434.066	93.5
434.287	78.5
434.509	107.5
434.731	83.5
434.953	79.5
435.175	99.5
435.397	103.5
435.618	95.5
435.84	103.5
436.062	118.5
436.284	107.5
436.505	99.5
436.727	99.5
436.949	80.5
437.17	80.5
437.392	79.5
437.614	92.5
437.835	84.5
438.057	98.5
438.278	91.5
438.5	96.5
438.721	115.5
438.943	111.5
439.165	97.5
439.386	88.5
439.608	84.5
439.829	102.5
440.05	121.5
440.272	121.5
440.493	101.5
440.715	86.5
440.936	96.5
441.158	88.5
441.379	83.5
441.6	91.5
441.822	100.5
442.043	103.5
442.264	112.5
442.486	86.5
442.707	100.5
442.928	88.5
443.149	112.5
443.371	129.5
443.592	100.5
443.813	110.5
444.034	99.5
444.255	92.5
444.476	95.5
444.698	85.5
444.919	88.5
445.14	109.5
445.361	111.5
445.582	118.5
445.803	131.5
446.024	128.5
446.245	132.5
446.466	108.5
446.687	91.5
446.908	93.5
447.129	73.5
447.35	82.5
447.571	97.5
447.792	86.5
448.013	89.5
448.234	105.5
448.455	115.5
448.675	116.5
448.896	105.5
449.117	110.5
449.338	95.5
449.559	123.5
449.779	114.5
450	98.5
450.221	89.5
450.442	98.5
450.662	86.5
450.883	98.5
451.104	113.5
451.324	104.5
451.545	80.5
451.766	96.5
451.986	89.5
452.207	83.5
452.428	97.5
452.648	92.5
452.869	106.5
453.089	110.5
453.31	111.5
453.53	92.5
453.751	94.5
453.971	96.5
454.192	88.5
454.412	104.5
454.633	83.5
454.853	83.5
455.073	97.5
455.294	85.5
455.514	95.5
455.734	84.5
455.955	94.5
456.175	81.5
456.395	87.5
456.616	97.5
456.836	93.5
457.056	88.5
457.276	77.5
457.497	83.5
457.717	87.5
457.937	90.5
458.157	93.5
458.377	96.5
458.598	106.5
458.818	133.5
459.038	128.5
459.258	98.5
459.478	88.5
459.698	94.5
459.918	75.5
460.138	89.5
460.358	88.5
460.578	85.5
460.798	91.5
461.018	94.5
461.238	81.5
461.458	86.5
461.678	71.5
461.898	79.5
462.118	77.5
462.338	99.5
462.558	100.5
462.777	83.5
462.997	80.5
463.217	91.5
463.437	83.5
463.657	98.5
463.876	84.5
464.096	77.5
464.316	89.5
464.536	89.5
464.755	90.5
464.975	97.5
465.195	137.5
465.414	140.5
465.634	89.5
465.854	99.5
466.073	83.5
466.293	91.5
466.512	84.5
466.732	90.5
466.951	76.5
467.171	99.5
467.391	109.5
467.61	114.5
467.829	86.5
468.049	77.5
468.268	82.5
468.488	90.5
468.707	87.5
468.927	91.5
469.146	90.5
469.365	96.5
469.585	85.5
469.804	98.5
470.023	103.5
470.243	87.5
470.462	97.5
470.681	101.5
470.901	103.5
471.12	89.5
471.339	90.5
471.558	92.5
471.777	82.5
471.997	88.5
472.216	78.5
472.435	95.5
472.654	84.5
472.873	87.5
473.092	95.5
473.311	82.5
473.53	90.5
473.749	86.5
473.968	89.5
474.187	93.5
474.406	120.5
474.625	88.5
474.844	88.5
475.063	90.5
475.282	92.5
475.501	85.5
475.72	83.5
475.939	85.5
476.158	82.5
476.377	92.5
476.596	90.5
476.814	92.5
477.033	88.5
477.252	89.5
477.471	92.5
477.69	94.5
477.908	84.5
478.127	84.5
478.346	91.5
478.564	96.5
478.783	94.5
479.002	91.5
479.22	96.5
479.439	101.5
479.658	100.5
479.876	84.5
480.095	73.5
480.313	80.5
480.532	88.5
480.751	78.5
480.969	96.5
481.188	91.5
481.406	88.5
481.624	94.5
481.843	88.5
482.061	79.5
482.28	76.5
482.498	79.5
482.717	90.5
482.935	98.5
483.153	95.5
483.372	79.5
483.59	80.5
483.808	88.5
484.027	91.5
484.245	85.5
484.463	102.5
484.681	93.5
484.9	100.5
485.118	108.5
485.336	100.5
485.554	86.5
485.772	87.5
485.99	105.5
486.209	104.5
486.427	96.5
486.645	110.5
486.863	107.5
487.081	92.5
487.299	97.5
487.517	94.5
487.735	92.5
487.953	96.5
488.171	108.5
488.389	90.5
488.607	96.5
488.825	89.5
489.043	84.5
489.261	99.5
489.479	90.5
489.696	96.5
489.914	90.5
490.132	81.5
490.35	90.5
490.568	93.5
490.786	81.5
491.003	92.5
491.221	76.5
491.439	82.5
491.657	83.5
491.874	100.5
492.092	86.5
492.31	98.5
492.527	84.5
492.745	96.5
492.963	91.5
493.18	98.5
493.398	99.5
493.615	99.5
493.833	92.5
494.05	86.5
494.268	80.5
494.485	95.5
494.703	96.5
494.92	106.5
495.138	91.5
495.355	103.5
495.573	90.5
495.79	88.5
496.008	92.5
496.225	77.5
496.442	82.5
496.66	89.5
496.877	99.5
497.094	90.5
497.312	89.5
497.529	81.5
497.746	83.5
497.963	105.5
498.181	98.5
498.398	100.5
498.615	111.5
498.832	105.5
499.049	91.5
499.267	84.5
499.484	94.5
499.701	82.5
499.918	91.5
500.135	82.5
500.352	84.5
500.569	89.5
500.786	84.5
501.003	93.5
501.22	89.5
501.437	85.5
501.654	88.5
501.871	112.5
502.088	92.5
502.305	104.5
502.522	82.5
502.739	64.5
502.956	98.5
503.172	109.5
503.389	88.5
503.606	94.5
503.823	105.5
504.04	92.5
504.256	83.5
504.473	96.5
504.69	91.5
504.907	97.5
505.123	93.5
505.34	92.5
505.557	95.5
505.773	101.5
505.99	87.5
506.207	94.5
506.423	94.5
506.64	76.5
506.856	110.5
507.073	78.5
507.289	106.5
507.506	102.5
507.722	102.5
507.939	88.5
508.155	91.5
508.372	95.5
508.588	96.5
508.805	95.5
509.021	93.5
509.238	100.5
509.454	95.5
509.67	98.5
509.887	103.5
510.103	131.5
510.319	184.5
510.536	633.5
510.752	1965.5
510.968	542.5
511.184	138.5
511.401	92.5
511.617	95.5
511.833	90.5
512.049	101.5
512.265	86.5
512.481	91.5
512.698	87.5
512.914	86.5
513.13	86.5
513.346	104.5
513.562	99.5
513.778	112.5
513.994	87.5
514.21	103.5
514.426	110.5
514.642	125.5
514.858	116.5
515.074	140.5
515.29	392.5
515.506	1187.5
515.721	428.5
515.937	150.5
516.153	118.5
516.369	107.5
516.585	85.5
516.801	93.5
517.016	103.5
517.232	99.5
517.448	100.5
517.664	95.5
517.879	106.5
518.095	84.5
518.311	83.5
518.527	92.5
518.742	87.5
518.958	89.5
519.173	94.5
519.389	109.5
519.605	92.5
519.82	82.5
520.036	98.5
520.251	113.5
520.467	112.5
520.682	109.5
520.898	99.5
521.113	95.5
521.329	121.5
521.544	180.5
521.76	476.5
521.975	1960.5
522.19	1150.5
522.406	251.5
522.621	107.5
522.836	106.5
523.052	82.5
523.267	86.5
523.482	87.5
523.698	89.5
523.913	114.5
524.128	102.5
524.343	93.5
524.559	82.5
524.774	74.5
524.989	102.5
525.204	89.5
525.419	96.5
525.634	86.5
525.849	89.5
526.064	83.5
526.28	98.5
526.495	93.5
526.71	92.5
526.925	90.5
527.14	83.5
527.355	93.5
527.57	83.5
527.785	86.5
527.999	86.5
528.214	96.5
528.429	100.5
528.644	86.5
528.859	75.5
529.074	82.5
529.289	113.5
529.503	155.5
529.718	87.5
529.933	93.5
530.148	83.5
530.363	93.5
530.577	88.5
530.792	97.5
531.007	89.5
531.221	96.5
531.436	97.5
531.651	92.5
531.865	97.5
532.08	83.5
532.295	86.5
532.509	97.5
532.724	97.5
532.938	75.5
533.153	104.5
533.367	87.5
533.582	95.5
533.796	89.5
534.011	80.5
534.225	76.5
534.44	99.5
534.654	98.5
534.868	90.5
535.083	89.5
535.297	105.5
535.511	96.5
535.726	96.5
