Data from Uncirc_1996_H10_HRD10591_00083.txt Node
Date: Wed Jan 03 11:32:19 EST 2024
User: Yrep
Spectrometer: HR+D1059
Trigger mode: 1
Integration Time (sec): 1.000000E-1
Scans to average: 1
Electric dark correction enabled: true
Nonlinearity correction enabled: false
Boxcar width: 0
XAxis mode: Wavelengths
Number of Pixels in Spectrum: 2048
>>>>>Begin Spectral Data<<<<<
223.165	-17.88
223.4	-17.88
223.635	-17.88
223.869	-13.88
224.104	-26.88
224.338	-28.88
224.573	-30.88
224.808	-0.88
225.042	-4.88
225.277	-5.88
225.511	-2.88
225.746	14.12
225.98	20.12
226.215	6.12
226.449	28.12
226.683	21.12
226.918	20.12
227.152	23.12
227.387	38.12
227.621	44.12
227.856	32.12
228.09	57.12
228.324	38.12
228.559	64.12
228.793	176.12
229.027	446.12
229.262	526.12
229.496	616.12
229.73	856.12
229.964	829.12
230.199	540.12
230.433	473.12
230.667	489.12
230.901	456.12
231.136	435.12
231.37	463.12
231.604	444.12
231.838	472.12
232.072	474.12
232.306	461.12
232.541	471.12
232.775	474.12
233.009	487.12
233.243	496.12
233.477	509.12
233.711	518.12
233.945	522.12
234.179	530.12
234.413	531.12
234.647	497.12
234.881	520.12
235.115	554.12
235.349	560.12
235.583	595.12
235.817	588.12
236.051	676.12
236.285	633.12
236.519	654.12
236.753	729.12
236.987	946.12
237.221	1485.12
237.455	1594.12
237.689	929.12
237.922	776.12
238.156	710.12
238.39	696.12
238.624	668.12
238.858	680.12
239.091	692.12
239.325	683.12
239.559	699.12
239.793	717.12
240.027	768.12
240.26	937.12
240.494	1008.12
240.728	986.12
240.961	939.12
241.195	811.12
241.429	805.12
241.662	798.12
241.896	779.12
242.13	800.12
242.363	820.12
242.597	810.12
242.83	844.12
243.064	851.12
243.298	855.12
243.531	840.12
243.765	842.12
243.998	853.12
244.232	864.12
244.465	905.12
244.699	927.12
244.932	901.12
245.166	899.12
245.399	927.12
245.633	907.12
245.866	921.12
246.099	966.12
246.333	940.12
246.566	994.12
246.8	1008.12
247.033	1043.12
247.266	1058.12
247.5	1134.12
247.733	1195.12
247.966	1180.12
248.2	1167.12
248.433	1205.12
248.666	1255.12
248.899	1384.12
249.133	1486.12
249.366	1469.12
249.599	1331.12
249.832	1239.12
250.066	1240.12
250.299	1283.12
250.532	1359.12
250.765	1560.12
250.998	1803.12
251.231	1700.12
251.465	1496.12
251.698	1481.12
251.931	1439.12
252.164	1432.12
252.397	1445.12
252.63	1497.12
252.863	1583.12
253.096	1772.12
253.329	1791.12
253.562	1729.12
253.795	1582.12
254.028	1589.12
254.261	1693.12
254.494	1880.12
254.727	2225.12
254.96	2344.12
255.193	2046.12
255.426	1799.12
255.659	1672.12
255.892	1578.12
256.124	1585.12
256.357	1533.12
256.59	1547.12
256.823	1533.12
257.056	1531.12
257.289	1530.12
257.521	1559.12
257.754	1559.12
257.987	1584.12
258.22	1570.12
258.452	1597.12
258.685	1564.12
258.918	1621.12
259.151	1642.12
259.383	1719.12
259.616	1761.12
259.849	1822.12
260.081	2036.12
260.314	2179.12
260.547	2124.12
260.779	1906.12
261.012	1814.12
261.244	1783.12
261.477	1720.12
261.71	1710.12
261.942	1790.12
262.175	1812.12
262.407	1740.12
262.64	1699.12
262.872	1688.12
263.105	1667.12
263.337	1696.12
263.57	1674.12
263.802	1695.12
264.035	1679.12
264.267	1725.12
264.499	1728.12
264.732	1746.12
264.964	1729.12
265.197	1765.12
265.429	1786.12
265.661	1741.12
265.894	1779.12
266.126	1780.12
266.358	1779.12
266.591	1795.12
266.823	1943.12
267.055	1945.12
267.287	1917.12
267.52	1893.12
267.752	1877.12
267.984	1905.12
268.216	1931.12
268.448	1987.12
268.681	2032.12
268.913	2183.12
269.145	2421.12
269.377	2499.12
269.609	2380.12
269.841	2340.12
270.073	2492.12
270.306	2818.12
270.538	2983.12
270.77	2743.12
271.002	2581.12
271.234	2556.12
271.466	2748.12
271.698	2808.12
271.93	2894.12
272.162	2867.12
272.394	2715.12
272.626	2619.12
272.858	2472.12
273.09	2374.12
273.322	2337.12
273.553	2313.12
273.785	2273.12
274.017	2293.12
274.249	2295.12
274.481	2328.12
274.713	2307.12
274.945	2360.12
275.176	2371.12
275.408	2336.12
275.64	2337.12
275.872	2311.12
276.104	2355.12
276.335	2376.12
276.567	2455.12
276.799	2643.12
277.031	2860.12
277.262	2980.12
277.494	2885.12
277.726	2687.12
277.957	2516.12
278.189	2502.12
278.421	2455.12
278.652	2422.12
278.884	2440.12
279.115	2408.12
279.347	2382.12
279.579	2461.12
279.81	2382.12
280.042	2398.12
280.273	2450.12
280.505	2429.12
280.736	2476.12
280.968	2449.12
281.199	2470.12
281.431	2489.12
281.662	2529.12
281.894	2539.12
282.125	2614.12
282.356	2737.12
282.588	2867.12
282.819	2751.12
283.051	2595.12
283.282	2615.12
283.513	2627.12
283.745	2718.12
283.976	2674.12
284.207	2730.12
284.439	2675.12
284.67	2682.12
284.901	2688.12
285.132	2680.12
285.364	2663.12
285.595	2664.12
285.826	2694.12
286.057	2740.12
286.288	2729.12
286.52	2767.12
286.751	2757.12
286.982	2763.12
287.213	2725.12
287.444	2755.12
287.675	2849.12
287.906	2950.12
288.138	3030.12
288.369	2939.12
288.6	2979.12
288.831	2928.12
289.062	2853.12
289.293	2887.12
289.524	2888.12
289.755	2872.12
289.986	2854.12
290.217	2836.12
290.448	2881.12
290.679	2846.12
290.91	2864.12
291.141	2849.12
291.371	2843.12
291.602	2887.12
291.833	2817.12
292.064	2867.12
292.295	2908.12
292.526	2913.12
292.757	2894.12
292.987	2919.12
293.218	2916.12
293.449	2911.12
293.68	2916.12
293.91	2934.12
294.141	2910.12
294.372	2888.12
294.603	2930.12
294.833	2948.12
295.064	2970.12
295.295	2934.12
295.525	2969.12
295.756	3016.12
295.987	3059.12
296.217	3251.12
296.448	3247.12
296.679	3007.12
296.909	3051.12
297.14	3063.12
297.37	3071.12
297.601	3130.12
297.831	3091.12
298.062	3099.12
298.292	3153.12
298.523	3202.12
298.753	3152.12
298.984	3137.12
299.214	3155.12
299.445	3181.12
299.675	3239.12
299.905	3314.12
300.136	3193.12
300.366	3211.12
300.597	3246.12
300.827	3338.12
301.057	3404.12
301.288	3452.12
301.518	3410.12
301.748	3388.12
301.979	3446.12
302.209	3448.12
302.439	3465.12
302.669	3520.12
302.9	3386.12
303.13	3370.12
303.36	3376.12
303.59	3496.12
303.82	3521.12
304.051	3476.12
304.281	3416.12
304.511	3398.12
304.741	3372.12
304.971	3326.12
305.201	3366.12
305.431	3359.12
305.661	3383.12
305.891	3396.12
306.121	3331.12
306.352	3422.12
306.582	3377.12
306.812	3290.12
307.042	3325.12
307.272	3375.12
307.502	3310.12
307.731	3366.12
307.961	3328.12
308.191	3393.12
308.421	3364.12
308.651	3395.12
308.881	3391.12
309.111	3451.12
309.341	3465.12
309.571	3587.12
309.8	3596.12
310.03	3636.12
310.26	3651.12
310.49	3669.12
310.72	3861.12
310.949	3910.12
311.179	3803.12
311.409	3691.12
311.639	3726.12
311.868	3747.12
312.098	3792.12
312.328	3850.12
312.557	4027.12
312.787	4075.12
313.017	3937.12
313.246	3904.12
313.476	3825.12
313.706	3894.12
313.935	3978.12
314.165	4103.12
314.394	4095.12
314.624	3990.12
314.853	3903.12
315.083	3846.12
315.312	3820.12
315.542	3842.12
315.771	3795.12
316.001	3819.12
316.23	3791.12
316.46	3761.12
316.689	3843.12
316.919	3823.12
317.148	3857.12
317.377	3896.12
317.607	3830.12
317.836	3876.12
318.065	3780.12
318.295	3735.12
318.524	3793.12
318.753	3769.12
318.983	3802.12
319.212	3793.12
319.441	3858.12
319.67	3817.12
319.9	3751.12
320.129	3755.12
320.358	3813.12
320.587	3805.12
320.816	3894.12
321.046	3927.12
321.275	3944.12
321.504	3949.12
321.733	3997.12
321.962	4014.12
322.191	4122.12
322.42	4212.12
322.649	4343.12
322.878	4393.12
323.108	4408.12
323.337	4668.12
323.566	4881.12
323.795	5152.12
324.024	5721.12
324.253	7592.12
324.482	11518.12
324.71	15603.12
324.939	15620.12
325.168	13614.12
325.397	6878.12
325.626	5392.12
325.855	5023.12
326.084	4866.12
326.313	4849.12
326.542	5071.12
326.77	5692.12
326.999	7230.12
327.228	10701.12
327.457	14792.12
327.686	14080.12
327.914	7548.12
328.143	6046.12
328.372	5586.12
328.6	5447.12
328.829	5394.12
329.058	5492.12
329.287	5412.12
329.515	5050.12
329.744	4915.12
329.972	4859.12
330.201	5003.12
330.43	5242.12
330.658	5618.12
330.887	5921.12
331.115	5505.12
331.344	5120.12
331.572	4992.12
331.801	5116.12
332.03	5160.12
332.258	5039.12
332.486	5036.12
332.715	5139.12
332.943	5330.12
333.172	5450.12
333.4	5562.12
333.629	5602.12
333.857	5737.12
334.085	5656.12
334.314	5589.12
334.542	5414.12
334.771	5424.12
334.999	5360.12
335.227	5362.12
335.455	5226.12
335.684	5154.12
335.912	5108.12
336.14	5130.12
336.369	5110.12
336.597	5148.12
336.825	5036.12
337.053	5035.12
337.281	4907.12
337.51	4864.12
337.738	4807.12
337.966	4834.12
338.194	4856.12
338.422	4724.12
338.65	4655.12
338.878	4670.12
339.106	4643.12
339.334	4673.12
339.562	4586.12
339.79	4558.12
340.018	4487.12
340.246	4535.12
340.474	4527.12
340.702	4538.12
340.93	4520.12
341.158	4508.12
341.386	4511.12
341.614	4527.12
341.842	4473.12
342.07	4464.12
342.298	4404.12
342.526	4411.12
342.754	4368.12
342.981	4482.12
343.209	4553.12
343.437	4773.12
343.665	5058.12
343.893	5342.12
344.12	5260.12
344.348	5143.12
344.576	4886.12
344.804	4853.12
345.031	4754.12
345.259	4731.12
345.487	4580.12
345.714	4488.12
345.942	4365.12
346.17	4340.12
346.397	4354.12
346.625	4339.12
346.853	4299.12
347.08	4326.12
347.308	4389.12
347.535	4452.12
347.763	4482.12
347.99	4419.12
348.218	4411.12
348.445	4428.12
348.673	4344.12
348.9	4350.12
349.128	4220.12
349.355	4223.12
349.583	4191.12
349.81	4199.12
350.037	4187.12
350.265	4147.12
350.492	4184.12
350.72	4199.12
350.947	4195.12
351.174	4298.12
351.402	4440.12
351.629	4248.12
351.856	4272.12
352.083	4330.12
352.311	4352.12
352.538	4424.12
352.765	4365.12
352.992	4234.12
353.22	4204.12
353.447	4150.12
353.674	4129.12
353.901	4128.12
354.128	4074.12
354.355	4026.12
354.583	4067.12
354.81	4017.12
355.037	4044.12
355.264	4010.12
355.491	4040.12
355.718	4072.12
355.945	4109.12
356.172	4066.12
356.399	4100.12
356.626	4078.12
356.853	4094.12
357.08	4086.12
357.307	4085.12
357.534	4134.12
357.761	4080.12
357.988	4105.12
358.215	4116.12
358.441	4093.12
358.668	4073.12
358.895	4162.12
359.122	4155.12
359.349	4292.12
359.576	4408.12
359.802	4650.12
360.029	4767.12
360.256	4791.12
360.483	4521.12
360.709	4366.12
360.936	4377.12
361.163	4408.12
361.39	4384.12
361.616	4366.12
361.843	4300.12
362.07	4365.12
362.296	4369.12
362.523	4264.12
362.749	4334.12
362.976	4294.12
363.203	4198.12
363.429	4124.12
363.656	4172.12
363.882	4215.12
364.109	4230.12
364.335	4148.12
364.562	4171.12
364.788	4114.12
365.015	4218.12
365.241	4152.12
365.468	4221.12
365.694	4267.12
365.92	4182.12
366.147	4124.12
366.373	4130.12
366.599	4171.12
366.826	4056.12
367.052	4123.12
367.278	4133.12
367.505	4197.12
367.731	4195.12
367.957	4216.12
368.184	4270.12
368.41	4285.12
368.636	4332.12
368.862	4375.12
369.089	4365.12
369.315	4212.12
369.541	4234.12
369.767	4323.12
369.993	4234.12
370.219	4301.12
370.445	4237.12
370.672	4307.12
370.898	4358.12
371.124	4355.12
371.35	4430.12
371.576	4440.12
371.802	4361.12
372.028	4393.12
372.254	4382.12
372.48	4413.12
372.706	4564.12
372.932	4550.12
373.158	4510.12
373.384	4528.12
373.61	4423.12
373.835	4496.12
374.061	4474.12
374.287	4563.12
374.513	4568.12
374.739	4765.12
374.965	4842.12
375.191	4883.12
375.416	4742.12
375.642	4640.12
375.868	4590.12
376.094	4550.12
376.319	4480.12
376.545	4542.12
376.771	4464.12
376.997	4455.12
377.222	4505.12
377.448	4408.12
377.674	4370.12
377.899	4347.12
378.125	4430.12
378.35	4383.12
378.576	4310.12
378.802	4374.12
379.027	4377.12
379.253	4418.12
379.478	4367.12
379.704	4354.12
379.929	4433.12
380.155	4446.12
380.38	4425.12
380.606	4467.12
380.831	4420.12
381.057	4483.12
381.282	4519.12
381.507	4424.12
381.733	4487.12
381.958	4577.12
382.184	4683.12
382.409	4617.12
382.634	4617.12
382.86	4708.12
383.085	4744.12
383.31	4778.12
383.535	4832.12
383.761	4925.12
383.986	4964.12
384.211	5050.12
384.436	5174.12
384.662	5204.12
384.887	5271.12
385.112	5222.12
385.337	5358.12
385.562	5380.12
385.787	5370.12
386.013	5411.12
386.238	5437.12
386.463	5401.12
386.688	5454.12
386.913	5260.12
387.138	5212.12
387.363	5272.12
387.588	5243.12
387.813	5278.12
388.038	5203.12
388.263	5329.12
388.488	5295.12
388.713	5290.12
388.938	5224.12
389.163	5263.12
389.387	5280.12
389.612	5130.12
389.837	5167.12
390.062	5130.12
390.287	5187.12
390.512	5194.12
390.736	5236.12
390.961	5431.12
391.186	5409.12
391.411	5664.12
391.636	5734.12
391.86	5920.12
392.085	6000.12
392.31	5850.12
392.534	5683.12
392.759	5632.12
392.984	5521.12
393.208	5491.12
393.433	5593.12
393.658	5484.12
393.882	5482.12
394.107	5482.12
394.331	5616.12
394.556	5532.12
394.78	5600.12
395.005	5689.12
395.229	5706.12
395.454	5851.12
395.678	5996.12
395.903	5999.12
396.127	6061.12
396.352	5859.12
396.576	5688.12
396.801	5612.12
397.025	5648.12
397.249	5901.12
397.474	5960.12
397.698	5910.12
397.922	6137.12
398.147	6270.12
398.371	6334.12
398.595	6466.12
398.82	6739.12
399.044	7338.12
399.268	8127.12
399.492	9250.12
399.717	9878.12
399.941	9592.12
400.165	9102.12
400.389	8340.12
400.613	7502.12
400.837	6922.12
401.062	6814.12
401.286	6697.12
401.51	6712.12
401.734	6676.12
401.958	6803.12
402.182	6906.12
402.406	6986.12
402.63	7059.12
402.854	7169.12
403.078	7334.12
403.302	7393.12
403.526	7556.12
403.75	7516.12
403.974	7614.12
404.198	7524.12
404.422	7688.12
404.645	7505.12
404.869	7451.12
405.093	7610.12
405.317	7721.12
405.541	7736.12
405.765	7434.12
405.988	7376.12
406.212	7615.12
406.436	7724.12
406.66	7912.12
406.883	7970.12
407.107	8520.12
407.331	9074.12
407.555	9704.12
407.778	9263.12
408.002	8472.12
408.226	8055.12
408.449	7834.12
408.673	7884.12
408.896	8062.12
409.12	8242.12
409.344	7712.12
409.567	7367.12
409.791	7314.12
410.014	7234.12
410.238	7072.12
410.461	7140.12
410.685	7198.12
410.908	7322.12
411.132	7659.12
411.355	7539.12
411.578	7133.12
411.802	6875.12
412.025	6910.12
412.249	6986.12
412.472	6928.12
412.695	6803.12
412.919	6562.12
413.142	6619.12
413.365	6483.12
413.589	6663.12
413.812	6482.12
414.035	6418.12
414.258	6491.12
414.482	6604.12
414.705	6606.12
414.928	6507.12
415.151	6509.12
415.374	6521.12
415.597	6470.12
415.821	6414.12
416.044	6528.12
416.267	6390.12
416.49	6336.12
416.713	6345.12
416.936	6417.12
417.159	6480.12
417.382	6500.12
417.605	6499.12
417.828	6651.12
418.051	6765.12
418.274	6638.12
418.497	6652.12
418.72	6675.12
418.943	6608.12
419.166	7079.12
419.389	7426.12
419.611	7356.12
419.834	7046.12
420.057	7024.12
420.28	6706.12
420.503	6562.12
420.726	6637.12
420.948	6814.12
421.171	7300.12
421.394	7273.12
421.617	6715.12
421.839	6691.12
422.062	6872.12
422.285	6923.12
422.507	7672.12
422.73	8102.12
422.953	7618.12
423.175	7215.12
423.398	7165.12
423.621	7198.12
423.843	7485.12
424.066	7418.12
424.288	7415.12
424.511	7518.12
424.733	8099.12
424.956	8582.12
425.178	8034.12
425.401	8290.12
425.623	8104.12
425.846	6998.12
426.068	6818.12
426.291	6751.12
426.513	6759.12
426.735	6905.12
426.958	7456.12
427.18	8246.12
427.402	9439.12
427.625	9418.12
427.847	7750.12
428.069	6969.12
428.292	6692.12
428.514	6278.12
428.736	6169.12
428.958	6216.12
429.181	6010.12
429.403	5940.12
429.625	6270.12
429.847	6535.12
430.069	7118.12
430.292	6692.12
430.514	5949.12
430.736	6026.12
430.958	5845.12
431.18	5790.12
431.402	5780.12
431.624	5832.12
431.846	5939.12
432.068	5852.12
432.29	6010.12
432.512	5905.12
432.734	5975.12
432.956	5918.12
433.178	5983.12
433.4	5987.12
433.622	5934.12
433.844	5902.12
434.066	5872.12
434.287	6040.12
434.509	6249.12
434.731	6591.12
434.953	6648.12
435.175	6840.12
435.397	6866.12
435.618	6843.12
435.84	7344.12
436.062	8160.12
436.284	8112.12
436.505	6751.12
436.727	6424.12
436.949	6169.12
437.17	6037.12
437.392	5988.12
437.614	6175.12
437.835	6686.12
438.057	7666.12
438.278	8382.12
438.5	8228.12
438.721	9113.12
438.943	7990.12
439.165	6681.12
439.386	6524.12
439.608	6520.12
439.829	6660.12
440.05	6964.12
440.272	7425.12
440.493	6741.12
440.715	6346.12
440.936	6334.12
441.158	6339.12
441.379	6432.12
441.6	6839.12
441.822	7134.12
442.043	7536.12
442.264	8432.12
442.486	8144.12
442.707	7226.12
442.928	6980.12
443.149	7160.12
443.371	7342.12
443.592	7986.12
443.813	9123.12
444.034	8989.12
444.255	7800.12
444.476	7541.12
444.698	7795.12
444.919	7794.12
445.14	7630.12
445.361	7563.12
445.582	7721.12
445.803	8401.12
446.024	9099.12
446.245	8743.12
446.466	7731.12
446.687	6759.12
446.908	6393.12
447.129	5996.12
447.35	5901.12
447.571	5809.12
447.792	5710.12
448.013	5944.12
448.234	6156.12
448.455	6824.12
448.675	8094.12
448.896	8541.12
449.117	7026.12
449.338	7287.12
449.559	8741.12
449.779	8852.12
450	6758.12
450.221	5985.12
450.442	5806.12
450.662	5663.12
450.883	5724.12
451.104	5801.12
451.324	5645.12
451.545	5607.12
451.766	5383.12
451.986	5238.12
452.207	5222.12
452.428	5206.12
452.648	5272.12
452.869	5200.12
453.089	5341.12
453.31	5430.12
453.53	5242.12
453.751	5178.12
453.971	5273.12
454.192	5350.12
454.412	5130.12
454.633	5076.12
454.853	5017.12
455.073	5234.12
455.294	5534.12
455.514	6202.12
455.734	5606.12
455.955	5023.12
456.175	4851.12
456.395	4828.12
456.616	4780.12
456.836	4779.12
457.056	4798.12
457.276	4705.12
457.497	4867.12
457.717	4861.12
457.937	4913.12
458.157	4997.12
458.377	5067.12
458.598	5456.12
458.818	6205.12
459.038	6898.12
459.258	6945.12
459.478	6076.12
459.698	6050.12
459.918	6030.12
460.138	6250.12
460.358	6491.12
460.578	6425.12
460.798	6558.12
461.018	6537.12
461.238	6355.12
461.458	6301.12
461.678	6364.12
461.898	6452.12
462.118	6577.12
462.338	6899.12
462.558	7009.12
462.777	7366.12
462.997	8001.12
463.217	8368.12
463.437	8122.12
463.657	7470.12
463.876	7287.12
464.096	7258.12
464.316	7361.12
464.536	7362.12
464.755	7159.12
464.975	7005.12
465.195	7248.12
465.414	7218.12
465.634	6419.12
465.854	6034.12
466.073	5790.12
466.293	5667.12
466.512	5488.12
466.732	5302.12
466.951	5362.12
467.171	5378.12
467.391	5449.12
467.61	5481.12
467.829	5463.12
468.049	5306.12
468.268	5138.12
468.488	5107.12
468.707	5145.12
468.927	5100.12
469.146	5064.12
469.365	5180.12
469.585	5243.12
469.804	5432.12
470.023	5512.12
470.243	5528.12
470.462	5625.12
470.681	5809.12
470.901	5678.12
471.12	5473.12
471.339	5436.12
471.558	5449.12
471.777	5375.12
471.997	5274.12
472.216	5142.12
472.435	5142.12
472.654	5076.12
472.873	4927.12
473.092	5054.12
473.311	5102.12
473.53	5171.12
473.749	5263.12
473.968	5840.12
474.187	7066.12
474.406	6440.12
474.625	5510.12
474.844	5223.12
475.063	5154.12
475.282	5108.12
475.501	5245.12
475.72	5284.12
475.939	5343.12
476.158	5359.12
476.377	5342.12
476.596	5322.12
476.814	5494.12
477.033	5536.12
477.252	5615.12
477.471	5702.12
477.69	5857.12
477.908	5932.12
478.127	6132.12
478.346	6140.12
478.564	6233.12
478.783	6286.12
479.002	6482.12
479.22	6460.12
479.439	6554.12
479.658	6664.12
479.876	6673.12
480.095	6987.12
480.313	7431.12
480.532	7278.12
480.751	7023.12
480.969	6956.12
481.188	6790.12
481.406	6578.12
481.624	6405.12
481.843	6284.12
482.061	6227.12
482.28	6081.12
482.498	6048.12
482.717	5970.12
482.935	5948.12
483.153	5952.12
483.372	5973.12
483.59	6045.12
483.808	5986.12
484.027	6039.12
484.245	6099.12
484.463	6147.12
484.681	6241.12
484.9	6220.12
485.118	6219.12
485.336	6364.12
485.554	6393.12
485.772	6382.12
485.99	6460.12
486.209	6438.12
486.427	6527.12
486.645	6524.12
486.863	6672.12
487.081	6604.12
487.299	6526.12
487.517	6466.12
487.735	6430.12
