Data from Uncirc_1996_H10_HRD10591_00014.txt Node
Date: Wed Jan 03 11:32:05 EST 2024
User: Yrep
Spectrometer: HR+D1059
Trigger mode: 1
Integration Time (sec): 1.000000E-1
Scans to average: 1
Electric dark correction enabled: true
Nonlinearity correction enabled: false
Boxcar width: 0
XAxis mode: Wavelengths
Number of Pixels in Spectrum: 2048
>>>>>Begin Spectral Data<<<<<
223.165	-15.12
223.4	-15.12
223.635	-15.12
223.869	-20.12
224.104	-19.12
224.338	-35.12
224.573	-6.12
224.808	-14.12
225.042	0.88
225.277	-4.12
225.511	-1.12
225.746	-5.12
225.98	17.88
226.215	16.88
226.449	-0.12
226.683	16.88
226.918	30.88
227.152	36.88
227.387	38.88
227.621	33.88
227.856	34.88
228.09	51.88
228.324	58.88
228.559	54.88
228.793	59.88
229.027	52.88
229.262	72.88
229.496	75.88
229.73	86.88
229.964	78.88
230.199	81.88
230.433	84.88
230.667	74.88
230.901	84.88
231.136	82.88
231.37	89.88
231.604	95.88
231.838	68.88
232.072	63.88
232.306	84.88
232.541	90.88
232.775	89.88
233.009	81.88
233.243	80.88
233.477	76.88
233.711	93.88
233.945	82.88
234.179	61.88
234.413	86.88
234.647	77.88
234.881	77.88
235.115	87.88
235.349	78.88
235.583	72.88
235.817	72.88
236.051	98.88
236.285	73.88
236.519	87.88
236.753	75.88
236.987	73.88
237.221	93.88
237.455	85.88
237.689	80.88
237.922	82.88
238.156	73.88
238.39	69.88
238.624	52.88
238.858	77.88
239.091	72.88
239.325	74.88
239.559	78.88
239.793	87.88
240.027	76.88
240.26	86.88
240.494	80.88
240.728	82.88
240.961	71.88
241.195	76.88
241.429	78.88
241.662	64.88
241.896	97.88
242.13	87.88
242.363	71.88
242.597	71.88
242.83	73.88
243.064	75.88
243.298	88.88
243.531	78.88
243.765	82.88
243.998	76.88
244.232	73.88
244.465	81.88
244.699	65.88
244.932	76.88
245.166	73.88
245.399	73.88
245.633	72.88
245.866	77.88
246.099	86.88
246.333	92.88
246.566	89.88
246.8	92.88
247.033	65.88
247.266	78.88
247.5	76.88
247.733	79.88
247.966	78.88
248.2	88.88
248.433	71.88
248.666	79.88
248.899	89.88
249.133	88.88
249.366	97.88
249.599	102.88
249.832	81.88
250.066	76.88
250.299	89.88
250.532	60.88
250.765	80.88
250.998	79.88
251.231	75.88
251.465	86.88
251.698	78.88
251.931	95.88
252.164	74.88
252.397	72.88
252.63	72.88
252.863	64.88
253.096	69.88
253.329	82.88
253.562	70.88
253.795	72.88
254.028	75.88
254.261	89.88
254.494	76.88
254.727	75.88
254.96	65.88
255.193	76.88
255.426	75.88
255.659	66.88
255.892	95.88
256.124	77.88
256.357	82.88
256.59	88.88
256.823	84.88
257.056	61.88
257.289	78.88
257.521	76.88
257.754	76.88
257.987	82.88
258.22	98.88
258.452	74.88
258.685	81.88
258.918	84.88
259.151	87.88
259.383	68.88
259.616	85.88
259.849	79.88
260.081	85.88
260.314	70.88
260.547	93.88
260.779	81.88
261.012	81.88
261.244	78.88
261.477	80.88
261.71	89.88
261.942	115.88
262.175	117.88
262.407	87.88
262.64	78.88
262.872	82.88
263.105	75.88
263.337	93.88
263.57	84.88
263.802	76.88
264.035	77.88
264.267	80.88
264.499	86.88
264.732	72.88
264.964	76.88
265.197	75.88
265.429	87.88
265.661	90.88
265.894	74.88
266.126	85.88
266.358	72.88
266.591	76.88
266.823	81.88
267.055	70.88
267.287	88.88
267.52	81.88
267.752	73.88
267.984	89.88
268.216	76.88
268.448	92.88
268.681	77.88
268.913	77.88
269.145	85.88
269.377	85.88
269.609	88.88
269.841	92.88
270.073	74.88
270.306	82.88
270.538	73.88
270.77	87.88
271.002	73.88
271.234	77.88
271.466	81.88
271.698	77.88
271.93	91.88
272.162	84.88
272.394	83.88
272.626	84.88
272.858	76.88
273.09	84.88
273.322	96.88
273.553	90.88
273.785	87.88
274.017	87.88
274.249	75.88
274.481	93.88
274.713	81.88
274.945	89.88
275.176	83.88
275.408	86.88
275.64	85.88
275.872	89.88
276.104	94.88
276.335	89.88
276.567	102.88
276.799	102.88
277.031	87.88
277.262	70.88
277.494	75.88
277.726	88.88
277.957	89.88
278.189	82.88
278.421	77.88
278.652	91.88
278.884	81.88
279.115	81.88
279.347	72.88
279.579	83.88
279.81	78.88
280.042	81.88
280.273	98.88
280.505	92.88
280.736	84.88
280.968	77.88
281.199	88.88
281.431	88.88
281.662	87.88
281.894	89.88
282.125	92.88
282.356	104.88
282.588	133.88
282.819	113.88
283.051	84.88
283.282	84.88
283.513	106.88
283.745	90.88
283.976	73.88
284.207	86.88
284.439	89.88
284.67	81.88
284.901	92.88
285.132	92.88
285.364	96.88
285.595	97.88
285.826	84.88
286.057	78.88
286.288	79.88
286.52	93.88
286.751	90.88
286.982	93.88
287.213	81.88
287.444	95.88
287.675	92.88
287.906	87.88
288.138	100.88
288.369	100.88
288.6	89.88
288.831	84.88
289.062	90.88
289.293	96.88
289.524	76.88
289.755	71.88
289.986	89.88
290.217	97.88
290.448	83.88
290.679	85.88
290.91	78.88
291.141	80.88
291.371	81.88
291.602	82.88
291.833	58.88
292.064	88.88
292.295	85.88
292.526	95.88
292.757	92.88
292.987	82.88
293.218	77.88
293.449	74.88
293.68	83.88
293.91	95.88
294.141	81.88
294.372	88.88
294.603	94.88
294.833	83.88
295.064	88.88
295.295	95.88
295.525	96.88
295.756	108.88
295.987	107.88
296.217	124.88
296.448	121.88
296.679	88.88
296.909	93.88
297.14	98.88
297.37	91.88
297.601	80.88
297.831	84.88
298.062	95.88
298.292	103.88
298.523	99.88
298.753	89.88
298.984	86.88
299.214	81.88
299.445	81.88
299.675	106.88
299.905	82.88
300.136	94.88
300.366	85.88
300.597	86.88
300.827	82.88
301.057	89.88
301.288	95.88
301.518	77.88
301.748	92.88
301.979	102.88
302.209	78.88
302.439	98.88
302.669	82.88
302.9	85.88
303.13	102.88
303.36	85.88
303.59	95.88
303.82	96.88
304.051	110.88
304.281	94.88
304.511	84.88
304.741	85.88
304.971	94.88
305.201	85.88
305.431	93.88
305.661	68.88
305.891	80.88
306.121	85.88
306.352	103.88
306.582	88.88
306.812	100.88
307.042	90.88
307.272	95.88
307.502	97.88
307.731	87.88
307.961	82.88
308.191	78.88
308.421	88.88
308.651	102.88
308.881	80.88
309.111	87.88
309.341	92.88
309.571	86.88
309.8	103.88
310.03	104.88
310.26	94.88
310.49	100.88
310.72	92.88
310.949	108.88
311.179	92.88
311.409	99.88
311.639	101.88
311.868	83.88
312.098	95.88
312.328	82.88
312.557	93.88
312.787	96.88
313.017	101.88
313.246	94.88
313.476	92.88
313.706	99.88
313.935	104.88
314.165	98.88
314.394	102.88
314.624	85.88
314.853	87.88
315.083	88.88
315.312	88.88
315.542	89.88
315.771	87.88
316.001	90.88
316.23	96.88
316.46	100.88
316.689	82.88
316.919	97.88
317.148	93.88
317.377	76.88
317.607	84.88
317.836	92.88
318.065	77.88
318.295	79.88
318.524	85.88
318.753	97.88
318.983	105.88
319.212	87.88
319.441	93.88
319.67	97.88
319.9	98.88
320.129	92.88
320.358	104.88
320.587	97.88
320.816	111.88
321.046	93.88
321.275	98.88
321.504	99.88
321.733	92.88
321.962	91.88
322.191	101.88
322.42	114.88
322.649	116.88
322.878	112.88
323.108	97.88
323.337	112.88
323.566	128.88
323.795	156.88
324.024	189.88
324.253	392.88
324.482	836.88
324.71	1759.88
324.939	2367.88
325.168	882.88
325.397	257.88
325.626	135.88
325.855	134.88
326.084	122.88
326.313	133.88
326.542	164.88
326.77	229.88
326.999	475.88
327.228	979.88
327.457	1823.88
327.686	1480.88
327.914	405.88
328.143	254.88
328.372	190.88
328.6	127.88
328.829	107.88
329.058	126.88
329.287	125.88
329.515	102.88
329.744	88.88
329.972	86.88
330.201	94.88
330.43	113.88
330.658	117.88
330.887	132.88
331.115	119.88
331.344	93.88
331.572	111.88
331.801	98.88
332.03	104.88
332.258	87.88
332.486	101.88
332.715	93.88
332.943	91.88
333.172	104.88
333.4	100.88
333.629	95.88
333.857	98.88
334.085	82.88
334.314	95.88
334.542	91.88
334.771	81.88
334.999	103.88
335.227	87.88
335.455	97.88
335.684	75.88
335.912	107.88
336.14	101.88
336.369	84.88
336.597	100.88
336.825	89.88
337.053	92.88
337.281	90.88
337.51	85.88
337.738	98.88
337.966	89.88
338.194	136.88
338.422	143.88
338.65	97.88
338.878	87.88
339.106	89.88
339.334	87.88
339.562	102.88
339.79	102.88
340.018	84.88
340.246	84.88
340.474	96.88
340.702	95.88
340.93	87.88
341.158	87.88
341.386	101.88
341.614	103.88
341.842	93.88
342.07	97.88
342.298	81.88
342.526	87.88
342.754	76.88
342.981	84.88
343.209	92.88
343.437	89.88
343.665	88.88
343.893	90.88
344.12	82.88
344.348	93.88
344.576	82.88
344.804	98.88
345.031	95.88
345.259	86.88
345.487	73.88
345.714	91.88
345.942	95.88
346.17	93.88
346.397	92.88
346.625	87.88
346.853	82.88
347.08	96.88
347.308	105.88
347.535	88.88
347.763	93.88
347.99	102.88
348.218	94.88
348.445	109.88
348.673	93.88
348.9	98.88
349.128	100.88
349.355	105.88
349.583	93.88
349.81	94.88
350.037	83.88
350.265	85.88
350.492	105.88
350.72	85.88
350.947	94.88
351.174	102.88
351.402	97.88
351.629	102.88
351.856	103.88
352.083	100.88
352.311	98.88
352.538	89.88
352.765	114.88
352.992	98.88
353.22	107.88
353.447	92.88
353.674	100.88
353.901	102.88
354.128	100.88
354.355	109.88
354.583	102.88
354.81	104.88
355.037	98.88
355.264	85.88
355.491	95.88
355.718	84.88
355.945	89.88
356.172	85.88
356.399	86.88
356.626	88.88
356.853	92.88
357.08	78.88
357.307	83.88
357.534	97.88
357.761	99.88
357.988	90.88
358.215	96.88
358.441	79.88
358.668	82.88
358.895	87.88
359.122	92.88
359.349	78.88
359.576	83.88
359.802	98.88
360.029	112.88
360.256	116.88
360.483	96.88
360.709	88.88
360.936	90.88
361.163	91.88
361.39	99.88
361.616	108.88
361.843	89.88
362.07	97.88
362.296	92.88
362.523	90.88
362.749	99.88
362.976	92.88
363.203	104.88
363.429	87.88
363.656	95.88
363.882	104.88
364.109	97.88
364.335	109.88
364.562	93.88
364.788	86.88
365.015	93.88
365.241	95.88
365.468	97.88
365.694	98.88
365.92	97.88
366.147	102.88
366.373	82.88
366.599	93.88
366.826	87.88
367.052	81.88
367.278	79.88
367.505	93.88
367.731	92.88
367.957	79.88
368.184	91.88
368.41	90.88
368.636	105.88
368.862	109.88
369.089	111.88
369.315	102.88
369.541	102.88
369.767	87.88
369.993	94.88
370.219	81.88
370.445	81.88
370.672	82.88
370.898	81.88
371.124	87.88
371.35	92.88
371.576	69.88
371.802	99.88
372.028	102.88
372.254	71.88
372.48	97.88
372.706	95.88
372.932	103.88
373.158	80.88
373.384	92.88
373.61	103.88
373.835	82.88
374.061	92.88
374.287	86.88
374.513	98.88
374.739	87.88
374.965	81.88
375.191	88.88
375.416	83.88
375.642	75.88
375.868	81.88
376.094	92.88
376.319	95.88
376.545	79.88
376.771	87.88
376.997	96.88
377.222	87.88
377.448	95.88
377.674	93.88
377.899	96.88
378.125	95.88
378.35	90.88
378.576	94.88
378.802	82.88
379.027	97.88
379.253	81.88
379.478	79.88
379.704	86.88
379.929	101.88
380.155	79.88
380.38	89.88
380.606	82.88
380.831	95.88
381.057	91.88
381.282	86.88
381.507	96.88
381.733	96.88
381.958	82.88
382.184	90.88
382.409	94.88
382.634	108.88
382.86	80.88
383.085	90.88
383.31	103.88
383.535	77.88
383.761	97.88
383.986	99.88
384.211	94.88
384.436	90.88
384.662	90.88
384.887	94.88
385.112	105.88
385.337	99.88
385.562	107.88
385.787	100.88
386.013	118.88
386.238	109.88
386.463	95.88
386.688	114.88
386.913	111.88
387.138	86.88
387.363	84.88
387.588	86.88
387.813	97.88
388.038	112.88
388.263	106.88
388.488	113.88
388.713	96.88
388.938	99.88
389.163	100.88
389.387	93.88
389.612	100.88
389.837	89.88
390.062	93.88
390.287	93.88
390.512	83.88
390.736	78.88
390.961	82.88
391.186	80.88
391.411	76.88
391.636	80.88
391.86	81.88
392.085	82.88
392.31	91.88
392.534	77.88
392.759	80.88
392.984	80.88
393.208	101.88
393.433	112.88
393.658	99.88
393.882	87.88
394.107	85.88
394.331	102.88
394.556	87.88
394.78	96.88
395.005	83.88
395.229	80.88
395.454	82.88
395.678	80.88
395.903	82.88
396.127	83.88
396.352	79.88
396.576	96.88
396.801	85.88
397.025	94.88
397.249	94.88
397.474	92.88
397.698	77.88
397.922	82.88
398.147	94.88
398.371	95.88
398.595	81.88
398.82	77.88
399.044	81.88
399.268	87.88
399.492	87.88
399.717	99.88
399.941	89.88
400.165	97.88
400.389	77.88
400.613	87.88
400.837	83.88
401.062	80.88
401.286	87.88
401.51	100.88
401.734	97.88
401.958	98.88
402.182	131.88
402.406	145.88
402.63	113.88
402.854	100.88
403.078	70.88
403.302	92.88
403.526	101.88
403.75	86.88
403.974	90.88
404.198	93.88
404.422	79.88
404.645	72.88
404.869	94.88
405.093	95.88
405.317	88.88
405.541	88.88
405.765	106.88
405.988	114.88
406.212	161.88
406.436	225.88
406.66	153.88
406.883	97.88
407.107	92.88
407.331	108.88
407.555	95.88
407.778	89.88
408.002	83.88
408.226	93.88
408.449	103.88
408.673	85.88
408.896	88.88
409.12	92.88
409.344	89.88
409.567	94.88
409.791	100.88
410.014	91.88
410.238	81.88
410.461	91.88
410.685	85.88
410.908	96.88
411.132	104.88
411.355	99.88
411.578	87.88
411.802	94.88
412.025	83.88
412.249	100.88
412.472	81.88
412.695	84.88
412.919	96.88
413.142	91.88
413.365	76.88
413.589	73.88
413.812	80.88
414.035	81.88
414.258	104.88
414.482	90.88
414.705	85.88
414.928	99.88
415.151	96.88
415.374	92.88
415.597	92.88
415.821	80.88
416.044	82.88
416.267	104.88
416.49	93.88
416.713	80.88
416.936	80.88
417.159	84.88
417.382	86.88
417.605	106.88
417.828	78.88
418.051	87.88
418.274	77.88
418.497	90.88
418.72	104.88
418.943	91.88
419.166	85.88
419.389	81.88
419.611	101.88
419.834	92.88
420.057	92.88
420.28	73.88
420.503	89.88
420.726	81.88
420.948	78.88
421.171	92.88
421.394	98.88
421.617	82.88
421.839	83.88
422.062	77.88
422.285	88.88
422.507	93.88
422.73	107.88
422.953	90.88
423.175	92.88
423.398	87.88
423.621	91.88
423.843	85.88
424.066	81.88
424.288	82.88
424.511	85.88
424.733	96.88
424.956	111.88
425.178	104.88
425.401	98.88
425.623	113.88
425.846	95.88
426.068	93.88
426.291	75.88
426.513	88.88
426.735	102.88
426.958	88.88
427.18	100.88
427.402	145.88
427.625	156.88
427.847	117.88
428.069	76.88
428.292	93.88
428.514	92.88
428.736	93.88
428.958	80.88
429.181	87.88
429.403	71.88
429.625	76.88
429.847	94.88
430.069	109.88
430.292	101.88
430.514	94.88
430.736	96.88
430.958	84.88
431.18	91.88
431.402	81.88
431.624	78.88
431.846	61.88
432.068	78.88
432.29	73.88
432.512	98.88
432.734	81.88
432.956	93.88
433.178	88.88
433.4	89.88
433.622	103.88
433.844	70.88
434.066	85.88
434.287	87.88
434.509	81.88
434.731	85.88
434.953	94.88
435.175	97.88
435.397	97.88
435.618	88.88
435.84	92.88
436.062	133.88
436.284	112.88
436.505	113.88
436.727	93.88
436.949	93.88
437.17	89.88
437.392	81.88
437.614	86.88
437.835	95.88
438.057	126.88
438.278	125.88
438.5	111.88
438.721	127.88
438.943	108.88
439.165	86.88
439.386	76.88
439.608	88.88
439.829	105.88
440.05	120.88
440.272	153.88
440.493	94.88
440.715	87.88
440.936	84.88
441.158	84.88
441.379	80.88
441.6	99.88
441.822	98.88
442.043	94.88
442.264	119.88
442.486	99.88
442.707	92.88
442.928	110.88
443.149	136.88
443.371	135.88
443.592	113.88
443.813	113.88
444.034	116.88
444.255	89.88
444.476	88.88
444.698	90.88
444.919	87.88
445.14	127.88
445.361	126.88
445.582	106.88
445.803	144.88
446.024	158.88
446.245	148.88
446.466	120.88
446.687	89.88
446.908	80.88
447.129	76.88
447.35	92.88
447.571	85.88
447.792	89.88
448.013	90.88
448.234	98.88
448.455	81.88
448.675	118.88
448.896	132.88
449.117	97.88
449.338	88.88
449.559	152.88
449.779	153.88
450	86.88
450.221	87.88
450.442	103.88
450.662	100.88
450.883	105.88
451.104	108.88
451.324	75.88
451.545	93.88
451.766	91.88
451.986	90.88
452.207	96.88
452.428	110.88
452.648	95.88
452.869	118.88
453.089	113.88
453.31	127.88
453.53	93.88
453.751	87.88
453.971	101.88
454.192	110.88
454.412	92.88
454.633	79.88
454.853	83.88
455.073	88.88
455.294	98.88
455.514	100.88
455.734	88.88
455.955	93.88
456.175	84.88
456.395	84.88
456.616	83.88
456.836	86.88
457.056	81.88
457.276	82.88
457.497	81.88
457.717	81.88
457.937	99.88
458.157	98.88
458.377	93.88
458.598	117.88
458.818	140.88
459.038	158.88
459.258	102.88
459.478	81.88
459.698	86.88
459.918	75.88
460.138	72.88
460.358	96.88
460.578	87.88
460.798	78.88
461.018	91.88
461.238	86.88
461.458	81.88
461.678	89.88
461.898	96.88
462.118	71.88
462.338	88.88
462.558	91.88
462.777	69.88
462.997	86.88
463.217	86.88
463.437	80.88
463.657	92.88
463.876	84.88
464.096	83.88
464.316	84.88
464.536	98.88
464.755	78.88
464.975	114.88
465.195	154.88
465.414	160.88
465.634	98.88
465.854	70.88
466.073	88.88
466.293	87.88
466.512	76.88
466.732	103.88
466.951	88.88
467.171	79.88
467.391	93.88
467.61	95.88
467.829	82.88
468.049	85.88
468.268	84.88
468.488	74.88
468.707	83.88
468.927	86.88
469.146	84.88
469.365	83.88
469.585	92.88
469.804	84.88
470.023	91.88
470.243	78.88
470.462	94.88
470.681	89.88
470.901	81.88
471.12	84.88
471.339	81.88
471.558	77.88
471.777	88.88
471.997	93.88
472.216	73.88
472.435	81.88
472.654	84.88
472.873	92.88
473.092	72.88
473.311	100.88
473.53	82.88
473.749	92.88
473.968	103.88
474.187	119.88
474.406	101.88
474.625	91.88
474.844	76.88
475.063	84.88
475.282	75.88
475.501	85.88
475.72	85.88
475.939	73.88
476.158	89.88
476.377	85.88
476.596	88.88
476.814	99.88
477.033	81.88
477.252	83.88
477.471	93.88
477.69	88.88
477.908	91.88
478.127	89.88
478.346	95.88
478.564	103.88
478.783	94.88
479.002	98.88
479.22	98.88
479.439	98.88
479.658	94.88
479.876	105.88
480.095	87.88
480.313	84.88
480.532	84.88
480.751	79.88
480.969	97.88
481.188	87.88
481.406	92.88
481.624	81.88
481.843	81.88
482.061	92.88
482.28	92.88
482.498	98.88
482.717	91.88
482.935	79.88
483.153	83.88
483.372	93.88
483.59	88.88
483.808	109.88
484.027	101.88
484.245	98.88
484.463	85.88
484.681	89.88
484.9	88.88
485.118	80.88
485.336	91.88
485.554	80.88
485.772	90.88
485.99	91.88
486.209	95.88
486.427	104.88
486.645	99.88
486.863	108.88
487.081	90.88
487.299	100.88
487.517	88.88
487.735	93.88
487.953	103.88
488.171	95.88
488.389	93.88
488.607	93.88
488.825	70.88
489.043	84.88
489.261	77.88
489.479	98.88
489.696	87.88
489.914	94.88
490.132	81.88
490.35	90.88
490.568	95.88
490.786	89.88
491.003	83.88
491.221	85.88
491.439	79.88
491.657	94.88
491.874	73.88
492.092	95.88
492.31	93.88
492.527	82.88
492.745	76.88
492.963	91.88
493.18	89.88
493.398	73.88
493.615	88.88
493.833	91.88
494.05	82.88
494.268	94.88
494.485	81.88
494.703	79.88
494.92	92.88
495.138	89.88
495.355	100.88
495.573	88.88
495.79	84.88
496.008	93.88
496.225	77.88
496.442	95.88
496.66	75.88
496.877	96.88
497.094	98.88
497.312	85.88
497.529	79.88
497.746	86.88
497.963	95.88
498.181	89.88
498.398	90.88
498.615	111.88
498.832	102.88
499.049	89.88
499.267	104.88
499.484	86.88
499.701	87.88
499.918	94.88
500.135	89.88
500.352	106.88
500.569	90.88
500.786	89.88
501.003	90.88
501.22	90.88
501.437	93.88
501.654	96.88
501.871	94.88
502.088	108.88
502.305	88.88
502.522	84.88
502.739	94.88
502.956	93.88
503.172	81.88
503.389	100.88
503.606	109.88
503.823	100.88
504.04	98.88
504.256	103.88
504.473	84.88
504.69	90.88
504.907	95.88
505.123	89.88
505.34	80.88
505.557	93.88
505.773	100.88
505.99	94.88
506.207	84.88
506.423	94.88
506.64	71.88
506.856	80.88
507.073	101.88
507.289	84.88
507.506	95.88
507.722	101.88
507.939	95.88
508.155	97.88
508.372	104.88
508.588	88.88
508.805	100.88
509.021	86.88
509.238	89.88
509.454	90.88
509.67	102.88
509.887	118.88
510.103	128.88
510.319	193.88
510.536	680.88
510.752	2203.88
510.968	624.88
511.184	168.88
511.401	112.88
511.617	91.88
511.833	103.88
512.049	94.88
512.265	94.88
512.481	93.88
512.698	95.88
512.914	105.88
513.13	87.88
513.346	102.88
513.562	83.88
513.778	96.88
513.994	107.88
514.21	113.88
514.426	122.88
514.642	138.88
514.858	117.88
515.074	174.88
515.29	452.88
515.506	1430.88
515.721	524.88
515.937	148.88
516.153	111.88
