Data from Uncirc_1996_H10_HRD10591_00082.txt Node
Date: Wed Jan 03 11:32:18 EST 2024
User: Yrep
Spectrometer: HR+D1059
Trigger mode: 1
Integration Time (sec): 1.000000E-1
Scans to average: 1
Electric dark correction enabled: true
Nonlinearity correction enabled: false
Boxcar width: 0
XAxis mode: Wavelengths
Number of Pixels in Spectrum: 2048
>>>>>Begin Spectral Data<<<<<
223.165	-25.69
223.4	-25.69
223.635	-25.69
223.869	-12.69
224.104	-30.69
224.338	-7.69
224.573	-6.69
224.808	-2.69
225.042	-22.69
225.277	1.31
225.511	-0.69
225.746	4.31
225.98	-2.69
226.215	20.31
226.449	9.31
226.683	30.31
226.918	22.31
227.152	24.31
227.387	37.31
227.621	46.31
227.856	53.31
228.09	52.31
228.324	46.31
228.559	56.31
228.793	59.31
229.027	66.31
229.262	83.31
229.496	84.31
229.73	75.31
229.964	77.31
230.199	75.31
230.433	72.31
230.667	70.31
230.901	76.31
231.136	84.31
231.37	68.31
231.604	82.31
231.838	73.31
232.072	75.31
232.306	86.31
232.541	82.31
232.775	80.31
233.009	90.31
233.243	92.31
233.477	84.31
233.711	85.31
233.945	90.31
234.179	80.31
234.413	91.31
234.647	83.31
234.881	83.31
235.115	82.31
235.349	82.31
235.583	88.31
235.817	81.31
236.051	81.31
236.285	84.31
236.519	85.31
236.753	93.31
236.987	71.31
237.221	93.31
237.455	82.31
237.689	89.31
237.922	73.31
238.156	89.31
238.39	79.31
238.624	80.31
238.858	59.31
239.091	71.31
239.325	80.31
239.559	79.31
239.793	64.31
240.027	95.31
240.26	91.31
240.494	74.31
240.728	72.31
240.961	76.31
241.195	64.31
241.429	88.31
241.662	82.31
241.896	95.31
242.13	67.31
242.363	81.31
242.597	80.31
242.83	90.31
243.064	74.31
243.298	97.31
243.531	85.31
243.765	77.31
243.998	86.31
244.232	69.31
244.465	84.31
244.699	92.31
244.932	75.31
245.166	68.31
245.399	68.31
245.633	89.31
245.866	82.31
246.099	82.31
246.333	83.31
246.566	69.31
246.8	80.31
247.033	67.31
247.266	77.31
247.5	69.31
247.733	81.31
247.966	70.31
248.2	83.31
248.433	81.31
248.666	76.31
248.899	102.31
249.133	82.31
249.366	92.31
249.599	100.31
249.832	89.31
250.066	83.31
250.299	83.31
250.532	74.31
250.765	83.31
250.998	83.31
251.231	80.31
251.465	72.31
251.698	78.31
251.931	84.31
252.164	89.31
252.397	91.31
252.63	74.31
252.863	84.31
253.096	85.31
253.329	89.31
253.562	85.31
253.795	94.31
254.028	89.31
254.261	78.31
254.494	94.31
254.727	75.31
254.96	86.31
255.193	83.31
255.426	75.31
255.659	82.31
255.892	93.31
256.124	91.31
256.357	88.31
256.59	87.31
256.823	99.31
257.056	73.31
257.289	84.31
257.521	87.31
257.754	81.31
257.987	92.31
258.22	83.31
258.452	94.31
258.685	78.31
258.918	90.31
259.151	85.31
259.383	85.31
259.616	84.31
259.849	88.31
260.081	80.31
260.314	101.31
260.547	86.31
260.779	89.31
261.012	91.31
261.244	75.31
261.477	97.31
261.71	96.31
261.942	101.31
262.175	123.31
262.407	89.31
262.64	74.31
262.872	78.31
263.105	90.31
263.337	99.31
263.57	85.31
263.802	104.31
264.035	91.31
264.267	99.31
264.499	66.31
264.732	97.31
264.964	97.31
265.197	85.31
265.429	73.31
265.661	86.31
265.894	90.31
266.126	90.31
266.358	88.31
266.591	89.31
266.823	92.31
267.055	93.31
267.287	84.31
267.52	89.31
267.752	94.31
267.984	69.31
268.216	72.31
268.448	77.31
268.681	73.31
268.913	94.31
269.145	70.31
269.377	90.31
269.609	75.31
269.841	70.31
270.073	82.31
270.306	77.31
270.538	96.31
270.77	81.31
271.002	79.31
271.234	78.31
271.466	97.31
271.698	78.31
271.93	79.31
272.162	86.31
272.394	94.31
272.626	93.31
272.858	88.31
273.09	83.31
273.322	75.31
273.553	82.31
273.785	84.31
274.017	70.31
274.249	87.31
274.481	98.31
274.713	90.31
274.945	83.31
275.176	84.31
275.408	78.31
275.64	87.31
275.872	82.31
276.104	83.31
276.335	93.31
276.567	93.31
276.799	112.31
277.031	112.31
277.262	97.31
277.494	93.31
277.726	85.31
277.957	88.31
278.189	85.31
278.421	88.31
278.652	93.31
278.884	94.31
279.115	86.31
279.347	74.31
279.579	84.31
279.81	84.31
280.042	92.31
280.273	86.31
280.505	88.31
280.736	76.31
280.968	82.31
281.199	91.31
281.431	76.31
281.662	92.31
281.894	95.31
282.125	97.31
282.356	110.31
282.588	133.31
282.819	116.31
283.051	92.31
283.282	80.31
283.513	87.31
283.745	74.31
283.976	90.31
284.207	84.31
284.439	81.31
284.67	97.31
284.901	94.31
285.132	84.31
285.364	96.31
285.595	87.31
285.826	97.31
286.057	97.31
286.288	84.31
286.52	99.31
286.751	96.31
286.982	86.31
287.213	86.31
287.444	89.31
287.675	84.31
287.906	98.31
288.138	99.31
288.369	100.31
288.6	86.31
288.831	91.31
289.062	84.31
289.293	85.31
289.524	92.31
289.755	97.31
289.986	78.31
290.217	91.31
290.448	88.31
290.679	97.31
290.91	98.31
291.141	88.31
291.371	94.31
291.602	94.31
291.833	103.31
292.064	85.31
292.295	97.31
292.526	95.31
292.757	99.31
292.987	101.31
293.218	88.31
293.449	94.31
293.68	98.31
293.91	100.31
294.141	85.31
294.372	104.31
294.603	80.31
294.833	97.31
295.064	87.31
295.295	93.31
295.525	101.31
295.756	97.31
295.987	111.31
296.217	130.31
296.448	116.31
296.679	84.31
296.909	84.31
297.14	69.31
297.37	86.31
297.601	87.31
297.831	88.31
298.062	74.31
298.292	104.31
298.523	102.31
298.753	90.31
298.984	107.31
299.214	93.31
299.445	88.31
299.675	90.31
299.905	93.31
300.136	89.31
300.366	103.31
300.597	94.31
300.827	78.31
301.057	91.31
301.288	94.31
301.518	110.31
301.748	91.31
301.979	108.31
302.209	97.31
302.439	96.31
302.669	94.31
302.9	99.31
303.13	103.31
303.36	99.31
303.59	97.31
303.82	118.31
304.051	108.31
304.281	99.31
304.511	114.31
304.741	91.31
304.971	78.31
305.201	97.31
305.431	91.31
305.661	94.31
305.891	102.31
306.121	95.31
306.352	93.31
306.582	94.31
306.812	106.31
307.042	88.31
307.272	98.31
307.502	89.31
307.731	85.31
307.961	98.31
308.191	100.31
308.421	95.31
308.651	101.31
308.881	86.31
309.111	86.31
309.341	106.31
309.571	99.31
309.8	101.31
310.03	97.31
310.26	102.31
310.49	84.31
310.72	101.31
310.949	102.31
311.179	89.31
311.409	89.31
311.639	99.31
311.868	89.31
312.098	91.31
312.328	99.31
312.557	98.31
312.787	118.31
313.017	96.31
313.246	115.31
313.476	97.31
313.706	98.31
313.935	99.31
314.165	106.31
314.394	106.31
314.624	91.31
314.853	109.31
315.083	97.31
315.312	91.31
315.542	89.31
315.771	110.31
316.001	92.31
316.23	95.31
316.46	95.31
316.689	96.31
316.919	102.31
317.148	94.31
317.377	97.31
317.607	105.31
317.836	108.31
318.065	97.31
318.295	101.31
318.524	93.31
318.753	104.31
318.983	94.31
319.212	110.31
319.441	101.31
319.67	111.31
319.9	106.31
320.129	89.31
320.358	98.31
320.587	97.31
320.816	107.31
321.046	98.31
321.275	91.31
321.504	77.31
321.733	87.31
321.962	100.31
322.191	108.31
322.42	110.31
322.649	95.31
322.878	108.31
323.108	116.31
323.337	123.31
323.566	131.31
323.795	148.31
324.024	186.31
324.253	362.31
324.482	780.31
324.71	1598.31
324.939	2090.31
325.168	752.31
325.397	238.31
325.626	142.31
325.855	117.31
326.084	133.31
326.313	139.31
326.542	162.31
326.77	229.31
326.999	446.31
327.228	902.31
327.457	1655.31
327.686	1256.31
327.914	350.31
328.143	195.31
328.372	154.31
328.6	121.31
328.829	130.31
329.058	131.31
329.287	122.31
329.515	96.31
329.744	92.31
329.972	91.31
330.201	104.31
330.43	88.31
330.658	123.31
330.887	132.31
331.115	130.31
331.344	103.31
331.572	95.31
331.801	110.31
332.03	113.31
332.258	96.31
332.486	97.31
332.715	89.31
332.943	87.31
333.172	99.31
333.4	98.31
333.629	94.31
333.857	112.31
334.085	113.31
334.314	98.31
334.542	94.31
334.771	102.31
334.999	97.31
335.227	100.31
335.455	93.31
335.684	95.31
335.912	90.31
336.14	97.31
336.369	90.31
336.597	98.31
336.825	101.31
337.053	84.31
337.281	84.31
337.51	101.31
337.738	101.31
337.966	92.31
338.194	106.31
338.422	101.31
338.65	96.31
338.878	99.31
339.106	97.31
339.334	111.31
339.562	106.31
339.79	80.31
340.018	92.31
340.246	95.31
340.474	92.31
340.702	100.31
340.93	95.31
341.158	90.31
341.386	106.31
341.614	84.31
341.842	87.31
342.07	95.31
342.298	93.31
342.526	90.31
342.754	93.31
342.981	103.31
343.209	101.31
343.437	92.31
343.665	90.31
343.893	75.31
344.12	87.31
344.348	87.31
344.576	97.31
344.804	89.31
345.031	106.31
345.259	82.31
345.487	90.31
345.714	93.31
345.942	88.31
346.17	86.31
346.397	105.31
346.625	102.31
346.853	106.31
347.08	92.31
347.308	100.31
347.535	97.31
347.763	114.31
347.99	99.31
348.218	106.31
348.445	102.31
348.673	110.31
348.9	92.31
349.128	102.31
349.355	89.31
349.583	100.31
349.81	97.31
350.037	99.31
350.265	101.31
350.492	97.31
350.72	97.31
350.947	102.31
351.174	107.31
351.402	99.31
351.629	100.31
351.856	109.31
352.083	100.31
352.311	113.31
352.538	109.31
352.765	112.31
352.992	127.31
353.22	116.31
353.447	98.31
353.674	104.31
353.901	97.31
354.128	94.31
354.355	95.31
354.583	97.31
354.81	93.31
355.037	96.31
355.264	98.31
355.491	89.31
355.718	82.31
355.945	91.31
356.172	96.31
356.399	110.31
356.626	86.31
356.853	97.31
357.08	95.31
357.307	104.31
357.534	102.31
357.761	77.31
357.988	99.31
358.215	93.31
358.441	97.31
358.668	78.31
358.895	98.31
359.122	97.31
359.349	99.31
359.576	90.31
359.802	94.31
360.029	96.31
360.256	108.31
360.483	110.31
360.709	102.31
360.936	104.31
361.163	82.31
361.39	94.31
361.616	96.31
361.843	91.31
362.07	84.31
362.296	95.31
362.523	96.31
362.749	89.31
362.976	96.31
363.203	88.31
363.429	99.31
363.656	100.31
363.882	89.31
364.109	99.31
364.335	87.31
364.562	87.31
364.788	94.31
365.015	91.31
365.241	98.31
365.468	111.31
365.694	117.31
365.92	94.31
366.147	79.31
366.373	78.31
366.599	80.31
366.826	84.31
367.052	85.31
367.278	97.31
367.505	87.31
367.731	95.31
367.957	85.31
368.184	101.31
368.41	97.31
368.636	116.31
368.862	113.31
369.089	113.31
369.315	95.31
369.541	86.31
369.767	74.31
369.993	90.31
370.219	93.31
370.445	108.31
370.672	69.31
370.898	102.31
371.124	97.31
371.35	90.31
371.576	91.31
371.802	83.31
372.028	91.31
372.254	83.31
372.48	85.31
372.706	97.31
372.932	83.31
373.158	113.31
373.384	95.31
373.61	92.31
373.835	102.31
374.061	91.31
374.287	90.31
374.513	94.31
374.739	103.31
374.965	94.31
375.191	98.31
375.416	97.31
375.642	99.31
375.868	93.31
376.094	90.31
376.319	89.31
376.545	104.31
376.771	97.31
376.997	85.31
377.222	102.31
377.448	104.31
377.674	106.31
377.899	92.31
378.125	96.31
378.35	91.31
378.576	96.31
378.802	86.31
379.027	94.31
379.253	103.31
379.478	101.31
379.704	89.31
379.929	104.31
380.155	94.31
380.38	88.31
380.606	89.31
380.831	104.31
381.057	105.31
381.282	92.31
381.507	89.31
381.733	89.31
381.958	92.31
382.184	92.31
382.409	95.31
382.634	103.31
382.86	105.31
383.085	113.31
383.31	101.31
383.535	106.31
383.761	90.31
383.986	99.31
384.211	112.31
384.436	112.31
384.662	92.31
384.887	91.31
385.112	110.31
385.337	101.31
385.562	97.31
385.787	100.31
386.013	114.31
386.238	102.31
386.463	120.31
386.688	118.31
386.913	117.31
387.138	95.31
387.363	93.31
387.588	93.31
387.813	102.31
388.038	97.31
388.263	111.31
388.488	111.31
388.713	95.31
388.938	100.31
389.163	103.31
389.387	80.31
389.612	97.31
389.837	102.31
390.062	105.31
390.287	99.31
390.512	93.31
390.736	85.31
390.961	96.31
391.186	94.31
391.411	97.31
391.636	99.31
391.86	90.31
392.085	80.31
392.31	83.31
392.534	92.31
392.759	79.31
392.984	74.31
393.208	90.31
393.433	95.31
393.658	80.31
393.882	94.31
394.107	92.31
394.331	91.31
394.556	91.31
394.78	96.31
395.005	90.31
395.229	90.31
395.454	81.31
395.678	88.31
395.903	101.31
396.127	91.31
396.352	97.31
396.576	85.31
396.801	92.31
397.025	96.31
397.249	98.31
397.474	103.31
397.698	96.31
397.922	99.31
398.147	85.31
398.371	93.31
398.595	90.31
398.82	85.31
399.044	89.31
399.268	92.31
399.492	96.31
399.717	96.31
399.941	90.31
400.165	108.31
400.389	90.31
400.613	95.31
400.837	96.31
401.062	79.31
401.286	92.31
401.51	110.31
401.734	99.31
401.958	98.31
402.182	137.31
402.406	152.31
402.63	116.31
402.854	102.31
403.078	83.31
403.302	86.31
403.526	76.31
403.75	85.31
403.974	90.31
404.198	96.31
404.422	86.31
404.645	87.31
404.869	84.31
405.093	80.31
405.317	91.31
405.541	109.31
405.765	100.31
405.988	105.31
406.212	162.31
406.436	220.31
406.66	140.31
406.883	99.31
407.107	106.31
407.331	94.31
407.555	111.31
407.778	108.31
408.002	92.31
408.226	93.31
408.449	96.31
408.673	109.31
408.896	90.31
409.12	83.31
409.344	87.31
409.567	100.31
409.791	94.31
410.014	90.31
410.238	95.31
410.461	99.31
410.685	103.31
410.908	95.31
411.132	105.31
411.355	94.31
411.578	91.31
411.802	76.31
412.025	92.31
412.249	90.31
412.472	101.31
412.695	86.31
412.919	78.31
413.142	82.31
413.365	98.31
413.589	97.31
413.812	97.31
414.035	94.31
414.258	105.31
414.482	78.31
414.705	94.31
414.928	83.31
415.151	101.31
415.374	93.31
415.597	98.31
415.821	99.31
416.044	97.31
416.267	84.31
416.49	91.31
416.713	76.31
416.936	94.31
417.159	88.31
417.382	88.31
417.605	101.31
417.828	89.31
418.051	92.31
418.274	80.31
418.497	78.31
418.72	85.31
418.943	86.31
419.166	92.31
419.389	109.31
419.611	95.31
419.834	97.31
420.057	100.31
420.28	80.31
420.503	88.31
420.726	97.31
420.948	93.31
421.171	90.31
421.394	93.31
421.617	95.31
421.839	89.31
422.062	93.31
422.285	88.31
422.507	108.31
422.73	102.31
422.953	96.31
423.175	83.31
423.398	106.31
423.621	86.31
423.843	85.31
424.066	95.31
424.288	79.31
424.511	99.31
424.733	85.31
424.956	90.31
425.178	93.31
425.401	97.31
425.623	100.31
425.846	95.31
426.068	100.31
426.291	86.31
426.513	86.31
426.735	97.31
426.958	100.31
427.18	100.31
427.402	143.31
427.625	152.31
427.847	107.31
428.069	98.31
428.292	82.31
428.514	84.31
428.736	95.31
428.958	83.31
429.181	94.31
429.403	90.31
429.625	86.31
429.847	102.31
430.069	100.31
430.292	98.31
430.514	99.31
430.736	78.31
430.958	93.31
431.18	97.31
431.402	85.31
431.624	87.31
431.846	85.31
432.068	82.31
432.29	92.31
432.512	82.31
432.734	104.31
432.956	89.31
433.178	109.31
433.4	99.31
433.622	101.31
433.844	93.31
434.066	95.31
434.287	96.31
434.509	96.31
434.731	102.31
434.953	92.31
435.175	84.31
435.397	90.31
435.618	76.31
435.84	106.31
436.062	136.31
436.284	116.31
436.505	106.31
436.727	94.31
436.949	90.31
437.17	81.31
437.392	91.31
437.614	90.31
437.835	101.31
438.057	122.31
438.278	101.31
438.5	98.31
438.721	111.31
438.943	101.31
439.165	91.31
439.386	74.31
439.608	104.31
439.829	101.31
440.05	125.31
440.272	149.31
440.493	90.31
440.715	86.31
440.936	99.31
441.158	81.31
441.379	84.31
441.6	99.31
441.822	94.31
442.043	82.31
442.264	110.31
442.486	107.31
442.707	104.31
442.928	108.31
443.149	106.31
443.371	140.31
443.592	116.31
443.813	112.31
444.034	116.31
444.255	89.31
444.476	85.31
444.698	97.31
444.919	91.31
445.14	130.31
445.361	133.31
445.582	128.31
445.803	140.31
446.024	136.31
446.245	138.31
446.466	109.31
446.687	95.31
446.908	97.31
447.129	82.31
447.35	100.31
447.571	102.31
447.792	87.31
448.013	100.31
448.234	113.31
448.455	96.31
448.675	106.31
448.896	114.31
449.117	97.31
449.338	110.31
449.559	134.31
449.779	124.31
450	99.31
450.221	92.31
450.442	90.31
450.662	99.31
450.883	115.31
451.104	101.31
451.324	97.31
451.545	86.31
451.766	92.31
451.986	77.31
452.207	85.31
452.428	97.31
452.648	101.31
452.869	104.31
453.089	113.31
453.31	115.31
453.53	89.31
453.751	85.31
453.971	105.31
454.192	110.31
454.412	86.31
454.633	79.31
454.853	87.31
455.073	101.31
455.294	86.31
455.514	101.31
455.734	89.31
455.955	89.31
456.175	89.31
456.395	86.31
456.616	92.31
456.836	85.31
457.056	87.31
457.276	81.31
457.497	93.31
457.717	98.31
457.937	74.31
458.157	90.31
458.377	89.31
458.598	91.31
458.818	158.31
459.038	162.31
459.258	133.31
459.478	86.31
459.698	104.31
459.918	83.31
460.138	104.31
460.358	88.31
460.578	89.31
460.798	98.31
461.018	86.31
461.238	78.31
461.458	91.31
461.678	88.31
461.898	76.31
462.118	90.31
462.338	88.31
462.558	90.31
462.777	95.31
462.997	91.31
463.217	108.31
463.437	98.31
463.657	83.31
463.876	92.31
464.096	90.31
464.316	106.31
464.536	85.31
464.755	86.31
464.975	96.31
465.195	149.31
465.414	140.31
465.634	100.31
465.854	100.31
466.073	83.31
466.293	87.31
466.512	87.31
466.732	91.31
466.951	87.31
467.171	84.31
467.391	101.31
467.61	91.31
467.829	93.31
468.049	89.31
468.268	88.31
468.488	91.31
468.707	84.31
468.927	82.31
469.146	92.31
469.365	92.31
469.585	91.31
469.804	95.31
470.023	102.31
470.243	92.31
470.462	95.31
470.681	96.31
470.901	88.31
471.12	81.31
471.339	76.31
471.558	88.31
471.777	102.31
471.997	96.31
472.216	96.31
472.435	99.31
472.654	85.31
472.873	90.31
473.092	85.31
473.311	82.31
473.53	89.31
473.749	92.31
473.968	97.31
474.187	104.31
474.406	106.31
474.625	92.31
474.844	88.31
475.063	89.31
475.282	84.31
475.501	80.31
475.72	95.31
475.939	83.31
476.158	78.31
476.377	92.31
476.596	92.31
476.814	108.31
477.033	93.31
477.252	96.31
477.471	86.31
477.69	83.31
477.908	84.31
478.127	90.31
478.346	84.31
478.564	86.31
478.783	87.31
479.002	101.31
479.22	89.31
479.439	108.31
479.658	102.31
479.876	87.31
480.095	98.31
480.313	107.31
480.532	96.31
480.751	87.31
480.969	100.31
481.188	94.31
481.406	90.31
481.624	98.31
481.843	85.31
482.061	84.31
482.28	94.31
482.498	88.31
482.717	102.31
482.935	95.31
483.153	100.31
483.372	98.31
483.59	92.31
483.808	83.31
484.027	90.31
484.245	93.31
484.463	90.31
484.681	102.31
484.9	100.31
485.118	93.31
485.336	82.31
485.554	94.31
485.772	100.31
485.99	98.31
486.209	88.31
486.427	105.31
486.645	115.31
486.863	125.31
487.081	106.31
487.299	90.31
487.517	90.31
487.735	95.31
487.953	80.31
488.171	87.31
488.389	109.31
488.607	101.31
488.825	86.31
489.043	94.31
489.261	95.31
489.479	82.31
489.696	101.31
489.914	88.31
490.132	104.31
490.35	85.31
490.568	93.31
490.786	96.31
491.003	90.31
491.221	96.31
491.439	92.31
491.657	80.31
491.874	97.31
492.092	93.31
492.31	96.31
492.527	99.31
492.745	85.31
492.963	90.31
493.18	85.31
493.398	96.31
493.615	101.31
493.833	96.31
494.05	77.31
494.268	101.31
494.485	90.31
494.703	89.31
494.92	90.31
495.138	99.31
495.355	99.31
495.573	84.31
495.79	88.31
496.008	91.31
496.225	97.31
496.442	86.31
496.66	89.31
496.877	94.31
497.094	97.31
497.312	101.31
497.529	99.31
497.746	89.31
497.963	85.31
498.181	77.31
498.398	80.31
498.615	107.31
498.832	113.31
499.049	104.31
499.267	93.31
499.484	96.31
499.701	92.31
499.918	92.31
500.135	90.31
500.352	92.31
500.569	94.31
500.786	107.31
501.003	77.31
501.22	83.31
501.437	98.31
501.654	97.31
501.871	116.31
502.088	88.31
502.305	100.31
502.522	97.31
502.739	91.31
502.956	89.31
503.172	94.31
503.389	87.31
503.606	99.31
503.823	89.31
504.04	98.31
504.256	97.31
504.473	95.31
504.69	89.31
504.907	95.31
505.123	84.31
505.34	96.31
505.557	97.31
505.773	96.31
505.99	96.31
506.207	91.31
506.423	96.31
506.64	90.31
506.856	97.31
507.073	91.31
507.289	94.31
507.506	72.31
507.722	112.31
507.939	96.31
508.155	91.31
508.372	96.31
508.588	92.31
508.805	100.31
509.021	91.31
509.238	107.31
509.454	106.31
509.67	98.31
509.887	110.31
510.103	127.31
510.319	188.31
510.536	692.31
510.752	2114.31
510.968	589.31
511.184	154.31
511.401	110.31
511.617	93.31
511.833	92.31
512.049	91.31
512.265	92.31
512.481	94.31
512.698	105.31
512.914	95.31
513.13	103.31
513.346	90.31
513.562	94.31
513.778	100.31
513.994	104.31
514.21	101.31
514.426	116.31
514.642	135.31
514.858	118.31
515.074	158.31
515.29	386.31
