Data from Uncirc_1996_H10_HRD10591_00011.txt Node
Date: Wed Jan 03 11:32:04 EST 2024
User: Yrep
Spectrometer: HR+D1059
Trigger mode: 1
Integration Time (sec): 1.000000E-1
Scans to average: 1
Electric dark correction enabled: true
Nonlinearity correction enabled: false
Boxcar width: 0
XAxis mode: Wavelengths
Number of Pixels in Spectrum: 2048
>>>>>Begin Spectral Data<<<<<
223.165	-19.12
223.4	-19.12
223.635	-19.12
223.869	-31.12
224.104	-12.12
224.338	-11.12
224.573	-19.12
224.808	-16.12
225.042	14.88
225.277	-1.12
225.511	-14.12
225.746	-0.12
225.98	-4.12
226.215	15.88
226.449	20.88
226.683	22.88
226.918	13.88
227.152	39.88
227.387	47.88
227.621	34.88
227.856	32.88
228.09	35.88
228.324	34.88
228.559	49.88
228.793	57.88
229.027	67.88
229.262	68.88
229.496	69.88
229.73	75.88
229.964	71.88
230.199	71.88
230.433	68.88
230.667	84.88
230.901	68.88
231.136	64.88
231.37	62.88
231.604	91.88
231.838	80.88
232.072	77.88
232.306	73.88
232.541	78.88
232.775	101.88
233.009	84.88
233.243	81.88
233.477	74.88
233.711	90.88
233.945	79.88
234.179	91.88
234.413	62.88
234.647	80.88
234.881	81.88
235.115	66.88
235.349	67.88
235.583	75.88
235.817	64.88
236.051	59.88
236.285	77.88
236.519	68.88
236.753	74.88
236.987	79.88
237.221	79.88
237.455	80.88
237.689	71.88
237.922	64.88
238.156	69.88
238.39	66.88
238.624	58.88
238.858	59.88
239.091	71.88
239.325	70.88
239.559	66.88
239.793	66.88
240.027	71.88
240.26	74.88
240.494	67.88
240.728	77.88
240.961	81.88
241.195	92.88
241.429	72.88
241.662	88.88
241.896	85.88
242.13	65.88
242.363	66.88
242.597	69.88
242.83	68.88
243.064	87.88
243.298	66.88
243.531	75.88
243.765	85.88
243.998	64.88
244.232	84.88
244.465	68.88
244.699	85.88
244.932	72.88
245.166	72.88
245.399	76.88
245.633	67.88
245.866	59.88
246.099	70.88
246.333	71.88
246.566	76.88
246.8	73.88
247.033	71.88
247.266	58.88
247.5	82.88
247.733	76.88
247.966	79.88
248.2	83.88
248.433	85.88
248.666	76.88
248.899	79.88
249.133	89.88
249.366	87.88
249.599	88.88
249.832	82.88
250.066	71.88
250.299	86.88
250.532	74.88
250.765	84.88
250.998	63.88
251.231	61.88
251.465	78.88
251.698	72.88
251.931	70.88
252.164	85.88
252.397	72.88
252.63	76.88
252.863	84.88
253.096	88.88
253.329	81.88
253.562	79.88
253.795	58.88
254.028	70.88
254.261	69.88
254.494	82.88
254.727	71.88
254.96	82.88
255.193	79.88
255.426	75.88
255.659	72.88
255.892	85.88
256.124	72.88
256.357	82.88
256.59	83.88
256.823	70.88
257.056	83.88
257.289	72.88
257.521	86.88
257.754	89.88
257.987	71.88
258.22	87.88
258.452	76.88
258.685	88.88
258.918	76.88
259.151	76.88
259.383	74.88
259.616	70.88
259.849	76.88
260.081	74.88
260.314	83.88
260.547	80.88
260.779	70.88
261.012	57.88
261.244	62.88
261.477	81.88
261.71	76.88
261.942	100.88
262.175	94.88
262.407	83.88
262.64	87.88
262.872	62.88
263.105	70.88
263.337	77.88
263.57	72.88
263.802	89.88
264.035	77.88
264.267	71.88
264.499	84.88
264.732	81.88
264.964	79.88
265.197	64.88
265.429	79.88
265.661	70.88
265.894	79.88
266.126	79.88
266.358	78.88
266.591	73.88
266.823	86.88
267.055	83.88
267.287	78.88
267.52	68.88
267.752	77.88
267.984	74.88
268.216	91.88
268.448	83.88
268.681	77.88
268.913	84.88
269.145	84.88
269.377	77.88
269.609	83.88
269.841	88.88
270.073	83.88
270.306	83.88
270.538	85.88
270.77	85.88
271.002	93.88
271.234	74.88
271.466	78.88
271.698	73.88
271.93	88.88
272.162	82.88
272.394	77.88
272.626	81.88
272.858	92.88
273.09	84.88
273.322	84.88
273.553	75.88
273.785	102.88
274.017	78.88
274.249	72.88
274.481	98.88
274.713	74.88
274.945	87.88
275.176	89.88
275.408	75.88
275.64	83.88
275.872	95.88
276.104	84.88
276.335	79.88
276.567	86.88
276.799	96.88
277.031	94.88
277.262	88.88
277.494	91.88
277.726	84.88
277.957	76.88
278.189	87.88
278.421	87.88
278.652	90.88
278.884	87.88
279.115	87.88
279.347	81.88
279.579	79.88
279.81	74.88
280.042	89.88
280.273	86.88
280.505	80.88
280.736	89.88
280.968	79.88
281.199	96.88
281.431	77.88
281.662	74.88
281.894	82.88
282.125	94.88
282.356	107.88
282.588	115.88
282.819	114.88
283.051	81.88
283.282	86.88
283.513	73.88
283.745	84.88
283.976	90.88
284.207	87.88
284.439	92.88
284.67	76.88
284.901	90.88
285.132	91.88
285.364	80.88
285.595	84.88
285.826	83.88
286.057	87.88
286.288	85.88
286.52	77.88
286.751	94.88
286.982	78.88
287.213	78.88
287.444	90.88
287.675	71.88
287.906	93.88
288.138	99.88
288.369	87.88
288.6	95.88
288.831	82.88
289.062	90.88
289.293	87.88
289.524	83.88
289.755	82.88
289.986	84.88
290.217	79.88
290.448	70.88
290.679	74.88
290.91	85.88
291.141	91.88
291.371	79.88
291.602	83.88
291.833	96.88
292.064	92.88
292.295	87.88
292.526	86.88
292.757	84.88
292.987	89.88
293.218	94.88
293.449	86.88
293.68	80.88
293.91	72.88
294.141	82.88
294.372	87.88
294.603	85.88
294.833	85.88
295.064	92.88
295.295	98.88
295.525	91.88
295.756	92.88
295.987	99.88
296.217	116.88
296.448	100.88
296.679	103.88
296.909	94.88
297.14	88.88
297.37	88.88
297.601	78.88
297.831	82.88
298.062	89.88
298.292	84.88
298.523	90.88
298.753	103.88
298.984	82.88
299.214	76.88
299.445	98.88
299.675	78.88
299.905	75.88
300.136	102.88
300.366	82.88
300.597	89.88
300.827	79.88
301.057	82.88
301.288	94.88
301.518	88.88
301.748	75.88
301.979	84.88
302.209	79.88
302.439	94.88
302.669	101.88
302.9	82.88
303.13	71.88
303.36	77.88
303.59	102.88
303.82	94.88
304.051	98.88
304.281	92.88
304.511	88.88
304.741	100.88
304.971	70.88
305.201	91.88
305.431	97.88
305.661	85.88
305.891	77.88
306.121	84.88
306.352	88.88
306.582	95.88
306.812	92.88
307.042	81.88
307.272	80.88
307.502	68.88
307.731	84.88
307.961	88.88
308.191	93.88
308.421	85.88
308.651	93.88
308.881	76.88
309.111	90.88
309.341	74.88
309.571	79.88
309.8	85.88
310.03	95.88
310.26	86.88
310.49	82.88
310.72	83.88
310.949	88.88
311.179	100.88
311.409	93.88
311.639	96.88
311.868	99.88
312.098	98.88
312.328	95.88
312.557	88.88
312.787	89.88
313.017	87.88
313.246	86.88
313.476	82.88
313.706	69.88
313.935	89.88
314.165	69.88
314.394	88.88
314.624	88.88
314.853	71.88
315.083	94.88
315.312	80.88
315.542	78.88
315.771	92.88
316.001	75.88
316.23	87.88
316.46	67.88
316.689	79.88
316.919	88.88
317.148	86.88
317.377	91.88
317.607	97.88
317.836	91.88
318.065	95.88
318.295	78.88
318.524	88.88
318.753	85.88
318.983	102.88
319.212	88.88
319.441	95.88
319.67	93.88
319.9	82.88
320.129	87.88
320.358	96.88
320.587	94.88
320.816	89.88
321.046	98.88
321.275	96.88
321.504	83.88
321.733	91.88
321.962	90.88
322.191	100.88
322.42	98.88
322.649	104.88
322.878	106.88
323.108	102.88
323.337	116.88
323.566	116.88
323.795	145.88
324.024	178.88
324.253	326.88
324.482	727.88
324.71	1466.88
324.939	1940.88
325.168	701.88
325.397	218.88
325.626	135.88
325.855	120.88
326.084	104.88
326.313	106.88
326.542	140.88
326.77	207.88
326.999	407.88
327.228	829.88
327.457	1553.88
327.686	1208.88
327.914	352.88
328.143	221.88
328.372	173.88
328.6	110.88
328.829	103.88
329.058	113.88
329.287	111.88
329.515	98.88
329.744	86.88
329.972	87.88
330.201	94.88
330.43	102.88
330.658	107.88
330.887	120.88
331.115	110.88
331.344	109.88
331.572	102.88
331.801	93.88
332.03	100.88
332.258	86.88
332.486	95.88
332.715	94.88
332.943	84.88
333.172	99.88
333.4	86.88
333.629	105.88
333.857	109.88
334.085	91.88
334.314	84.88
334.542	94.88
334.771	96.88
334.999	94.88
335.227	96.88
335.455	94.88
335.684	84.88
335.912	83.88
336.14	96.88
336.369	93.88
336.597	89.88
336.825	76.88
337.053	82.88
337.281	92.88
337.51	87.88
337.738	90.88
337.966	106.88
338.194	116.88
338.422	138.88
338.65	105.88
338.878	101.88
339.106	95.88
339.334	71.88
339.562	71.88
339.79	86.88
340.018	86.88
340.246	83.88
340.474	88.88
340.702	90.88
340.93	77.88
341.158	93.88
341.386	96.88
341.614	86.88
341.842	92.88
342.07	96.88
342.298	96.88
342.526	72.88
342.754	81.88
342.981	83.88
343.209	84.88
343.437	90.88
343.665	76.88
343.893	80.88
344.12	100.88
344.348	93.88
344.576	80.88
344.804	98.88
345.031	78.88
345.259	90.88
345.487	89.88
345.714	94.88
345.942	83.88
346.17	95.88
346.397	80.88
346.625	69.88
346.853	95.88
347.08	78.88
347.308	88.88
347.535	88.88
347.763	83.88
347.99	85.88
348.218	90.88
348.445	103.88
348.673	104.88
348.9	94.88
349.128	94.88
349.355	85.88
349.583	100.88
349.81	91.88
350.037	70.88
350.265	96.88
350.492	96.88
350.72	86.88
350.947	94.88
351.174	93.88
351.402	86.88
351.629	90.88
351.856	96.88
352.083	99.88
352.311	107.88
352.538	103.88
352.765	106.88
352.992	96.88
353.22	112.88
353.447	85.88
353.674	92.88
353.901	92.88
354.128	86.88
354.355	94.88
354.583	99.88
354.81	105.88
355.037	97.88
355.264	80.88
355.491	82.88
355.718	97.88
355.945	94.88
356.172	98.88
356.399	103.88
356.626	94.88
356.853	95.88
357.08	94.88
357.307	86.88
357.534	93.88
357.761	86.88
357.988	100.88
358.215	94.88
358.441	72.88
358.668	77.88
358.895	86.88
359.122	92.88
359.349	81.88
359.576	91.88
359.802	99.88
360.029	97.88
360.256	99.88
360.483	96.88
360.709	75.88
360.936	85.88
361.163	93.88
361.39	88.88
361.616	78.88
361.843	92.88
362.07	89.88
362.296	75.88
362.523	82.88
362.749	82.88
362.976	87.88
363.203	90.88
363.429	72.88
363.656	80.88
363.882	101.88
364.109	81.88
364.335	83.88
364.562	83.88
364.788	87.88
365.015	71.88
365.241	91.88
365.468	105.88
365.694	96.88
365.92	91.88
366.147	94.88
366.373	87.88
366.599	86.88
366.826	92.88
367.052	90.88
367.278	95.88
367.505	73.88
367.731	88.88
367.957	76.88
368.184	83.88
368.41	91.88
368.636	108.88
368.862	108.88
369.089	96.88
369.315	88.88
369.541	99.88
369.767	84.88
369.993	76.88
370.219	101.88
370.445	90.88
370.672	94.88
370.898	87.88
371.124	86.88
371.35	82.88
371.576	92.88
371.802	84.88
372.028	86.88
372.254	94.88
372.48	92.88
372.706	80.88
372.932	77.88
373.158	86.88
373.384	94.88
373.61	96.88
373.835	94.88
374.061	89.88
374.287	90.88
374.513	82.88
374.739	76.88
374.965	67.88
375.191	97.88
375.416	90.88
375.642	98.88
375.868	78.88
376.094	98.88
376.319	88.88
376.545	78.88
376.771	85.88
376.997	66.88
377.222	77.88
377.448	91.88
377.674	84.88
377.899	95.88
378.125	84.88
378.35	99.88
378.576	105.88
378.802	100.88
379.027	87.88
379.253	90.88
379.478	94.88
379.704	85.88
379.929	83.88
380.155	83.88
380.38	99.88
380.606	74.88
380.831	94.88
381.057	94.88
381.282	94.88
381.507	76.88
381.733	94.88
381.958	103.88
382.184	89.88
382.409	109.88
382.634	103.88
382.86	105.88
383.085	87.88
383.31	86.88
383.535	103.88
383.761	83.88
383.986	107.88
384.211	101.88
384.436	93.88
384.662	97.88
384.887	99.88
385.112	86.88
385.337	96.88
385.562	112.88
385.787	111.88
386.013	96.88
386.238	111.88
386.463	106.88
386.688	94.88
386.913	76.88
387.138	106.88
387.363	110.88
387.588	98.88
387.813	99.88
388.038	100.88
388.263	120.88
388.488	115.88
388.713	98.88
388.938	97.88
389.163	90.88
389.387	80.88
389.612	100.88
389.837	76.88
390.062	95.88
390.287	95.88
390.512	63.88
390.736	84.88
390.961	93.88
391.186	89.88
391.411	83.88
391.636	103.88
391.86	99.88
392.085	82.88
392.31	76.88
392.534	69.88
392.759	82.88
392.984	91.88
393.208	72.88
393.433	117.88
393.658	110.88
393.882	94.88
394.107	88.88
394.331	88.88
394.556	72.88
394.78	81.88
395.005	74.88
395.229	96.88
395.454	82.88
395.678	81.88
395.903	84.88
396.127	77.88
396.352	82.88
396.576	94.88
396.801	93.88
397.025	84.88
397.249	106.88
397.474	95.88
397.698	78.88
397.922	73.88
398.147	83.88
398.371	84.88
398.595	87.88
398.82	58.88
399.044	87.88
399.268	88.88
399.492	70.88
399.717	83.88
399.941	85.88
400.165	95.88
400.389	92.88
400.613	96.88
400.837	89.88
401.062	90.88
401.286	76.88
401.51	81.88
401.734	88.88
401.958	95.88
402.182	113.88
402.406	119.88
402.63	98.88
402.854	74.88
403.078	85.88
403.302	100.88
403.526	83.88
403.75	80.88
403.974	95.88
404.198	99.88
404.422	76.88
404.645	94.88
404.869	79.88
405.093	80.88
405.317	91.88
405.541	86.88
405.765	104.88
405.988	112.88
406.212	139.88
406.436	178.88
406.66	108.88
406.883	93.88
407.107	86.88
407.331	90.88
407.555	93.88
407.778	91.88
408.002	85.88
408.226	89.88
408.449	67.88
408.673	86.88
408.896	86.88
409.12	91.88
409.344	88.88
409.567	81.88
409.791	74.88
410.014	111.88
410.238	82.88
410.461	77.88
410.685	83.88
410.908	99.88
411.132	101.88
411.355	115.88
411.578	96.88
411.802	76.88
412.025	95.88
412.249	87.88
412.472	74.88
412.695	83.88
412.919	80.88
413.142	87.88
413.365	74.88
413.589	81.88
413.812	80.88
414.035	76.88
414.258	92.88
414.482	69.88
414.705	83.88
414.928	102.88
415.151	96.88
415.374	95.88
415.597	91.88
415.821	84.88
416.044	86.88
416.267	86.88
416.49	77.88
416.713	94.88
416.936	69.88
417.159	80.88
417.382	83.88
417.605	96.88
417.828	84.88
418.051	100.88
418.274	82.88
418.497	81.88
418.72	78.88
418.943	79.88
419.166	82.88
419.389	86.88
419.611	77.88
419.834	107.88
420.057	99.88
420.28	85.88
420.503	85.88
420.726	83.88
420.948	86.88
421.171	88.88
421.394	102.88
421.617	79.88
421.839	86.88
422.062	72.88
422.285	83.88
422.507	85.88
422.73	105.88
422.953	92.88
423.175	84.88
423.398	94.88
423.621	88.88
423.843	70.88
424.066	77.88
424.288	81.88
424.511	88.88
424.733	89.88
424.956	91.88
425.178	102.88
425.401	102.88
425.623	103.88
425.846	83.88
426.068	85.88
426.291	88.88
426.513	68.88
426.735	88.88
426.958	87.88
427.18	88.88
427.402	139.88
427.625	146.88
427.847	111.88
428.069	98.88
428.292	76.88
428.514	75.88
428.736	71.88
428.958	91.88
429.181	92.88
429.403	90.88
429.625	84.88
429.847	90.88
430.069	77.88
430.292	88.88
430.514	82.88
430.736	87.88
430.958	85.88
431.18	78.88
431.402	76.88
431.624	84.88
431.846	90.88
432.068	90.88
432.29	91.88
432.512	84.88
432.734	74.88
432.956	78.88
433.178	96.88
433.4	98.88
433.622	82.88
433.844	96.88
434.066	105.88
434.287	82.88
434.509	93.88
434.731	95.88
434.953	81.88
435.175	77.88
435.397	84.88
435.618	90.88
435.84	100.88
436.062	113.88
436.284	118.88
436.505	96.88
436.727	87.88
436.949	107.88
437.17	96.88
437.392	90.88
437.614	97.88
437.835	92.88
438.057	109.88
438.278	91.88
438.5	85.88
438.721	112.88
438.943	92.88
439.165	92.88
439.386	71.88
439.608	78.88
439.829	92.88
440.05	114.88
440.272	126.88
440.493	95.88
440.715	94.88
440.936	75.88
441.158	102.88
441.379	84.88
441.6	83.88
441.822	91.88
442.043	86.88
442.264	88.88
442.486	98.88
442.707	86.88
442.928	85.88
443.149	116.88
443.371	109.88
443.592	85.88
443.813	111.88
444.034	93.88
444.255	90.88
444.476	83.88
444.698	92.88
444.919	90.88
445.14	136.88
445.361	114.88
445.582	110.88
445.803	146.88
446.024	120.88
446.245	119.88
446.466	102.88
446.687	79.88
446.908	99.88
447.129	92.88
447.35	86.88
447.571	91.88
447.792	84.88
448.013	92.88
448.234	80.88
448.455	83.88
448.675	115.88
448.896	106.88
449.117	93.88
449.338	98.88
449.559	118.88
449.779	131.88
450	95.88
450.221	85.88
450.442	86.88
450.662	87.88
450.883	86.88
451.104	111.88
451.324	88.88
451.545	96.88
451.766	78.88
451.986	76.88
452.207	81.88
452.428	92.88
452.648	94.88
452.869	91.88
453.089	97.88
453.31	98.88
453.53	78.88
453.751	98.88
453.971	104.88
454.192	90.88
454.412	89.88
454.633	73.88
454.853	86.88
455.073	84.88
455.294	92.88
455.514	87.88
455.734	95.88
455.955	84.88
456.175	93.88
456.395	78.88
456.616	85.88
456.836	80.88
457.056	80.88
457.276	78.88
457.497	78.88
457.717	91.88
457.937	87.88
458.157	73.88
458.377	81.88
458.598	82.88
458.818	130.88
459.038	138.88
459.258	100.88
459.478	97.88
459.698	84.88
459.918	84.88
460.138	76.88
460.358	78.88
460.578	90.88
460.798	79.88
461.018	78.88
461.238	78.88
461.458	88.88
461.678	74.88
461.898	74.88
462.118	85.88
462.338	85.88
462.558	81.88
462.777	84.88
462.997	80.88
463.217	82.88
463.437	78.88
463.657	86.88
463.876	72.88
464.096	82.88
464.316	98.88
464.536	88.88
464.755	91.88
464.975	105.88
465.195	147.88
465.414	134.88
465.634	98.88
465.854	70.88
466.073	98.88
466.293	74.88
466.512	84.88
466.732	84.88
466.951	82.88
467.171	80.88
467.391	81.88
467.61	90.88
467.829	105.88
468.049	84.88
468.268	75.88
468.488	91.88
468.707	75.88
468.927	85.88
469.146	86.88
469.365	95.88
469.585	88.88
469.804	91.88
470.023	95.88
470.243	85.88
470.462	86.88
470.681	85.88
470.901	74.88
471.12	91.88
471.339	79.88
471.558	87.88
471.777	74.88
471.997	76.88
472.216	60.88
472.435	77.88
472.654	88.88
472.873	88.88
473.092	92.88
473.311	87.88
473.53	94.88
473.749	89.88
473.968	97.88
474.187	104.88
474.406	94.88
474.625	79.88
474.844	68.88
475.063	90.88
475.282	93.88
475.501	68.88
475.72	61.88
475.939	95.88
476.158	88.88
476.377	94.88
476.596	91.88
476.814	90.88
477.033	98.88
477.252	77.88
477.471	74.88
477.69	70.88
477.908	86.88
478.127	78.88
478.346	78.88
478.564	91.88
478.783	98.88
479.002	95.88
479.22	93.88
479.439	96.88
479.658	91.88
479.876	93.88
480.095	81.88
480.313	95.88
480.532	86.88
480.751	93.88
480.969	84.88
481.188	87.88
481.406	96.88
481.624	84.88
481.843	77.88
482.061	76.88
482.28	84.88
482.498	88.88
482.717	111.88
482.935	98.88
483.153	91.88
483.372	82.88
483.59	77.88
483.808	62.88
484.027	102.88
484.245	93.88
484.463	84.88
484.681	99.88
484.9	94.88
485.118	94.88
485.336	94.88
485.554	89.88
485.772	93.88
485.99	104.88
486.209	106.88
486.427	109.88
486.645	118.88
486.863	111.88
487.081	89.88
487.299	72.88
487.517	102.88
487.735	91.88
487.953	79.88
488.171	94.88
488.389	91.88
488.607	87.88
488.825	88.88
489.043	81.88
489.261	80.88
489.479	79.88
489.696	85.88
489.914	91.88
490.132	77.88
490.35	88.88
490.568	93.88
490.786	82.88
491.003	92.88
491.221	92.88
491.439	83.88
491.657	91.88
491.874	92.88
492.092	92.88
492.31	78.88
492.527	94.88
492.745	87.88
492.963	101.88
493.18	87.88
493.398	84.88
493.615	98.88
493.833	94.88
494.05	80.88
494.268	92.88
494.485	78.88
494.703	76.88
494.92	87.88
495.138	91.88
495.355	83.88
495.573	81.88
495.79	75.88
496.008	80.88
496.225	88.88
496.442	87.88
496.66	85.88
496.877	95.88
497.094	80.88
497.312	95.88
497.529	91.88
497.746	89.88
497.963	86.88
498.181	88.88
498.398	91.88
498.615	101.88
498.832	109.88
499.049	88.88
499.267	91.88
499.484	82.88
499.701	72.88
499.918	100.88
500.135	95.88
500.352	92.88
500.569	87.88
500.786	90.88
501.003	76.88
501.22	76.88
501.437	78.88
501.654	75.88
501.871	97.88
502.088	101.88
502.305	73.88
502.522	88.88
502.739	73.88
502.956	101.88
503.172	93.88
503.389	110.88
503.606	82.88
503.823	95.88
504.04	90.88
504.256	102.88
504.473	92.88
504.69	101.88
504.907	70.88
505.123	96.88
505.34	95.88
505.557	83.88
505.773	93.88
505.99	78.88
506.207	97.88
506.423	93.88
506.64	90.88
506.856	101.88
507.073	82.88
507.289	84.88
507.506	81.88
507.722	88.88
507.939	99.88
508.155	96.88
508.372	95.88
508.588	99.88
508.805	86.88
509.021	109.88
509.238	82.88
509.454	90.88
509.67	89.88
509.887	99.88
510.103	109.88
510.319	163.88
510.536	566.88
510.752	1727.88
510.968	478.88
511.184	108.88
511.401	98.88
511.617	86.88
511.833	93.88
512.049	71.88
512.265	87.88
512.481	91.88
512.698	78.88
512.914	80.88
513.13	98.88
513.346	90.88
513.562	91.88
513.778	96.88
513.994	92.88
514.21	95.88
514.426	104.88
514.642	107.88
514.858	114.88
515.074	153.88
515.29	353.88
515.506	1095.88
515.721	423.88
515.937	123.88
516.153	118.88
516.369	97.88
516.585	117.88
516.801	103.88
517.016	97.88
517.232	84.88
