Data from Uncirc_1996_H10_HRD10591_00076.txt Node
Date: Wed Jan 03 11:32:17 EST 2024
User: Yrep
Spectrometer: HR+D1059
Trigger mode: 1
Integration Time (sec): 1.000000E-1
Scans to average: 1
Electric dark correction enabled: true
Nonlinearity correction enabled: false
Boxcar width: 0
XAxis mode: Wavelengths
Number of Pixels in Spectrum: 2048
>>>>>Begin Spectral Data<<<<<
223.165	-23.25
223.4	-23.25
223.635	-23.25
223.869	-7.25
224.104	-24.25
224.338	-17.25
224.573	-10.25
224.808	-14.25
225.042	-1.25
225.277	-8.25
225.511	9.75
225.746	-4.25
225.98	-4.25
226.215	7.75
226.449	9.75
226.683	30.75
226.918	26.75
227.152	29.75
227.387	42.75
227.621	34.75
227.856	41.75
228.09	42.75
228.324	55.75
228.559	31.75
228.793	61.75
229.027	66.75
229.262	60.75
229.496	74.75
229.73	86.75
229.964	96.75
230.199	76.75
230.433	76.75
230.667	70.75
230.901	72.75
231.136	88.75
231.37	62.75
231.604	78.75
231.838	80.75
232.072	89.75
232.306	80.75
232.541	88.75
232.775	79.75
233.009	75.75
233.243	81.75
233.477	74.75
233.711	83.75
233.945	79.75
234.179	75.75
234.413	78.75
234.647	90.75
234.881	74.75
235.115	83.75
235.349	84.75
235.583	95.75
235.817	83.75
236.051	67.75
236.285	75.75
236.519	90.75
236.753	86.75
236.987	79.75
237.221	66.75
237.455	97.75
237.689	57.75
237.922	70.75
238.156	76.75
238.39	80.75
238.624	92.75
238.858	82.75
239.091	75.75
239.325	78.75
239.559	87.75
239.793	89.75
240.027	75.75
240.26	78.75
240.494	60.75
240.728	66.75
240.961	79.75
241.195	83.75
241.429	87.75
241.662	80.75
241.896	85.75
242.13	67.75
242.363	76.75
242.597	78.75
242.83	93.75
243.064	79.75
243.298	71.75
243.531	83.75
243.765	77.75
243.998	86.75
244.232	76.75
244.465	83.75
244.699	88.75
244.932	80.75
245.166	84.75
245.399	82.75
245.633	74.75
245.866	55.75
246.099	91.75
246.333	89.75
246.566	81.75
246.8	85.75
247.033	79.75
247.266	75.75
247.5	66.75
247.733	94.75
247.966	66.75
248.2	85.75
248.433	86.75
248.666	73.75
248.899	91.75
249.133	79.75
249.366	92.75
249.599	98.75
249.832	74.75
250.066	73.75
250.299	79.75
250.532	94.75
250.765	81.75
250.998	75.75
251.231	62.75
251.465	82.75
251.698	93.75
251.931	76.75
252.164	82.75
252.397	76.75
252.63	99.75
252.863	73.75
253.096	72.75
253.329	84.75
253.562	76.75
253.795	73.75
254.028	91.75
254.261	83.75
254.494	77.75
254.727	89.75
254.96	95.75
255.193	68.75
255.426	85.75
255.659	80.75
255.892	79.75
256.124	72.75
256.357	77.75
256.59	74.75
256.823	77.75
257.056	91.75
257.289	85.75
257.521	86.75
257.754	67.75
257.987	79.75
258.22	74.75
258.452	80.75
258.685	79.75
258.918	84.75
259.151	84.75
259.383	73.75
259.616	82.75
259.849	96.75
260.081	82.75
260.314	80.75
260.547	91.75
260.779	75.75
261.012	82.75
261.244	92.75
261.477	72.75
261.71	71.75
261.942	108.75
262.175	126.75
262.407	80.75
262.64	85.75
262.872	86.75
263.105	84.75
263.337	97.75
263.57	88.75
263.802	75.75
264.035	90.75
264.267	72.75
264.499	88.75
264.732	81.75
264.964	86.75
265.197	73.75
265.429	87.75
265.661	90.75
265.894	88.75
266.126	87.75
266.358	83.75
266.591	82.75
266.823	67.75
267.055	73.75
267.287	89.75
267.52	98.75
267.752	75.75
267.984	90.75
268.216	83.75
268.448	77.75
268.681	68.75
268.913	81.75
269.145	88.75
269.377	76.75
269.609	87.75
269.841	86.75
270.073	77.75
270.306	94.75
270.538	76.75
270.77	58.75
271.002	84.75
271.234	88.75
271.466	78.75
271.698	74.75
271.93	92.75
272.162	88.75
272.394	101.75
272.626	83.75
272.858	84.75
273.09	90.75
273.322	97.75
273.553	84.75
273.785	78.75
274.017	84.75
274.249	84.75
274.481	72.75
274.713	87.75
274.945	73.75
275.176	86.75
275.408	82.75
275.64	80.75
275.872	73.75
276.104	92.75
276.335	97.75
276.567	92.75
276.799	110.75
277.031	100.75
277.262	96.75
277.494	81.75
277.726	85.75
277.957	76.75
278.189	81.75
278.421	62.75
278.652	82.75
278.884	73.75
279.115	88.75
279.347	91.75
279.579	92.75
279.81	97.75
280.042	78.75
280.273	89.75
280.505	76.75
280.736	87.75
280.968	85.75
281.199	90.75
281.431	81.75
281.662	83.75
281.894	75.75
282.125	98.75
282.356	121.75
282.588	135.75
282.819	96.75
283.051	94.75
283.282	75.75
283.513	88.75
283.745	98.75
283.976	82.75
284.207	101.75
284.439	90.75
284.67	92.75
284.901	83.75
285.132	98.75
285.364	97.75
285.595	95.75
285.826	87.75
286.057	97.75
286.288	84.75
286.52	91.75
286.751	78.75
286.982	79.75
287.213	93.75
287.444	82.75
287.675	95.75
287.906	97.75
288.138	88.75
288.369	94.75
288.6	93.75
288.831	94.75
289.062	97.75
289.293	94.75
289.524	82.75
289.755	72.75
289.986	78.75
290.217	96.75
290.448	90.75
290.679	93.75
290.91	94.75
291.141	84.75
291.371	84.75
291.602	88.75
291.833	87.75
292.064	92.75
292.295	91.75
292.526	88.75
292.757	88.75
292.987	83.75
293.218	88.75
293.449	85.75
293.68	89.75
293.91	96.75
294.141	86.75
294.372	87.75
294.603	79.75
294.833	88.75
295.064	85.75
295.295	87.75
295.525	82.75
295.756	92.75
295.987	122.75
296.217	132.75
296.448	128.75
296.679	101.75
296.909	88.75
297.14	85.75
297.37	87.75
297.601	89.75
297.831	80.75
298.062	86.75
298.292	75.75
298.523	82.75
298.753	96.75
298.984	88.75
299.214	89.75
299.445	90.75
299.675	97.75
299.905	108.75
300.136	105.75
300.366	86.75
300.597	86.75
300.827	99.75
301.057	89.75
301.288	88.75
301.518	91.75
301.748	82.75
301.979	112.75
302.209	96.75
302.439	77.75
302.669	91.75
302.9	98.75
303.13	97.75
303.36	87.75
303.59	106.75
303.82	88.75
304.051	89.75
304.281	91.75
304.511	83.75
304.741	100.75
304.971	92.75
305.201	94.75
305.431	91.75
305.661	90.75
305.891	90.75
306.121	100.75
306.352	108.75
306.582	83.75
306.812	90.75
307.042	95.75
307.272	98.75
307.502	91.75
307.731	80.75
307.961	87.75
308.191	83.75
308.421	88.75
308.651	94.75
308.881	97.75
309.111	90.75
309.341	88.75
309.571	105.75
309.8	94.75
310.03	92.75
310.26	115.75
310.49	88.75
310.72	75.75
310.949	102.75
311.179	89.75
311.409	102.75
311.639	89.75
311.868	97.75
312.098	97.75
312.328	94.75
312.557	72.75
312.787	95.75
313.017	101.75
313.246	90.75
313.476	91.75
313.706	94.75
313.935	99.75
314.165	92.75
314.394	85.75
314.624	82.75
314.853	95.75
315.083	79.75
315.312	91.75
315.542	102.75
315.771	96.75
316.001	92.75
316.23	101.75
316.46	83.75
316.689	90.75
316.919	102.75
317.148	96.75
317.377	102.75
317.607	102.75
317.836	101.75
318.065	76.75
318.295	98.75
318.524	83.75
318.753	98.75
318.983	93.75
319.212	95.75
319.441	100.75
319.67	113.75
319.9	104.75
320.129	83.75
320.358	90.75
320.587	76.75
320.816	71.75
321.046	99.75
321.275	83.75
321.504	94.75
321.733	107.75
321.962	112.75
322.191	112.75
322.42	94.75
322.649	112.75
322.878	111.75
323.108	129.75
323.337	120.75
323.566	128.75
323.795	160.75
324.024	199.75
324.253	335.75
324.482	734.75
324.71	1493.75
324.939	1961.75
325.168	733.75
325.397	226.75
325.626	124.75
325.855	118.75
326.084	122.75
326.313	132.75
326.542	161.75
326.77	219.75
326.999	414.75
327.228	888.75
327.457	1562.75
327.686	1206.75
327.914	361.75
328.143	194.75
328.372	139.75
328.6	117.75
328.829	105.75
329.058	117.75
329.287	111.75
329.515	106.75
329.744	104.75
329.972	88.75
330.201	97.75
330.43	112.75
330.658	113.75
330.887	127.75
331.115	130.75
331.344	96.75
331.572	96.75
331.801	96.75
332.03	105.75
332.258	99.75
332.486	110.75
332.715	89.75
332.943	87.75
333.172	100.75
333.4	95.75
333.629	96.75
333.857	104.75
334.085	102.75
334.314	90.75
334.542	89.75
334.771	104.75
334.999	99.75
335.227	87.75
335.455	107.75
335.684	110.75
335.912	104.75
336.14	100.75
336.369	102.75
336.597	89.75
336.825	97.75
337.053	87.75
337.281	97.75
337.51	91.75
337.738	96.75
337.966	114.75
338.194	94.75
338.422	116.75
338.65	93.75
338.878	92.75
339.106	88.75
339.334	80.75
339.562	77.75
339.79	92.75
340.018	92.75
340.246	93.75
340.474	88.75
340.702	102.75
340.93	89.75
341.158	83.75
341.386	94.75
341.614	90.75
341.842	86.75
342.07	85.75
342.298	102.75
342.526	99.75
342.754	74.75
342.981	91.75
343.209	73.75
343.437	93.75
343.665	82.75
343.893	97.75
344.12	80.75
344.348	88.75
344.576	82.75
344.804	86.75
345.031	89.75
345.259	89.75
345.487	104.75
345.714	88.75
345.942	104.75
346.17	103.75
346.397	102.75
346.625	112.75
346.853	103.75
347.08	102.75
347.308	98.75
347.535	102.75
347.763	90.75
347.99	109.75
348.218	96.75
348.445	92.75
348.673	97.75
348.9	98.75
349.128	109.75
349.355	98.75
349.583	102.75
349.81	104.75
350.037	100.75
350.265	100.75
350.492	99.75
350.72	99.75
350.947	101.75
351.174	88.75
351.402	109.75
351.629	91.75
351.856	99.75
352.083	101.75
352.311	99.75
352.538	113.75
352.765	112.75
352.992	126.75
353.22	115.75
353.447	107.75
353.674	95.75
353.901	97.75
354.128	106.75
354.355	109.75
354.583	98.75
354.81	87.75
355.037	92.75
355.264	105.75
355.491	100.75
355.718	88.75
355.945	93.75
356.172	92.75
356.399	91.75
356.626	98.75
356.853	87.75
357.08	104.75
357.307	82.75
357.534	83.75
357.761	95.75
357.988	86.75
358.215	93.75
358.441	94.75
358.668	79.75
358.895	83.75
359.122	88.75
359.349	85.75
359.576	94.75
359.802	113.75
360.029	117.75
360.256	114.75
360.483	97.75
360.709	77.75
360.936	89.75
361.163	99.75
361.39	106.75
361.616	99.75
361.843	86.75
362.07	80.75
362.296	88.75
362.523	92.75
362.749	84.75
362.976	99.75
363.203	93.75
363.429	93.75
363.656	93.75
363.882	96.75
364.109	89.75
364.335	87.75
364.562	93.75
364.788	101.75
365.015	83.75
365.241	101.75
365.468	112.75
365.694	117.75
365.92	93.75
366.147	98.75
366.373	94.75
366.599	94.75
366.826	100.75
367.052	99.75
367.278	92.75
367.505	113.75
367.731	111.75
367.957	90.75
368.184	104.75
368.41	101.75
368.636	120.75
368.862	111.75
369.089	111.75
369.315	100.75
369.541	88.75
369.767	91.75
369.993	97.75
370.219	101.75
370.445	81.75
370.672	95.75
370.898	90.75
371.124	92.75
371.35	87.75
371.576	94.75
371.802	85.75
372.028	90.75
372.254	83.75
372.48	90.75
372.706	92.75
372.932	100.75
373.158	99.75
373.384	87.75
373.61	100.75
373.835	83.75
374.061	87.75
374.287	83.75
374.513	70.75
374.739	93.75
374.965	80.75
375.191	82.75
375.416	91.75
375.642	96.75
375.868	100.75
376.094	89.75
376.319	88.75
376.545	95.75
376.771	88.75
376.997	79.75
377.222	91.75
377.448	90.75
377.674	91.75
377.899	91.75
378.125	94.75
378.35	86.75
378.576	95.75
378.802	81.75
379.027	85.75
379.253	93.75
379.478	88.75
379.704	96.75
379.929	79.75
380.155	79.75
380.38	92.75
380.606	92.75
380.831	95.75
381.057	99.75
381.282	83.75
381.507	95.75
381.733	104.75
381.958	100.75
382.184	89.75
382.409	89.75
382.634	104.75
382.86	96.75
383.085	114.75
383.31	101.75
383.535	95.75
383.761	90.75
383.986	91.75
384.211	102.75
384.436	100.75
384.662	104.75
384.887	100.75
385.112	105.75
385.337	101.75
385.562	123.75
385.787	104.75
386.013	111.75
386.238	108.75
386.463	113.75
386.688	103.75
386.913	111.75
387.138	103.75
387.363	112.75
387.588	96.75
387.813	98.75
388.038	110.75
388.263	104.75
388.488	104.75
388.713	98.75
388.938	104.75
389.163	99.75
389.387	95.75
389.612	91.75
389.837	86.75
390.062	99.75
390.287	96.75
390.512	88.75
390.736	93.75
390.961	92.75
391.186	113.75
391.411	112.75
391.636	97.75
391.86	80.75
392.085	85.75
392.31	92.75
392.534	89.75
392.759	102.75
392.984	91.75
393.208	92.75
393.433	97.75
393.658	96.75
393.882	103.75
394.107	82.75
394.331	91.75
394.556	88.75
394.78	98.75
395.005	88.75
395.229	85.75
395.454	99.75
395.678	81.75
395.903	81.75
396.127	90.75
396.352	90.75
396.576	87.75
396.801	80.75
397.025	80.75
397.249	98.75
397.474	100.75
397.698	71.75
397.922	84.75
398.147	79.75
398.371	93.75
398.595	86.75
398.82	97.75
399.044	82.75
399.268	75.75
399.492	98.75
399.717	92.75
399.941	97.75
400.165	98.75
400.389	89.75
400.613	98.75
400.837	105.75
401.062	92.75
401.286	100.75
401.51	105.75
401.734	89.75
401.958	83.75
402.182	104.75
402.406	158.75
402.63	114.75
402.854	109.75
403.078	98.75
403.302	89.75
403.526	94.75
403.75	92.75
403.974	65.75
404.198	92.75
404.422	88.75
404.645	94.75
404.869	98.75
405.093	80.75
405.317	100.75
405.541	104.75
405.765	104.75
405.988	105.75
406.212	158.75
406.436	222.75
406.66	139.75
406.883	110.75
407.107	93.75
407.331	97.75
407.555	97.75
407.778	82.75
408.002	106.75
408.226	82.75
408.449	84.75
408.673	92.75
408.896	89.75
409.12	82.75
409.344	92.75
409.567	82.75
409.791	95.75
410.014	83.75
410.238	96.75
410.461	91.75
410.685	95.75
410.908	116.75
411.132	100.75
411.355	92.75
411.578	84.75
411.802	108.75
412.025	98.75
412.249	98.75
412.472	83.75
412.695	82.75
412.919	81.75
413.142	76.75
413.365	76.75
413.589	80.75
413.812	98.75
414.035	102.75
414.258	90.75
414.482	91.75
414.705	79.75
414.928	88.75
415.151	104.75
415.374	91.75
415.597	95.75
415.821	98.75
416.044	94.75
416.267	96.75
416.49	97.75
416.713	107.75
416.936	92.75
417.159	93.75
417.382	100.75
417.605	72.75
417.828	94.75
418.051	97.75
418.274	98.75
418.497	83.75
418.72	102.75
418.943	91.75
419.166	78.75
419.389	82.75
419.611	81.75
419.834	84.75
420.057	78.75
420.28	98.75
420.503	92.75
420.726	97.75
420.948	104.75
421.171	86.75
421.394	80.75
421.617	83.75
421.839	85.75
422.062	92.75
422.285	94.75
422.507	98.75
422.73	95.75
422.953	92.75
423.175	90.75
423.398	90.75
423.621	102.75
423.843	77.75
424.066	81.75
424.288	86.75
424.511	85.75
424.733	94.75
424.956	97.75
425.178	96.75
425.401	95.75
425.623	104.75
425.846	81.75
426.068	84.75
426.291	100.75
426.513	101.75
426.735	88.75
426.958	101.75
427.18	102.75
427.402	134.75
427.625	149.75
427.847	111.75
428.069	98.75
428.292	94.75
428.514	103.75
428.736	79.75
428.958	72.75
429.181	82.75
429.403	71.75
429.625	86.75
429.847	102.75
430.069	107.75
430.292	99.75
430.514	91.75
430.736	98.75
430.958	92.75
431.18	86.75
431.402	90.75
431.624	91.75
431.846	71.75
432.068	77.75
432.29	89.75
432.512	84.75
432.734	97.75
432.956	91.75
433.178	96.75
433.4	89.75
433.622	88.75
433.844	94.75
434.066	99.75
434.287	91.75
434.509	77.75
434.731	89.75
434.953	70.75
435.175	92.75
435.397	86.75
435.618	87.75
435.84	109.75
436.062	113.75
436.284	116.75
436.505	106.75
436.727	96.75
436.949	83.75
437.17	80.75
437.392	87.75
437.614	95.75
437.835	119.75
438.057	105.75
438.278	110.75
438.5	98.75
438.721	107.75
438.943	99.75
439.165	83.75
439.386	91.75
439.608	106.75
439.829	95.75
440.05	130.75
440.272	144.75
440.493	94.75
440.715	88.75
440.936	97.75
441.158	78.75
441.379	95.75
441.6	111.75
441.822	104.75
442.043	89.75
442.264	106.75
442.486	98.75
442.707	106.75
442.928	99.75
443.149	125.75
443.371	129.75
443.592	114.75
443.813	99.75
444.034	99.75
444.255	92.75
444.476	86.75
444.698	83.75
444.919	76.75
445.14	145.75
445.361	107.75
445.582	132.75
445.803	141.75
446.024	116.75
446.245	132.75
446.466	106.75
446.687	86.75
446.908	95.75
447.129	91.75
447.35	99.75
447.571	94.75
447.792	90.75
448.013	90.75
448.234	104.75
448.455	107.75
448.675	100.75
448.896	110.75
449.117	107.75
449.338	104.75
449.559	112.75
449.779	117.75
450	83.75
450.221	87.75
450.442	87.75
450.662	93.75
450.883	97.75
451.104	106.75
451.324	93.75
451.545	75.75
451.766	72.75
451.986	82.75
452.207	92.75
452.428	82.75
452.648	88.75
452.869	100.75
453.089	114.75
453.31	104.75
453.53	88.75
453.751	104.75
453.971	104.75
454.192	100.75
454.412	87.75
454.633	98.75
454.853	81.75
455.073	85.75
455.294	106.75
455.514	95.75
455.734	80.75
455.955	85.75
456.175	86.75
456.395	92.75
456.616	77.75
456.836	83.75
457.056	89.75
457.276	89.75
457.497	75.75
457.717	80.75
457.937	78.75
458.157	80.75
458.377	89.75
458.598	103.75
458.818	160.75
459.038	152.75
459.258	113.75
459.478	84.75
459.698	107.75
459.918	88.75
460.138	99.75
460.358	98.75
460.578	90.75
460.798	88.75
461.018	89.75
461.238	77.75
461.458	86.75
461.678	98.75
461.898	82.75
462.118	86.75
462.338	98.75
462.558	76.75
462.777	76.75
462.997	80.75
463.217	94.75
463.437	95.75
463.657	99.75
463.876	80.75
464.096	83.75
464.316	94.75
464.536	97.75
464.755	81.75
464.975	113.75
465.195	142.75
465.414	161.75
465.634	89.75
465.854	94.75
466.073	89.75
466.293	95.75
466.512	85.75
466.732	81.75
466.951	82.75
467.171	103.75
467.391	96.75
467.61	104.75
467.829	97.75
468.049	79.75
468.268	82.75
468.488	89.75
468.707	86.75
468.927	85.75
469.146	93.75
469.365	90.75
469.585	87.75
469.804	95.75
470.023	89.75
470.243	88.75
470.462	100.75
470.681	96.75
470.901	100.75
471.12	92.75
471.339	83.75
471.558	88.75
471.777	72.75
471.997	92.75
472.216	77.75
472.435	82.75
472.654	82.75
472.873	98.75
473.092	78.75
473.311	83.75
473.53	98.75
473.749	95.75
473.968	93.75
474.187	105.75
474.406	90.75
474.625	90.75
474.844	96.75
475.063	71.75
475.282	87.75
475.501	81.75
475.72	97.75
475.939	86.75
476.158	91.75
476.377	95.75
476.596	86.75
476.814	82.75
477.033	86.75
477.252	95.75
477.471	95.75
477.69	94.75
477.908	89.75
478.127	92.75
478.346	88.75
478.564	93.75
478.783	103.75
479.002	92.75
479.22	83.75
479.439	90.75
479.658	92.75
479.876	82.75
480.095	102.75
480.313	98.75
480.532	88.75
480.751	99.75
480.969	98.75
481.188	80.75
481.406	81.75
481.624	93.75
481.843	94.75
482.061	79.75
482.28	78.75
482.498	90.75
482.717	74.75
482.935	94.75
483.153	73.75
483.372	91.75
483.59	86.75
483.808	83.75
484.027	100.75
484.245	100.75
484.463	108.75
484.681	99.75
484.9	89.75
485.118	103.75
485.336	100.75
485.554	90.75
485.772	92.75
485.99	96.75
486.209	103.75
486.427	94.75
486.645	117.75
486.863	102.75
487.081	94.75
487.299	101.75
487.517	95.75
487.735	90.75
487.953	89.75
488.171	84.75
488.389	86.75
488.607	102.75
488.825	94.75
489.043	89.75
489.261	90.75
489.479	91.75
489.696	86.75
489.914	89.75
490.132	80.75
490.35	94.75
490.568	99.75
490.786	89.75
491.003	102.75
491.221	86.75
491.439	88.75
491.657	97.75
491.874	102.75
492.092	84.75
492.31	102.75
492.527	81.75
492.745	81.75
492.963	83.75
493.18	84.75
493.398	78.75
493.615	92.75
493.833	87.75
494.05	87.75
494.268	83.75
494.485	95.75
494.703	84.75
494.92	84.75
495.138	98.75
495.355	91.75
495.573	97.75
495.79	86.75
496.008	96.75
496.225	89.75
496.442	92.75
496.66	106.75
496.877	84.75
497.094	93.75
497.312	93.75
497.529	99.75
497.746	88.75
497.963	88.75
498.181	89.75
498.398	91.75
498.615	102.75
498.832	98.75
499.049	88.75
499.267	100.75
499.484	94.75
499.701	98.75
499.918	92.75
500.135	90.75
500.352	94.75
500.569	85.75
500.786	87.75
501.003	92.75
501.22	75.75
501.437	68.75
501.654	83.75
501.871	108.75
502.088	86.75
502.305	83.75
502.522	90.75
502.739	88.75
502.956	83.75
503.172	105.75
503.389	92.75
503.606	100.75
503.823	92.75
504.04	66.75
504.256	91.75
504.473	94.75
504.69	76.75
504.907	112.75
505.123	93.75
505.34	95.75
505.557	96.75
505.773	80.75
505.99	101.75
506.207	87.75
506.423	96.75
506.64	80.75
506.856	91.75
507.073	83.75
507.289	92.75
507.506	76.75
507.722	108.75
507.939	104.75
508.155	99.75
508.372	88.75
508.588	100.75
508.805	96.75
509.021	98.75
509.238	86.75
509.454	102.75
509.67	96.75
509.887	106.75
510.103	124.75
510.319	192.75
510.536	721.75
510.752	2230.75
510.968	637.75
511.184	149.75
511.401	115.75
511.617	94.75
511.833	81.75
512.049	85.75
512.265	94.75
512.481	91.75
512.698	92.75
512.914	89.75
513.13	93.75
513.346	96.75
513.562	95.75
513.778	95.75
513.994	80.75
514.21	109.75
514.426	110.75
514.642	128.75
514.858	127.75
515.074	145.75
515.29	428.75
515.506	1332.75
515.721	512.75
