Data from Uncirc_1996_H10_HRD10591_00097.txt Node
Date: Wed Jan 03 11:32:21 EST 2024
User: Yrep
Spectrometer: HR+D1059
Trigger mode: 1
Integration Time (sec): 1.000000E-1
Scans to average: 1
Electric dark correction enabled: true
Nonlinearity correction enabled: false
Boxcar width: 0
XAxis mode: Wavelengths
Number of Pixels in Spectrum: 2048
>>>>>Begin Spectral Data<<<<<
223.165	-26.75
223.4	-26.75
223.635	-26.75
223.869	-5.75
224.104	-21.75
224.338	-15.75
224.573	-25.75
224.808	-7.75
225.042	-4.75
225.277	-1.75
225.511	7.25
225.746	11.25
225.98	6.25
226.215	3.25
226.449	12.25
226.683	15.25
226.918	23.25
227.152	31.25
227.387	21.25
227.621	42.25
227.856	27.25
228.09	44.25
228.324	40.25
228.559	47.25
228.793	52.25
229.027	58.25
229.262	52.25
229.496	83.25
229.73	79.25
229.964	80.25
230.199	70.25
230.433	68.25
230.667	61.25
230.901	73.25
231.136	84.25
231.37	81.25
231.604	64.25
231.838	75.25
232.072	84.25
232.306	67.25
232.541	84.25
232.775	80.25
233.009	84.25
233.243	71.25
233.477	76.25
233.711	88.25
233.945	84.25
234.179	72.25
234.413	85.25
234.647	78.25
234.881	74.25
235.115	67.25
235.349	78.25
235.583	72.25
235.817	73.25
236.051	96.25
236.285	61.25
236.519	71.25
236.753	76.25
236.987	79.25
237.221	81.25
237.455	74.25
237.689	71.25
237.922	72.25
238.156	83.25
238.39	63.25
238.624	60.25
238.858	80.25
239.091	87.25
239.325	76.25
239.559	73.25
239.793	70.25
240.027	75.25
240.26	59.25
240.494	76.25
240.728	64.25
240.961	62.25
241.195	68.25
241.429	65.25
241.662	58.25
241.896	62.25
242.13	77.25
242.363	80.25
242.597	62.25
242.83	72.25
243.064	58.25
243.298	71.25
243.531	80.25
243.765	77.25
243.998	73.25
244.232	70.25
244.465	89.25
244.699	76.25
244.932	60.25
245.166	66.25
245.399	56.25
245.633	75.25
245.866	85.25
246.099	84.25
246.333	81.25
246.566	80.25
246.8	87.25
247.033	64.25
247.266	68.25
247.5	80.25
247.733	79.25
247.966	69.25
248.2	86.25
248.433	77.25
248.666	66.25
248.899	79.25
249.133	88.25
249.366	99.25
249.599	95.25
249.832	82.25
250.066	77.25
250.299	71.25
250.532	80.25
250.765	85.25
250.998	69.25
251.231	74.25
251.465	62.25
251.698	71.25
251.931	70.25
252.164	88.25
252.397	85.25
252.63	60.25
252.863	68.25
253.096	86.25
253.329	81.25
253.562	81.25
253.795	85.25
254.028	67.25
254.261	82.25
254.494	73.25
254.727	67.25
254.96	76.25
255.193	74.25
255.426	71.25
255.659	74.25
255.892	63.25
256.124	68.25
256.357	71.25
256.59	76.25
256.823	75.25
257.056	66.25
257.289	61.25
257.521	83.25
257.754	82.25
257.987	77.25
258.22	78.25
258.452	75.25
258.685	71.25
258.918	63.25
259.151	94.25
259.383	75.25
259.616	76.25
259.849	79.25
260.081	71.25
260.314	80.25
260.547	85.25
260.779	82.25
261.012	77.25
261.244	69.25
261.477	93.25
261.71	96.25
261.942	85.25
262.175	99.25
262.407	82.25
262.64	71.25
262.872	72.25
263.105	84.25
263.337	91.25
263.57	79.25
263.802	78.25
264.035	90.25
264.267	79.25
264.499	82.25
264.732	81.25
264.964	88.25
265.197	74.25
265.429	74.25
265.661	64.25
265.894	86.25
266.126	71.25
266.358	86.25
266.591	79.25
266.823	80.25
267.055	83.25
267.287	74.25
267.52	79.25
267.752	87.25
267.984	76.25
268.216	80.25
268.448	79.25
268.681	81.25
268.913	79.25
269.145	73.25
269.377	85.25
269.609	83.25
269.841	84.25
270.073	78.25
270.306	85.25
270.538	81.25
270.77	73.25
271.002	78.25
271.234	78.25
271.466	93.25
271.698	70.25
271.93	70.25
272.162	74.25
272.394	82.25
272.626	81.25
272.858	83.25
273.09	85.25
273.322	74.25
273.553	74.25
273.785	81.25
274.017	74.25
274.249	80.25
274.481	93.25
274.713	73.25
274.945	91.25
275.176	91.25
275.408	79.25
275.64	89.25
275.872	83.25
276.104	80.25
276.335	78.25
276.567	109.25
276.799	105.25
277.031	100.25
277.262	89.25
277.494	81.25
277.726	82.25
277.957	79.25
278.189	74.25
278.421	91.25
278.652	92.25
278.884	93.25
279.115	90.25
279.347	60.25
279.579	66.25
279.81	86.25
280.042	81.25
280.273	91.25
280.505	86.25
280.736	82.25
280.968	75.25
281.199	92.25
281.431	83.25
281.662	92.25
281.894	102.25
282.125	109.25
282.356	127.25
282.588	116.25
282.819	101.25
283.051	83.25
283.282	90.25
283.513	86.25
283.745	71.25
283.976	60.25
284.207	86.25
284.439	66.25
284.67	84.25
284.901	82.25
285.132	85.25
285.364	81.25
285.595	83.25
285.826	83.25
286.057	84.25
286.288	84.25
286.52	80.25
286.751	96.25
286.982	72.25
287.213	83.25
287.444	86.25
287.675	75.25
287.906	94.25
288.138	76.25
288.369	86.25
288.6	93.25
288.831	101.25
289.062	79.25
289.293	94.25
289.524	94.25
289.755	74.25
289.986	85.25
290.217	80.25
290.448	92.25
290.679	94.25
290.91	84.25
291.141	75.25
291.371	88.25
291.602	77.25
291.833	71.25
292.064	84.25
292.295	78.25
292.526	85.25
292.757	87.25
292.987	80.25
293.218	78.25
293.449	79.25
293.68	80.25
293.91	81.25
294.141	86.25
294.372	87.25
294.603	91.25
294.833	84.25
295.064	86.25
295.295	88.25
295.525	72.25
295.756	102.25
295.987	108.25
296.217	137.25
296.448	118.25
296.679	78.25
296.909	77.25
297.14	96.25
297.37	92.25
297.601	76.25
297.831	81.25
298.062	76.25
298.292	101.25
298.523	82.25
298.753	84.25
298.984	72.25
299.214	83.25
299.445	79.25
299.675	98.25
299.905	88.25
300.136	87.25
300.366	77.25
300.597	76.25
300.827	104.25
301.057	90.25
301.288	98.25
301.518	88.25
301.748	86.25
301.979	83.25
302.209	88.25
302.439	80.25
302.669	83.25
302.9	97.25
303.13	88.25
303.36	88.25
303.59	87.25
303.82	100.25
304.051	74.25
304.281	96.25
304.511	80.25
304.741	87.25
304.971	83.25
305.201	81.25
305.431	81.25
305.661	87.25
305.891	74.25
306.121	86.25
306.352	85.25
306.582	99.25
306.812	77.25
307.042	70.25
307.272	77.25
307.502	89.25
307.731	75.25
307.961	100.25
308.191	85.25
308.421	84.25
308.651	78.25
308.881	86.25
309.111	89.25
309.341	80.25
309.571	91.25
309.8	99.25
310.03	104.25
310.26	93.25
310.49	84.25
310.72	91.25
310.949	93.25
311.179	112.25
311.409	99.25
311.639	84.25
311.868	85.25
312.098	84.25
312.328	101.25
312.557	93.25
312.787	102.25
313.017	96.25
313.246	106.25
313.476	92.25
313.706	92.25
313.935	87.25
314.165	80.25
314.394	98.25
314.624	91.25
314.853	87.25
315.083	72.25
315.312	91.25
315.542	89.25
315.771	95.25
316.001	77.25
316.23	88.25
316.46	79.25
316.689	91.25
316.919	100.25
317.148	80.25
317.377	90.25
317.607	97.25
317.836	86.25
318.065	90.25
318.295	94.25
318.524	92.25
318.753	99.25
318.983	83.25
319.212	80.25
319.441	106.25
319.67	92.25
319.9	92.25
320.129	92.25
320.358	82.25
320.587	93.25
320.816	94.25
321.046	100.25
321.275	87.25
321.504	84.25
321.733	91.25
321.962	86.25
322.191	100.25
322.42	103.25
322.649	120.25
322.878	91.25
323.108	106.25
323.337	118.25
323.566	119.25
323.795	143.25
324.024	196.25
324.253	348.25
324.482	744.25
324.71	1560.25
324.939	2082.25
325.168	774.25
325.397	221.25
325.626	159.25
325.855	109.25
326.084	124.25
326.313	122.25
326.542	141.25
326.77	220.25
326.999	427.25
327.228	888.25
327.457	1611.25
327.686	1264.25
327.914	341.25
328.143	194.25
328.372	142.25
328.6	115.25
328.829	102.25
329.058	128.25
329.287	109.25
329.515	102.25
329.744	103.25
329.972	104.25
330.201	88.25
330.43	97.25
330.658	111.25
330.887	122.25
331.115	125.25
331.344	83.25
331.572	92.25
331.801	104.25
332.03	102.25
332.258	86.25
332.486	83.25
332.715	90.25
332.943	86.25
333.172	83.25
333.4	91.25
333.629	83.25
333.857	86.25
334.085	97.25
334.314	100.25
334.542	108.25
334.771	111.25
334.999	94.25
335.227	78.25
335.455	84.25
335.684	76.25
335.912	89.25
336.14	95.25
336.369	93.25
336.597	105.25
336.825	93.25
337.053	96.25
337.281	97.25
337.51	94.25
337.738	98.25
337.966	100.25
338.194	104.25
338.422	99.25
338.65	97.25
338.878	100.25
339.106	74.25
339.334	90.25
339.562	84.25
339.79	69.25
340.018	88.25
340.246	89.25
340.474	94.25
340.702	88.25
340.93	94.25
341.158	77.25
341.386	99.25
341.614	93.25
341.842	93.25
342.07	84.25
342.298	86.25
342.526	85.25
342.754	89.25
342.981	76.25
343.209	84.25
343.437	100.25
343.665	79.25
343.893	72.25
344.12	79.25
344.348	94.25
344.576	77.25
344.804	84.25
345.031	95.25
345.259	96.25
345.487	77.25
345.714	87.25
345.942	86.25
346.17	83.25
346.397	86.25
346.625	79.25
346.853	86.25
347.08	95.25
347.308	95.25
347.535	91.25
347.763	103.25
347.99	78.25
348.218	92.25
348.445	110.25
348.673	95.25
348.9	102.25
349.128	97.25
349.355	78.25
349.583	85.25
349.81	94.25
350.037	83.25
350.265	96.25
350.492	94.25
350.72	100.25
350.947	98.25
351.174	102.25
351.402	110.25
351.629	91.25
351.856	88.25
352.083	100.25
352.311	109.25
352.538	110.25
352.765	109.25
352.992	119.25
353.22	102.25
353.447	100.25
353.674	90.25
353.901	98.25
354.128	90.25
354.355	102.25
354.583	103.25
354.81	100.25
355.037	101.25
355.264	92.25
355.491	95.25
355.718	82.25
355.945	98.25
356.172	98.25
356.399	96.25
356.626	77.25
356.853	98.25
357.08	84.25
357.307	93.25
357.534	88.25
357.761	72.25
357.988	88.25
358.215	88.25
358.441	94.25
358.668	80.25
358.895	92.25
359.122	92.25
359.349	83.25
359.576	83.25
359.802	90.25
360.029	102.25
360.256	97.25
360.483	96.25
360.709	84.25
360.936	89.25
361.163	94.25
361.39	89.25
361.616	84.25
361.843	94.25
362.07	94.25
362.296	87.25
362.523	96.25
362.749	92.25
362.976	84.25
363.203	94.25
363.429	81.25
363.656	88.25
363.882	75.25
364.109	86.25
364.335	96.25
364.562	90.25
364.788	85.25
365.015	89.25
365.241	84.25
365.468	100.25
365.694	107.25
365.92	81.25
366.147	84.25
366.373	94.25
366.599	93.25
366.826	80.25
367.052	93.25
367.278	82.25
367.505	80.25
367.731	91.25
367.957	86.25
368.184	72.25
368.41	104.25
368.636	118.25
368.862	104.25
369.089	103.25
369.315	87.25
369.541	78.25
369.767	84.25
369.993	89.25
370.219	84.25
370.445	88.25
370.672	96.25
370.898	86.25
371.124	75.25
371.35	87.25
371.576	77.25
371.802	84.25
372.028	96.25
372.254	83.25
372.48	80.25
372.706	86.25
372.932	84.25
373.158	71.25
373.384	96.25
373.61	94.25
373.835	98.25
374.061	83.25
374.287	77.25
374.513	80.25
374.739	77.25
374.965	92.25
375.191	90.25
375.416	90.25
375.642	78.25
375.868	105.25
376.094	88.25
376.319	79.25
376.545	91.25
376.771	87.25
376.997	79.25
377.222	81.25
377.448	79.25
377.674	79.25
377.899	86.25
378.125	93.25
378.35	88.25
378.576	78.25
378.802	86.25
379.027	82.25
379.253	83.25
379.478	79.25
379.704	83.25
379.929	86.25
380.155	83.25
380.38	84.25
380.606	99.25
380.831	80.25
381.057	74.25
381.282	95.25
381.507	96.25
381.733	79.25
381.958	87.25
382.184	99.25
382.409	82.25
382.634	92.25
382.86	84.25
383.085	88.25
383.31	93.25
383.535	96.25
383.761	107.25
383.986	104.25
384.211	85.25
384.436	90.25
384.662	88.25
384.887	76.25
385.112	91.25
385.337	90.25
385.562	93.25
385.787	97.25
386.013	110.25
386.238	114.25
386.463	100.25
386.688	116.25
386.913	104.25
387.138	85.25
387.363	92.25
387.588	95.25
387.813	88.25
388.038	89.25
388.263	92.25
388.488	109.25
388.713	79.25
388.938	87.25
389.163	85.25
389.387	83.25
389.612	86.25
389.837	87.25
390.062	85.25
390.287	85.25
390.512	109.25
390.736	83.25
390.961	78.25
391.186	77.25
391.411	85.25
391.636	84.25
391.86	90.25
392.085	76.25
392.31	78.25
392.534	94.25
392.759	95.25
392.984	87.25
393.208	96.25
393.433	84.25
393.658	87.25
393.882	88.25
394.107	77.25
394.331	79.25
394.556	67.25
394.78	88.25
395.005	64.25
395.229	74.25
395.454	76.25
395.678	73.25
395.903	81.25
396.127	98.25
396.352	84.25
396.576	73.25
396.801	86.25
397.025	95.25
397.249	81.25
397.474	84.25
397.698	84.25
397.922	75.25
398.147	88.25
398.371	93.25
398.595	73.25
398.82	83.25
399.044	73.25
399.268	90.25
399.492	87.25
399.717	99.25
399.941	87.25
400.165	93.25
400.389	94.25
400.613	93.25
400.837	80.25
401.062	84.25
401.286	95.25
401.51	77.25
401.734	92.25
401.958	106.25
402.182	117.25
402.406	144.25
402.63	105.25
402.854	93.25
403.078	83.25
403.302	82.25
403.526	78.25
403.75	84.25
403.974	94.25
404.198	107.25
404.422	93.25
404.645	90.25
404.869	80.25
405.093	100.25
405.317	101.25
405.541	90.25
405.765	82.25
405.988	110.25
406.212	151.25
406.436	202.25
406.66	135.25
406.883	97.25
407.107	92.25
407.331	93.25
407.555	95.25
407.778	99.25
408.002	101.25
408.226	74.25
408.449	79.25
408.673	87.25
408.896	101.25
409.12	95.25
409.344	99.25
409.567	84.25
409.791	92.25
410.014	93.25
410.238	96.25
410.461	94.25
410.685	83.25
410.908	104.25
411.132	99.25
411.355	104.25
411.578	98.25
411.802	94.25
412.025	89.25
412.249	88.25
412.472	82.25
412.695	83.25
412.919	88.25
413.142	79.25
413.365	80.25
413.589	80.25
413.812	92.25
414.035	84.25
414.258	94.25
414.482	97.25
414.705	82.25
414.928	90.25
415.151	91.25
415.374	87.25
415.597	76.25
415.821	85.25
416.044	90.25
416.267	90.25
416.49	75.25
416.713	90.25
416.936	91.25
417.159	75.25
417.382	75.25
417.605	83.25
417.828	101.25
418.051	84.25
418.274	77.25
418.497	87.25
418.72	87.25
418.943	73.25
419.166	82.25
419.389	86.25
419.611	87.25
419.834	86.25
420.057	80.25
420.28	80.25
420.503	68.25
420.726	63.25
420.948	82.25
421.171	85.25
421.394	102.25
421.617	80.25
421.839	95.25
422.062	87.25
422.285	79.25
422.507	83.25
422.73	92.25
422.953	82.25
423.175	88.25
423.398	93.25
423.621	83.25
423.843	87.25
424.066	83.25
424.288	87.25
424.511	88.25
424.733	102.25
424.956	104.25
425.178	91.25
425.401	98.25
425.623	93.25
425.846	90.25
426.068	94.25
426.291	91.25
426.513	78.25
426.735	82.25
426.958	86.25
427.18	115.25
427.402	127.25
427.625	162.25
427.847	124.25
428.069	92.25
428.292	78.25
428.514	86.25
428.736	75.25
428.958	86.25
429.181	73.25
429.403	86.25
429.625	74.25
429.847	86.25
430.069	98.25
430.292	85.25
430.514	69.25
430.736	69.25
430.958	77.25
431.18	69.25
431.402	91.25
431.624	84.25
431.846	93.25
432.068	91.25
432.29	84.25
432.512	90.25
432.734	90.25
432.956	74.25
433.178	83.25
433.4	98.25
433.622	100.25
433.844	86.25
434.066	91.25
434.287	83.25
434.509	76.25
434.731	89.25
434.953	91.25
435.175	94.25
435.397	95.25
435.618	79.25
435.84	89.25
436.062	118.25
436.284	120.25
436.505	110.25
436.727	98.25
436.949	90.25
437.17	84.25
437.392	77.25
437.614	95.25
437.835	107.25
438.057	111.25
438.278	107.25
438.5	107.25
438.721	107.25
438.943	101.25
439.165	92.25
439.386	86.25
439.608	87.25
439.829	74.25
440.05	111.25
440.272	132.25
440.493	108.25
440.715	81.25
440.936	89.25
441.158	74.25
441.379	81.25
441.6	87.25
441.822	83.25
442.043	100.25
442.264	96.25
442.486	92.25
442.707	94.25
442.928	92.25
443.149	121.25
443.371	134.25
443.592	90.25
443.813	104.25
444.034	110.25
444.255	95.25
444.476	81.25
444.698	96.25
444.919	79.25
445.14	132.25
445.361	127.25
445.582	106.25
445.803	116.25
446.024	122.25
446.245	129.25
446.466	111.25
446.687	86.25
446.908	86.25
447.129	91.25
447.35	76.25
447.571	89.25
447.792	84.25
448.013	91.25
448.234	109.25
448.455	106.25
448.675	106.25
448.896	125.25
449.117	98.25
449.338	110.25
449.559	131.25
449.779	119.25
450	82.25
450.221	91.25
450.442	90.25
450.662	79.25
450.883	106.25
451.104	105.25
451.324	96.25
451.545	100.25
451.766	84.25
451.986	75.25
452.207	86.25
452.428	88.25
452.648	98.25
452.869	90.25
453.089	102.25
453.31	104.25
453.53	89.25
453.751	88.25
453.971	110.25
454.192	105.25
454.412	88.25
454.633	77.25
454.853	84.25
455.073	86.25
455.294	87.25
455.514	111.25
455.734	92.25
455.955	90.25
456.175	74.25
456.395	78.25
456.616	90.25
456.836	91.25
457.056	83.25
457.276	79.25
457.497	81.25
457.717	73.25
457.937	76.25
458.157	85.25
458.377	87.25
458.598	110.25
458.818	136.25
459.038	132.25
459.258	114.25
459.478	96.25
459.698	80.25
459.918	77.25
460.138	75.25
460.358	81.25
460.578	83.25
460.798	84.25
461.018	89.25
461.238	78.25
461.458	90.25
461.678	85.25
461.898	91.25
462.118	88.25
462.338	95.25
462.558	78.25
462.777	88.25
462.997	75.25
463.217	75.25
463.437	88.25
463.657	92.25
463.876	79.25
464.096	85.25
464.316	87.25
464.536	76.25
464.755	82.25
464.975	86.25
465.195	152.25
465.414	136.25
465.634	85.25
465.854	77.25
466.073	96.25
466.293	84.25
466.512	81.25
466.732	66.25
466.951	88.25
467.171	84.25
467.391	92.25
467.61	101.25
467.829	88.25
468.049	98.25
468.268	79.25
468.488	90.25
468.707	84.25
468.927	70.25
469.146	76.25
469.365	95.25
469.585	92.25
469.804	101.25
470.023	92.25
470.243	84.25
470.462	104.25
470.681	96.25
470.901	82.25
471.12	79.25
471.339	101.25
471.558	77.25
471.777	78.25
471.997	96.25
472.216	77.25
472.435	83.25
472.654	79.25
472.873	72.25
473.092	78.25
473.311	93.25
473.53	83.25
473.749	87.25
473.968	85.25
474.187	96.25
474.406	91.25
474.625	74.25
474.844	85.25
475.063	76.25
475.282	90.25
475.501	85.25
475.72	71.25
475.939	77.25
476.158	87.25
476.377	77.25
476.596	79.25
476.814	85.25
477.033	80.25
477.252	92.25
477.471	79.25
477.69	84.25
477.908	86.25
478.127	93.25
478.346	91.25
478.564	80.25
478.783	79.25
479.002	92.25
479.22	93.25
479.439	83.25
479.658	100.25
479.876	90.25
480.095	87.25
480.313	74.25
480.532	93.25
480.751	93.25
480.969	97.25
481.188	93.25
481.406	96.25
481.624	87.25
481.843	88.25
482.061	89.25
482.28	99.25
482.498	73.25
482.717	91.25
482.935	82.25
483.153	90.25
483.372	71.25
483.59	95.25
483.808	81.25
484.027	79.25
484.245	86.25
484.463	80.25
484.681	88.25
484.9	93.25
485.118	92.25
485.336	91.25
485.554	83.25
485.772	91.25
485.99	87.25
486.209	103.25
486.427	96.25
486.645	88.25
486.863	106.25
487.081	90.25
487.299	94.25
487.517	97.25
487.735	90.25
487.953	84.25
488.171	99.25
488.389	95.25
488.607	102.25
488.825	74.25
489.043	88.25
489.261	99.25
489.479	83.25
489.696	85.25
489.914	85.25
490.132	84.25
490.35	78.25
490.568	81.25
490.786	74.25
491.003	82.25
491.221	76.25
491.439	94.25
491.657	90.25
491.874	69.25
492.092	76.25
492.31	93.25
492.527	92.25
492.745	82.25
492.963	79.25
493.18	78.25
493.398	90.25
493.615	96.25
493.833	98.25
494.05	88.25
494.268	88.25
494.485	88.25
494.703	82.25
494.92	78.25
495.138	78.25
495.355	76.25
495.573	88.25
495.79	86.25
496.008	90.25
496.225	79.25
496.442	72.25
496.66	89.25
496.877	81.25
497.094	82.25
497.312	87.25
497.529	83.25
497.746	99.25
497.963	89.25
498.181	94.25
498.398	96.25
498.615	111.25
498.832	95.25
499.049	88.25
499.267	82.25
499.484	91.25
499.701	84.25
499.918	91.25
500.135	84.25
500.352	87.25
500.569	82.25
500.786	94.25
501.003	78.25
501.22	96.25
501.437	80.25
501.654	104.25
501.871	116.25
502.088	98.25
502.305	91.25
502.522	82.25
502.739	93.25
502.956	99.25
503.172	109.25
503.389	93.25
503.606	107.25
503.823	99.25
504.04	88.25
504.256	84.25
504.473	92.25
504.69	108.25
504.907	91.25
505.123	95.25
505.34	105.25
505.557	84.25
505.773	102.25
505.99	94.25
506.207	89.25
506.423	93.25
506.64	83.25
506.856	89.25
507.073	94.25
507.289	98.25
507.506	101.25
507.722	108.25
507.939	105.25
508.155	89.25
508.372	85.25
508.588	91.25
508.805	101.25
509.021	90.25
509.238	70.25
509.454	82.25
509.67	108.25
509.887	95.25
510.103	119.25
510.319	205.25
510.536	719.25
510.752	2200.25
510.968	605.25
511.184	140.25
511.401	108.25
511.617	86.25
511.833	108.25
512.049	99.25
512.265	91.25
512.481	91.25
512.698	88.25
512.914	86.25
513.13	89.25
513.346	83.25
513.562	76.25
513.778	98.25
513.994	90.25
514.21	90.25
514.426	119.25
514.642	119.25
514.858	116.25
515.074	136.25
515.29	424.25
515.506	1334.25
515.721	482.25
515.937	141.25
516.153	101.25
516.369	87.25
516.585	101.25
516.801	92.25
517.016	94.25
