Data from Uncirc_1996_H10_HRD10591_00023.txt Node
Date: Wed Jan 03 11:32:07 EST 2024
User: Yrep
Spectrometer: HR+D1059
Trigger mode: 1
Integration Time (sec): 1.000000E-1
Scans to average: 1
Electric dark correction enabled: true
Nonlinearity correction enabled: false
Boxcar width: 0
XAxis mode: Wavelengths
Number of Pixels in Spectrum: 2048
>>>>>Begin Spectral Data<<<<<
223.165	-28.5
223.4	-28.5
223.635	-28.5
223.869	-21.5
224.104	-5.5
224.338	-17.5
224.573	-11.5
224.808	-19.5
225.042	-3.5
225.277	-7.5
225.511	2.5
225.746	5.5
225.98	-2.5
226.215	12.5
226.449	21.5
226.683	22.5
226.918	28.5
227.152	24.5
227.387	25.5
227.621	45.5
227.856	42.5
228.09	51.5
228.324	50.5
228.559	62.5
228.793	69.5
229.027	74.5
229.262	82.5
229.496	86.5
229.73	75.5
229.964	79.5
230.199	78.5
230.433	88.5
230.667	93.5
230.901	78.5
231.136	83.5
231.37	72.5
231.604	76.5
231.838	74.5
232.072	87.5
232.306	74.5
232.541	83.5
232.775	76.5
233.009	85.5
233.243	99.5
233.477	80.5
233.711	79.5
233.945	100.5
234.179	84.5
234.413	78.5
234.647	88.5
234.881	73.5
235.115	90.5
235.349	88.5
235.583	68.5
235.817	90.5
236.051	78.5
236.285	70.5
236.519	61.5
236.753	78.5
236.987	74.5
237.221	75.5
237.455	69.5
237.689	83.5
237.922	93.5
238.156	80.5
238.39	81.5
238.624	65.5
238.858	74.5
239.091	76.5
239.325	81.5
239.559	88.5
239.793	102.5
240.027	93.5
240.26	71.5
240.494	90.5
240.728	88.5
240.961	77.5
241.195	81.5
241.429	73.5
241.662	82.5
241.896	96.5
242.13	74.5
242.363	71.5
242.597	83.5
242.83	85.5
243.064	82.5
243.298	90.5
243.531	79.5
243.765	77.5
243.998	83.5
244.232	85.5
244.465	95.5
244.699	78.5
244.932	81.5
245.166	79.5
245.399	84.5
245.633	85.5
245.866	76.5
246.099	66.5
246.333	72.5
246.566	83.5
246.8	77.5
247.033	82.5
247.266	83.5
247.5	64.5
247.733	77.5
247.966	90.5
248.2	89.5
248.433	75.5
248.666	88.5
248.899	100.5
249.133	93.5
249.366	98.5
249.599	102.5
249.832	73.5
250.066	84.5
250.299	81.5
250.532	85.5
250.765	75.5
250.998	87.5
251.231	92.5
251.465	82.5
251.698	93.5
251.931	93.5
252.164	69.5
252.397	106.5
252.63	90.5
252.863	60.5
253.096	88.5
253.329	97.5
253.562	77.5
253.795	83.5
254.028	88.5
254.261	77.5
254.494	80.5
254.727	86.5
254.96	78.5
255.193	88.5
255.426	94.5
255.659	84.5
255.892	83.5
256.124	87.5
256.357	87.5
256.59	93.5
256.823	78.5
257.056	87.5
257.289	90.5
257.521	81.5
257.754	78.5
257.987	86.5
258.22	85.5
258.452	92.5
258.685	92.5
258.918	80.5
259.151	67.5
259.383	88.5
259.616	86.5
259.849	76.5
260.081	84.5
260.314	83.5
260.547	89.5
260.779	88.5
261.012	84.5
261.244	78.5
261.477	85.5
261.71	93.5
261.942	117.5
262.175	108.5
262.407	93.5
262.64	92.5
262.872	91.5
263.105	102.5
263.337	86.5
263.57	73.5
263.802	89.5
264.035	91.5
264.267	80.5
264.499	96.5
264.732	84.5
264.964	84.5
265.197	75.5
265.429	84.5
265.661	92.5
265.894	88.5
266.126	90.5
266.358	82.5
266.591	91.5
266.823	92.5
267.055	91.5
267.287	78.5
267.52	85.5
267.752	81.5
267.984	82.5
268.216	90.5
268.448	88.5
268.681	73.5
268.913	92.5
269.145	88.5
269.377	69.5
269.609	93.5
269.841	94.5
270.073	87.5
270.306	98.5
270.538	83.5
270.77	92.5
271.002	99.5
271.234	82.5
271.466	101.5
271.698	87.5
271.93	90.5
272.162	89.5
272.394	97.5
272.626	80.5
272.858	86.5
273.09	89.5
273.322	77.5
273.553	76.5
273.785	85.5
274.017	78.5
274.249	83.5
274.481	88.5
274.713	90.5
274.945	76.5
275.176	101.5
275.408	93.5
275.64	95.5
275.872	79.5
276.104	75.5
276.335	91.5
276.567	94.5
276.799	101.5
277.031	87.5
277.262	90.5
277.494	86.5
277.726	77.5
277.957	92.5
278.189	88.5
278.421	95.5
278.652	90.5
278.884	95.5
279.115	88.5
279.347	94.5
279.579	89.5
279.81	78.5
280.042	91.5
280.273	87.5
280.505	92.5
280.736	91.5
280.968	87.5
281.199	90.5
281.431	80.5
281.662	90.5
281.894	97.5
282.125	93.5
282.356	116.5
282.588	124.5
282.819	120.5
283.051	93.5
283.282	91.5
283.513	94.5
283.745	89.5
283.976	93.5
284.207	87.5
284.439	90.5
284.67	88.5
284.901	92.5
285.132	86.5
285.364	99.5
285.595	86.5
285.826	76.5
286.057	65.5
286.288	79.5
286.52	75.5
286.751	87.5
286.982	81.5
287.213	99.5
287.444	86.5
287.675	84.5
287.906	87.5
288.138	86.5
288.369	92.5
288.6	101.5
288.831	97.5
289.062	85.5
289.293	93.5
289.524	79.5
289.755	85.5
289.986	79.5
290.217	69.5
290.448	86.5
290.679	93.5
290.91	91.5
291.141	93.5
291.371	92.5
291.602	75.5
291.833	74.5
292.064	88.5
292.295	94.5
292.526	100.5
292.757	76.5
292.987	96.5
293.218	81.5
293.449	84.5
293.68	77.5
293.91	92.5
294.141	89.5
294.372	85.5
294.603	97.5
294.833	93.5
295.064	87.5
295.295	93.5
295.525	81.5
295.756	92.5
295.987	109.5
296.217	124.5
296.448	99.5
296.679	102.5
296.909	107.5
297.14	101.5
297.37	91.5
297.601	97.5
297.831	92.5
298.062	92.5
298.292	99.5
298.523	96.5
298.753	90.5
298.984	94.5
299.214	84.5
299.445	105.5
299.675	90.5
299.905	102.5
300.136	72.5
300.366	89.5
300.597	77.5
300.827	94.5
301.057	95.5
301.288	93.5
301.518	97.5
301.748	80.5
301.979	106.5
302.209	95.5
302.439	102.5
302.669	95.5
302.9	92.5
303.13	100.5
303.36	92.5
303.59	109.5
303.82	120.5
304.051	92.5
304.281	89.5
304.511	95.5
304.741	105.5
304.971	97.5
305.201	106.5
305.431	103.5
305.661	93.5
305.891	97.5
306.121	93.5
306.352	93.5
306.582	80.5
306.812	92.5
307.042	83.5
307.272	95.5
307.502	93.5
307.731	96.5
307.961	96.5
308.191	91.5
308.421	96.5
308.651	81.5
308.881	94.5
309.111	93.5
309.341	98.5
309.571	105.5
309.8	86.5
310.03	95.5
310.26	101.5
310.49	108.5
310.72	94.5
310.949	96.5
311.179	106.5
311.409	85.5
311.639	99.5
311.868	103.5
312.098	107.5
312.328	108.5
312.557	105.5
312.787	110.5
313.017	107.5
313.246	108.5
313.476	86.5
313.706	90.5
313.935	98.5
314.165	92.5
314.394	100.5
314.624	90.5
314.853	105.5
315.083	98.5
315.312	97.5
315.542	93.5
315.771	98.5
316.001	82.5
316.23	88.5
316.46	105.5
316.689	97.5
316.919	86.5
317.148	79.5
317.377	94.5
317.607	101.5
317.836	79.5
318.065	83.5
318.295	91.5
318.524	93.5
318.753	101.5
318.983	101.5
319.212	117.5
319.441	98.5
319.67	97.5
319.9	107.5
320.129	94.5
320.358	93.5
320.587	120.5
320.816	104.5
321.046	94.5
321.275	85.5
321.504	100.5
321.733	92.5
321.962	92.5
322.191	93.5
322.42	102.5
322.649	112.5
322.878	100.5
323.108	107.5
323.337	128.5
323.566	150.5
323.795	138.5
324.024	182.5
324.253	350.5
324.482	700.5
324.71	1404.5
324.939	1882.5
325.168	702.5
325.397	217.5
325.626	140.5
325.855	117.5
326.084	115.5
326.313	119.5
326.542	149.5
326.77	204.5
326.999	396.5
327.228	816.5
327.457	1470.5
327.686	1172.5
327.914	354.5
328.143	184.5
328.372	176.5
328.6	132.5
328.829	118.5
329.058	123.5
329.287	114.5
329.515	109.5
329.744	98.5
329.972	112.5
330.201	97.5
330.43	111.5
330.658	109.5
330.887	134.5
331.115	120.5
331.344	114.5
331.572	90.5
331.801	100.5
332.03	106.5
332.258	100.5
332.486	94.5
332.715	91.5
332.943	95.5
333.172	107.5
333.4	104.5
333.629	102.5
333.857	114.5
334.085	98.5
334.314	95.5
334.542	93.5
334.771	97.5
334.999	81.5
335.227	98.5
335.455	101.5
335.684	90.5
335.912	96.5
336.14	94.5
336.369	92.5
336.597	96.5
336.825	88.5
337.053	89.5
337.281	90.5
337.51	92.5
337.738	97.5
337.966	116.5
338.194	125.5
338.422	134.5
338.65	108.5
338.878	104.5
339.106	97.5
339.334	91.5
339.562	93.5
339.79	100.5
340.018	91.5
340.246	102.5
340.474	102.5
340.702	95.5
340.93	106.5
341.158	99.5
341.386	111.5
341.614	106.5
341.842	99.5
342.07	91.5
342.298	96.5
342.526	90.5
342.754	111.5
342.981	84.5
343.209	88.5
343.437	110.5
343.665	109.5
343.893	92.5
344.12	107.5
344.348	95.5
344.576	112.5
344.804	88.5
345.031	89.5
345.259	96.5
345.487	94.5
345.714	89.5
345.942	108.5
346.17	99.5
346.397	90.5
346.625	95.5
346.853	86.5
347.08	96.5
347.308	97.5
347.535	105.5
347.763	99.5
347.99	117.5
348.218	105.5
348.445	103.5
348.673	108.5
348.9	88.5
349.128	89.5
349.355	102.5
349.583	95.5
349.81	105.5
350.037	101.5
350.265	98.5
350.492	101.5
350.72	106.5
350.947	101.5
351.174	107.5
351.402	105.5
351.629	104.5
351.856	94.5
352.083	99.5
352.311	103.5
352.538	126.5
352.765	119.5
352.992	104.5
353.22	101.5
353.447	112.5
353.674	97.5
353.901	103.5
354.128	110.5
354.355	99.5
354.583	89.5
354.81	87.5
355.037	99.5
355.264	95.5
355.491	85.5
355.718	102.5
355.945	87.5
356.172	91.5
356.399	85.5
356.626	106.5
356.853	99.5
357.08	94.5
357.307	88.5
357.534	97.5
357.761	97.5
357.988	89.5
358.215	107.5
358.441	91.5
358.668	81.5
358.895	94.5
359.122	103.5
359.349	87.5
359.576	96.5
359.802	94.5
360.029	120.5
360.256	111.5
360.483	91.5
360.709	97.5
360.936	100.5
361.163	107.5
361.39	95.5
361.616	96.5
361.843	98.5
362.07	113.5
362.296	96.5
362.523	90.5
362.749	85.5
362.976	99.5
363.203	95.5
363.429	105.5
363.656	97.5
363.882	80.5
364.109	106.5
364.335	96.5
364.562	99.5
364.788	88.5
365.015	99.5
365.241	96.5
365.468	104.5
365.694	105.5
365.92	100.5
366.147	88.5
366.373	104.5
366.599	90.5
366.826	78.5
367.052	95.5
367.278	94.5
367.505	88.5
367.731	108.5
367.957	106.5
368.184	83.5
368.41	104.5
368.636	110.5
368.862	117.5
369.089	101.5
369.315	92.5
369.541	94.5
369.767	92.5
369.993	90.5
370.219	80.5
370.445	95.5
370.672	88.5
370.898	96.5
371.124	87.5
371.35	94.5
371.576	104.5
371.802	85.5
372.028	97.5
372.254	89.5
372.48	90.5
372.706	91.5
372.932	92.5
373.158	91.5
373.384	102.5
373.61	97.5
373.835	72.5
374.061	93.5
374.287	112.5
374.513	86.5
374.739	90.5
374.965	96.5
375.191	99.5
375.416	103.5
375.642	95.5
375.868	79.5
376.094	96.5
376.319	98.5
376.545	87.5
376.771	76.5
376.997	106.5
377.222	102.5
377.448	94.5
377.674	98.5
377.899	83.5
378.125	96.5
378.35	96.5
378.576	98.5
378.802	97.5
379.027	97.5
379.253	90.5
379.478	92.5
379.704	98.5
379.929	94.5
380.155	83.5
380.38	85.5
380.606	107.5
380.831	101.5
381.057	106.5
381.282	108.5
381.507	105.5
381.733	94.5
381.958	109.5
382.184	99.5
382.409	96.5
382.634	90.5
382.86	92.5
383.085	106.5
383.31	83.5
383.535	97.5
383.761	97.5
383.986	98.5
384.211	112.5
384.436	92.5
384.662	105.5
384.887	109.5
385.112	95.5
385.337	99.5
385.562	114.5
385.787	108.5
386.013	112.5
386.238	112.5
386.463	113.5
386.688	88.5
386.913	106.5
387.138	101.5
387.363	104.5
387.588	102.5
387.813	92.5
388.038	115.5
388.263	126.5
388.488	110.5
388.713	108.5
388.938	88.5
389.163	102.5
389.387	97.5
389.612	110.5
389.837	99.5
390.062	98.5
390.287	106.5
390.512	101.5
390.736	106.5
390.961	107.5
391.186	103.5
391.411	101.5
391.636	96.5
391.86	86.5
392.085	81.5
392.31	78.5
392.534	84.5
392.759	85.5
392.984	90.5
393.208	113.5
393.433	110.5
393.658	107.5
393.882	109.5
394.107	92.5
394.331	98.5
394.556	83.5
394.78	84.5
395.005	84.5
395.229	94.5
395.454	91.5
395.678	94.5
395.903	89.5
396.127	94.5
396.352	84.5
396.576	87.5
396.801	95.5
397.025	107.5
397.249	94.5
397.474	109.5
397.698	91.5
397.922	85.5
398.147	82.5
398.371	98.5
398.595	84.5
398.82	106.5
399.044	91.5
399.268	83.5
399.492	100.5
399.717	96.5
399.941	92.5
400.165	106.5
400.389	102.5
400.613	76.5
400.837	97.5
401.062	95.5
401.286	93.5
401.51	96.5
401.734	91.5
401.958	90.5
402.182	116.5
402.406	122.5
402.63	101.5
402.854	94.5
403.078	85.5
403.302	91.5
403.526	100.5
403.75	94.5
403.974	78.5
404.198	93.5
404.422	88.5
404.645	88.5
404.869	104.5
405.093	92.5
405.317	91.5
405.541	104.5
405.765	107.5
405.988	116.5
406.212	160.5
406.436	193.5
406.66	129.5
406.883	102.5
407.107	86.5
407.331	93.5
407.555	99.5
407.778	87.5
408.002	92.5
408.226	80.5
408.449	96.5
408.673	96.5
408.896	94.5
409.12	86.5
409.344	89.5
409.567	96.5
409.791	94.5
410.014	102.5
410.238	110.5
410.461	92.5
410.685	96.5
410.908	97.5
411.132	97.5
411.355	87.5
411.578	95.5
411.802	85.5
412.025	102.5
412.249	86.5
412.472	102.5
412.695	93.5
412.919	84.5
413.142	105.5
413.365	97.5
413.589	94.5
413.812	83.5
414.035	86.5
414.258	106.5
414.482	82.5
414.705	105.5
414.928	90.5
415.151	81.5
415.374	84.5
415.597	86.5
415.821	89.5
416.044	72.5
416.267	78.5
416.49	95.5
416.713	94.5
416.936	88.5
417.159	76.5
417.382	91.5
417.605	88.5
417.828	100.5
418.051	102.5
418.274	92.5
418.497	92.5
418.72	85.5
418.943	83.5
419.166	87.5
419.389	93.5
419.611	101.5
419.834	92.5
420.057	76.5
420.28	78.5
420.503	76.5
420.726	81.5
420.948	74.5
421.171	92.5
421.394	95.5
421.617	95.5
421.839	115.5
422.062	92.5
422.285	92.5
422.507	107.5
422.73	104.5
422.953	95.5
423.175	94.5
423.398	87.5
423.621	94.5
423.843	96.5
424.066	93.5
424.288	95.5
424.511	102.5
424.733	101.5
424.956	117.5
425.178	96.5
425.401	100.5
425.623	104.5
425.846	87.5
426.068	93.5
426.291	89.5
426.513	98.5
426.735	92.5
426.958	98.5
427.18	100.5
427.402	133.5
427.625	146.5
427.847	111.5
428.069	90.5
428.292	82.5
428.514	75.5
428.736	83.5
428.958	79.5
429.181	95.5
429.403	99.5
429.625	102.5
429.847	92.5
430.069	103.5
430.292	101.5
430.514	96.5
430.736	101.5
430.958	96.5
431.18	84.5
431.402	88.5
431.624	92.5
431.846	87.5
432.068	92.5
432.29	85.5
432.512	87.5
432.734	90.5
432.956	88.5
433.178	102.5
433.4	108.5
433.622	96.5
433.844	99.5
434.066	106.5
434.287	92.5
434.509	87.5
434.731	101.5
434.953	94.5
435.175	85.5
435.397	102.5
435.618	106.5
435.84	117.5
436.062	129.5
436.284	107.5
436.505	93.5
436.727	112.5
436.949	91.5
437.17	95.5
437.392	98.5
437.614	112.5
437.835	105.5
438.057	112.5
438.278	102.5
438.5	110.5
438.721	124.5
438.943	109.5
439.165	94.5
439.386	93.5
439.608	91.5
439.829	98.5
440.05	121.5
440.272	122.5
440.493	101.5
440.715	89.5
440.936	93.5
441.158	99.5
441.379	76.5
441.6	103.5
441.822	90.5
442.043	82.5
442.264	104.5
442.486	105.5
442.707	97.5
442.928	115.5
443.149	131.5
443.371	118.5
443.592	99.5
443.813	113.5
444.034	109.5
444.255	93.5
444.476	92.5
444.698	90.5
444.919	97.5
445.14	124.5
445.361	126.5
445.582	124.5
445.803	137.5
446.024	124.5
446.245	138.5
446.466	108.5
446.687	97.5
446.908	99.5
447.129	88.5
447.35	93.5
447.571	88.5
447.792	97.5
448.013	99.5
448.234	88.5
448.455	99.5
448.675	108.5
448.896	118.5
449.117	95.5
449.338	102.5
449.559	130.5
449.779	142.5
450	95.5
450.221	80.5
450.442	88.5
450.662	85.5
450.883	101.5
451.104	116.5
451.324	86.5
451.545	93.5
451.766	100.5
451.986	85.5
452.207	86.5
452.428	91.5
452.648	89.5
452.869	110.5
453.089	108.5
453.31	115.5
453.53	94.5
453.751	95.5
453.971	107.5
454.192	92.5
454.412	95.5
454.633	85.5
454.853	88.5
455.073	96.5
455.294	89.5
455.514	104.5
455.734	92.5
455.955	87.5
456.175	88.5
456.395	90.5
456.616	99.5
456.836	81.5
457.056	94.5
457.276	92.5
457.497	91.5
457.717	92.5
457.937	93.5
458.157	92.5
458.377	93.5
458.598	104.5
458.818	146.5
459.038	146.5
459.258	110.5
459.478	104.5
459.698	94.5
459.918	89.5
460.138	92.5
460.358	104.5
460.578	82.5
460.798	81.5
461.018	73.5
461.238	76.5
461.458	99.5
461.678	78.5
461.898	102.5
462.118	90.5
462.338	84.5
462.558	87.5
462.777	78.5
462.997	88.5
463.217	92.5
463.437	82.5
463.657	87.5
463.876	95.5
464.096	85.5
464.316	89.5
464.536	85.5
464.755	85.5
464.975	94.5
465.195	152.5
465.414	128.5
465.634	91.5
465.854	78.5
466.073	86.5
466.293	98.5
466.512	81.5
466.732	74.5
466.951	84.5
467.171	98.5
467.391	101.5
467.61	88.5
467.829	98.5
468.049	93.5
468.268	74.5
468.488	80.5
468.707	77.5
468.927	88.5
469.146	85.5
469.365	84.5
469.585	102.5
469.804	91.5
470.023	80.5
470.243	92.5
470.462	94.5
470.681	114.5
470.901	95.5
471.12	86.5
471.339	83.5
471.558	91.5
471.777	85.5
471.997	86.5
472.216	106.5
472.435	95.5
472.654	84.5
472.873	82.5
473.092	84.5
473.311	90.5
473.53	99.5
473.749	97.5
473.968	112.5
474.187	94.5
474.406	111.5
474.625	91.5
474.844	87.5
475.063	86.5
475.282	84.5
475.501	104.5
475.72	99.5
475.939	95.5
476.158	91.5
476.377	87.5
476.596	101.5
476.814	90.5
477.033	89.5
477.252	87.5
477.471	92.5
477.69	88.5
477.908	107.5
478.127	101.5
478.346	81.5
478.564	91.5
478.783	93.5
479.002	82.5
479.22	96.5
479.439	100.5
479.658	102.5
479.876	106.5
480.095	88.5
480.313	98.5
480.532	95.5
480.751	85.5
480.969	90.5
481.188	102.5
481.406	81.5
481.624	86.5
481.843	83.5
482.061	87.5
482.28	91.5
482.498	85.5
482.717	80.5
482.935	94.5
483.153	92.5
483.372	110.5
483.59	91.5
483.808	104.5
484.027	94.5
484.245	91.5
484.463	92.5
484.681	97.5
484.9	97.5
485.118	90.5
485.336	118.5
485.554	99.5
485.772	91.5
485.99	91.5
486.209	93.5
486.427	114.5
486.645	109.5
486.863	104.5
487.081	97.5
487.299	109.5
487.517	97.5
487.735	97.5
487.953	82.5
488.171	79.5
488.389	106.5
488.607	113.5
488.825	99.5
489.043	94.5
489.261	86.5
489.479	86.5
489.696	96.5
489.914	99.5
490.132	90.5
490.35	93.5
490.568	86.5
490.786	80.5
491.003	84.5
491.221	91.5
491.439	88.5
491.657	78.5
491.874	82.5
492.092	95.5
492.31	92.5
492.527	83.5
492.745	92.5
492.963	87.5
493.18	98.5
493.398	97.5
493.615	95.5
493.833	99.5
494.05	92.5
494.268	94.5
494.485	97.5
494.703	99.5
494.92	82.5
495.138	88.5
495.355	91.5
495.573	88.5
495.79	101.5
496.008	89.5
496.225	100.5
496.442	95.5
496.66	89.5
496.877	96.5
497.094	102.5
497.312	103.5
497.529	70.5
497.746	108.5
497.963	99.5
498.181	90.5
498.398	88.5
498.615	102.5
498.832	104.5
499.049	92.5
499.267	94.5
499.484	89.5
499.701	78.5
499.918	91.5
500.135	101.5
500.352	108.5
500.569	107.5
500.786	97.5
501.003	85.5
501.22	99.5
501.437	86.5
501.654	94.5
501.871	106.5
502.088	89.5
502.305	107.5
502.522	94.5
502.739	84.5
502.956	90.5
503.172	98.5
503.389	99.5
503.606	116.5
503.823	93.5
504.04	96.5
504.256	77.5
504.473	87.5
504.69	95.5
504.907	117.5
505.123	108.5
505.34	95.5
505.557	104.5
505.773	90.5
505.99	89.5
506.207	89.5
506.423	95.5
506.64	72.5
506.856	92.5
507.073	93.5
507.289	77.5
507.506	92.5
507.722	104.5
507.939	107.5
508.155	107.5
508.372	86.5
508.588	90.5
508.805	100.5
509.021	93.5
509.238	82.5
509.454	106.5
509.67	93.5
509.887	94.5
510.103	112.5
510.319	195.5
510.536	607.5
510.752	1831.5
510.968	547.5
511.184	136.5
511.401	93.5
511.617	102.5
511.833	87.5
512.049	93.5
512.265	102.5
512.481	99.5
512.698	93.5
512.914	92.5
513.13	92.5
513.346	107.5
513.562	105.5
513.778	97.5
513.994	99.5
514.21	103.5
514.426	116.5
514.642	132.5
514.858	125.5
515.074	156.5
515.29	367.5
515.506	1154.5
515.721	428.5
515.937	141.5
516.153	110.5
516.369	95.5
516.585	109.5
516.801	86.5
517.016	88.5
517.232	89.5
517.448	91.5
517.664	107.5
517.879	94.5
518.095	96.5
518.311	98.5
518.527	91.5
518.742	93.5
518.958	87.5
519.173	83.5
519.389	116.5
519.605	114.5
519.82	99.5
520.036	96.5
520.251	115.5
520.467	105.5
520.682	107.5
520.898	104.5
521.113	116.5
521.329	124.5
521.544	194.5
521.76	458.5
521.975	1888.5
522.19	1162.5
522.406	247.5
522.621	122.5
522.836	96.5
523.052	105.5
523.267	95.5
523.482	99.5
523.698	97.5
523.913	110.5
524.128	102.5
524.343	105.5
524.559	103.5
524.774	110.5
524.989	94.5
525.204	92.5
525.419	106.5
525.634	102.5
525.849	109.5
526.064	104.5
526.28	91.5
526.495	80.5
526.71	92.5
526.925	84.5
527.14	89.5
527.355	97.5
527.57	87.5
527.785	95.5
527.999	95.5
528.214	84.5
528.429	109.5
528.644	101.5
528.859	84.5
529.074	102.5
529.289	100.5
529.503	149.5
529.718	101.5
529.933	106.5
530.148	80.5
530.363	100.5
530.577	94.5
530.792	106.5
531.007	95.5
531.221	85.5
531.436	97.5
531.651	93.5
531.865	82.5
532.08	93.5
532.295	96.5
532.509	102.5
532.724	93.5
532.938	95.5
533.153	93.5
533.367	97.5
533.582	89.5
533.796	101.5
534.011	85.5
534.225	92.5
