Data from Uncirc_1996_H10_HRD10591_00041.txt Node
Date: Wed Jan 03 11:32:10 EST 2024
User: Yrep
Spectrometer: HR+D1059
Trigger mode: 1
Integration Time (sec): 1.000000E-1
Scans to average: 1
Electric dark correction enabled: true
Nonlinearity correction enabled: false
Boxcar width: 0
XAxis mode: Wavelengths
Number of Pixels in Spectrum: 2048
>>>>>Begin Spectral Data<<<<<
223.165	-11.56
223.4	-11.56
223.635	-11.56
223.869	-15.56
224.104	-19.56
224.338	-4.56
224.573	-3.56
224.808	-7.56
225.042	-9.56
225.277	-9.56
225.511	-8.56
225.746	-6.56
225.98	-3.56
226.215	8.44
226.449	5.44
226.683	31.44
226.918	23.44
227.152	31.44
227.387	32.44
227.621	46.44
227.856	53.44
228.09	46.44
228.324	58.44
228.559	49.44
228.793	74.44
229.027	59.44
229.262	58.44
229.496	67.44
229.73	85.44
229.964	87.44
230.199	80.44
230.433	88.44
230.667	84.44
230.901	65.44
231.136	84.44
231.37	87.44
231.604	80.44
231.838	83.44
232.072	74.44
232.306	87.44
232.541	77.44
232.775	80.44
233.009	71.44
233.243	91.44
233.477	77.44
233.711	68.44
233.945	90.44
234.179	105.44
234.413	75.44
234.647	83.44
234.881	82.44
235.115	76.44
235.349	83.44
235.583	74.44
235.817	75.44
236.051	73.44
236.285	76.44
236.519	79.44
236.753	74.44
236.987	88.44
237.221	87.44
237.455	92.44
237.689	92.44
237.922	83.44
238.156	75.44
238.39	72.44
238.624	84.44
238.858	85.44
239.091	80.44
239.325	87.44
239.559	92.44
239.793	79.44
240.027	92.44
240.26	79.44
240.494	75.44
240.728	85.44
240.961	87.44
241.195	77.44
241.429	82.44
241.662	75.44
241.896	91.44
242.13	76.44
242.363	69.44
242.597	81.44
242.83	87.44
243.064	73.44
243.298	88.44
243.531	81.44
243.765	79.44
243.998	79.44
244.232	75.44
244.465	97.44
244.699	78.44
244.932	80.44
245.166	76.44
245.399	75.44
245.633	87.44
245.866	81.44
246.099	88.44
246.333	81.44
246.566	83.44
246.8	93.44
247.033	75.44
247.266	67.44
247.5	74.44
247.733	82.44
247.966	83.44
248.2	79.44
248.433	66.44
248.666	71.44
248.899	87.44
249.133	85.44
249.366	84.44
249.599	101.44
249.832	74.44
250.066	83.44
250.299	83.44
250.532	80.44
250.765	75.44
250.998	80.44
251.231	90.44
251.465	82.44
251.698	83.44
251.931	76.44
252.164	91.44
252.397	91.44
252.63	84.44
252.863	75.44
253.096	73.44
253.329	95.44
253.562	75.44
253.795	89.44
254.028	84.44
254.261	79.44
254.494	84.44
254.727	80.44
254.96	88.44
255.193	88.44
255.426	87.44
255.659	86.44
255.892	84.44
256.124	85.44
256.357	81.44
256.59	78.44
256.823	93.44
257.056	75.44
257.289	89.44
257.521	97.44
257.754	75.44
257.987	84.44
258.22	77.44
258.452	79.44
258.685	95.44
258.918	83.44
259.151	84.44
259.383	82.44
259.616	77.44
259.849	91.44
260.081	80.44
260.314	79.44
260.547	79.44
260.779	63.44
261.012	100.44
261.244	75.44
261.477	89.44
261.71	94.44
261.942	98.44
262.175	96.44
262.407	96.44
262.64	82.44
262.872	84.44
263.105	85.44
263.337	77.44
263.57	96.44
263.802	74.44
264.035	72.44
264.267	92.44
264.499	88.44
264.732	90.44
264.964	83.44
265.197	92.44
265.429	85.44
265.661	106.44
265.894	84.44
266.126	81.44
266.358	77.44
266.591	92.44
266.823	91.44
267.055	78.44
267.287	77.44
267.52	83.44
267.752	63.44
267.984	88.44
268.216	87.44
268.448	83.44
268.681	90.44
268.913	84.44
269.145	87.44
269.377	92.44
269.609	78.44
269.841	80.44
270.073	75.44
270.306	80.44
270.538	94.44
270.77	84.44
271.002	88.44
271.234	94.44
271.466	86.44
271.698	88.44
271.93	87.44
272.162	86.44
272.394	84.44
272.626	86.44
272.858	85.44
273.09	84.44
273.322	77.44
273.553	87.44
273.785	77.44
274.017	75.44
274.249	83.44
274.481	81.44
274.713	99.44
274.945	84.44
275.176	91.44
275.408	83.44
275.64	69.44
275.872	85.44
276.104	89.44
276.335	96.44
276.567	91.44
276.799	98.44
277.031	110.44
277.262	105.44
277.494	91.44
277.726	78.44
277.957	100.44
278.189	76.44
278.421	73.44
278.652	85.44
278.884	85.44
279.115	85.44
279.347	89.44
279.579	89.44
279.81	83.44
280.042	81.44
280.273	88.44
280.505	96.44
280.736	81.44
280.968	77.44
281.199	87.44
281.431	91.44
281.662	91.44
281.894	81.44
282.125	96.44
282.356	105.44
282.588	132.44
282.819	107.44
283.051	89.44
283.282	78.44
283.513	87.44
283.745	82.44
283.976	81.44
284.207	80.44
284.439	86.44
284.67	87.44
284.901	103.44
285.132	96.44
285.364	90.44
285.595	88.44
285.826	82.44
286.057	83.44
286.288	97.44
286.52	84.44
286.751	92.44
286.982	91.44
287.213	90.44
287.444	96.44
287.675	91.44
287.906	88.44
288.138	109.44
288.369	105.44
288.6	104.44
288.831	96.44
289.062	94.44
289.293	80.44
289.524	92.44
289.755	84.44
289.986	95.44
290.217	94.44
290.448	99.44
290.679	85.44
290.91	97.44
291.141	101.44
291.371	81.44
291.602	88.44
291.833	78.44
292.064	85.44
292.295	71.44
292.526	95.44
292.757	85.44
292.987	92.44
293.218	82.44
293.449	97.44
293.68	79.44
293.91	87.44
294.141	97.44
294.372	88.44
294.603	85.44
294.833	91.44
295.064	83.44
295.295	91.44
295.525	82.44
295.756	98.44
295.987	106.44
296.217	130.44
296.448	125.44
296.679	88.44
296.909	92.44
297.14	106.44
297.37	85.44
297.601	95.44
297.831	92.44
298.062	89.44
298.292	100.44
298.523	94.44
298.753	84.44
298.984	84.44
299.214	90.44
299.445	76.44
299.675	88.44
299.905	89.44
300.136	85.44
300.366	90.44
300.597	88.44
300.827	94.44
301.057	101.44
301.288	108.44
301.518	80.44
301.748	88.44
301.979	94.44
302.209	98.44
302.439	89.44
302.669	95.44
302.9	94.44
303.13	100.44
303.36	90.44
303.59	107.44
303.82	92.44
304.051	96.44
304.281	85.44
304.511	89.44
304.741	76.44
304.971	75.44
305.201	86.44
305.431	91.44
305.661	78.44
305.891	94.44
306.121	95.44
306.352	110.44
306.582	112.44
306.812	90.44
307.042	101.44
307.272	83.44
307.502	92.44
307.731	105.44
307.961	89.44
308.191	82.44
308.421	82.44
308.651	93.44
308.881	83.44
309.111	91.44
309.341	99.44
309.571	90.44
309.8	99.44
310.03	100.44
310.26	109.44
310.49	106.44
310.72	114.44
310.949	108.44
311.179	110.44
311.409	104.44
311.639	98.44
311.868	84.44
312.098	76.44
312.328	100.44
312.557	112.44
312.787	103.44
313.017	112.44
313.246	95.44
313.476	89.44
313.706	86.44
313.935	93.44
314.165	94.44
314.394	106.44
314.624	95.44
314.853	87.44
315.083	92.44
315.312	89.44
315.542	85.44
315.771	76.44
316.001	87.44
316.23	85.44
316.46	96.44
316.689	89.44
316.919	99.44
317.148	100.44
317.377	93.44
317.607	107.44
317.836	79.44
318.065	103.44
318.295	87.44
318.524	93.44
318.753	92.44
318.983	93.44
319.212	96.44
319.441	86.44
319.67	102.44
319.9	109.44
320.129	90.44
320.358	98.44
320.587	97.44
320.816	114.44
321.046	104.44
321.275	85.44
321.504	92.44
321.733	93.44
321.962	102.44
322.191	111.44
322.42	99.44
322.649	102.44
322.878	109.44
323.108	104.44
323.337	116.44
323.566	130.44
323.795	135.44
324.024	195.44
324.253	370.44
324.482	813.44
324.71	1650.44
324.939	2236.44
325.168	818.44
325.397	228.44
325.626	152.44
325.855	121.44
326.084	111.44
326.313	130.44
326.542	141.44
326.77	231.44
326.999	465.44
327.228	940.44
327.457	1744.44
327.686	1388.44
327.914	373.44
328.143	203.44
328.372	159.44
328.6	123.44
328.829	121.44
329.058	115.44
329.287	137.44
329.515	114.44
329.744	98.44
329.972	103.44
330.201	104.44
330.43	103.44
330.658	116.44
330.887	136.44
331.115	113.44
331.344	99.44
331.572	93.44
331.801	96.44
332.03	100.44
332.258	91.44
332.486	101.44
332.715	85.44
332.943	88.44
333.172	82.44
333.4	92.44
333.629	95.44
333.857	109.44
334.085	100.44
334.314	87.44
334.542	98.44
334.771	85.44
334.999	103.44
335.227	85.44
335.455	96.44
335.684	107.44
335.912	117.44
336.14	91.44
336.369	88.44
336.597	91.44
336.825	90.44
337.053	105.44
337.281	113.44
337.51	94.44
337.738	102.44
337.966	90.44
338.194	114.44
338.422	112.44
338.65	102.44
338.878	104.44
339.106	92.44
339.334	96.44
339.562	100.44
339.79	101.44
340.018	91.44
340.246	84.44
340.474	92.44
340.702	86.44
340.93	87.44
341.158	99.44
341.386	100.44
341.614	100.44
341.842	91.44
342.07	90.44
342.298	86.44
342.526	96.44
342.754	96.44
342.981	82.44
343.209	83.44
343.437	97.44
343.665	89.44
343.893	90.44
344.12	89.44
344.348	100.44
344.576	95.44
344.804	96.44
345.031	98.44
345.259	93.44
345.487	100.44
345.714	101.44
345.942	104.44
346.17	96.44
346.397	102.44
346.625	82.44
346.853	85.44
347.08	88.44
347.308	107.44
347.535	92.44
347.763	97.44
347.99	94.44
348.218	93.44
348.445	112.44
348.673	97.44
348.9	87.44
349.128	112.44
349.355	106.44
349.583	109.44
349.81	100.44
350.037	80.44
350.265	92.44
350.492	75.44
350.72	100.44
350.947	96.44
351.174	113.44
351.402	111.44
351.629	107.44
351.856	105.44
352.083	107.44
352.311	109.44
352.538	90.44
352.765	99.44
352.992	101.44
353.22	100.44
353.447	104.44
353.674	93.44
353.901	80.44
354.128	91.44
354.355	93.44
354.583	107.44
354.81	95.44
355.037	92.44
355.264	102.44
355.491	94.44
355.718	89.44
355.945	92.44
356.172	105.44
356.399	91.44
356.626	100.44
356.853	107.44
357.08	104.44
357.307	99.44
357.534	93.44
357.761	92.44
357.988	90.44
358.215	87.44
358.441	87.44
358.668	93.44
358.895	101.44
359.122	100.44
359.349	95.44
359.576	96.44
359.802	108.44
360.029	93.44
360.256	99.44
360.483	103.44
360.709	86.44
360.936	89.44
361.163	83.44
361.39	88.44
361.616	93.44
361.843	85.44
362.07	87.44
362.296	98.44
362.523	87.44
362.749	96.44
362.976	103.44
363.203	87.44
363.429	96.44
363.656	93.44
363.882	97.44
364.109	93.44
364.335	97.44
364.562	92.44
364.788	97.44
365.015	98.44
365.241	104.44
365.468	103.44
365.694	111.44
365.92	93.44
366.147	90.44
366.373	100.44
366.599	95.44
366.826	91.44
367.052	94.44
367.278	89.44
367.505	87.44
367.731	99.44
367.957	93.44
368.184	91.44
368.41	98.44
368.636	105.44
368.862	117.44
369.089	99.44
369.315	98.44
369.541	100.44
369.767	90.44
369.993	87.44
370.219	89.44
370.445	90.44
370.672	87.44
370.898	73.44
371.124	95.44
371.35	81.44
371.576	96.44
371.802	96.44
372.028	88.44
372.254	85.44
372.48	79.44
372.706	94.44
372.932	86.44
373.158	96.44
373.384	93.44
373.61	97.44
373.835	88.44
374.061	95.44
374.287	88.44
374.513	77.44
374.739	103.44
374.965	96.44
375.191	91.44
375.416	87.44
375.642	98.44
375.868	93.44
376.094	96.44
376.319	98.44
376.545	79.44
376.771	85.44
376.997	94.44
377.222	90.44
377.448	92.44
377.674	89.44
377.899	68.44
378.125	83.44
378.35	96.44
378.576	99.44
378.802	97.44
379.027	87.44
379.253	107.44
379.478	98.44
379.704	97.44
379.929	87.44
380.155	100.44
380.38	101.44
380.606	90.44
380.831	96.44
381.057	111.44
381.282	82.44
381.507	87.44
381.733	107.44
381.958	93.44
382.184	98.44
382.409	94.44
382.634	97.44
382.86	107.44
383.085	104.44
383.31	104.44
383.535	112.44
383.761	93.44
383.986	95.44
384.211	82.44
384.436	100.44
384.662	107.44
384.887	112.44
385.112	102.44
385.337	104.44
385.562	108.44
385.787	115.44
386.013	108.44
386.238	106.44
386.463	113.44
386.688	109.44
386.913	101.44
387.138	106.44
387.363	96.44
387.588	91.44
387.813	92.44
388.038	103.44
388.263	112.44
388.488	114.44
388.713	94.44
388.938	105.44
389.163	91.44
389.387	110.44
389.612	91.44
389.837	104.44
390.062	93.44
390.287	99.44
390.512	90.44
390.736	83.44
390.961	91.44
391.186	108.44
391.411	100.44
391.636	83.44
391.86	79.44
392.085	93.44
392.31	85.44
392.534	79.44
392.759	85.44
392.984	97.44
393.208	93.44
393.433	83.44
393.658	87.44
393.882	93.44
394.107	84.44
394.331	97.44
394.556	92.44
394.78	96.44
395.005	66.44
395.229	102.44
395.454	109.44
395.678	86.44
395.903	80.44
396.127	89.44
396.352	87.44
396.576	91.44
396.801	80.44
397.025	101.44
397.249	88.44
397.474	85.44
397.698	89.44
397.922	95.44
398.147	98.44
398.371	79.44
398.595	77.44
398.82	83.44
399.044	89.44
399.268	89.44
399.492	77.44
399.717	105.44
399.941	90.44
400.165	98.44
400.389	89.44
400.613	76.44
400.837	96.44
401.062	90.44
401.286	93.44
401.51	100.44
401.734	92.44
401.958	101.44
402.182	120.44
402.406	144.44
402.63	123.44
402.854	101.44
403.078	94.44
403.302	85.44
403.526	99.44
403.75	82.44
403.974	95.44
404.198	95.44
404.422	85.44
404.645	103.44
404.869	80.44
405.093	92.44
405.317	91.44
405.541	80.44
405.765	120.44
405.988	123.44
406.212	166.44
406.436	226.44
406.66	129.44
406.883	93.44
407.107	109.44
407.331	89.44
407.555	107.44
407.778	92.44
408.002	96.44
408.226	89.44
408.449	77.44
408.673	104.44
408.896	92.44
409.12	87.44
409.344	88.44
409.567	95.44
409.791	100.44
410.014	107.44
410.238	91.44
410.461	91.44
410.685	103.44
410.908	103.44
411.132	106.44
411.355	94.44
411.578	89.44
411.802	86.44
412.025	71.44
412.249	83.44
412.472	93.44
412.695	85.44
412.919	77.44
413.142	97.44
413.365	93.44
413.589	82.44
413.812	94.44
414.035	91.44
414.258	95.44
414.482	99.44
414.705	69.44
414.928	79.44
415.151	89.44
415.374	96.44
415.597	92.44
415.821	74.44
416.044	86.44
416.267	87.44
416.49	96.44
416.713	103.44
416.936	77.44
417.159	99.44
417.382	107.44
417.605	84.44
417.828	101.44
418.051	89.44
418.274	85.44
418.497	95.44
418.72	87.44
418.943	63.44
419.166	95.44
419.389	99.44
419.611	88.44
419.834	90.44
420.057	84.44
420.28	75.44
420.503	103.44
420.726	94.44
420.948	85.44
421.171	95.44
421.394	100.44
421.617	82.44
421.839	94.44
422.062	94.44
422.285	98.44
422.507	97.44
422.73	116.44
422.953	92.44
423.175	76.44
423.398	101.44
423.621	89.44
423.843	81.44
424.066	103.44
424.288	87.44
424.511	91.44
424.733	88.44
424.956	105.44
425.178	100.44
425.401	109.44
425.623	99.44
425.846	104.44
426.068	101.44
426.291	102.44
426.513	95.44
426.735	100.44
426.958	85.44
427.18	107.44
427.402	129.44
427.625	157.44
427.847	128.44
428.069	99.44
428.292	79.44
428.514	77.44
428.736	87.44
428.958	88.44
429.181	87.44
429.403	82.44
429.625	85.44
429.847	101.44
430.069	99.44
430.292	95.44
430.514	83.44
430.736	82.44
430.958	85.44
431.18	85.44
431.402	106.44
431.624	95.44
431.846	85.44
432.068	93.44
432.29	92.44
432.512	85.44
432.734	88.44
432.956	75.44
433.178	103.44
433.4	106.44
433.622	87.44
433.844	99.44
434.066	105.44
434.287	98.44
434.509	90.44
434.731	88.44
434.953	80.44
435.175	69.44
435.397	90.44
435.618	87.44
435.84	113.44
436.062	119.44
436.284	111.44
436.505	103.44
436.727	110.44
436.949	95.44
437.17	97.44
437.392	99.44
437.614	93.44
437.835	111.44
438.057	116.44
438.278	107.44
438.5	100.44
438.721	125.44
438.943	119.44
439.165	80.44
439.386	93.44
439.608	85.44
439.829	100.44
440.05	124.44
440.272	154.44
440.493	100.44
440.715	80.44
440.936	88.44
441.158	80.44
441.379	83.44
441.6	94.44
441.822	91.44
442.043	102.44
442.264	105.44
442.486	108.44
442.707	97.44
442.928	108.44
443.149	133.44
443.371	124.44
443.592	124.44
443.813	99.44
444.034	101.44
444.255	96.44
444.476	95.44
444.698	77.44
444.919	82.44
445.14	136.44
445.361	115.44
445.582	116.44
445.803	148.44
446.024	135.44
446.245	141.44
446.466	106.44
446.687	100.44
446.908	85.44
447.129	92.44
447.35	76.44
447.571	93.44
447.792	103.44
448.013	106.44
448.234	101.44
448.455	120.44
448.675	111.44
448.896	128.44
449.117	101.44
449.338	108.44
449.559	145.44
449.779	132.44
450	99.44
450.221	95.44
450.442	84.44
450.662	77.44
450.883	95.44
451.104	112.44
451.324	91.44
451.545	99.44
451.766	76.44
451.986	88.44
452.207	106.44
452.428	97.44
452.648	97.44
452.869	96.44
453.089	110.44
453.31	107.44
453.53	84.44
453.751	96.44
453.971	90.44
454.192	116.44
454.412	107.44
454.633	81.44
454.853	91.44
455.073	85.44
455.294	88.44
455.514	87.44
455.734	94.44
455.955	84.44
456.175	79.44
456.395	90.44
456.616	90.44
456.836	84.44
457.056	88.44
457.276	81.44
457.497	83.44
457.717	85.44
457.937	82.44
458.157	92.44
458.377	97.44
458.598	102.44
458.818	155.44
459.038	161.44
459.258	102.44
459.478	86.44
459.698	91.44
459.918	83.44
460.138	83.44
460.358	75.44
460.578	91.44
460.798	79.44
461.018	78.44
461.238	87.44
461.458	89.44
461.678	87.44
461.898	72.44
462.118	98.44
462.338	99.44
462.558	84.44
462.777	82.44
462.997	82.44
463.217	76.44
463.437	80.44
463.657	87.44
463.876	81.44
464.096	94.44
464.316	86.44
464.536	83.44
464.755	92.44
464.975	98.44
465.195	164.44
465.414	153.44
465.634	99.44
465.854	83.44
466.073	103.44
466.293	112.44
466.512	85.44
466.732	83.44
466.951	94.44
467.171	99.44
467.391	81.44
467.61	100.44
467.829	100.44
468.049	95.44
468.268	87.44
468.488	83.44
468.707	76.44
468.927	88.44
469.146	75.44
469.365	82.44
469.585	79.44
469.804	93.44
470.023	87.44
470.243	91.44
470.462	98.44
470.681	99.44
470.901	92.44
471.12	66.44
471.339	98.44
471.558	92.44
471.777	85.44
471.997	82.44
472.216	89.44
472.435	95.44
472.654	90.44
472.873	71.44
473.092	94.44
473.311	77.44
473.53	90.44
473.749	86.44
473.968	90.44
474.187	110.44
474.406	91.44
474.625	90.44
474.844	100.44
475.063	94.44
475.282	93.44
475.501	90.44
475.72	102.44
475.939	91.44
476.158	77.44
476.377	71.44
476.596	82.44
476.814	81.44
477.033	97.44
477.252	90.44
477.471	95.44
477.69	98.44
477.908	79.44
478.127	97.44
478.346	82.44
478.564	84.44
478.783	88.44
479.002	96.44
479.22	94.44
479.439	94.44
479.658	101.44
479.876	97.44
480.095	89.44
480.313	77.44
480.532	77.44
480.751	66.44
480.969	104.44
481.188	103.44
481.406	89.44
481.624	95.44
481.843	87.44
482.061	82.44
482.28	80.44
482.498	79.44
482.717	86.44
482.935	90.44
483.153	92.44
483.372	97.44
483.59	75.44
483.808	92.44
484.027	87.44
484.245	98.44
484.463	91.44
484.681	100.44
484.9	98.44
485.118	83.44
485.336	100.44
485.554	107.44
485.772	97.44
485.99	91.44
486.209	95.44
486.427	101.44
486.645	100.44
486.863	115.44
487.081	85.44
487.299	107.44
487.517	91.44
487.735	112.44
487.953	91.44
488.171	93.44
488.389	92.44
488.607	93.44
488.825	102.44
489.043	96.44
489.261	97.44
489.479	110.44
489.696	94.44
489.914	82.44
490.132	77.44
490.35	103.44
490.568	79.44
490.786	102.44
491.003	96.44
491.221	90.44
491.439	82.44
491.657	92.44
491.874	92.44
492.092	87.44
492.31	73.44
492.527	99.44
492.745	76.44
492.963	92.44
493.18	87.44
493.398	101.44
493.615	90.44
493.833	86.44
494.05	87.44
494.268	85.44
494.485	79.44
494.703	99.44
494.92	87.44
495.138	79.44
495.355	92.44
495.573	86.44
495.79	78.44
496.008	89.44
496.225	91.44
496.442	83.44
496.66	80.44
496.877	86.44
497.094	91.44
497.312	89.44
497.529	93.44
497.746	84.44
497.963	90.44
498.181	88.44
498.398	91.44
498.615	99.44
498.832	114.44
499.049	96.44
499.267	99.44
499.484	94.44
499.701	95.44
499.918	100.44
500.135	68.44
500.352	108.44
500.569	95.44
500.786	82.44
501.003	95.44
501.22	90.44
501.437	95.44
501.654	88.44
501.871	121.44
502.088	102.44
502.305	91.44
502.522	95.44
502.739	85.44
502.956	88.44
503.172	86.44
503.389	85.44
503.606	89.44
503.823	97.44
504.04	99.44
504.256	100.44
504.473	85.44
504.69	85.44
504.907	91.44
505.123	95.44
505.34	96.44
505.557	93.44
505.773	100.44
505.99	98.44
506.207	100.44
506.423	90.44
506.64	98.44
506.856	89.44
507.073	79.44
507.289	100.44
507.506	87.44
507.722	111.44
507.939	112.44
508.155	87.44
508.372	81.44
508.588	98.44
508.805	89.44
509.021	96.44
509.238	109.44
509.454	101.44
509.67	97.44
509.887	104.44
510.103	123.44
510.319	189.44
510.536	654.44
510.752	2121.44
510.968	570.44
511.184	154.44
511.401	109.44
511.617	104.44
511.833	93.44
512.049	101.44
512.265	88.44
512.481	93.44
512.698	101.44
512.914	93.44
513.13	82.44
513.346	91.44
513.562	91.44
513.778	90.44
513.994	101.44
514.21	106.44
514.426	112.44
514.642	123.44
514.858	114.44
515.074	164.44
515.29	410.44
