Data from Uncirc_1996_H10_HRD10591_00021.txt Node
Date: Wed Jan 03 11:32:06 EST 2024
User: Yrep
Spectrometer: HR+D1059
Trigger mode: 1
Integration Time (sec): 1.000000E-1
Scans to average: 1
Electric dark correction enabled: true
Nonlinearity correction enabled: false
Boxcar width: 0
XAxis mode: Wavelengths
Number of Pixels in Spectrum: 2048
>>>>>Begin Spectral Data<<<<<
223.165	-8.81
223.4	-8.81
223.635	-8.81
223.869	-20.81
224.104	-14.81
224.338	-12.81
224.573	-14.81
224.808	-19.81
225.042	-9.81
225.277	-10.81
225.511	9.19
225.746	4.19
225.98	0.19
226.215	9.19
226.449	15.19
226.683	6.19
226.918	40.19
227.152	28.19
227.387	41.19
227.621	27.19
227.856	46.19
228.09	55.19
228.324	54.19
228.559	59.19
228.793	48.19
229.027	56.19
229.262	64.19
229.496	74.19
229.73	75.19
229.964	77.19
230.199	69.19
230.433	68.19
230.667	88.19
230.901	72.19
231.136	75.19
231.37	85.19
231.604	83.19
231.838	89.19
232.072	90.19
232.306	88.19
232.541	85.19
232.775	86.19
233.009	92.19
233.243	82.19
233.477	73.19
233.711	75.19
233.945	80.19
234.179	76.19
234.413	88.19
234.647	94.19
234.881	71.19
235.115	84.19
235.349	83.19
235.583	79.19
235.817	81.19
236.051	79.19
236.285	78.19
236.519	76.19
236.753	77.19
236.987	78.19
237.221	93.19
237.455	78.19
237.689	87.19
237.922	78.19
238.156	80.19
238.39	90.19
238.624	94.19
238.858	87.19
239.091	77.19
239.325	93.19
239.559	75.19
239.793	92.19
240.027	77.19
240.26	89.19
240.494	74.19
240.728	80.19
240.961	75.19
241.195	82.19
241.429	87.19
241.662	79.19
241.896	76.19
242.13	84.19
242.363	90.19
242.597	78.19
242.83	95.19
243.064	88.19
243.298	64.19
243.531	78.19
243.765	82.19
243.998	81.19
244.232	80.19
244.465	91.19
244.699	84.19
244.932	89.19
245.166	69.19
245.399	85.19
245.633	92.19
245.866	81.19
246.099	72.19
246.333	66.19
246.566	83.19
246.8	92.19
247.033	66.19
247.266	70.19
247.5	73.19
247.733	82.19
247.966	93.19
248.2	76.19
248.433	89.19
248.666	91.19
248.899	91.19
249.133	85.19
249.366	102.19
249.599	93.19
249.832	81.19
250.066	87.19
250.299	78.19
250.532	79.19
250.765	81.19
250.998	79.19
251.231	78.19
251.465	91.19
251.698	84.19
251.931	84.19
252.164	85.19
252.397	82.19
252.63	85.19
252.863	89.19
253.096	76.19
253.329	69.19
253.562	76.19
253.795	93.19
254.028	78.19
254.261	90.19
254.494	80.19
254.727	78.19
254.96	80.19
255.193	88.19
255.426	83.19
255.659	89.19
255.892	81.19
256.124	84.19
256.357	89.19
256.59	85.19
256.823	80.19
257.056	72.19
257.289	82.19
257.521	91.19
257.754	80.19
257.987	92.19
258.22	90.19
258.452	78.19
258.685	75.19
258.918	75.19
259.151	95.19
259.383	70.19
259.616	86.19
259.849	76.19
260.081	90.19
260.314	83.19
260.547	78.19
260.779	80.19
261.012	86.19
261.244	100.19
261.477	86.19
261.71	104.19
261.942	95.19
262.175	103.19
262.407	78.19
262.64	90.19
262.872	87.19
263.105	77.19
263.337	99.19
263.57	85.19
263.802	76.19
264.035	87.19
264.267	92.19
264.499	90.19
264.732	100.19
264.964	98.19
265.197	77.19
265.429	104.19
265.661	80.19
265.894	97.19
266.126	95.19
266.358	92.19
266.591	81.19
266.823	70.19
267.055	78.19
267.287	78.19
267.52	86.19
267.752	83.19
267.984	92.19
268.216	92.19
268.448	97.19
268.681	93.19
268.913	89.19
269.145	86.19
269.377	92.19
269.609	90.19
269.841	78.19
270.073	78.19
270.306	75.19
270.538	91.19
270.77	98.19
271.002	86.19
271.234	88.19
271.466	90.19
271.698	72.19
271.93	73.19
272.162	92.19
272.394	96.19
272.626	86.19
272.858	90.19
273.09	82.19
273.322	86.19
273.553	73.19
273.785	84.19
274.017	82.19
274.249	81.19
274.481	89.19
274.713	86.19
274.945	86.19
275.176	75.19
275.408	85.19
275.64	101.19
275.872	104.19
276.104	74.19
276.335	89.19
276.567	90.19
276.799	92.19
277.031	90.19
277.262	98.19
277.494	99.19
277.726	99.19
277.957	80.19
278.189	81.19
278.421	96.19
278.652	85.19
278.884	96.19
279.115	92.19
279.347	97.19
279.579	92.19
279.81	84.19
280.042	77.19
280.273	94.19
280.505	91.19
280.736	84.19
280.968	90.19
281.199	97.19
281.431	92.19
281.662	76.19
281.894	90.19
282.125	89.19
282.356	112.19
282.588	128.19
282.819	106.19
283.051	92.19
283.282	91.19
283.513	98.19
283.745	92.19
283.976	88.19
284.207	77.19
284.439	94.19
284.67	89.19
284.901	103.19
285.132	83.19
285.364	91.19
285.595	73.19
285.826	91.19
286.057	92.19
286.288	77.19
286.52	84.19
286.751	93.19
286.982	93.19
287.213	85.19
287.444	90.19
287.675	76.19
287.906	70.19
288.138	113.19
288.369	88.19
288.6	81.19
288.831	107.19
289.062	92.19
289.293	96.19
289.524	96.19
289.755	90.19
289.986	70.19
290.217	83.19
290.448	79.19
290.679	94.19
290.91	88.19
291.141	92.19
291.371	90.19
291.602	88.19
291.833	93.19
292.064	94.19
292.295	103.19
292.526	103.19
292.757	88.19
292.987	101.19
293.218	92.19
293.449	89.19
293.68	98.19
293.91	96.19
294.141	102.19
294.372	98.19
294.603	79.19
294.833	99.19
295.064	92.19
295.295	101.19
295.525	84.19
295.756	101.19
295.987	99.19
296.217	120.19
296.448	110.19
296.679	101.19
296.909	91.19
297.14	87.19
297.37	97.19
297.601	88.19
297.831	96.19
298.062	109.19
298.292	98.19
298.523	81.19
298.753	104.19
298.984	88.19
299.214	94.19
299.445	93.19
299.675	84.19
299.905	86.19
300.136	99.19
300.366	84.19
300.597	73.19
300.827	91.19
301.057	91.19
301.288	97.19
301.518	112.19
301.748	90.19
301.979	101.19
302.209	101.19
302.439	93.19
302.669	93.19
302.9	84.19
303.13	87.19
303.36	107.19
303.59	104.19
303.82	102.19
304.051	89.19
304.281	86.19
304.511	91.19
304.741	87.19
304.971	94.19
305.201	85.19
305.431	75.19
305.661	98.19
305.891	80.19
306.121	89.19
306.352	96.19
306.582	104.19
306.812	100.19
307.042	86.19
307.272	112.19
307.502	102.19
307.731	81.19
307.961	97.19
308.191	97.19
308.421	91.19
308.651	100.19
308.881	92.19
309.111	94.19
309.341	112.19
309.571	89.19
309.8	108.19
310.03	94.19
310.26	109.19
310.49	99.19
310.72	100.19
310.949	114.19
311.179	99.19
311.409	88.19
311.639	110.19
311.868	92.19
312.098	112.19
312.328	115.19
312.557	104.19
312.787	106.19
313.017	105.19
313.246	103.19
313.476	82.19
313.706	84.19
313.935	93.19
314.165	100.19
314.394	102.19
314.624	109.19
314.853	98.19
315.083	92.19
315.312	95.19
315.542	93.19
315.771	88.19
316.001	95.19
316.23	101.19
316.46	93.19
316.689	100.19
316.919	105.19
317.148	93.19
317.377	113.19
317.607	99.19
317.836	85.19
318.065	89.19
318.295	89.19
318.524	105.19
318.753	96.19
318.983	92.19
319.212	93.19
319.441	113.19
319.67	114.19
319.9	97.19
320.129	94.19
320.358	81.19
320.587	100.19
320.816	105.19
321.046	90.19
321.275	96.19
321.504	96.19
321.733	88.19
321.962	102.19
322.191	115.19
322.42	99.19
322.649	100.19
322.878	108.19
323.108	113.19
323.337	124.19
323.566	115.19
323.795	134.19
324.024	188.19
324.253	326.19
324.482	705.19
324.71	1395.19
324.939	1827.19
325.168	661.19
325.397	189.19
325.626	148.19
325.855	121.19
326.084	135.19
326.313	132.19
326.542	139.19
326.77	204.19
326.999	383.19
327.228	811.19
327.457	1416.19
327.686	1155.19
327.914	342.19
328.143	222.19
328.372	173.19
328.6	132.19
328.829	122.19
329.058	132.19
329.287	125.19
329.515	109.19
329.744	109.19
329.972	97.19
330.201	91.19
330.43	94.19
330.658	109.19
330.887	124.19
331.115	103.19
331.344	93.19
331.572	97.19
331.801	106.19
332.03	93.19
332.258	91.19
332.486	96.19
332.715	86.19
332.943	84.19
333.172	97.19
333.4	94.19
333.629	110.19
333.857	114.19
334.085	95.19
334.314	101.19
334.542	93.19
334.771	95.19
334.999	100.19
335.227	96.19
335.455	97.19
335.684	99.19
335.912	94.19
336.14	97.19
336.369	103.19
336.597	99.19
336.825	102.19
337.053	101.19
337.281	92.19
337.51	89.19
337.738	93.19
337.966	94.19
338.194	128.19
338.422	117.19
338.65	111.19
338.878	100.19
339.106	82.19
339.334	92.19
339.562	92.19
339.79	97.19
340.018	89.19
340.246	84.19
340.474	96.19
340.702	102.19
340.93	88.19
341.158	104.19
341.386	93.19
341.614	95.19
341.842	85.19
342.07	90.19
342.298	96.19
342.526	82.19
342.754	98.19
342.981	78.19
343.209	90.19
343.437	94.19
343.665	92.19
343.893	96.19
344.12	79.19
344.348	102.19
344.576	107.19
344.804	89.19
345.031	103.19
345.259	103.19
345.487	100.19
345.714	90.19
345.942	90.19
346.17	89.19
346.397	79.19
346.625	87.19
346.853	97.19
347.08	93.19
347.308	89.19
347.535	102.19
347.763	107.19
347.99	101.19
348.218	95.19
348.445	102.19
348.673	91.19
348.9	101.19
349.128	96.19
349.355	96.19
349.583	102.19
349.81	86.19
350.037	96.19
350.265	103.19
350.492	92.19
350.72	96.19
350.947	93.19
351.174	112.19
351.402	109.19
351.629	105.19
351.856	108.19
352.083	102.19
352.311	110.19
352.538	112.19
352.765	84.19
352.992	106.19
353.22	113.19
353.447	92.19
353.674	93.19
353.901	107.19
354.128	95.19
354.355	101.19
354.583	99.19
354.81	94.19
355.037	109.19
355.264	103.19
355.491	87.19
355.718	92.19
355.945	98.19
356.172	115.19
356.399	92.19
356.626	93.19
356.853	95.19
357.08	91.19
357.307	88.19
357.534	94.19
357.761	104.19
357.988	100.19
358.215	96.19
358.441	94.19
358.668	96.19
358.895	101.19
359.122	94.19
359.349	97.19
359.576	101.19
359.802	103.19
360.029	110.19
360.256	117.19
360.483	83.19
360.709	99.19
360.936	87.19
361.163	100.19
361.39	86.19
361.616	97.19
361.843	93.19
362.07	83.19
362.296	103.19
362.523	84.19
362.749	97.19
362.976	89.19
363.203	92.19
363.429	97.19
363.656	98.19
363.882	83.19
364.109	96.19
364.335	86.19
364.562	99.19
364.788	88.19
365.015	97.19
365.241	95.19
365.468	98.19
365.694	90.19
365.92	88.19
366.147	90.19
366.373	105.19
366.599	93.19
366.826	93.19
367.052	97.19
367.278	101.19
367.505	91.19
367.731	92.19
367.957	82.19
368.184	100.19
368.41	102.19
368.636	117.19
368.862	118.19
369.089	113.19
369.315	98.19
369.541	83.19
369.767	93.19
369.993	102.19
370.219	96.19
370.445	98.19
370.672	85.19
370.898	88.19
371.124	88.19
371.35	91.19
371.576	92.19
371.802	86.19
372.028	91.19
372.254	82.19
372.48	94.19
372.706	91.19
372.932	84.19
373.158	87.19
373.384	87.19
373.61	81.19
373.835	91.19
374.061	100.19
374.287	86.19
374.513	88.19
374.739	78.19
374.965	78.19
375.191	85.19
375.416	97.19
375.642	94.19
375.868	98.19
376.094	92.19
376.319	80.19
376.545	98.19
376.771	100.19
376.997	96.19
377.222	89.19
377.448	96.19
377.674	88.19
377.899	79.19
378.125	93.19
378.35	84.19
378.576	88.19
378.802	68.19
379.027	92.19
379.253	81.19
379.478	94.19
379.704	94.19
379.929	85.19
380.155	93.19
380.38	87.19
380.606	89.19
380.831	106.19
381.057	92.19
381.282	101.19
381.507	90.19
381.733	109.19
381.958	94.19
382.184	95.19
382.409	95.19
382.634	102.19
382.86	95.19
383.085	104.19
383.31	77.19
383.535	102.19
383.761	101.19
383.986	93.19
384.211	93.19
384.436	111.19
384.662	91.19
384.887	82.19
385.112	109.19
385.337	99.19
385.562	100.19
385.787	110.19
386.013	105.19
386.238	110.19
386.463	96.19
386.688	100.19
386.913	112.19
387.138	112.19
387.363	93.19
387.588	98.19
387.813	100.19
388.038	104.19
388.263	115.19
388.488	115.19
388.713	98.19
388.938	101.19
389.163	102.19
389.387	112.19
389.612	103.19
389.837	94.19
390.062	88.19
390.287	92.19
390.512	100.19
390.736	95.19
390.961	86.19
391.186	104.19
391.411	85.19
391.636	96.19
391.86	93.19
392.085	69.19
392.31	96.19
392.534	96.19
392.759	77.19
392.984	93.19
393.208	90.19
393.433	98.19
393.658	83.19
393.882	99.19
394.107	85.19
394.331	94.19
394.556	92.19
394.78	90.19
395.005	83.19
395.229	80.19
395.454	78.19
395.678	86.19
395.903	77.19
396.127	94.19
396.352	94.19
396.576	83.19
396.801	93.19
397.025	90.19
397.249	99.19
397.474	77.19
397.698	89.19
397.922	97.19
398.147	85.19
398.371	81.19
398.595	88.19
398.82	84.19
399.044	81.19
399.268	95.19
399.492	87.19
399.717	91.19
399.941	98.19
400.165	92.19
400.389	99.19
400.613	97.19
400.837	89.19
401.062	99.19
401.286	98.19
401.51	94.19
401.734	88.19
401.958	97.19
402.182	121.19
402.406	141.19
402.63	107.19
402.854	92.19
403.078	100.19
403.302	88.19
403.526	89.19
403.75	93.19
403.974	85.19
404.198	100.19
404.422	90.19
404.645	100.19
404.869	93.19
405.093	91.19
405.317	96.19
405.541	99.19
405.765	97.19
405.988	100.19
406.212	140.19
406.436	179.19
406.66	125.19
406.883	101.19
407.107	102.19
407.331	107.19
407.555	99.19
407.778	92.19
408.002	86.19
408.226	86.19
408.449	84.19
408.673	69.19
408.896	87.19
409.12	106.19
409.344	90.19
409.567	83.19
409.791	102.19
410.014	95.19
410.238	86.19
410.461	106.19
410.685	100.19
410.908	104.19
411.132	110.19
411.355	104.19
411.578	102.19
411.802	82.19
412.025	88.19
412.249	86.19
412.472	96.19
412.695	92.19
412.919	82.19
413.142	83.19
413.365	92.19
413.589	101.19
413.812	96.19
414.035	86.19
414.258	101.19
414.482	99.19
414.705	105.19
414.928	116.19
415.151	96.19
415.374	86.19
415.597	93.19
415.821	104.19
416.044	92.19
416.267	80.19
416.49	89.19
416.713	85.19
416.936	84.19
417.159	80.19
417.382	82.19
417.605	99.19
417.828	104.19
418.051	98.19
418.274	91.19
418.497	88.19
418.72	76.19
418.943	80.19
419.166	84.19
419.389	90.19
419.611	94.19
419.834	90.19
420.057	77.19
420.28	83.19
420.503	85.19
420.726	86.19
420.948	81.19
421.171	97.19
421.394	99.19
421.617	88.19
421.839	88.19
422.062	83.19
422.285	108.19
422.507	102.19
422.73	94.19
422.953	110.19
423.175	89.19
423.398	99.19
423.621	90.19
423.843	97.19
424.066	86.19
424.288	96.19
424.511	96.19
424.733	100.19
424.956	112.19
425.178	114.19
425.401	95.19
425.623	106.19
425.846	106.19
426.068	93.19
426.291	106.19
426.513	83.19
426.735	94.19
426.958	99.19
427.18	95.19
427.402	136.19
427.625	147.19
427.847	119.19
428.069	94.19
428.292	92.19
428.514	95.19
428.736	88.19
428.958	72.19
429.181	90.19
429.403	94.19
429.625	99.19
429.847	102.19
430.069	89.19
430.292	81.19
430.514	75.19
430.736	91.19
430.958	81.19
431.18	83.19
431.402	93.19
431.624	90.19
431.846	94.19
432.068	95.19
432.29	81.19
432.512	88.19
432.734	93.19
432.956	102.19
433.178	99.19
433.4	93.19
433.622	82.19
433.844	105.19
434.066	90.19
434.287	90.19
434.509	85.19
434.731	110.19
434.953	86.19
435.175	105.19
435.397	96.19
435.618	98.19
435.84	107.19
436.062	118.19
436.284	106.19
436.505	96.19
436.727	97.19
436.949	102.19
437.17	100.19
437.392	82.19
437.614	102.19
437.835	100.19
438.057	108.19
438.278	96.19
438.5	102.19
438.721	129.19
438.943	92.19
439.165	101.19
439.386	84.19
439.608	84.19
439.829	100.19
440.05	121.19
440.272	127.19
440.493	98.19
440.715	97.19
440.936	85.19
441.158	100.19
441.379	98.19
441.6	106.19
441.822	85.19
442.043	99.19
442.264	93.19
442.486	83.19
442.707	91.19
442.928	105.19
443.149	114.19
443.371	131.19
443.592	98.19
443.813	112.19
444.034	107.19
444.255	92.19
444.476	83.19
444.698	98.19
444.919	86.19
445.14	141.19
445.361	122.19
445.582	114.19
445.803	140.19
446.024	121.19
446.245	130.19
446.466	105.19
446.687	87.19
446.908	75.19
447.129	85.19
447.35	103.19
447.571	103.19
447.792	102.19
448.013	90.19
448.234	91.19
448.455	115.19
448.675	108.19
448.896	113.19
449.117	87.19
449.338	101.19
449.559	118.19
449.779	124.19
450	98.19
450.221	94.19
450.442	87.19
450.662	102.19
450.883	113.19
451.104	110.19
451.324	99.19
451.545	96.19
451.766	85.19
451.986	83.19
452.207	101.19
452.428	88.19
452.648	92.19
452.869	118.19
453.089	106.19
453.31	111.19
453.53	88.19
453.751	85.19
453.971	107.19
454.192	106.19
454.412	77.19
454.633	82.19
454.853	93.19
455.073	99.19
455.294	90.19
455.514	97.19
455.734	96.19
455.955	96.19
456.175	94.19
456.395	92.19
456.616	95.19
456.836	101.19
457.056	87.19
457.276	93.19
457.497	89.19
457.717	79.19
457.937	77.19
458.157	90.19
458.377	88.19
458.598	98.19
458.818	132.19
459.038	139.19
459.258	104.19
459.478	88.19
459.698	86.19
459.918	100.19
460.138	98.19
460.358	84.19
460.578	89.19
460.798	105.19
461.018	88.19
461.238	94.19
461.458	79.19
461.678	86.19
461.898	95.19
462.118	90.19
462.338	96.19
462.558	82.19
462.777	97.19
462.997	97.19
463.217	93.19
463.437	108.19
463.657	80.19
463.876	70.19
464.096	81.19
464.316	89.19
464.536	87.19
464.755	93.19
464.975	93.19
465.195	141.19
465.414	144.19
465.634	102.19
465.854	82.19
466.073	102.19
466.293	80.19
466.512	86.19
466.732	103.19
466.951	101.19
467.171	93.19
467.391	90.19
467.61	94.19
467.829	94.19
468.049	83.19
468.268	94.19
468.488	80.19
468.707	84.19
468.927	93.19
469.146	76.19
469.365	98.19
469.585	89.19
469.804	94.19
470.023	108.19
470.243	91.19
470.462	93.19
470.681	99.19
470.901	85.19
471.12	77.19
471.339	82.19
471.558	90.19
471.777	89.19
471.997	106.19
472.216	98.19
472.435	84.19
472.654	88.19
472.873	94.19
473.092	92.19
473.311	93.19
473.53	85.19
473.749	83.19
473.968	90.19
474.187	104.19
474.406	93.19
474.625	78.19
474.844	79.19
475.063	91.19
475.282	94.19
475.501	94.19
475.72	77.19
475.939	81.19
476.158	97.19
476.377	95.19
476.596	77.19
476.814	98.19
477.033	82.19
477.252	103.19
477.471	78.19
477.69	90.19
477.908	103.19
478.127	104.19
478.346	94.19
478.564	92.19
478.783	97.19
479.002	79.19
479.22	89.19
479.439	88.19
479.658	93.19
479.876	92.19
480.095	83.19
480.313	99.19
480.532	101.19
480.751	100.19
480.969	98.19
481.188	89.19
481.406	107.19
481.624	100.19
481.843	78.19
482.061	103.19
482.28	99.19
482.498	85.19
482.717	97.19
482.935	97.19
483.153	101.19
483.372	89.19
483.59	88.19
483.808	97.19
484.027	93.19
484.245	91.19
484.463	83.19
484.681	86.19
484.9	97.19
485.118	99.19
485.336	87.19
485.554	96.19
485.772	106.19
485.99	116.19
486.209	109.19
486.427	113.19
486.645	97.19
486.863	107.19
487.081	115.19
487.299	88.19
487.517	94.19
487.735	92.19
487.953	95.19
488.171	106.19
488.389	99.19
488.607	93.19
488.825	100.19
489.043	113.19
489.261	90.19
489.479	96.19
489.696	84.19
489.914	92.19
490.132	101.19
490.35	83.19
490.568	88.19
490.786	93.19
491.003	89.19
491.221	94.19
491.439	98.19
491.657	101.19
491.874	90.19
492.092	88.19
492.31	83.19
492.527	95.19
492.745	105.19
492.963	96.19
493.18	99.19
493.398	101.19
493.615	99.19
493.833	87.19
494.05	80.19
494.268	87.19
494.485	95.19
494.703	86.19
494.92	91.19
495.138	104.19
495.355	107.19
495.573	109.19
495.79	100.19
496.008	100.19
496.225	93.19
496.442	78.19
496.66	91.19
496.877	96.19
497.094	78.19
497.312	102.19
497.529	94.19
497.746	84.19
497.963	97.19
498.181	99.19
498.398	93.19
498.615	98.19
498.832	103.19
499.049	95.19
499.267	100.19
499.484	102.19
499.701	99.19
499.918	90.19
500.135	89.19
500.352	98.19
500.569	86.19
500.786	89.19
501.003	93.19
501.22	88.19
501.437	99.19
501.654	80.19
501.871	100.19
502.088	81.19
502.305	108.19
502.522	101.19
502.739	98.19
502.956	87.19
503.172	92.19
503.389	93.19
503.606	91.19
503.823	107.19
504.04	82.19
504.256	97.19
504.473	82.19
504.69	99.19
504.907	100.19
505.123	100.19
505.34	83.19
505.557	105.19
505.773	89.19
505.99	110.19
506.207	105.19
506.423	94.19
506.64	93.19
506.856	83.19
507.073	81.19
507.289	94.19
507.506	112.19
507.722	110.19
507.939	117.19
508.155	99.19
508.372	100.19
508.588	91.19
508.805	100.19
509.021	88.19
509.238	99.19
509.454	98.19
509.67	87.19
509.887	117.19
510.103	120.19
510.319	195.19
510.536	597.19
510.752	1717.19
510.968	482.19
511.184	132.19
511.401	124.19
511.617	94.19
511.833	90.19
512.049	93.19
512.265	82.19
512.481	81.19
512.698	85.19
512.914	83.19
513.13	97.19
513.346	92.19
513.562	88.19
513.778	91.19
513.994	97.19
514.21	92.19
514.426	99.19
514.642	112.19
514.858	108.19
515.074	136.19
515.29	338.19
