Data from Uncirc_1996_H10_HRD10591_00045.txt Node
Date: Wed Jan 03 11:32:11 EST 2024
User: Yrep
Spectrometer: HR+D1059
Trigger mode: 1
Integration Time (sec): 1.000000E-1
Scans to average: 1
Electric dark correction enabled: true
Nonlinearity correction enabled: false
Boxcar width: 0
XAxis mode: Wavelengths
Number of Pixels in Spectrum: 2048
>>>>>Begin Spectral Data<<<<<
223.165	-13.12
223.4	-13.12
223.635	-13.12
223.869	-14.12
224.104	-34.12
224.338	-7.12
224.573	-10.12
224.808	1.88
225.042	-15.12
225.277	-1.12
225.511	-0.12
225.746	-9.12
225.98	-1.12
226.215	1.88
226.449	14.88
226.683	14.88
226.918	35.88
227.152	35.88
227.387	29.88
227.621	42.88
227.856	26.88
228.09	45.88
228.324	56.88
228.559	44.88
228.793	45.88
229.027	67.88
229.262	73.88
229.496	68.88
229.73	70.88
229.964	75.88
230.199	88.88
230.433	65.88
230.667	67.88
230.901	68.88
231.136	70.88
231.37	72.88
231.604	79.88
231.838	66.88
232.072	82.88
232.306	84.88
232.541	80.88
232.775	85.88
233.009	90.88
233.243	72.88
233.477	87.88
233.711	70.88
233.945	77.88
234.179	76.88
234.413	88.88
234.647	83.88
234.881	78.88
235.115	99.88
235.349	82.88
235.583	74.88
235.817	89.88
236.051	75.88
236.285	73.88
236.519	67.88
236.753	92.88
236.987	88.88
237.221	84.88
237.455	79.88
237.689	81.88
237.922	76.88
238.156	64.88
238.39	75.88
238.624	78.88
238.858	75.88
239.091	70.88
239.325	82.88
239.559	67.88
239.793	82.88
240.027	84.88
240.26	78.88
240.494	84.88
240.728	73.88
240.961	70.88
241.195	86.88
241.429	86.88
241.662	88.88
241.896	63.88
242.13	86.88
242.363	76.88
242.597	75.88
242.83	75.88
243.064	68.88
243.298	82.88
243.531	75.88
243.765	67.88
243.998	80.88
244.232	99.88
244.465	88.88
244.699	90.88
244.932	73.88
245.166	94.88
245.399	82.88
245.633	80.88
245.866	78.88
246.099	83.88
246.333	96.88
246.566	80.88
246.8	70.88
247.033	81.88
247.266	74.88
247.5	77.88
247.733	86.88
247.966	86.88
248.2	78.88
248.433	76.88
248.666	88.88
248.899	71.88
249.133	84.88
249.366	99.88
249.599	101.88
249.832	76.88
250.066	78.88
250.299	81.88
250.532	84.88
250.765	72.88
250.998	83.88
251.231	85.88
251.465	79.88
251.698	84.88
251.931	66.88
252.164	80.88
252.397	83.88
252.63	93.88
252.863	81.88
253.096	82.88
253.329	75.88
253.562	87.88
253.795	81.88
254.028	72.88
254.261	87.88
254.494	71.88
254.727	96.88
254.96	76.88
255.193	78.88
255.426	70.88
255.659	74.88
255.892	78.88
256.124	59.88
256.357	80.88
256.59	85.88
256.823	84.88
257.056	71.88
257.289	91.88
257.521	75.88
257.754	87.88
257.987	100.88
258.22	91.88
258.452	67.88
258.685	87.88
258.918	78.88
259.151	79.88
259.383	80.88
259.616	76.88
259.849	79.88
260.081	85.88
260.314	78.88
260.547	84.88
260.779	83.88
261.012	83.88
261.244	86.88
261.477	91.88
261.71	93.88
261.942	98.88
262.175	100.88
262.407	77.88
262.64	96.88
262.872	95.88
263.105	82.88
263.337	88.88
263.57	79.88
263.802	87.88
264.035	88.88
264.267	88.88
264.499	67.88
264.732	92.88
264.964	82.88
265.197	76.88
265.429	84.88
265.661	79.88
265.894	76.88
266.126	95.88
266.358	88.88
266.591	92.88
266.823	90.88
267.055	76.88
267.287	81.88
267.52	78.88
267.752	80.88
267.984	95.88
268.216	88.88
268.448	73.88
268.681	78.88
268.913	71.88
269.145	102.88
269.377	103.88
269.609	93.88
269.841	96.88
270.073	86.88
270.306	95.88
270.538	88.88
270.77	85.88
271.002	86.88
271.234	80.88
271.466	98.88
271.698	82.88
271.93	83.88
272.162	96.88
272.394	76.88
272.626	93.88
272.858	73.88
273.09	80.88
273.322	74.88
273.553	84.88
273.785	97.88
274.017	78.88
274.249	86.88
274.481	67.88
274.713	77.88
274.945	80.88
275.176	89.88
275.408	98.88
275.64	81.88
275.872	78.88
276.104	83.88
276.335	91.88
276.567	96.88
276.799	96.88
277.031	106.88
277.262	88.88
277.494	81.88
277.726	92.88
277.957	98.88
278.189	88.88
278.421	81.88
278.652	87.88
278.884	89.88
279.115	66.88
279.347	88.88
279.579	70.88
279.81	88.88
280.042	95.88
280.273	78.88
280.505	88.88
280.736	74.88
280.968	86.88
281.199	98.88
281.431	87.88
281.662	83.88
281.894	97.88
282.125	91.88
282.356	113.88
282.588	122.88
282.819	99.88
283.051	97.88
283.282	103.88
283.513	106.88
283.745	83.88
283.976	100.88
284.207	86.88
284.439	71.88
284.67	90.88
284.901	82.88
285.132	88.88
285.364	100.88
285.595	87.88
285.826	94.88
286.057	90.88
286.288	90.88
286.52	79.88
286.751	80.88
286.982	82.88
287.213	95.88
287.444	90.88
287.675	106.88
287.906	82.88
288.138	88.88
288.369	92.88
288.6	83.88
288.831	93.88
289.062	99.88
289.293	87.88
289.524	86.88
289.755	84.88
289.986	91.88
290.217	84.88
290.448	104.88
290.679	90.88
290.91	77.88
291.141	88.88
291.371	84.88
291.602	90.88
291.833	97.88
292.064	89.88
292.295	86.88
292.526	86.88
292.757	96.88
292.987	84.88
293.218	79.88
293.449	93.88
293.68	78.88
293.91	78.88
294.141	72.88
294.372	87.88
294.603	95.88
294.833	91.88
295.064	96.88
295.295	100.88
295.525	79.88
295.756	111.88
295.987	117.88
296.217	122.88
296.448	107.88
296.679	101.88
296.909	92.88
297.14	83.88
297.37	87.88
297.601	88.88
297.831	91.88
298.062	104.88
298.292	97.88
298.523	89.88
298.753	78.88
298.984	92.88
299.214	80.88
299.445	97.88
299.675	75.88
299.905	88.88
300.136	85.88
300.366	92.88
300.597	95.88
300.827	89.88
301.057	103.88
301.288	103.88
301.518	111.88
301.748	82.88
301.979	104.88
302.209	90.88
302.439	87.88
302.669	82.88
302.9	93.88
303.13	94.88
303.36	104.88
303.59	108.88
303.82	100.88
304.051	100.88
304.281	94.88
304.511	82.88
304.741	72.88
304.971	88.88
305.201	91.88
305.431	92.88
305.661	90.88
305.891	87.88
306.121	88.88
306.352	95.88
306.582	113.88
306.812	86.88
307.042	82.88
307.272	89.88
307.502	86.88
307.731	74.88
307.961	75.88
308.191	87.88
308.421	82.88
308.651	78.88
308.881	87.88
309.111	85.88
309.341	104.88
309.571	92.88
309.8	102.88
310.03	101.88
310.26	89.88
310.49	92.88
310.72	90.88
310.949	89.88
311.179	100.88
311.409	84.88
311.639	102.88
311.868	107.88
312.098	97.88
312.328	84.88
312.557	93.88
312.787	108.88
313.017	98.88
313.246	90.88
313.476	92.88
313.706	105.88
313.935	107.88
314.165	102.88
314.394	89.88
314.624	83.88
314.853	94.88
315.083	74.88
315.312	92.88
315.542	96.88
315.771	76.88
316.001	97.88
316.23	80.88
316.46	81.88
316.689	91.88
316.919	93.88
317.148	97.88
317.377	86.88
317.607	94.88
317.836	93.88
318.065	94.88
318.295	87.88
318.524	88.88
318.753	94.88
318.983	87.88
319.212	113.88
319.441	108.88
319.67	104.88
319.9	82.88
320.129	93.88
320.358	91.88
320.587	79.88
320.816	93.88
321.046	80.88
321.275	99.88
321.504	92.88
321.733	102.88
321.962	95.88
322.191	94.88
322.42	103.88
322.649	115.88
322.878	115.88
323.108	113.88
323.337	115.88
323.566	127.88
323.795	161.88
324.024	184.88
324.253	370.88
324.482	750.88
324.71	1523.88
324.939	1992.88
325.168	736.88
325.397	226.88
325.626	136.88
325.855	129.88
326.084	128.88
326.313	130.88
326.542	141.88
326.77	201.88
326.999	420.88
327.228	856.88
327.457	1598.88
327.686	1251.88
327.914	338.88
328.143	192.88
328.372	156.88
328.6	114.88
328.829	111.88
329.058	116.88
329.287	122.88
329.515	117.88
329.744	107.88
329.972	86.88
330.201	88.88
330.43	94.88
330.658	112.88
330.887	134.88
331.115	110.88
331.344	108.88
331.572	96.88
331.801	113.88
332.03	103.88
332.258	102.88
332.486	88.88
332.715	95.88
332.943	80.88
333.172	90.88
333.4	89.88
333.629	101.88
333.857	105.88
334.085	115.88
334.314	94.88
334.542	95.88
334.771	103.88
334.999	85.88
335.227	83.88
335.455	90.88
335.684	96.88
335.912	89.88
336.14	85.88
336.369	113.88
336.597	96.88
336.825	90.88
337.053	91.88
337.281	92.88
337.51	106.88
337.738	108.88
337.966	99.88
338.194	89.88
338.422	96.88
338.65	113.88
338.878	100.88
339.106	91.88
339.334	98.88
339.562	89.88
339.79	90.88
340.018	77.88
340.246	88.88
340.474	96.88
340.702	110.88
340.93	90.88
341.158	94.88
341.386	91.88
341.614	104.88
341.842	94.88
342.07	94.88
342.298	96.88
342.526	92.88
342.754	84.88
342.981	102.88
343.209	94.88
343.437	87.88
343.665	99.88
343.893	91.88
344.12	98.88
344.348	90.88
344.576	92.88
344.804	88.88
345.031	81.88
345.259	93.88
345.487	101.88
345.714	98.88
345.942	92.88
346.17	103.88
346.397	75.88
346.625	95.88
346.853	82.88
347.08	84.88
347.308	88.88
347.535	102.88
347.763	95.88
347.99	88.88
348.218	98.88
348.445	98.88
348.673	81.88
348.9	81.88
349.128	93.88
349.355	87.88
349.583	96.88
349.81	93.88
350.037	81.88
350.265	91.88
350.492	105.88
350.72	85.88
350.947	100.88
351.174	97.88
351.402	101.88
351.629	95.88
351.856	96.88
352.083	97.88
352.311	94.88
352.538	110.88
352.765	106.88
352.992	101.88
353.22	109.88
353.447	100.88
353.674	95.88
353.901	108.88
354.128	91.88
354.355	104.88
354.583	87.88
354.81	87.88
355.037	97.88
355.264	95.88
355.491	65.88
355.718	94.88
355.945	91.88
356.172	97.88
356.399	87.88
356.626	95.88
356.853	88.88
357.08	94.88
357.307	75.88
357.534	103.88
357.761	95.88
357.988	106.88
358.215	99.88
358.441	95.88
358.668	97.88
358.895	82.88
359.122	98.88
359.349	97.88
359.576	97.88
359.802	94.88
360.029	106.88
360.256	107.88
360.483	88.88
360.709	88.88
360.936	84.88
361.163	95.88
361.39	100.88
361.616	103.88
361.843	97.88
362.07	91.88
362.296	98.88
362.523	89.88
362.749	93.88
362.976	86.88
363.203	88.88
363.429	96.88
363.656	82.88
363.882	91.88
364.109	84.88
364.335	95.88
364.562	98.88
364.788	96.88
365.015	86.88
365.241	89.88
365.468	103.88
365.694	107.88
365.92	95.88
366.147	82.88
366.373	87.88
366.599	74.88
366.826	86.88
367.052	85.88
367.278	93.88
367.505	87.88
367.731	105.88
367.957	78.88
368.184	86.88
368.41	100.88
368.636	116.88
368.862	114.88
369.089	97.88
369.315	71.88
369.541	83.88
369.767	103.88
369.993	91.88
370.219	91.88
370.445	76.88
370.672	94.88
370.898	75.88
371.124	99.88
371.35	100.88
371.576	79.88
371.802	87.88
372.028	82.88
372.254	93.88
372.48	90.88
372.706	89.88
372.932	90.88
373.158	82.88
373.384	95.88
373.61	88.88
373.835	81.88
374.061	88.88
374.287	93.88
374.513	79.88
374.739	88.88
374.965	74.88
375.191	89.88
375.416	85.88
375.642	97.88
375.868	76.88
376.094	87.88
376.319	75.88
376.545	84.88
376.771	80.88
376.997	98.88
377.222	99.88
377.448	96.88
377.674	81.88
377.899	101.88
378.125	87.88
378.35	93.88
378.576	88.88
378.802	82.88
379.027	97.88
379.253	96.88
379.478	97.88
379.704	76.88
379.929	95.88
380.155	97.88
380.38	90.88
380.606	90.88
380.831	100.88
381.057	89.88
381.282	112.88
381.507	90.88
381.733	89.88
381.958	90.88
382.184	101.88
382.409	91.88
382.634	96.88
382.86	99.88
383.085	82.88
383.31	97.88
383.535	89.88
383.761	113.88
383.986	92.88
384.211	94.88
384.436	95.88
384.662	115.88
384.887	125.88
385.112	98.88
385.337	99.88
385.562	102.88
385.787	99.88
386.013	97.88
386.238	112.88
386.463	108.88
386.688	101.88
386.913	100.88
387.138	91.88
387.363	97.88
387.588	98.88
387.813	116.88
388.038	95.88
388.263	98.88
388.488	102.88
388.713	85.88
388.938	109.88
389.163	103.88
389.387	83.88
389.612	94.88
389.837	99.88
390.062	87.88
390.287	103.88
390.512	91.88
390.736	84.88
390.961	88.88
391.186	90.88
391.411	101.88
391.636	100.88
391.86	93.88
392.085	72.88
392.31	83.88
392.534	77.88
392.759	84.88
392.984	79.88
393.208	90.88
393.433	107.88
393.658	99.88
393.882	75.88
394.107	62.88
394.331	91.88
394.556	86.88
394.78	95.88
395.005	83.88
395.229	86.88
395.454	86.88
395.678	96.88
395.903	103.88
396.127	88.88
396.352	92.88
396.576	96.88
396.801	76.88
397.025	79.88
397.249	98.88
397.474	91.88
397.698	91.88
397.922	86.88
398.147	86.88
398.371	97.88
398.595	90.88
398.82	89.88
399.044	80.88
399.268	85.88
399.492	77.88
399.717	87.88
399.941	90.88
400.165	91.88
400.389	94.88
400.613	89.88
400.837	86.88
401.062	80.88
401.286	91.88
401.51	87.88
401.734	85.88
401.958	105.88
402.182	107.88
402.406	145.88
402.63	120.88
402.854	94.88
403.078	88.88
403.302	90.88
403.526	76.88
403.75	90.88
403.974	82.88
404.198	83.88
404.422	81.88
404.645	98.88
404.869	87.88
405.093	103.88
405.317	100.88
405.541	92.88
405.765	96.88
405.988	106.88
406.212	141.88
406.436	214.88
406.66	135.88
406.883	105.88
407.107	106.88
407.331	104.88
407.555	98.88
407.778	97.88
408.002	99.88
408.226	87.88
408.449	91.88
408.673	76.88
408.896	76.88
409.12	89.88
409.344	85.88
409.567	87.88
409.791	81.88
410.014	99.88
410.238	99.88
410.461	83.88
410.685	86.88
410.908	108.88
411.132	122.88
411.355	98.88
411.578	90.88
411.802	82.88
412.025	90.88
412.249	102.88
412.472	95.88
412.695	79.88
412.919	76.88
413.142	88.88
413.365	86.88
413.589	86.88
413.812	83.88
414.035	94.88
414.258	88.88
414.482	102.88
414.705	86.88
414.928	90.88
415.151	95.88
415.374	90.88
415.597	74.88
415.821	83.88
416.044	91.88
416.267	87.88
416.49	91.88
416.713	100.88
416.936	99.88
417.159	97.88
417.382	98.88
417.605	82.88
417.828	100.88
418.051	87.88
418.274	77.88
418.497	65.88
418.72	86.88
418.943	82.88
419.166	90.88
419.389	91.88
419.611	84.88
419.834	94.88
420.057	80.88
420.28	91.88
420.503	88.88
420.726	80.88
420.948	89.88
421.171	82.88
421.394	94.88
421.617	94.88
421.839	74.88
422.062	91.88
422.285	97.88
422.507	93.88
422.73	100.88
422.953	94.88
423.175	91.88
423.398	90.88
423.621	89.88
423.843	93.88
424.066	92.88
424.288	81.88
424.511	70.88
424.733	115.88
424.956	106.88
425.178	101.88
425.401	82.88
425.623	104.88
425.846	90.88
426.068	91.88
426.291	97.88
426.513	111.88
426.735	89.88
426.958	98.88
427.18	110.88
427.402	134.88
427.625	167.88
427.847	127.88
428.069	84.88
428.292	75.88
428.514	67.88
428.736	95.88
428.958	89.88
429.181	96.88
429.403	70.88
429.625	95.88
429.847	87.88
430.069	97.88
430.292	96.88
430.514	84.88
430.736	73.88
430.958	89.88
431.18	83.88
431.402	82.88
431.624	75.88
431.846	82.88
432.068	92.88
432.29	72.88
432.512	86.88
432.734	86.88
432.956	84.88
433.178	82.88
433.4	120.88
433.622	107.88
433.844	84.88
434.066	95.88
434.287	80.88
434.509	84.88
434.731	81.88
434.953	83.88
435.175	79.88
435.397	89.88
435.618	91.88
435.84	104.88
436.062	127.88
436.284	111.88
436.505	108.88
436.727	99.88
436.949	87.88
437.17	89.88
437.392	88.88
437.614	90.88
437.835	102.88
438.057	105.88
438.278	95.88
438.5	107.88
438.721	126.88
438.943	74.88
439.165	93.88
439.386	76.88
439.608	98.88
439.829	85.88
440.05	105.88
440.272	131.88
440.493	97.88
440.715	107.88
440.936	94.88
441.158	76.88
441.379	82.88
441.6	81.88
441.822	84.88
442.043	98.88
442.264	99.88
442.486	89.88
442.707	98.88
442.928	102.88
443.149	136.88
443.371	123.88
443.592	111.88
443.813	101.88
444.034	120.88
444.255	98.88
444.476	99.88
444.698	97.88
444.919	89.88
445.14	120.88
445.361	123.88
445.582	132.88
445.803	138.88
446.024	142.88
446.245	140.88
446.466	119.88
446.687	110.88
446.908	86.88
447.129	86.88
447.35	93.88
447.571	90.88
447.792	94.88
448.013	101.88
448.234	97.88
448.455	97.88
448.675	117.88
448.896	114.88
449.117	102.88
449.338	103.88
449.559	123.88
449.779	124.88
450	91.88
450.221	86.88
450.442	88.88
450.662	95.88
450.883	99.88
451.104	104.88
451.324	98.88
451.545	92.88
451.766	87.88
451.986	97.88
452.207	98.88
452.428	79.88
452.648	82.88
452.869	107.88
453.089	103.88
453.31	113.88
453.53	92.88
453.751	86.88
453.971	104.88
454.192	96.88
454.412	90.88
454.633	84.88
454.853	81.88
455.073	97.88
455.294	84.88
455.514	101.88
455.734	84.88
455.955	94.88
456.175	84.88
456.395	80.88
456.616	68.88
456.836	73.88
457.056	83.88
457.276	83.88
457.497	80.88
457.717	83.88
457.937	78.88
458.157	79.88
458.377	90.88
458.598	103.88
458.818	153.88
459.038	150.88
459.258	99.88
459.478	95.88
459.698	88.88
459.918	79.88
460.138	96.88
460.358	82.88
460.578	92.88
460.798	92.88
461.018	97.88
461.238	74.88
461.458	95.88
461.678	81.88
461.898	97.88
462.118	88.88
462.338	90.88
462.558	79.88
462.777	81.88
462.997	94.88
463.217	77.88
463.437	94.88
463.657	91.88
463.876	93.88
464.096	100.88
464.316	103.88
464.536	82.88
464.755	96.88
464.975	95.88
465.195	161.88
465.414	154.88
465.634	91.88
465.854	73.88
466.073	102.88
466.293	96.88
466.512	79.88
466.732	86.88
466.951	79.88
467.171	92.88
467.391	93.88
467.61	101.88
467.829	87.88
468.049	89.88
468.268	84.88
468.488	86.88
468.707	82.88
468.927	85.88
469.146	86.88
469.365	84.88
469.585	78.88
469.804	88.88
470.023	100.88
470.243	95.88
470.462	100.88
470.681	112.88
470.901	97.88
471.12	83.88
471.339	95.88
471.558	94.88
471.777	102.88
471.997	90.88
472.216	79.88
472.435	104.88
472.654	86.88
472.873	79.88
473.092	88.88
473.311	97.88
473.53	79.88
473.749	83.88
473.968	105.88
474.187	104.88
474.406	100.88
474.625	100.88
474.844	95.88
475.063	87.88
475.282	84.88
475.501	99.88
475.72	91.88
475.939	89.88
476.158	86.88
476.377	84.88
476.596	78.88
476.814	101.88
477.033	86.88
477.252	98.88
477.471	77.88
477.69	92.88
477.908	86.88
478.127	88.88
478.346	89.88
478.564	90.88
478.783	94.88
479.002	100.88
479.22	73.88
479.439	95.88
479.658	107.88
479.876	92.88
480.095	80.88
480.313	99.88
480.532	73.88
480.751	78.88
480.969	96.88
481.188	104.88
481.406	97.88
481.624	91.88
481.843	78.88
482.061	87.88
482.28	87.88
482.498	96.88
482.717	82.88
482.935	90.88
483.153	76.88
483.372	86.88
483.59	68.88
483.808	83.88
484.027	86.88
484.245	77.88
484.463	98.88
484.681	103.88
484.9	80.88
485.118	105.88
485.336	99.88
485.554	104.88
485.772	107.88
485.99	102.88
486.209	103.88
486.427	102.88
486.645	93.88
486.863	111.88
487.081	98.88
487.299	91.88
487.517	97.88
487.735	95.88
487.953	94.88
488.171	80.88
488.389	92.88
488.607	65.88
488.825	90.88
489.043	81.88
489.261	90.88
489.479	91.88
489.696	103.88
489.914	89.88
490.132	82.88
490.35	80.88
490.568	85.88
490.786	81.88
491.003	89.88
491.221	75.88
491.439	83.88
491.657	97.88
491.874	92.88
492.092	100.88
492.31	87.88
492.527	90.88
492.745	73.88
492.963	97.88
493.18	91.88
493.398	99.88
493.615	85.88
493.833	88.88
494.05	94.88
494.268	90.88
494.485	91.88
494.703	85.88
494.92	88.88
495.138	88.88
495.355	96.88
495.573	95.88
495.79	76.88
496.008	80.88
496.225	99.88
496.442	69.88
496.66	86.88
496.877	94.88
497.094	95.88
497.312	81.88
497.529	83.88
497.746	92.88
497.963	79.88
498.181	98.88
498.398	99.88
498.615	90.88
498.832	101.88
499.049	89.88
499.267	82.88
499.484	102.88
499.701	81.88
499.918	74.88
500.135	95.88
500.352	92.88
500.569	96.88
500.786	92.88
501.003	76.88
501.22	80.88
501.437	114.88
501.654	88.88
501.871	100.88
502.088	97.88
502.305	93.88
502.522	87.88
502.739	90.88
502.956	82.88
503.172	84.88
503.389	84.88
503.606	94.88
503.823	90.88
504.04	100.88
504.256	103.88
504.473	94.88
504.69	94.88
504.907	97.88
505.123	77.88
505.34	89.88
505.557	89.88
505.773	96.88
505.99	100.88
506.207	97.88
506.423	88.88
506.64	105.88
506.856	99.88
507.073	86.88
507.289	82.88
507.506	85.88
507.722	95.88
507.939	106.88
508.155	95.88
508.372	90.88
508.588	83.88
508.805	86.88
509.021	101.88
509.238	102.88
509.454	95.88
509.67	92.88
509.887	106.88
510.103	131.88
510.319	187.88
510.536	666.88
510.752	2055.88
510.968	546.88
511.184	142.88
511.401	115.88
511.617	103.88
511.833	96.88
512.049	112.88
512.265	88.88
512.481	82.88
512.698	93.88
512.914	95.88
513.13	93.88
513.346	90.88
513.562	88.88
513.778	89.88
513.994	103.88
514.21	102.88
514.426	104.88
514.642	138.88
514.858	115.88
515.074	148.88
515.29	393.88
515.506	1264.88
515.721	480.88
515.937	154.88
516.153	109.88
