Data from Uncirc_1996_H10_HRD10591_00067.txt Node
Date: Wed Jan 03 11:32:15 EST 2024
User: Yrep
Spectrometer: HR+D1059
Trigger mode: 1
Integration Time (sec): 1.000000E-1
Scans to average: 1
Electric dark correction enabled: true
Nonlinearity correction enabled: false
Boxcar width: 0
XAxis mode: Wavelengths
Number of Pixels in Spectrum: 2048
>>>>>Begin Spectral Data<<<<<
223.165	-11.12
223.4	-11.12
223.635	-11.12
223.869	-26.12
224.104	-6.12
224.338	-19.12
224.573	-4.12
224.808	-14.12
225.042	-1.12
225.277	-3.12
225.511	-9.12
225.746	-5.12
225.98	12.88
226.215	-0.12
226.449	10.88
226.683	13.88
226.918	17.88
227.152	43.88
227.387	36.88
227.621	35.88
227.856	55.88
228.09	43.88
228.324	34.88
228.559	57.88
228.793	60.88
229.027	56.88
229.262	59.88
229.496	70.88
229.73	74.88
229.964	81.88
230.199	70.88
230.433	73.88
230.667	53.88
230.901	78.88
231.136	86.88
231.37	71.88
231.604	68.88
231.838	88.88
232.072	79.88
232.306	69.88
232.541	63.88
232.775	74.88
233.009	87.88
233.243	81.88
233.477	79.88
233.711	63.88
233.945	78.88
234.179	77.88
234.413	95.88
234.647	71.88
234.881	69.88
235.115	89.88
235.349	96.88
235.583	76.88
235.817	72.88
236.051	57.88
236.285	64.88
236.519	77.88
236.753	80.88
236.987	83.88
237.221	89.88
237.455	101.88
237.689	83.88
237.922	84.88
238.156	65.88
238.39	74.88
238.624	68.88
238.858	79.88
239.091	80.88
239.325	86.88
239.559	60.88
239.793	72.88
240.027	85.88
240.26	70.88
240.494	70.88
240.728	58.88
240.961	86.88
241.195	89.88
241.429	82.88
241.662	78.88
241.896	73.88
242.13	85.88
242.363	74.88
242.597	69.88
242.83	70.88
243.064	75.88
243.298	73.88
243.531	72.88
243.765	77.88
243.998	80.88
244.232	83.88
244.465	70.88
244.699	81.88
244.932	69.88
245.166	86.88
245.399	80.88
245.633	77.88
245.866	90.88
246.099	77.88
246.333	74.88
246.566	75.88
246.8	79.88
247.033	79.88
247.266	88.88
247.5	81.88
247.733	70.88
247.966	62.88
248.2	78.88
248.433	73.88
248.666	88.88
248.899	84.88
249.133	78.88
249.366	79.88
249.599	93.88
249.832	80.88
250.066	72.88
250.299	74.88
250.532	81.88
250.765	87.88
250.998	86.88
251.231	68.88
251.465	69.88
251.698	74.88
251.931	72.88
252.164	84.88
252.397	78.88
252.63	82.88
252.863	83.88
253.096	81.88
253.329	68.88
253.562	77.88
253.795	79.88
254.028	85.88
254.261	71.88
254.494	92.88
254.727	75.88
254.96	73.88
255.193	77.88
255.426	82.88
255.659	81.88
255.892	78.88
256.124	87.88
256.357	78.88
256.59	82.88
256.823	79.88
257.056	70.88
257.289	72.88
257.521	71.88
257.754	77.88
257.987	75.88
258.22	82.88
258.452	76.88
258.685	81.88
258.918	81.88
259.151	71.88
259.383	80.88
259.616	69.88
259.849	79.88
260.081	80.88
260.314	86.88
260.547	86.88
260.779	82.88
261.012	90.88
261.244	81.88
261.477	88.88
261.71	90.88
261.942	97.88
262.175	110.88
262.407	80.88
262.64	77.88
262.872	89.88
263.105	72.88
263.337	74.88
263.57	86.88
263.802	78.88
264.035	80.88
264.267	85.88
264.499	64.88
264.732	80.88
264.964	76.88
265.197	93.88
265.429	79.88
265.661	93.88
265.894	96.88
266.126	75.88
266.358	78.88
266.591	62.88
266.823	71.88
267.055	76.88
267.287	80.88
267.52	95.88
267.752	90.88
267.984	86.88
268.216	79.88
268.448	84.88
268.681	85.88
268.913	85.88
269.145	94.88
269.377	74.88
269.609	81.88
269.841	72.88
270.073	85.88
270.306	86.88
270.538	80.88
270.77	86.88
271.002	87.88
271.234	92.88
271.466	89.88
271.698	89.88
271.93	88.88
272.162	85.88
272.394	90.88
272.626	81.88
272.858	92.88
273.09	76.88
273.322	87.88
273.553	82.88
273.785	97.88
274.017	84.88
274.249	86.88
274.481	74.88
274.713	84.88
274.945	78.88
275.176	78.88
275.408	87.88
275.64	90.88
275.872	79.88
276.104	76.88
276.335	84.88
276.567	97.88
276.799	81.88
277.031	86.88
277.262	72.88
277.494	85.88
277.726	90.88
277.957	75.88
278.189	69.88
278.421	73.88
278.652	79.88
278.884	74.88
279.115	87.88
279.347	83.88
279.579	80.88
279.81	86.88
280.042	79.88
280.273	88.88
280.505	95.88
280.736	88.88
280.968	81.88
281.199	92.88
281.431	85.88
281.662	76.88
281.894	89.88
282.125	90.88
282.356	119.88
282.588	131.88
282.819	97.88
283.051	89.88
283.282	74.88
283.513	107.88
283.745	84.88
283.976	88.88
284.207	82.88
284.439	85.88
284.67	91.88
284.901	87.88
285.132	81.88
285.364	85.88
285.595	75.88
285.826	103.88
286.057	87.88
286.288	87.88
286.52	82.88
286.751	86.88
286.982	93.88
287.213	89.88
287.444	82.88
287.675	87.88
287.906	81.88
288.138	88.88
288.369	91.88
288.6	79.88
288.831	87.88
289.062	95.88
289.293	98.88
289.524	74.88
289.755	92.88
289.986	79.88
290.217	87.88
290.448	93.88
290.679	88.88
290.91	85.88
291.141	77.88
291.371	94.88
291.602	85.88
291.833	93.88
292.064	89.88
292.295	85.88
292.526	83.88
292.757	87.88
292.987	94.88
293.218	86.88
293.449	92.88
293.68	90.88
293.91	77.88
294.141	101.88
294.372	86.88
294.603	89.88
294.833	94.88
295.064	94.88
295.295	78.88
295.525	77.88
295.756	98.88
295.987	104.88
296.217	129.88
296.448	122.88
296.679	92.88
296.909	94.88
297.14	74.88
297.37	92.88
297.601	78.88
297.831	94.88
298.062	97.88
298.292	92.88
298.523	88.88
298.753	81.88
298.984	85.88
299.214	89.88
299.445	91.88
299.675	84.88
299.905	96.88
300.136	81.88
300.366	97.88
300.597	81.88
300.827	77.88
301.057	76.88
301.288	95.88
301.518	97.88
301.748	91.88
301.979	116.88
302.209	88.88
302.439	83.88
302.669	81.88
302.9	87.88
303.13	92.88
303.36	81.88
303.59	99.88
303.82	92.88
304.051	95.88
304.281	70.88
304.511	87.88
304.741	95.88
304.971	79.88
305.201	99.88
305.431	94.88
305.661	76.88
305.891	93.88
306.121	101.88
306.352	105.88
306.582	108.88
306.812	87.88
307.042	92.88
307.272	91.88
307.502	90.88
307.731	76.88
307.961	85.88
308.191	89.88
308.421	90.88
308.651	100.88
308.881	95.88
309.111	91.88
309.341	86.88
309.571	96.88
309.8	97.88
310.03	91.88
310.26	101.88
310.49	104.88
310.72	98.88
310.949	98.88
311.179	104.88
311.409	97.88
311.639	92.88
311.868	92.88
312.098	99.88
312.328	105.88
312.557	94.88
312.787	97.88
313.017	101.88
313.246	91.88
313.476	93.88
313.706	101.88
313.935	93.88
314.165	89.88
314.394	90.88
314.624	94.88
314.853	101.88
315.083	86.88
315.312	88.88
315.542	85.88
315.771	79.88
316.001	89.88
316.23	92.88
316.46	85.88
316.689	98.88
316.919	94.88
317.148	94.88
317.377	74.88
317.607	81.88
317.836	83.88
318.065	73.88
318.295	90.88
318.524	108.88
318.753	86.88
318.983	90.88
319.212	85.88
319.441	109.88
319.67	88.88
319.9	99.88
320.129	96.88
320.358	85.88
320.587	84.88
320.816	97.88
321.046	97.88
321.275	85.88
321.504	85.88
321.733	101.88
321.962	89.88
322.191	111.88
322.42	100.88
322.649	108.88
322.878	110.88
323.108	111.88
323.337	103.88
323.566	126.88
323.795	127.88
324.024	190.88
324.253	365.88
324.482	766.88
324.71	1560.88
324.939	2005.88
325.168	739.88
325.397	222.88
325.626	140.88
325.855	116.88
326.084	126.88
326.313	133.88
326.542	136.88
326.77	212.88
326.999	432.88
327.228	887.88
327.457	1594.88
327.686	1243.88
327.914	358.88
328.143	197.88
328.372	137.88
328.6	115.88
328.829	105.88
329.058	101.88
329.287	119.88
329.515	105.88
329.744	95.88
329.972	102.88
330.201	112.88
330.43	94.88
330.658	120.88
330.887	126.88
331.115	116.88
331.344	85.88
331.572	109.88
331.801	96.88
332.03	108.88
332.258	102.88
332.486	91.88
332.715	81.88
332.943	107.88
333.172	98.88
333.4	104.88
333.629	109.88
333.857	100.88
334.085	104.88
334.314	92.88
334.542	100.88
334.771	101.88
334.999	104.88
335.227	104.88
335.455	97.88
335.684	90.88
335.912	87.88
336.14	97.88
336.369	96.88
336.597	87.88
336.825	111.88
337.053	94.88
337.281	91.88
337.51	84.88
337.738	85.88
337.966	92.88
338.194	102.88
338.422	90.88
338.65	90.88
338.878	87.88
339.106	86.88
339.334	81.88
339.562	93.88
339.79	93.88
340.018	97.88
340.246	96.88
340.474	98.88
340.702	101.88
340.93	101.88
341.158	75.88
341.386	93.88
341.614	105.88
341.842	96.88
342.07	93.88
342.298	91.88
342.526	81.88
342.754	95.88
342.981	88.88
343.209	89.88
343.437	81.88
343.665	94.88
343.893	92.88
344.12	93.88
344.348	102.88
344.576	89.88
344.804	93.88
345.031	81.88
345.259	97.88
345.487	88.88
345.714	90.88
345.942	82.88
346.17	79.88
346.397	93.88
346.625	112.88
346.853	85.88
347.08	96.88
347.308	101.88
347.535	98.88
347.763	97.88
347.99	109.88
348.218	88.88
348.445	103.88
348.673	83.88
348.9	102.88
349.128	103.88
349.355	101.88
349.583	104.88
349.81	103.88
350.037	88.88
350.265	89.88
350.492	92.88
350.72	97.88
350.947	96.88
351.174	96.88
351.402	103.88
351.629	89.88
351.856	98.88
352.083	96.88
352.311	101.88
352.538	95.88
352.765	105.88
352.992	114.88
353.22	104.88
353.447	95.88
353.674	95.88
353.901	83.88
354.128	83.88
354.355	94.88
354.583	111.88
354.81	95.88
355.037	97.88
355.264	97.88
355.491	89.88
355.718	88.88
355.945	88.88
356.172	89.88
356.399	96.88
356.626	92.88
356.853	90.88
357.08	95.88
357.307	93.88
357.534	92.88
357.761	87.88
357.988	81.88
358.215	100.88
358.441	95.88
358.668	98.88
358.895	91.88
359.122	102.88
359.349	81.88
359.576	74.88
359.802	96.88
360.029	110.88
360.256	100.88
360.483	105.88
360.709	76.88
360.936	95.88
361.163	104.88
361.39	94.88
361.616	86.88
361.843	88.88
362.07	94.88
362.296	91.88
362.523	86.88
362.749	81.88
362.976	86.88
363.203	77.88
363.429	77.88
363.656	99.88
363.882	81.88
364.109	93.88
364.335	81.88
364.562	83.88
364.788	82.88
365.015	80.88
365.241	87.88
365.468	95.88
365.694	104.88
365.92	102.88
366.147	103.88
366.373	94.88
366.599	89.88
366.826	80.88
367.052	94.88
367.278	97.88
367.505	85.88
367.731	95.88
367.957	71.88
368.184	93.88
368.41	91.88
368.636	111.88
368.862	109.88
369.089	88.88
369.315	82.88
369.541	93.88
369.767	84.88
369.993	77.88
370.219	94.88
370.445	75.88
370.672	80.88
370.898	81.88
371.124	96.88
371.35	98.88
371.576	91.88
371.802	84.88
372.028	101.88
372.254	101.88
372.48	81.88
372.706	91.88
372.932	89.88
373.158	87.88
373.384	78.88
373.61	79.88
373.835	79.88
374.061	81.88
374.287	89.88
374.513	88.88
374.739	75.88
374.965	78.88
375.191	83.88
375.416	110.88
375.642	87.88
375.868	87.88
376.094	69.88
376.319	92.88
376.545	83.88
376.771	80.88
376.997	105.88
377.222	76.88
377.448	92.88
377.674	104.88
377.899	98.88
378.125	93.88
378.35	94.88
378.576	82.88
378.802	85.88
379.027	102.88
379.253	96.88
379.478	80.88
379.704	98.88
379.929	87.88
380.155	90.88
380.38	90.88
380.606	90.88
380.831	98.88
381.057	89.88
381.282	78.88
381.507	88.88
381.733	94.88
381.958	111.88
382.184	110.88
382.409	99.88
382.634	84.88
382.86	84.88
383.085	90.88
383.31	111.88
383.535	102.88
383.761	92.88
383.986	95.88
384.211	96.88
384.436	92.88
384.662	97.88
384.887	94.88
385.112	109.88
385.337	103.88
385.562	102.88
385.787	101.88
386.013	107.88
386.238	97.88
386.463	95.88
386.688	100.88
386.913	81.88
387.138	108.88
387.363	87.88
387.588	92.88
387.813	104.88
388.038	78.88
388.263	108.88
388.488	104.88
388.713	90.88
388.938	100.88
389.163	95.88
389.387	91.88
389.612	82.88
389.837	92.88
390.062	101.88
390.287	98.88
390.512	86.88
390.736	86.88
390.961	86.88
391.186	87.88
391.411	87.88
391.636	93.88
391.86	88.88
392.085	86.88
392.31	100.88
392.534	76.88
392.759	87.88
392.984	79.88
393.208	97.88
393.433	101.88
393.658	88.88
393.882	87.88
394.107	85.88
394.331	74.88
394.556	72.88
394.78	91.88
395.005	79.88
395.229	87.88
395.454	94.88
395.678	95.88
395.903	105.88
396.127	104.88
396.352	79.88
396.576	70.88
396.801	85.88
397.025	90.88
397.249	95.88
397.474	89.88
397.698	75.88
397.922	91.88
398.147	86.88
398.371	73.88
398.595	91.88
398.82	93.88
399.044	78.88
399.268	75.88
399.492	84.88
399.717	82.88
399.941	105.88
400.165	89.88
400.389	79.88
400.613	86.88
400.837	96.88
401.062	74.88
401.286	78.88
401.51	92.88
401.734	96.88
401.958	82.88
402.182	118.88
402.406	146.88
402.63	118.88
402.854	93.88
403.078	98.88
403.302	91.88
403.526	101.88
403.75	96.88
403.974	77.88
404.198	70.88
404.422	88.88
404.645	82.88
404.869	87.88
405.093	86.88
405.317	89.88
405.541	94.88
405.765	112.88
405.988	103.88
406.212	149.88
406.436	185.88
406.66	121.88
406.883	102.88
407.107	92.88
407.331	108.88
407.555	103.88
407.778	80.88
408.002	81.88
408.226	87.88
408.449	84.88
408.673	86.88
408.896	79.88
409.12	98.88
409.344	85.88
409.567	83.88
409.791	103.88
410.014	88.88
410.238	93.88
410.461	93.88
410.685	88.88
410.908	86.88
411.132	109.88
411.355	102.88
411.578	90.88
411.802	90.88
412.025	98.88
412.249	75.88
412.472	72.88
412.695	100.88
412.919	92.88
413.142	80.88
413.365	85.88
413.589	89.88
413.812	95.88
414.035	76.88
414.258	75.88
414.482	93.88
414.705	93.88
414.928	87.88
415.151	93.88
415.374	94.88
415.597	84.88
415.821	81.88
416.044	85.88
416.267	81.88
416.49	88.88
416.713	93.88
416.936	91.88
417.159	95.88
417.382	94.88
417.605	85.88
417.828	89.88
418.051	86.88
418.274	80.88
418.497	77.88
418.72	72.88
418.943	86.88
419.166	83.88
419.389	83.88
419.611	82.88
419.834	86.88
420.057	84.88
420.28	84.88
420.503	85.88
420.726	86.88
420.948	80.88
421.171	87.88
421.394	101.88
421.617	91.88
421.839	92.88
422.062	94.88
422.285	80.88
422.507	98.88
422.73	100.88
422.953	96.88
423.175	83.88
423.398	95.88
423.621	82.88
423.843	95.88
424.066	92.88
424.288	87.88
424.511	82.88
424.733	89.88
424.956	94.88
425.178	93.88
425.401	92.88
425.623	95.88
425.846	81.88
426.068	83.88
426.291	77.88
426.513	98.88
426.735	88.88
426.958	86.88
427.18	84.88
427.402	121.88
427.625	154.88
427.847	121.88
428.069	93.88
428.292	80.88
428.514	88.88
428.736	92.88
428.958	79.88
429.181	91.88
429.403	84.88
429.625	102.88
429.847	99.88
430.069	109.88
430.292	95.88
430.514	85.88
430.736	84.88
430.958	88.88
431.18	89.88
431.402	89.88
431.624	86.88
431.846	89.88
432.068	76.88
432.29	74.88
432.512	94.88
432.734	87.88
432.956	95.88
433.178	92.88
433.4	111.88
433.622	92.88
433.844	97.88
434.066	99.88
434.287	77.88
434.509	87.88
434.731	86.88
434.953	92.88
435.175	85.88
435.397	99.88
435.618	91.88
435.84	91.88
436.062	106.88
436.284	106.88
436.505	103.88
436.727	98.88
436.949	88.88
437.17	83.88
437.392	77.88
437.614	94.88
437.835	99.88
438.057	104.88
438.278	103.88
438.5	97.88
438.721	136.88
438.943	102.88
439.165	86.88
439.386	96.88
439.608	104.88
439.829	89.88
440.05	114.88
440.272	137.88
440.493	101.88
440.715	87.88
440.936	86.88
441.158	88.88
441.379	88.88
441.6	87.88
441.822	99.88
442.043	88.88
442.264	110.88
442.486	111.88
442.707	93.88
442.928	109.88
443.149	144.88
443.371	120.88
443.592	104.88
443.813	102.88
444.034	98.88
444.255	102.88
444.476	92.88
444.698	83.88
444.919	87.88
445.14	126.88
445.361	134.88
445.582	109.88
445.803	117.88
446.024	144.88
446.245	118.88
446.466	106.88
446.687	76.88
446.908	93.88
447.129	95.88
447.35	73.88
447.571	104.88
447.792	94.88
448.013	93.88
448.234	103.88
448.455	112.88
448.675	114.88
448.896	128.88
449.117	106.88
449.338	93.88
449.559	121.88
449.779	132.88
450	90.88
450.221	78.88
450.442	91.88
450.662	112.88
450.883	104.88
451.104	116.88
451.324	94.88
451.545	89.88
451.766	75.88
451.986	84.88
452.207	84.88
452.428	88.88
452.648	84.88
452.869	101.88
453.089	102.88
453.31	105.88
453.53	86.88
453.751	82.88
453.971	102.88
454.192	99.88
454.412	88.88
454.633	74.88
454.853	98.88
455.073	84.88
455.294	95.88
455.514	97.88
455.734	80.88
455.955	81.88
456.175	86.88
456.395	85.88
456.616	75.88
456.836	86.88
457.056	88.88
457.276	97.88
457.497	81.88
457.717	93.88
457.937	93.88
458.157	93.88
458.377	87.88
458.598	106.88
458.818	136.88
459.038	152.88
459.258	101.88
459.478	88.88
459.698	97.88
459.918	89.88
460.138	82.88
460.358	88.88
460.578	87.88
460.798	86.88
461.018	98.88
461.238	85.88
461.458	87.88
461.678	91.88
461.898	96.88
462.118	74.88
462.338	76.88
462.558	83.88
462.777	69.88
462.997	85.88
463.217	85.88
463.437	95.88
463.657	82.88
463.876	97.88
464.096	81.88
464.316	95.88
464.536	89.88
464.755	96.88
464.975	95.88
465.195	153.88
465.414	140.88
465.634	97.88
465.854	81.88
466.073	95.88
466.293	86.88
466.512	78.88
466.732	70.88
466.951	84.88
467.171	93.88
467.391	94.88
467.61	113.88
467.829	101.88
468.049	85.88
468.268	83.88
468.488	79.88
468.707	86.88
468.927	80.88
469.146	97.88
469.365	85.88
469.585	83.88
469.804	83.88
470.023	94.88
470.243	72.88
470.462	95.88
470.681	98.88
470.901	84.88
471.12	80.88
471.339	93.88
471.558	77.88
471.777	94.88
471.997	92.88
472.216	96.88
472.435	89.88
472.654	84.88
472.873	88.88
473.092	81.88
473.311	80.88
473.53	86.88
473.749	78.88
473.968	97.88
474.187	97.88
474.406	88.88
474.625	89.88
474.844	86.88
475.063	73.88
475.282	97.88
475.501	81.88
475.72	87.88
475.939	89.88
476.158	66.88
476.377	85.88
476.596	84.88
476.814	84.88
477.033	93.88
477.252	106.88
477.471	77.88
477.69	89.88
477.908	86.88
478.127	96.88
478.346	96.88
478.564	81.88
478.783	106.88
479.002	95.88
479.22	87.88
479.439	93.88
479.658	87.88
479.876	90.88
480.095	76.88
480.313	95.88
480.532	86.88
480.751	80.88
480.969	92.88
481.188	93.88
481.406	84.88
481.624	80.88
481.843	80.88
482.061	84.88
482.28	82.88
482.498	82.88
482.717	78.88
482.935	89.88
483.153	86.88
483.372	98.88
483.59	86.88
483.808	100.88
484.027	94.88
484.245	82.88
484.463	84.88
484.681	93.88
484.9	88.88
485.118	97.88
485.336	85.88
485.554	83.88
485.772	86.88
485.99	89.88
486.209	107.88
486.427	91.88
486.645	98.88
486.863	87.88
487.081	102.88
487.299	93.88
487.517	93.88
487.735	93.88
487.953	85.88
488.171	81.88
488.389	85.88
488.607	88.88
488.825	88.88
489.043	84.88
489.261	92.88
489.479	69.88
489.696	82.88
489.914	84.88
490.132	90.88
490.35	80.88
490.568	94.88
490.786	85.88
491.003	92.88
491.221	87.88
491.439	104.88
491.657	102.88
491.874	80.88
492.092	105.88
492.31	104.88
492.527	87.88
492.745	81.88
492.963	84.88
493.18	94.88
493.398	93.88
493.615	80.88
493.833	90.88
494.05	92.88
494.268	88.88
494.485	94.88
494.703	79.88
494.92	79.88
495.138	93.88
495.355	73.88
495.573	81.88
495.79	87.88
496.008	82.88
496.225	80.88
496.442	81.88
496.66	103.88
496.877	90.88
497.094	94.88
497.312	93.88
497.529	95.88
497.746	93.88
497.963	99.88
498.181	105.88
498.398	89.88
498.615	105.88
498.832	99.88
499.049	93.88
499.267	84.88
499.484	86.88
499.701	86.88
499.918	75.88
500.135	87.88
500.352	94.88
500.569	94.88
500.786	95.88
501.003	75.88
501.22	84.88
501.437	103.88
501.654	95.88
501.871	106.88
502.088	89.88
502.305	87.88
502.522	88.88
502.739	84.88
502.956	94.88
503.172	92.88
503.389	82.88
503.606	106.88
503.823	90.88
504.04	88.88
504.256	93.88
504.473	87.88
504.69	92.88
504.907	102.88
505.123	89.88
505.34	78.88
505.557	86.88
505.773	99.88
505.99	86.88
506.207	89.88
506.423	85.88
506.64	81.88
506.856	94.88
507.073	94.88
507.289	94.88
507.506	104.88
507.722	106.88
507.939	112.88
508.155	107.88
508.372	91.88
508.588	92.88
508.805	86.88
509.021	96.88
509.238	94.88
509.454	91.88
509.67	88.88
509.887	95.88
510.103	112.88
510.319	189.88
510.536	652.88
510.752	2044.88
510.968	582.88
511.184	144.88
511.401	90.88
511.617	105.88
511.833	82.88
512.049	89.88
512.265	84.88
512.481	83.88
512.698	89.88
512.914	71.88
513.13	82.88
513.346	92.88
513.562	102.88
513.778	102.88
513.994	99.88
514.21	101.88
514.426	94.88
514.642	123.88
514.858	125.88
515.074	157.88
515.29	399.88
515.506	1268.88
515.721	479.88
515.937	144.88
516.153	101.88
516.369	76.88
516.585	86.88
