Data from Uncirc_1996_H10_HRD10591_00099.txt Node
Date: Wed Jan 03 11:32:22 EST 2024
User: Yrep
Spectrometer: HR+D1059
Trigger mode: 1
Integration Time (sec): 1.000000E-1
Scans to average: 1
Electric dark correction enabled: true
Nonlinearity correction enabled: false
Boxcar width: 0
XAxis mode: Wavelengths
Number of Pixels in Spectrum: 2048
>>>>>Begin Spectral Data<<<<<
223.165	-25.25
223.4	-25.25
223.635	-25.25
223.869	-22.25
224.104	-23.25
224.338	-23.25
224.573	-15.25
224.808	-13.25
225.042	-14.25
225.277	-4.25
225.511	-5.25
225.746	11.75
225.98	15.75
226.215	21.75
226.449	14.75
226.683	29.75
226.918	28.75
227.152	23.75
227.387	37.75
227.621	43.75
227.856	44.75
228.09	50.75
228.324	48.75
228.559	56.75
228.793	65.75
229.027	64.75
229.262	73.75
229.496	52.75
229.73	86.75
229.964	65.75
230.199	77.75
230.433	75.75
230.667	82.75
230.901	85.75
231.136	78.75
231.37	78.75
231.604	87.75
231.838	74.75
232.072	66.75
232.306	84.75
232.541	92.75
232.775	88.75
233.009	77.75
233.243	78.75
233.477	67.75
233.711	76.75
233.945	83.75
234.179	79.75
234.413	74.75
234.647	78.75
234.881	88.75
235.115	88.75
235.349	98.75
235.583	76.75
235.817	81.75
236.051	78.75
236.285	80.75
236.519	83.75
236.753	75.75
236.987	81.75
237.221	73.75
237.455	89.75
237.689	83.75
237.922	78.75
238.156	85.75
238.39	88.75
238.624	75.75
238.858	87.75
239.091	82.75
239.325	73.75
239.559	82.75
239.793	74.75
240.027	85.75
240.26	71.75
240.494	75.75
240.728	79.75
240.961	76.75
241.195	75.75
241.429	65.75
241.662	69.75
241.896	68.75
242.13	78.75
242.363	85.75
242.597	71.75
242.83	82.75
243.064	81.75
243.298	70.75
243.531	66.75
243.765	72.75
243.998	80.75
244.232	81.75
244.465	74.75
244.699	71.75
244.932	69.75
245.166	70.75
245.399	66.75
245.633	80.75
245.866	84.75
246.099	79.75
246.333	72.75
246.566	77.75
246.8	82.75
247.033	69.75
247.266	78.75
247.5	79.75
247.733	69.75
247.966	71.75
248.2	80.75
248.433	66.75
248.666	73.75
248.899	71.75
249.133	78.75
249.366	83.75
249.599	79.75
249.832	78.75
250.066	85.75
250.299	69.75
250.532	81.75
250.765	91.75
250.998	80.75
251.231	72.75
251.465	71.75
251.698	79.75
251.931	82.75
252.164	76.75
252.397	93.75
252.63	81.75
252.863	70.75
253.096	81.75
253.329	79.75
253.562	88.75
253.795	92.75
254.028	81.75
254.261	81.75
254.494	84.75
254.727	76.75
254.96	69.75
255.193	64.75
255.426	77.75
255.659	66.75
255.892	81.75
256.124	88.75
256.357	78.75
256.59	85.75
256.823	71.75
257.056	87.75
257.289	74.75
257.521	79.75
257.754	79.75
257.987	91.75
258.22	82.75
258.452	70.75
258.685	85.75
258.918	77.75
259.151	75.75
259.383	78.75
259.616	87.75
259.849	74.75
260.081	80.75
260.314	86.75
260.547	81.75
260.779	80.75
261.012	77.75
261.244	71.75
261.477	97.75
261.71	90.75
261.942	112.75
262.175	97.75
262.407	96.75
262.64	72.75
262.872	76.75
263.105	69.75
263.337	81.75
263.57	79.75
263.802	80.75
264.035	87.75
264.267	79.75
264.499	87.75
264.732	87.75
264.964	91.75
265.197	92.75
265.429	73.75
265.661	81.75
265.894	71.75
266.126	82.75
266.358	87.75
266.591	76.75
266.823	92.75
267.055	86.75
267.287	83.75
267.52	89.75
267.752	89.75
267.984	89.75
268.216	93.75
268.448	88.75
268.681	83.75
268.913	86.75
269.145	93.75
269.377	87.75
269.609	101.75
269.841	71.75
270.073	87.75
270.306	76.75
270.538	77.75
270.77	80.75
271.002	81.75
271.234	74.75
271.466	85.75
271.698	79.75
271.93	84.75
272.162	92.75
272.394	93.75
272.626	74.75
272.858	82.75
273.09	97.75
273.322	83.75
273.553	76.75
273.785	64.75
274.017	74.75
274.249	90.75
274.481	90.75
274.713	85.75
274.945	87.75
275.176	82.75
275.408	89.75
275.64	81.75
275.872	81.75
276.104	85.75
276.335	88.75
276.567	97.75
276.799	99.75
277.031	102.75
277.262	88.75
277.494	83.75
277.726	93.75
277.957	104.75
278.189	82.75
278.421	77.75
278.652	71.75
278.884	91.75
279.115	90.75
279.347	92.75
279.579	83.75
279.81	72.75
280.042	87.75
280.273	88.75
280.505	89.75
280.736	82.75
280.968	86.75
281.199	84.75
281.431	93.75
281.662	78.75
281.894	104.75
282.125	107.75
282.356	118.75
282.588	133.75
282.819	107.75
283.051	87.75
283.282	90.75
283.513	90.75
283.745	76.75
283.976	77.75
284.207	82.75
284.439	79.75
284.67	91.75
284.901	92.75
285.132	83.75
285.364	88.75
285.595	86.75
285.826	87.75
286.057	89.75
286.288	83.75
286.52	88.75
286.751	93.75
286.982	88.75
287.213	97.75
287.444	91.75
287.675	79.75
287.906	82.75
288.138	71.75
288.369	76.75
288.6	94.75
288.831	93.75
289.062	88.75
289.293	81.75
289.524	77.75
289.755	74.75
289.986	78.75
290.217	78.75
290.448	91.75
290.679	89.75
290.91	94.75
291.141	91.75
291.371	90.75
291.602	89.75
291.833	91.75
292.064	87.75
292.295	82.75
292.526	91.75
292.757	92.75
292.987	91.75
293.218	103.75
293.449	87.75
293.68	89.75
293.91	89.75
294.141	80.75
294.372	89.75
294.603	85.75
294.833	98.75
295.064	87.75
295.295	88.75
295.525	92.75
295.756	112.75
295.987	121.75
296.217	137.75
296.448	113.75
296.679	97.75
296.909	89.75
297.14	93.75
297.37	87.75
297.601	76.75
297.831	81.75
298.062	78.75
298.292	86.75
298.523	94.75
298.753	88.75
298.984	98.75
299.214	90.75
299.445	85.75
299.675	94.75
299.905	79.75
300.136	81.75
300.366	85.75
300.597	98.75
300.827	96.75
301.057	92.75
301.288	98.75
301.518	93.75
301.748	83.75
301.979	97.75
302.209	102.75
302.439	91.75
302.669	76.75
302.9	95.75
303.13	91.75
303.36	97.75
303.59	98.75
303.82	94.75
304.051	79.75
304.281	86.75
304.511	77.75
304.741	79.75
304.971	85.75
305.201	95.75
305.431	102.75
305.661	86.75
305.891	79.75
306.121	98.75
306.352	100.75
306.582	86.75
306.812	93.75
307.042	106.75
307.272	90.75
307.502	97.75
307.731	97.75
307.961	78.75
308.191	99.75
308.421	76.75
308.651	90.75
308.881	97.75
309.111	85.75
309.341	98.75
309.571	103.75
309.8	94.75
310.03	89.75
310.26	96.75
310.49	92.75
310.72	86.75
310.949	111.75
311.179	106.75
311.409	81.75
311.639	87.75
311.868	98.75
312.098	94.75
312.328	94.75
312.557	116.75
312.787	105.75
313.017	91.75
313.246	99.75
313.476	93.75
313.706	90.75
313.935	106.75
314.165	90.75
314.394	94.75
314.624	95.75
314.853	90.75
315.083	102.75
315.312	83.75
315.542	78.75
315.771	85.75
316.001	92.75
316.23	96.75
316.46	91.75
316.689	101.75
316.919	95.75
317.148	105.75
317.377	104.75
317.607	111.75
317.836	87.75
318.065	98.75
318.295	85.75
318.524	90.75
318.753	91.75
318.983	95.75
319.212	103.75
319.441	93.75
319.67	113.75
319.9	86.75
320.129	90.75
320.358	81.75
320.587	98.75
320.816	72.75
321.046	91.75
321.275	89.75
321.504	95.75
321.733	85.75
321.962	104.75
322.191	102.75
322.42	93.75
322.649	110.75
322.878	110.75
323.108	117.75
323.337	119.75
323.566	124.75
323.795	147.75
324.024	196.75
324.253	377.75
324.482	759.75
324.71	1619.75
324.939	2101.75
325.168	750.75
325.397	236.75
325.626	149.75
325.855	130.75
326.084	131.75
326.313	134.75
326.542	142.75
326.77	219.75
326.999	448.75
327.228	890.75
327.457	1635.75
327.686	1287.75
327.914	357.75
328.143	189.75
328.372	141.75
328.6	118.75
328.829	127.75
329.058	127.75
329.287	127.75
329.515	109.75
329.744	102.75
329.972	96.75
330.201	73.75
330.43	103.75
330.658	114.75
330.887	126.75
331.115	127.75
331.344	98.75
331.572	99.75
331.801	107.75
332.03	96.75
332.258	91.75
332.486	98.75
332.715	97.75
332.943	86.75
333.172	99.75
333.4	103.75
333.629	110.75
333.857	108.75
334.085	103.75
334.314	79.75
334.542	94.75
334.771	97.75
334.999	106.75
335.227	102.75
335.455	104.75
335.684	107.75
335.912	95.75
336.14	92.75
336.369	94.75
336.597	109.75
336.825	116.75
337.053	101.75
337.281	94.75
337.51	90.75
337.738	83.75
337.966	96.75
338.194	101.75
338.422	96.75
338.65	107.75
338.878	93.75
339.106	97.75
339.334	96.75
339.562	94.75
339.79	72.75
340.018	88.75
340.246	89.75
340.474	87.75
340.702	88.75
340.93	84.75
341.158	88.75
341.386	77.75
341.614	91.75
341.842	85.75
342.07	86.75
342.298	108.75
342.526	90.75
342.754	92.75
342.981	80.75
343.209	80.75
343.437	98.75
343.665	79.75
343.893	79.75
344.12	80.75
344.348	96.75
344.576	74.75
344.804	95.75
345.031	102.75
345.259	100.75
345.487	90.75
345.714	91.75
345.942	99.75
346.17	102.75
346.397	85.75
346.625	91.75
346.853	86.75
347.08	95.75
347.308	111.75
347.535	96.75
347.763	106.75
347.99	100.75
348.218	94.75
348.445	103.75
348.673	99.75
348.9	100.75
349.128	90.75
349.355	88.75
349.583	90.75
349.81	102.75
350.037	87.75
350.265	85.75
350.492	99.75
350.72	100.75
350.947	98.75
351.174	106.75
351.402	102.75
351.629	109.75
351.856	110.75
352.083	104.75
352.311	94.75
352.538	121.75
352.765	112.75
352.992	124.75
353.22	124.75
353.447	106.75
353.674	99.75
353.901	102.75
354.128	99.75
354.355	91.75
354.583	108.75
354.81	105.75
355.037	106.75
355.264	82.75
355.491	88.75
355.718	89.75
355.945	97.75
356.172	97.75
356.399	97.75
356.626	93.75
356.853	82.75
357.08	94.75
357.307	69.75
357.534	91.75
357.761	91.75
357.988	105.75
358.215	97.75
358.441	88.75
358.668	86.75
358.895	82.75
359.122	84.75
359.349	71.75
359.576	93.75
359.802	87.75
360.029	116.75
360.256	105.75
360.483	81.75
360.709	90.75
360.936	101.75
361.163	96.75
361.39	104.75
361.616	102.75
361.843	90.75
362.07	88.75
362.296	107.75
362.523	93.75
362.749	91.75
362.976	104.75
363.203	99.75
363.429	79.75
363.656	74.75
363.882	85.75
364.109	98.75
364.335	104.75
364.562	107.75
364.788	85.75
365.015	86.75
365.241	114.75
365.468	110.75
365.694	90.75
365.92	105.75
366.147	82.75
366.373	85.75
366.599	88.75
366.826	84.75
367.052	74.75
367.278	102.75
367.505	81.75
367.731	78.75
367.957	103.75
368.184	81.75
368.41	98.75
368.636	113.75
368.862	102.75
369.089	82.75
369.315	89.75
369.541	90.75
369.767	83.75
369.993	101.75
370.219	95.75
370.445	85.75
370.672	91.75
370.898	93.75
371.124	82.75
371.35	88.75
371.576	93.75
371.802	77.75
372.028	82.75
372.254	82.75
372.48	91.75
372.706	96.75
372.932	96.75
373.158	80.75
373.384	94.75
373.61	82.75
373.835	89.75
374.061	96.75
374.287	75.75
374.513	85.75
374.739	92.75
374.965	84.75
375.191	75.75
375.416	91.75
375.642	78.75
375.868	98.75
376.094	83.75
376.319	88.75
376.545	96.75
376.771	85.75
376.997	81.75
377.222	89.75
377.448	97.75
377.674	87.75
377.899	88.75
378.125	96.75
378.35	85.75
378.576	103.75
378.802	88.75
379.027	91.75
379.253	97.75
379.478	89.75
379.704	82.75
379.929	80.75
380.155	87.75
380.38	85.75
380.606	104.75
380.831	94.75
381.057	93.75
381.282	82.75
381.507	94.75
381.733	90.75
381.958	87.75
382.184	105.75
382.409	110.75
382.634	85.75
382.86	98.75
383.085	94.75
383.31	99.75
383.535	83.75
383.761	98.75
383.986	85.75
384.211	91.75
384.436	99.75
384.662	96.75
384.887	104.75
385.112	94.75
385.337	104.75
385.562	100.75
385.787	99.75
386.013	99.75
386.238	107.75
386.463	91.75
386.688	104.75
386.913	103.75
387.138	104.75
387.363	104.75
387.588	95.75
387.813	109.75
388.038	100.75
388.263	104.75
388.488	101.75
388.713	113.75
388.938	85.75
389.163	87.75
389.387	90.75
389.612	102.75
389.837	88.75
390.062	94.75
390.287	98.75
390.512	93.75
390.736	77.75
390.961	81.75
391.186	87.75
391.411	86.75
391.636	76.75
391.86	83.75
392.085	92.75
392.31	92.75
392.534	81.75
392.759	82.75
392.984	71.75
393.208	93.75
393.433	93.75
393.658	77.75
393.882	85.75
394.107	88.75
394.331	86.75
394.556	91.75
394.78	72.75
395.005	73.75
395.229	89.75
395.454	85.75
395.678	74.75
395.903	85.75
396.127	95.75
396.352	80.75
396.576	85.75
396.801	71.75
397.025	81.75
397.249	95.75
397.474	87.75
397.698	73.75
397.922	79.75
398.147	81.75
398.371	91.75
398.595	79.75
398.82	72.75
399.044	88.75
399.268	83.75
399.492	74.75
399.717	90.75
399.941	94.75
400.165	89.75
400.389	77.75
400.613	87.75
400.837	86.75
401.062	90.75
401.286	97.75
401.51	87.75
401.734	92.75
401.958	100.75
402.182	116.75
402.406	157.75
402.63	104.75
402.854	99.75
403.078	92.75
403.302	84.75
403.526	95.75
403.75	79.75
403.974	83.75
404.198	92.75
404.422	79.75
404.645	77.75
404.869	83.75
405.093	97.75
405.317	89.75
405.541	90.75
405.765	103.75
405.988	109.75
406.212	164.75
406.436	222.75
406.66	133.75
406.883	107.75
407.107	86.75
407.331	85.75
407.555	100.75
407.778	93.75
408.002	99.75
408.226	77.75
408.449	76.75
408.673	101.75
408.896	89.75
409.12	90.75
409.344	88.75
409.567	88.75
409.791	96.75
410.014	98.75
410.238	83.75
410.461	92.75
410.685	93.75
410.908	105.75
411.132	90.75
411.355	93.75
411.578	89.75
411.802	73.75
412.025	85.75
412.249	88.75
412.472	87.75
412.695	91.75
412.919	86.75
413.142	93.75
413.365	75.75
413.589	70.75
413.812	91.75
414.035	92.75
414.258	100.75
414.482	97.75
414.705	78.75
414.928	91.75
415.151	92.75
415.374	84.75
415.597	97.75
415.821	95.75
416.044	91.75
416.267	103.75
416.49	93.75
416.713	80.75
416.936	84.75
417.159	90.75
417.382	90.75
417.605	96.75
417.828	88.75
418.051	79.75
418.274	89.75
418.497	92.75
418.72	71.75
418.943	73.75
419.166	88.75
419.389	85.75
419.611	85.75
419.834	87.75
420.057	84.75
420.28	82.75
420.503	89.75
420.726	71.75
420.948	76.75
421.171	89.75
421.394	93.75
421.617	90.75
421.839	87.75
422.062	84.75
422.285	81.75
422.507	94.75
422.73	97.75
422.953	88.75
423.175	82.75
423.398	88.75
423.621	85.75
423.843	77.75
424.066	85.75
424.288	101.75
424.511	84.75
424.733	105.75
424.956	102.75
425.178	102.75
425.401	98.75
425.623	99.75
425.846	93.75
426.068	97.75
426.291	92.75
426.513	83.75
426.735	93.75
426.958	81.75
427.18	100.75
427.402	127.75
427.625	144.75
427.847	117.75
428.069	99.75
428.292	91.75
428.514	96.75
428.736	93.75
428.958	79.75
429.181	78.75
429.403	83.75
429.625	94.75
429.847	95.75
430.069	112.75
430.292	84.75
430.514	95.75
430.736	78.75
430.958	77.75
431.18	83.75
431.402	79.75
431.624	85.75
431.846	85.75
432.068	97.75
432.29	94.75
432.512	94.75
432.734	93.75
432.956	91.75
433.178	95.75
433.4	98.75
433.622	92.75
433.844	81.75
434.066	91.75
434.287	99.75
434.509	83.75
434.731	83.75
434.953	87.75
435.175	82.75
435.397	90.75
435.618	105.75
435.84	102.75
436.062	115.75
436.284	113.75
436.505	92.75
436.727	94.75
436.949	82.75
437.17	89.75
437.392	96.75
437.614	88.75
437.835	100.75
438.057	100.75
438.278	115.75
438.5	98.75
438.721	107.75
438.943	102.75
439.165	85.75
439.386	85.75
439.608	80.75
439.829	98.75
440.05	124.75
440.272	138.75
440.493	83.75
440.715	84.75
440.936	88.75
441.158	97.75
441.379	96.75
441.6	89.75
441.822	95.75
442.043	89.75
442.264	91.75
442.486	97.75
442.707	97.75
442.928	105.75
443.149	117.75
443.371	131.75
443.592	107.75
443.813	104.75
444.034	93.75
444.255	81.75
444.476	85.75
444.698	92.75
444.919	88.75
445.14	134.75
445.361	123.75
445.582	124.75
445.803	130.75
446.024	117.75
446.245	126.75
446.466	101.75
446.687	73.75
446.908	96.75
447.129	91.75
447.35	85.75
447.571	91.75
447.792	73.75
448.013	109.75
448.234	99.75
448.455	88.75
448.675	107.75
448.896	123.75
449.117	97.75
449.338	117.75
449.559	117.75
449.779	129.75
450	73.75
450.221	91.75
450.442	89.75
450.662	100.75
450.883	103.75
451.104	102.75
451.324	97.75
451.545	81.75
451.766	82.75
451.986	91.75
452.207	91.75
452.428	88.75
452.648	95.75
452.869	88.75
453.089	111.75
453.31	101.75
453.53	97.75
453.751	81.75
453.971	85.75
454.192	102.75
454.412	74.75
454.633	84.75
454.853	84.75
455.073	92.75
455.294	96.75
455.514	102.75
455.734	82.75
455.955	86.75
456.175	79.75
456.395	85.75
456.616	87.75
456.836	80.75
457.056	73.75
457.276	87.75
457.497	81.75
457.717	70.75
457.937	89.75
458.157	82.75
458.377	92.75
458.598	103.75
458.818	151.75
459.038	153.75
459.258	120.75
459.478	88.75
459.698	93.75
459.918	90.75
460.138	89.75
460.358	90.75
460.578	94.75
460.798	78.75
461.018	75.75
461.238	93.75
461.458	87.75
461.678	89.75
461.898	89.75
462.118	87.75
462.338	79.75
462.558	81.75
462.777	82.75
462.997	74.75
463.217	95.75
463.437	75.75
463.657	95.75
463.876	76.75
464.096	75.75
464.316	93.75
464.536	97.75
464.755	103.75
464.975	105.75
465.195	156.75
465.414	151.75
465.634	101.75
465.854	90.75
466.073	78.75
466.293	90.75
466.512	94.75
466.732	84.75
466.951	86.75
467.171	72.75
467.391	89.75
467.61	98.75
467.829	90.75
468.049	83.75
468.268	93.75
468.488	74.75
468.707	85.75
468.927	76.75
469.146	76.75
469.365	71.75
469.585	94.75
469.804	98.75
470.023	99.75
470.243	84.75
470.462	91.75
470.681	97.75
470.901	88.75
471.12	80.75
471.339	82.75
471.558	81.75
471.777	94.75
471.997	104.75
472.216	85.75
472.435	77.75
472.654	84.75
472.873	83.75
473.092	96.75
473.311	71.75
473.53	81.75
473.749	85.75
473.968	89.75
474.187	112.75
474.406	92.75
474.625	100.75
474.844	101.75
475.063	86.75
475.282	77.75
475.501	94.75
475.72	87.75
475.939	91.75
476.158	77.75
476.377	98.75
476.596	77.75
476.814	93.75
477.033	94.75
477.252	86.75
477.471	87.75
477.69	92.75
477.908	95.75
478.127	106.75
478.346	82.75
478.564	83.75
478.783	108.75
479.002	92.75
479.22	93.75
479.439	103.75
479.658	112.75
479.876	98.75
480.095	76.75
480.313	87.75
480.532	88.75
480.751	77.75
480.969	93.75
481.188	85.75
481.406	105.75
481.624	95.75
481.843	77.75
482.061	99.75
482.28	86.75
482.498	85.75
482.717	88.75
482.935	72.75
483.153	95.75
483.372	102.75
483.59	79.75
483.808	81.75
484.027	75.75
484.245	79.75
484.463	87.75
484.681	98.75
484.9	110.75
485.118	95.75
485.336	102.75
485.554	97.75
485.772	99.75
485.99	88.75
486.209	100.75
486.427	109.75
486.645	90.75
486.863	110.75
487.081	94.75
487.299	104.75
487.517	80.75
487.735	91.75
487.953	98.75
488.171	90.75
488.389	101.75
488.607	102.75
488.825	105.75
489.043	96.75
489.261	101.75
489.479	77.75
489.696	89.75
489.914	87.75
490.132	84.75
490.35	89.75
490.568	81.75
490.786	88.75
491.003	94.75
491.221	96.75
491.439	84.75
491.657	90.75
491.874	85.75
492.092	72.75
492.31	85.75
492.527	87.75
492.745	87.75
492.963	88.75
493.18	90.75
493.398	96.75
493.615	88.75
493.833	82.75
494.05	79.75
494.268	86.75
494.485	88.75
494.703	88.75
494.92	95.75
495.138	86.75
495.355	102.75
495.573	96.75
495.79	90.75
496.008	90.75
496.225	95.75
496.442	86.75
496.66	98.75
496.877	87.75
497.094	103.75
497.312	96.75
497.529	81.75
497.746	106.75
497.963	89.75
498.181	99.75
498.398	98.75
498.615	87.75
498.832	98.75
499.049	94.75
499.267	89.75
499.484	88.75
499.701	83.75
499.918	76.75
500.135	98.75
500.352	87.75
500.569	87.75
500.786	91.75
501.003	94.75
501.22	85.75
501.437	88.75
501.654	89.75
501.871	112.75
502.088	98.75
502.305	114.75
502.522	85.75
502.739	85.75
502.956	94.75
503.172	81.75
503.389	104.75
503.606	109.75
503.823	99.75
504.04	91.75
504.256	81.75
504.473	85.75
504.69	105.75
504.907	91.75
505.123	99.75
505.34	99.75
505.557	92.75
505.773	82.75
505.99	90.75
506.207	82.75
506.423	92.75
506.64	78.75
506.856	87.75
507.073	94.75
507.289	93.75
507.506	90.75
507.722	107.75
507.939	99.75
508.155	94.75
508.372	94.75
508.588	101.75
508.805	104.75
509.021	93.75
509.238	89.75
509.454	95.75
509.67	99.75
509.887	105.75
510.103	131.75
510.319	200.75
510.536	700.75
510.752	2242.75
510.968	619.75
511.184	144.75
511.401	104.75
511.617	78.75
511.833	107.75
512.049	95.75
512.265	87.75
512.481	91.75
512.698	102.75
512.914	106.75
513.13	87.75
513.346	82.75
513.562	80.75
513.778	99.75
513.994	94.75
514.21	103.75
514.426	119.75
514.642	147.75
514.858	126.75
515.074	155.75
515.29	430.75
515.506	1421.75
515.721	490.75
515.937	134.75
516.153	106.75
