Data from Uncirc_1996_H10_HRD10591_00046.txt Node
Date: Wed Jan 03 11:32:11 EST 2024
User: Yrep
Spectrometer: HR+D1059
Trigger mode: 1
Integration Time (sec): 1.000000E-1
Scans to average: 1
Electric dark correction enabled: true
Nonlinearity correction enabled: false
Boxcar width: 0
XAxis mode: Wavelengths
Number of Pixels in Spectrum: 2048
>>>>>Begin Spectral Data<<<<<
223.165	-16.25
223.4	-16.25
223.635	-16.25
223.869	-25.25
224.104	-12.25
224.338	-17.25
224.573	-24.25
224.808	-18.25
225.042	-17.25
225.277	-7.25
225.511	5.75
225.746	13.75
225.98	-2.25
226.215	12.75
226.449	18.75
226.683	31.75
226.918	35.75
227.152	21.75
227.387	39.75
227.621	45.75
227.856	39.75
228.09	57.75
228.324	52.75
228.559	68.75
228.793	68.75
229.027	78.75
229.262	80.75
229.496	87.75
229.73	77.75
229.964	93.75
230.199	64.75
230.433	63.75
230.667	65.75
230.901	79.75
231.136	84.75
231.37	72.75
231.604	60.75
231.838	79.75
232.072	91.75
232.306	80.75
232.541	78.75
232.775	76.75
233.009	77.75
233.243	79.75
233.477	68.75
233.711	86.75
233.945	81.75
234.179	77.75
234.413	90.75
234.647	77.75
234.881	100.75
235.115	78.75
235.349	89.75
235.583	97.75
235.817	79.75
236.051	79.75
236.285	79.75
236.519	80.75
236.753	85.75
236.987	71.75
237.221	74.75
237.455	87.75
237.689	59.75
237.922	94.75
238.156	71.75
238.39	73.75
238.624	73.75
238.858	71.75
239.091	81.75
239.325	70.75
239.559	71.75
239.793	79.75
240.027	91.75
240.26	82.75
240.494	76.75
240.728	88.75
240.961	75.75
241.195	78.75
241.429	81.75
241.662	76.75
241.896	64.75
242.13	75.75
242.363	83.75
242.597	72.75
242.83	89.75
243.064	79.75
243.298	80.75
243.531	81.75
243.765	77.75
243.998	81.75
244.232	74.75
244.465	85.75
244.699	77.75
244.932	84.75
245.166	80.75
245.399	86.75
245.633	71.75
245.866	77.75
246.099	71.75
246.333	73.75
246.566	81.75
246.8	76.75
247.033	75.75
247.266	76.75
247.5	72.75
247.733	70.75
247.966	77.75
248.2	78.75
248.433	78.75
248.666	85.75
248.899	85.75
249.133	85.75
249.366	91.75
249.599	90.75
249.832	89.75
250.066	90.75
250.299	87.75
250.532	74.75
250.765	86.75
250.998	79.75
251.231	79.75
251.465	80.75
251.698	71.75
251.931	71.75
252.164	90.75
252.397	85.75
252.63	74.75
252.863	80.75
253.096	79.75
253.329	82.75
253.562	89.75
253.795	85.75
254.028	95.75
254.261	69.75
254.494	67.75
254.727	79.75
254.96	78.75
255.193	72.75
255.426	51.75
255.659	86.75
255.892	87.75
256.124	88.75
256.357	82.75
256.59	79.75
256.823	65.75
257.056	81.75
257.289	74.75
257.521	71.75
257.754	86.75
257.987	75.75
258.22	86.75
258.452	81.75
258.685	71.75
258.918	78.75
259.151	77.75
259.383	79.75
259.616	81.75
259.849	76.75
260.081	90.75
260.314	72.75
260.547	91.75
260.779	87.75
261.012	92.75
261.244	71.75
261.477	100.75
261.71	96.75
261.942	103.75
262.175	102.75
262.407	86.75
262.64	77.75
262.872	91.75
263.105	74.75
263.337	75.75
263.57	79.75
263.802	75.75
264.035	78.75
264.267	85.75
264.499	95.75
264.732	85.75
264.964	80.75
265.197	74.75
265.429	85.75
265.661	84.75
265.894	94.75
266.126	95.75
266.358	94.75
266.591	93.75
266.823	78.75
267.055	88.75
267.287	91.75
267.52	79.75
267.752	90.75
267.984	87.75
268.216	75.75
268.448	84.75
268.681	80.75
268.913	74.75
269.145	79.75
269.377	84.75
269.609	91.75
269.841	95.75
270.073	93.75
270.306	70.75
270.538	78.75
270.77	91.75
271.002	69.75
271.234	80.75
271.466	78.75
271.698	87.75
271.93	83.75
272.162	78.75
272.394	79.75
272.626	83.75
272.858	84.75
273.09	86.75
273.322	97.75
273.553	81.75
273.785	94.75
274.017	72.75
274.249	84.75
274.481	79.75
274.713	77.75
274.945	90.75
275.176	69.75
275.408	105.75
275.64	91.75
275.872	99.75
276.104	84.75
276.335	89.75
276.567	103.75
276.799	97.75
277.031	81.75
277.262	91.75
277.494	83.75
277.726	83.75
277.957	81.75
278.189	75.75
278.421	93.75
278.652	81.75
278.884	87.75
279.115	96.75
279.347	84.75
279.579	103.75
279.81	79.75
280.042	87.75
280.273	90.75
280.505	87.75
280.736	88.75
280.968	84.75
281.199	94.75
281.431	95.75
281.662	89.75
281.894	82.75
282.125	103.75
282.356	111.75
282.588	114.75
282.819	103.75
283.051	97.75
283.282	83.75
283.513	78.75
283.745	78.75
283.976	94.75
284.207	82.75
284.439	96.75
284.67	101.75
284.901	90.75
285.132	97.75
285.364	68.75
285.595	79.75
285.826	68.75
286.057	87.75
286.288	83.75
286.52	80.75
286.751	95.75
286.982	86.75
287.213	86.75
287.444	80.75
287.675	99.75
287.906	87.75
288.138	89.75
288.369	92.75
288.6	78.75
288.831	77.75
289.062	84.75
289.293	79.75
289.524	83.75
289.755	81.75
289.986	78.75
290.217	78.75
290.448	84.75
290.679	91.75
290.91	86.75
291.141	96.75
291.371	85.75
291.602	87.75
291.833	80.75
292.064	95.75
292.295	90.75
292.526	89.75
292.757	86.75
292.987	84.75
293.218	81.75
293.449	101.75
293.68	87.75
293.91	85.75
294.141	91.75
294.372	78.75
294.603	81.75
294.833	84.75
295.064	77.75
295.295	84.75
295.525	88.75
295.756	78.75
295.987	109.75
296.217	113.75
296.448	103.75
296.679	83.75
296.909	88.75
297.14	101.75
297.37	100.75
297.601	89.75
297.831	87.75
298.062	101.75
298.292	91.75
298.523	79.75
298.753	92.75
298.984	91.75
299.214	87.75
299.445	93.75
299.675	93.75
299.905	88.75
300.136	92.75
300.366	89.75
300.597	94.75
300.827	85.75
301.057	90.75
301.288	89.75
301.518	97.75
301.748	101.75
301.979	88.75
302.209	96.75
302.439	84.75
302.669	84.75
302.9	73.75
303.13	86.75
303.36	89.75
303.59	108.75
303.82	103.75
304.051	79.75
304.281	74.75
304.511	80.75
304.741	91.75
304.971	84.75
305.201	91.75
305.431	78.75
305.661	94.75
305.891	70.75
306.121	82.75
306.352	94.75
306.582	105.75
306.812	93.75
307.042	87.75
307.272	84.75
307.502	84.75
307.731	87.75
307.961	72.75
308.191	85.75
308.421	103.75
308.651	94.75
308.881	91.75
309.111	85.75
309.341	84.75
309.571	82.75
309.8	97.75
310.03	90.75
310.26	97.75
310.49	94.75
310.72	82.75
310.949	92.75
311.179	92.75
311.409	94.75
311.639	92.75
311.868	84.75
312.098	90.75
312.328	83.75
312.557	104.75
312.787	99.75
313.017	98.75
313.246	110.75
313.476	85.75
313.706	95.75
313.935	78.75
314.165	99.75
314.394	99.75
314.624	100.75
314.853	89.75
315.083	81.75
315.312	86.75
315.542	78.75
315.771	80.75
316.001	85.75
316.23	85.75
316.46	93.75
316.689	80.75
316.919	94.75
317.148	108.75
317.377	93.75
317.607	94.75
317.836	96.75
318.065	86.75
318.295	91.75
318.524	83.75
318.753	91.75
318.983	101.75
319.212	88.75
319.441	102.75
319.67	96.75
319.9	94.75
320.129	75.75
320.358	79.75
320.587	88.75
320.816	95.75
321.046	96.75
321.275	92.75
321.504	93.75
321.733	88.75
321.962	93.75
322.191	109.75
322.42	95.75
322.649	109.75
322.878	116.75
323.108	116.75
323.337	125.75
323.566	126.75
323.795	151.75
324.024	189.75
324.253	386.75
324.482	822.75
324.71	1736.75
324.939	2249.75
325.168	815.75
325.397	238.75
325.626	145.75
325.855	137.75
326.084	122.75
326.313	135.75
326.542	142.75
326.77	226.75
326.999	446.75
327.228	976.75
327.457	1751.75
327.686	1388.75
327.914	372.75
328.143	228.75
328.372	160.75
328.6	117.75
328.829	127.75
329.058	130.75
329.287	111.75
329.515	109.75
329.744	84.75
329.972	85.75
330.201	101.75
330.43	107.75
330.658	123.75
330.887	149.75
331.115	109.75
331.344	95.75
331.572	108.75
331.801	112.75
332.03	122.75
332.258	101.75
332.486	92.75
332.715	90.75
332.943	94.75
333.172	99.75
333.4	93.75
333.629	95.75
333.857	105.75
334.085	104.75
334.314	89.75
334.542	106.75
334.771	103.75
334.999	106.75
335.227	84.75
335.455	90.75
335.684	92.75
335.912	94.75
336.14	92.75
336.369	97.75
336.597	93.75
336.825	86.75
337.053	89.75
337.281	83.75
337.51	95.75
337.738	94.75
337.966	106.75
338.194	118.75
338.422	124.75
338.65	117.75
338.878	99.75
339.106	97.75
339.334	92.75
339.562	76.75
339.79	91.75
340.018	86.75
340.246	84.75
340.474	100.75
340.702	93.75
340.93	82.75
341.158	83.75
341.386	95.75
341.614	99.75
341.842	91.75
342.07	74.75
342.298	92.75
342.526	84.75
342.754	88.75
342.981	73.75
343.209	92.75
343.437	96.75
343.665	71.75
343.893	94.75
344.12	89.75
344.348	81.75
344.576	90.75
344.804	75.75
345.031	90.75
345.259	97.75
345.487	104.75
345.714	91.75
345.942	83.75
346.17	94.75
346.397	90.75
346.625	76.75
346.853	90.75
347.08	90.75
347.308	91.75
347.535	91.75
347.763	93.75
347.99	78.75
348.218	97.75
348.445	114.75
348.673	85.75
348.9	92.75
349.128	94.75
349.355	87.75
349.583	96.75
349.81	63.75
350.037	95.75
350.265	94.75
350.492	97.75
350.72	82.75
350.947	91.75
351.174	112.75
351.402	94.75
351.629	107.75
351.856	95.75
352.083	110.75
352.311	95.75
352.538	104.75
352.765	87.75
352.992	101.75
353.22	116.75
353.447	105.75
353.674	103.75
353.901	98.75
354.128	87.75
354.355	86.75
354.583	96.75
354.81	95.75
355.037	92.75
355.264	90.75
355.491	94.75
355.718	77.75
355.945	88.75
356.172	86.75
356.399	83.75
356.626	110.75
356.853	105.75
357.08	91.75
357.307	91.75
357.534	89.75
357.761	86.75
357.988	83.75
358.215	95.75
358.441	91.75
358.668	90.75
358.895	71.75
359.122	82.75
359.349	83.75
359.576	91.75
359.802	103.75
360.029	106.75
360.256	94.75
360.483	91.75
360.709	91.75
360.936	87.75
361.163	93.75
361.39	85.75
361.616	77.75
361.843	86.75
362.07	109.75
362.296	95.75
362.523	93.75
362.749	90.75
362.976	107.75
363.203	77.75
363.429	85.75
363.656	88.75
363.882	73.75
364.109	90.75
364.335	96.75
364.562	85.75
364.788	84.75
365.015	81.75
365.241	83.75
365.468	97.75
365.694	94.75
365.92	87.75
366.147	91.75
366.373	87.75
366.599	79.75
366.826	96.75
367.052	76.75
367.278	114.75
367.505	91.75
367.731	96.75
367.957	89.75
368.184	97.75
368.41	99.75
368.636	105.75
368.862	120.75
369.089	99.75
369.315	90.75
369.541	100.75
369.767	77.75
369.993	85.75
370.219	80.75
370.445	79.75
370.672	80.75
370.898	80.75
371.124	94.75
371.35	91.75
371.576	86.75
371.802	85.75
372.028	82.75
372.254	75.75
372.48	92.75
372.706	76.75
372.932	89.75
373.158	75.75
373.384	101.75
373.61	87.75
373.835	88.75
374.061	94.75
374.287	98.75
374.513	78.75
374.739	67.75
374.965	75.75
375.191	90.75
375.416	81.75
375.642	86.75
375.868	88.75
376.094	81.75
376.319	79.75
376.545	92.75
376.771	80.75
376.997	89.75
377.222	86.75
377.448	93.75
377.674	83.75
377.899	99.75
378.125	87.75
378.35	83.75
378.576	84.75
378.802	87.75
379.027	83.75
379.253	86.75
379.478	90.75
379.704	91.75
379.929	84.75
380.155	93.75
380.38	78.75
380.606	89.75
380.831	93.75
381.057	86.75
381.282	97.75
381.507	95.75
381.733	90.75
381.958	90.75
382.184	94.75
382.409	92.75
382.634	95.75
382.86	74.75
383.085	89.75
383.31	85.75
383.535	85.75
383.761	98.75
383.986	90.75
384.211	94.75
384.436	97.75
384.662	97.75
384.887	81.75
385.112	91.75
385.337	88.75
385.562	97.75
385.787	92.75
386.013	105.75
386.238	121.75
386.463	116.75
386.688	98.75
386.913	111.75
387.138	91.75
387.363	95.75
387.588	88.75
387.813	94.75
388.038	111.75
388.263	100.75
388.488	91.75
388.713	87.75
388.938	92.75
389.163	89.75
389.387	86.75
389.612	72.75
389.837	93.75
390.062	91.75
390.287	77.75
390.512	95.75
390.736	96.75
390.961	97.75
391.186	86.75
391.411	94.75
391.636	86.75
391.86	85.75
392.085	74.75
392.31	87.75
392.534	83.75
392.759	89.75
392.984	82.75
393.208	89.75
393.433	91.75
393.658	97.75
393.882	88.75
394.107	82.75
394.331	83.75
394.556	79.75
394.78	86.75
395.005	93.75
395.229	78.75
395.454	90.75
395.678	77.75
395.903	92.75
396.127	85.75
396.352	89.75
396.576	92.75
396.801	71.75
397.025	91.75
397.249	78.75
397.474	81.75
397.698	98.75
397.922	84.75
398.147	91.75
398.371	88.75
398.595	88.75
398.82	91.75
399.044	91.75
399.268	76.75
399.492	70.75
399.717	71.75
399.941	80.75
400.165	92.75
400.389	84.75
400.613	84.75
400.837	85.75
401.062	92.75
401.286	93.75
401.51	86.75
401.734	86.75
401.958	89.75
402.182	121.75
402.406	143.75
402.63	110.75
402.854	90.75
403.078	96.75
403.302	81.75
403.526	75.75
403.75	77.75
403.974	81.75
404.198	97.75
404.422	82.75
404.645	72.75
404.869	93.75
405.093	81.75
405.317	86.75
405.541	95.75
405.765	93.75
405.988	122.75
406.212	169.75
406.436	197.75
406.66	125.75
406.883	86.75
407.107	97.75
407.331	95.75
407.555	95.75
407.778	84.75
408.002	88.75
408.226	96.75
408.449	74.75
408.673	78.75
408.896	83.75
409.12	85.75
409.344	83.75
409.567	87.75
409.791	80.75
410.014	92.75
410.238	92.75
410.461	89.75
410.685	84.75
410.908	97.75
411.132	110.75
411.355	96.75
411.578	95.75
411.802	93.75
412.025	103.75
412.249	97.75
412.472	89.75
412.695	91.75
412.919	87.75
413.142	79.75
413.365	89.75
413.589	107.75
413.812	106.75
414.035	86.75
414.258	82.75
414.482	79.75
414.705	86.75
414.928	80.75
415.151	86.75
415.374	82.75
415.597	81.75
415.821	91.75
416.044	89.75
416.267	81.75
416.49	78.75
416.713	79.75
416.936	75.75
417.159	75.75
417.382	76.75
417.605	88.75
417.828	73.75
418.051	83.75
418.274	106.75
418.497	85.75
418.72	84.75
418.943	77.75
419.166	90.75
419.389	75.75
419.611	101.75
419.834	88.75
420.057	82.75
420.28	80.75
420.503	81.75
420.726	83.75
420.948	93.75
421.171	107.75
421.394	95.75
421.617	87.75
421.839	90.75
422.062	93.75
422.285	89.75
422.507	97.75
422.73	101.75
422.953	87.75
423.175	97.75
423.398	83.75
423.621	91.75
423.843	96.75
424.066	73.75
424.288	93.75
424.511	86.75
424.733	107.75
424.956	105.75
425.178	98.75
425.401	101.75
425.623	107.75
425.846	96.75
426.068	95.75
426.291	76.75
426.513	89.75
426.735	95.75
426.958	99.75
427.18	104.75
427.402	143.75
427.625	166.75
427.847	123.75
428.069	97.75
428.292	85.75
428.514	96.75
428.736	85.75
428.958	88.75
429.181	77.75
429.403	68.75
429.625	92.75
429.847	89.75
430.069	88.75
430.292	86.75
430.514	81.75
430.736	81.75
430.958	100.75
431.18	71.75
431.402	87.75
431.624	79.75
431.846	74.75
432.068	84.75
432.29	90.75
432.512	91.75
432.734	89.75
432.956	96.75
433.178	103.75
433.4	94.75
433.622	106.75
433.844	85.75
434.066	90.75
434.287	83.75
434.509	77.75
434.731	88.75
434.953	91.75
435.175	84.75
435.397	89.75
435.618	81.75
435.84	104.75
436.062	123.75
436.284	115.75
436.505	97.75
436.727	105.75
436.949	77.75
437.17	83.75
437.392	93.75
437.614	88.75
437.835	105.75
438.057	125.75
438.278	118.75
438.5	98.75
438.721	109.75
438.943	95.75
439.165	80.75
439.386	83.75
439.608	91.75
439.829	102.75
440.05	122.75
440.272	140.75
440.493	103.75
440.715	79.75
440.936	87.75
441.158	83.75
441.379	85.75
441.6	72.75
441.822	92.75
442.043	98.75
442.264	103.75
442.486	105.75
442.707	93.75
442.928	105.75
443.149	140.75
443.371	133.75
443.592	109.75
443.813	112.75
444.034	96.75
444.255	88.75
444.476	88.75
444.698	74.75
444.919	89.75
445.14	124.75
445.361	115.75
445.582	116.75
445.803	147.75
446.024	141.75
446.245	126.75
446.466	123.75
446.687	96.75
446.908	91.75
447.129	78.75
447.35	85.75
447.571	89.75
447.792	85.75
448.013	97.75
448.234	104.75
448.455	87.75
448.675	117.75
448.896	125.75
449.117	105.75
449.338	113.75
449.559	128.75
449.779	137.75
450	105.75
450.221	87.75
450.442	86.75
450.662	87.75
450.883	102.75
451.104	113.75
451.324	93.75
451.545	86.75
451.766	64.75
451.986	94.75
452.207	74.75
452.428	79.75
452.648	97.75
452.869	100.75
453.089	113.75
453.31	107.75
453.53	100.75
453.751	87.75
453.971	106.75
454.192	104.75
454.412	90.75
454.633	86.75
454.853	93.75
455.073	80.75
455.294	92.75
455.514	108.75
455.734	78.75
455.955	93.75
456.175	82.75
456.395	79.75
456.616	106.75
456.836	83.75
457.056	85.75
457.276	72.75
457.497	77.75
457.717	79.75
457.937	83.75
458.157	85.75
458.377	83.75
458.598	103.75
458.818	149.75
459.038	143.75
459.258	100.75
459.478	71.75
459.698	88.75
459.918	89.75
460.138	78.75
460.358	80.75
460.578	91.75
460.798	79.75
461.018	77.75
461.238	89.75
461.458	91.75
461.678	79.75
461.898	86.75
462.118	86.75
462.338	84.75
462.558	87.75
462.777	87.75
462.997	75.75
463.217	90.75
463.437	72.75
463.657	84.75
463.876	85.75
464.096	94.75
464.316	71.75
464.536	83.75
464.755	91.75
464.975	95.75
465.195	152.75
465.414	148.75
465.634	91.75
465.854	77.75
466.073	84.75
466.293	89.75
466.512	87.75
466.732	88.75
466.951	72.75
467.171	84.75
467.391	92.75
467.61	94.75
467.829	83.75
468.049	84.75
468.268	87.75
468.488	72.75
468.707	77.75
468.927	78.75
469.146	88.75
469.365	77.75
469.585	91.75
469.804	85.75
470.023	106.75
470.243	81.75
470.462	102.75
470.681	101.75
470.901	97.75
471.12	81.75
471.339	79.75
471.558	88.75
471.777	92.75
471.997	88.75
472.216	68.75
472.435	78.75
472.654	82.75
472.873	87.75
473.092	78.75
473.311	89.75
473.53	91.75
473.749	90.75
473.968	87.75
474.187	107.75
474.406	85.75
474.625	93.75
474.844	73.75
475.063	79.75
475.282	77.75
475.501	79.75
475.72	76.75
475.939	91.75
476.158	92.75
476.377	88.75
476.596	67.75
476.814	90.75
477.033	78.75
477.252	89.75
477.471	96.75
477.69	72.75
477.908	81.75
478.127	90.75
478.346	94.75
478.564	102.75
478.783	95.75
479.002	83.75
479.22	88.75
479.439	94.75
479.658	97.75
479.876	101.75
480.095	92.75
480.313	80.75
480.532	67.75
480.751	79.75
480.969	100.75
481.188	101.75
481.406	95.75
481.624	69.75
481.843	71.75
482.061	93.75
482.28	94.75
482.498	78.75
482.717	95.75
482.935	83.75
483.153	75.75
483.372	88.75
483.59	83.75
483.808	100.75
484.027	86.75
484.245	78.75
484.463	105.75
484.681	95.75
484.9	104.75
485.118	93.75
485.336	82.75
485.554	100.75
485.772	81.75
485.99	98.75
486.209	93.75
486.427	90.75
486.645	95.75
486.863	109.75
487.081	84.75
487.299	87.75
487.517	84.75
487.735	100.75
487.953	90.75
488.171	85.75
488.389	86.75
488.607	80.75
488.825	98.75
489.043	97.75
489.261	89.75
489.479	85.75
489.696	84.75
489.914	87.75
490.132	90.75
490.35	88.75
490.568	86.75
490.786	89.75
491.003	86.75
491.221	102.75
491.439	83.75
491.657	88.75
491.874	75.75
492.092	74.75
492.31	78.75
492.527	89.75
492.745	96.75
492.963	76.75
493.18	84.75
493.398	92.75
493.615	86.75
493.833	77.75
494.05	79.75
494.268	86.75
494.485	90.75
494.703	87.75
494.92	83.75
495.138	86.75
495.355	88.75
495.573	106.75
495.79	87.75
496.008	92.75
496.225	66.75
496.442	90.75
496.66	81.75
496.877	91.75
497.094	93.75
497.312	79.75
497.529	80.75
497.746	91.75
497.963	75.75
498.181	94.75
498.398	96.75
498.615	97.75
498.832	101.75
499.049	76.75
499.267	80.75
499.484	85.75
499.701	84.75
499.918	99.75
500.135	113.75
500.352	94.75
500.569	87.75
500.786	102.75
501.003	94.75
501.22	84.75
501.437	93.75
501.654	89.75
501.871	105.75
502.088	78.75
502.305	95.75
502.522	88.75
502.739	94.75
502.956	109.75
503.172	83.75
503.389	84.75
503.606	108.75
503.823	104.75
504.04	85.75
504.256	77.75
504.473	85.75
504.69	85.75
504.907	78.75
505.123	93.75
505.34	86.75
505.557	92.75
505.773	86.75
505.99	102.75
506.207	85.75
506.423	79.75
506.64	101.75
506.856	78.75
507.073	93.75
507.289	86.75
507.506	90.75
507.722	102.75
507.939	100.75
508.155	98.75
508.372	75.75
508.588	83.75
508.805	103.75
509.021	87.75
509.238	81.75
509.454	100.75
509.67	93.75
509.887	111.75
510.103	116.75
510.319	193.75
510.536	708.75
510.752	2171.75
510.968	612.75
511.184	148.75
511.401	108.75
511.617	101.75
511.833	88.75
512.049	100.75
512.265	81.75
512.481	89.75
512.698	83.75
512.914	87.75
513.13	83.75
513.346	92.75
513.562	85.75
513.778	100.75
513.994	104.75
514.21	97.75
514.426	120.75
514.642	113.75
514.858	124.75
515.074	149.75
515.29	441.75
515.506	1405.75
515.721	489.75
515.937	135.75
516.153	104.75
516.369	97.75
516.585	97.75
