Data from Uncirc_1996_H10_HRD10591_00038.txt Node
Date: Wed Jan 03 11:32:10 EST 2024
User: Yrep
Spectrometer: HR+D1059
Trigger mode: 1
Integration Time (sec): 1.000000E-1
Scans to average: 1
Electric dark correction enabled: true
Nonlinearity correction enabled: false
Boxcar width: 0
XAxis mode: Wavelengths
Number of Pixels in Spectrum: 2048
>>>>>Begin Spectral Data<<<<<
223.165	-9.25
223.4	-9.25
223.635	-9.25
223.869	-28.25
224.104	-20.25
224.338	-26.25
224.573	-13.25
224.808	-7.25
225.042	-9.25
225.277	-20.25
225.511	12.75
225.746	2.75
225.98	16.75
226.215	9.75
226.449	14.75
226.683	17.75
226.918	28.75
227.152	30.75
227.387	25.75
227.621	24.75
227.856	50.75
228.09	49.75
228.324	48.75
228.559	52.75
228.793	66.75
229.027	73.75
229.262	61.75
229.496	72.75
229.73	72.75
229.964	57.75
230.199	69.75
230.433	70.75
230.667	87.75
230.901	74.75
231.136	62.75
231.37	74.75
231.604	61.75
231.838	68.75
232.072	69.75
232.306	69.75
232.541	78.75
232.775	69.75
233.009	89.75
233.243	87.75
233.477	60.75
233.711	78.75
233.945	66.75
234.179	83.75
234.413	74.75
234.647	58.75
234.881	72.75
235.115	70.75
235.349	81.75
235.583	67.75
235.817	59.75
236.051	61.75
236.285	73.75
236.519	69.75
236.753	74.75
236.987	81.75
237.221	60.75
237.455	78.75
237.689	80.75
237.922	54.75
238.156	83.75
238.39	84.75
238.624	75.75
238.858	65.75
239.091	77.75
239.325	68.75
239.559	75.75
239.793	68.75
240.027	70.75
240.26	62.75
240.494	61.75
240.728	69.75
240.961	64.75
241.195	84.75
241.429	65.75
241.662	82.75
241.896	71.75
242.13	75.75
242.363	81.75
242.597	77.75
242.83	73.75
243.064	70.75
243.298	71.75
243.531	66.75
243.765	77.75
243.998	78.75
244.232	73.75
244.465	66.75
244.699	76.75
244.932	81.75
245.166	66.75
245.399	76.75
245.633	80.75
245.866	87.75
246.099	79.75
246.333	81.75
246.566	75.75
246.8	66.75
247.033	79.75
247.266	73.75
247.5	85.75
247.733	80.75
247.966	83.75
248.2	75.75
248.433	70.75
248.666	65.75
248.899	81.75
249.133	83.75
249.366	93.75
249.599	80.75
249.832	70.75
250.066	70.75
250.299	89.75
250.532	73.75
250.765	72.75
250.998	74.75
251.231	73.75
251.465	69.75
251.698	61.75
251.931	68.75
252.164	72.75
252.397	85.75
252.63	82.75
252.863	69.75
253.096	74.75
253.329	80.75
253.562	78.75
253.795	83.75
254.028	88.75
254.261	86.75
254.494	76.75
254.727	68.75
254.96	84.75
255.193	80.75
255.426	81.75
255.659	80.75
255.892	87.75
256.124	85.75
256.357	81.75
256.59	60.75
256.823	55.75
257.056	72.75
257.289	70.75
257.521	76.75
257.754	90.75
257.987	88.75
258.22	77.75
258.452	76.75
258.685	60.75
258.918	75.75
259.151	72.75
259.383	76.75
259.616	80.75
259.849	71.75
260.081	72.75
260.314	80.75
260.547	84.75
260.779	71.75
261.012	77.75
261.244	89.75
261.477	87.75
261.71	81.75
261.942	102.75
262.175	109.75
262.407	80.75
262.64	78.75
262.872	80.75
263.105	77.75
263.337	81.75
263.57	84.75
263.802	89.75
264.035	88.75
264.267	62.75
264.499	64.75
264.732	69.75
264.964	85.75
265.197	85.75
265.429	87.75
265.661	75.75
265.894	79.75
266.126	80.75
266.358	80.75
266.591	77.75
266.823	72.75
267.055	75.75
267.287	75.75
267.52	76.75
267.752	75.75
267.984	86.75
268.216	78.75
268.448	87.75
268.681	73.75
268.913	88.75
269.145	80.75
269.377	93.75
269.609	80.75
269.841	76.75
270.073	78.75
270.306	77.75
270.538	82.75
270.77	83.75
271.002	85.75
271.234	65.75
271.466	67.75
271.698	77.75
271.93	75.75
272.162	65.75
272.394	91.75
272.626	93.75
272.858	84.75
273.09	86.75
273.322	71.75
273.553	85.75
273.785	92.75
274.017	73.75
274.249	81.75
274.481	77.75
274.713	74.75
274.945	87.75
275.176	96.75
275.408	86.75
275.64	87.75
275.872	80.75
276.104	80.75
276.335	67.75
276.567	85.75
276.799	94.75
277.031	86.75
277.262	86.75
277.494	96.75
277.726	75.75
277.957	84.75
278.189	83.75
278.421	77.75
278.652	97.75
278.884	72.75
279.115	80.75
279.347	74.75
279.579	86.75
279.81	67.75
280.042	92.75
280.273	74.75
280.505	83.75
280.736	79.75
280.968	88.75
281.199	85.75
281.431	83.75
281.662	88.75
281.894	89.75
282.125	95.75
282.356	94.75
282.588	117.75
282.819	100.75
283.051	94.75
283.282	77.75
283.513	89.75
283.745	73.75
283.976	76.75
284.207	87.75
284.439	81.75
284.67	74.75
284.901	88.75
285.132	82.75
285.364	75.75
285.595	70.75
285.826	75.75
286.057	70.75
286.288	89.75
286.52	82.75
286.751	72.75
286.982	77.75
287.213	80.75
287.444	70.75
287.675	85.75
287.906	76.75
288.138	82.75
288.369	80.75
288.6	88.75
288.831	76.75
289.062	78.75
289.293	80.75
289.524	71.75
289.755	84.75
289.986	82.75
290.217	84.75
290.448	73.75
290.679	100.75
290.91	84.75
291.141	75.75
291.371	83.75
291.602	89.75
291.833	74.75
292.064	91.75
292.295	74.75
292.526	60.75
292.757	89.75
292.987	70.75
293.218	85.75
293.449	83.75
293.68	83.75
293.91	91.75
294.141	92.75
294.372	75.75
294.603	73.75
294.833	81.75
295.064	73.75
295.295	87.75
295.525	76.75
295.756	86.75
295.987	109.75
296.217	124.75
296.448	104.75
296.679	70.75
296.909	88.75
297.14	75.75
297.37	88.75
297.601	88.75
297.831	93.75
298.062	84.75
298.292	79.75
298.523	90.75
298.753	86.75
298.984	73.75
299.214	90.75
299.445	85.75
299.675	83.75
299.905	95.75
300.136	85.75
300.366	98.75
300.597	85.75
300.827	86.75
301.057	85.75
301.288	94.75
301.518	79.75
301.748	92.75
301.979	94.75
302.209	87.75
302.439	80.75
302.669	86.75
302.9	74.75
303.13	91.75
303.36	85.75
303.59	89.75
303.82	106.75
304.051	96.75
304.281	85.75
304.511	69.75
304.741	79.75
304.971	88.75
305.201	105.75
305.431	82.75
305.661	86.75
305.891	82.75
306.121	95.75
306.352	103.75
306.582	94.75
306.812	90.75
307.042	95.75
307.272	96.75
307.502	96.75
307.731	107.75
307.961	62.75
308.191	84.75
308.421	91.75
308.651	82.75
308.881	71.75
309.111	88.75
309.341	85.75
309.571	103.75
309.8	84.75
310.03	101.75
310.26	96.75
310.49	93.75
310.72	93.75
310.949	85.75
311.179	90.75
311.409	74.75
311.639	86.75
311.868	103.75
312.098	94.75
312.328	90.75
312.557	92.75
312.787	93.75
313.017	104.75
313.246	78.75
313.476	84.75
313.706	78.75
313.935	83.75
314.165	83.75
314.394	88.75
314.624	90.75
314.853	76.75
315.083	94.75
315.312	82.75
315.542	90.75
315.771	93.75
316.001	102.75
316.23	97.75
316.46	76.75
316.689	75.75
316.919	84.75
317.148	91.75
317.377	90.75
317.607	87.75
317.836	84.75
318.065	82.75
318.295	88.75
318.524	93.75
318.753	100.75
318.983	93.75
319.212	83.75
319.441	102.75
319.67	117.75
319.9	96.75
320.129	87.75
320.358	81.75
320.587	90.75
320.816	94.75
321.046	88.75
321.275	84.75
321.504	83.75
321.733	75.75
321.962	94.75
322.191	86.75
322.42	104.75
322.649	120.75
322.878	110.75
323.108	117.75
323.337	108.75
323.566	133.75
323.795	146.75
324.024	206.75
324.253	356.75
324.482	795.75
324.71	1584.75
324.939	2090.75
325.168	767.75
325.397	229.75
325.626	146.75
325.855	126.75
326.084	104.75
326.313	139.75
326.542	141.75
326.77	212.75
326.999	447.75
327.228	896.75
327.457	1683.75
327.686	1319.75
327.914	359.75
328.143	196.75
328.372	161.75
328.6	133.75
328.829	112.75
329.058	109.75
329.287	121.75
329.515	96.75
329.744	104.75
329.972	111.75
330.201	110.75
330.43	91.75
330.658	113.75
330.887	124.75
331.115	107.75
331.344	91.75
331.572	92.75
331.801	85.75
332.03	95.75
332.258	89.75
332.486	90.75
332.715	89.75
332.943	74.75
333.172	89.75
333.4	93.75
333.629	99.75
333.857	96.75
334.085	91.75
334.314	84.75
334.542	69.75
334.771	83.75
334.999	89.75
335.227	98.75
335.455	90.75
335.684	85.75
335.912	85.75
336.14	90.75
336.369	88.75
336.597	90.75
336.825	88.75
337.053	101.75
337.281	90.75
337.51	81.75
337.738	99.75
337.966	88.75
338.194	108.75
338.422	108.75
338.65	104.75
338.878	96.75
339.106	77.75
339.334	85.75
339.562	77.75
339.79	77.75
340.018	78.75
340.246	91.75
340.474	88.75
340.702	89.75
340.93	91.75
341.158	92.75
341.386	98.75
341.614	93.75
341.842	78.75
342.07	79.75
342.298	107.75
342.526	77.75
342.754	73.75
342.981	79.75
343.209	91.75
343.437	91.75
343.665	86.75
343.893	93.75
344.12	85.75
344.348	81.75
344.576	89.75
344.804	92.75
345.031	88.75
345.259	104.75
345.487	93.75
345.714	88.75
345.942	77.75
346.17	85.75
346.397	87.75
346.625	71.75
346.853	77.75
347.08	88.75
347.308	88.75
347.535	101.75
347.763	93.75
347.99	94.75
348.218	92.75
348.445	88.75
348.673	80.75
348.9	88.75
349.128	100.75
349.355	83.75
349.583	91.75
349.81	96.75
350.037	80.75
350.265	104.75
350.492	74.75
350.72	84.75
350.947	87.75
351.174	99.75
351.402	100.75
351.629	96.75
351.856	86.75
352.083	91.75
352.311	101.75
352.538	109.75
352.765	97.75
352.992	96.75
353.22	110.75
353.447	96.75
353.674	92.75
353.901	85.75
354.128	95.75
354.355	102.75
354.583	89.75
354.81	83.75
355.037	102.75
355.264	80.75
355.491	109.75
355.718	98.75
355.945	92.75
356.172	100.75
356.399	97.75
356.626	92.75
356.853	90.75
357.08	74.75
357.307	88.75
357.534	89.75
357.761	88.75
357.988	97.75
358.215	94.75
358.441	90.75
358.668	88.75
358.895	84.75
359.122	83.75
359.349	73.75
359.576	94.75
359.802	94.75
360.029	99.75
360.256	93.75
360.483	89.75
360.709	83.75
360.936	77.75
361.163	82.75
361.39	83.75
361.616	95.75
361.843	70.75
362.07	84.75
362.296	82.75
362.523	83.75
362.749	61.75
362.976	85.75
363.203	82.75
363.429	84.75
363.656	94.75
363.882	81.75
364.109	86.75
364.335	72.75
364.562	84.75
364.788	89.75
365.015	93.75
365.241	91.75
365.468	101.75
365.694	97.75
365.92	101.75
366.147	88.75
366.373	80.75
366.599	86.75
366.826	75.75
367.052	76.75
367.278	91.75
367.505	68.75
367.731	81.75
367.957	83.75
368.184	82.75
368.41	85.75
368.636	103.75
368.862	107.75
369.089	92.75
369.315	93.75
369.541	87.75
369.767	73.75
369.993	97.75
370.219	86.75
370.445	86.75
370.672	77.75
370.898	78.75
371.124	76.75
371.35	87.75
371.576	92.75
371.802	67.75
372.028	85.75
372.254	86.75
372.48	83.75
372.706	90.75
372.932	78.75
373.158	91.75
373.384	78.75
373.61	87.75
373.835	87.75
374.061	86.75
374.287	77.75
374.513	61.75
374.739	80.75
374.965	74.75
375.191	78.75
375.416	72.75
375.642	86.75
375.868	86.75
376.094	84.75
376.319	90.75
376.545	85.75
376.771	77.75
376.997	80.75
377.222	74.75
377.448	102.75
377.674	86.75
377.899	76.75
378.125	74.75
378.35	88.75
378.576	84.75
378.802	76.75
379.027	93.75
379.253	71.75
379.478	77.75
379.704	85.75
379.929	91.75
380.155	75.75
380.38	88.75
380.606	86.75
380.831	90.75
381.057	92.75
381.282	86.75
381.507	87.75
381.733	94.75
381.958	90.75
382.184	84.75
382.409	98.75
382.634	83.75
382.86	85.75
383.085	89.75
383.31	98.75
383.535	93.75
383.761	103.75
383.986	105.75
384.211	89.75
384.436	94.75
384.662	94.75
384.887	92.75
385.112	98.75
385.337	99.75
385.562	94.75
385.787	96.75
386.013	97.75
386.238	104.75
386.463	77.75
386.688	103.75
386.913	101.75
387.138	98.75
387.363	92.75
387.588	94.75
387.813	96.75
388.038	94.75
388.263	82.75
388.488	91.75
388.713	99.75
388.938	90.75
389.163	78.75
389.387	98.75
389.612	86.75
389.837	97.75
390.062	80.75
390.287	82.75
390.512	85.75
390.736	80.75
390.961	86.75
391.186	91.75
391.411	82.75
391.636	80.75
391.86	61.75
392.085	76.75
392.31	84.75
392.534	73.75
392.759	84.75
392.984	83.75
393.208	83.75
393.433	97.75
393.658	80.75
393.882	84.75
394.107	88.75
394.331	69.75
394.556	74.75
394.78	85.75
395.005	71.75
395.229	88.75
395.454	80.75
395.678	82.75
395.903	98.75
396.127	89.75
396.352	66.75
396.576	88.75
396.801	97.75
397.025	90.75
397.249	69.75
397.474	87.75
397.698	89.75
397.922	86.75
398.147	94.75
398.371	73.75
398.595	77.75
398.82	86.75
399.044	78.75
399.268	86.75
399.492	89.75
399.717	98.75
399.941	82.75
400.165	80.75
400.389	91.75
400.613	72.75
400.837	81.75
401.062	85.75
401.286	77.75
401.51	83.75
401.734	80.75
401.958	86.75
402.182	110.75
402.406	139.75
402.63	100.75
402.854	82.75
403.078	75.75
403.302	58.75
403.526	69.75
403.75	70.75
403.974	72.75
404.198	71.75
404.422	84.75
404.645	80.75
404.869	70.75
405.093	82.75
405.317	101.75
405.541	89.75
405.765	100.75
405.988	100.75
406.212	158.75
406.436	178.75
406.66	118.75
406.883	87.75
407.107	90.75
407.331	86.75
407.555	91.75
407.778	96.75
408.002	80.75
408.226	87.75
408.449	77.75
408.673	88.75
408.896	87.75
409.12	89.75
409.344	105.75
409.567	88.75
409.791	89.75
410.014	90.75
410.238	84.75
410.461	83.75
410.685	92.75
410.908	103.75
411.132	92.75
411.355	100.75
411.578	103.75
411.802	83.75
412.025	90.75
412.249	91.75
412.472	94.75
412.695	72.75
412.919	83.75
413.142	88.75
413.365	88.75
413.589	80.75
413.812	81.75
414.035	72.75
414.258	76.75
414.482	75.75
414.705	89.75
414.928	83.75
415.151	85.75
415.374	84.75
415.597	96.75
415.821	64.75
416.044	70.75
416.267	85.75
416.49	99.75
416.713	81.75
416.936	71.75
417.159	79.75
417.382	98.75
417.605	92.75
417.828	87.75
418.051	97.75
418.274	78.75
418.497	84.75
418.72	79.75
418.943	83.75
419.166	99.75
419.389	90.75
419.611	91.75
419.834	78.75
420.057	85.75
420.28	83.75
420.503	86.75
420.726	82.75
420.948	78.75
421.171	87.75
421.394	88.75
421.617	81.75
421.839	91.75
422.062	73.75
422.285	92.75
422.507	92.75
422.73	105.75
422.953	93.75
423.175	91.75
423.398	91.75
423.621	83.75
423.843	93.75
424.066	77.75
424.288	91.75
424.511	95.75
424.733	85.75
424.956	94.75
425.178	93.75
425.401	90.75
425.623	89.75
425.846	80.75
426.068	95.75
426.291	87.75
426.513	74.75
426.735	79.75
426.958	87.75
427.18	81.75
427.402	136.75
427.625	136.75
427.847	102.75
428.069	91.75
428.292	79.75
428.514	72.75
428.736	71.75
428.958	74.75
429.181	81.75
429.403	76.75
429.625	84.75
429.847	83.75
430.069	92.75
430.292	84.75
430.514	83.75
430.736	89.75
430.958	78.75
431.18	72.75
431.402	74.75
431.624	82.75
431.846	77.75
432.068	84.75
432.29	63.75
432.512	85.75
432.734	72.75
432.956	84.75
433.178	70.75
433.4	77.75
433.622	81.75
433.844	87.75
434.066	89.75
434.287	85.75
434.509	81.75
434.731	76.75
434.953	76.75
435.175	72.75
435.397	88.75
435.618	89.75
435.84	100.75
436.062	115.75
436.284	115.75
436.505	87.75
436.727	101.75
436.949	92.75
437.17	81.75
437.392	86.75
437.614	101.75
437.835	99.75
438.057	107.75
438.278	98.75
438.5	101.75
438.721	112.75
438.943	101.75
439.165	82.75
439.386	79.75
439.608	84.75
439.829	97.75
440.05	114.75
440.272	128.75
440.493	88.75
440.715	81.75
440.936	90.75
441.158	76.75
441.379	82.75
441.6	80.75
441.822	81.75
442.043	96.75
442.264	109.75
442.486	109.75
442.707	83.75
442.928	109.75
443.149	120.75
443.371	112.75
443.592	116.75
443.813	100.75
444.034	98.75
444.255	90.75
444.476	86.75
444.698	79.75
444.919	87.75
445.14	138.75
445.361	117.75
445.582	112.75
445.803	121.75
446.024	136.75
446.245	148.75
446.466	110.75
446.687	94.75
446.908	89.75
447.129	84.75
447.35	88.75
447.571	80.75
447.792	89.75
448.013	98.75
448.234	112.75
448.455	93.75
448.675	123.75
448.896	108.75
449.117	89.75
449.338	103.75
449.559	133.75
449.779	123.75
450	89.75
450.221	84.75
450.442	108.75
450.662	80.75
450.883	93.75
451.104	105.75
451.324	83.75
451.545	74.75
451.766	91.75
451.986	88.75
452.207	82.75
452.428	89.75
452.648	99.75
452.869	102.75
453.089	111.75
453.31	92.75
453.53	83.75
453.751	81.75
453.971	94.75
454.192	104.75
454.412	92.75
454.633	79.75
454.853	75.75
455.073	73.75
455.294	90.75
455.514	102.75
455.734	81.75
455.955	88.75
456.175	76.75
456.395	66.75
456.616	77.75
456.836	66.75
457.056	99.75
457.276	83.75
457.497	88.75
457.717	84.75
457.937	79.75
458.157	80.75
458.377	85.75
458.598	89.75
458.818	119.75
459.038	150.75
459.258	89.75
459.478	90.75
459.698	71.75
459.918	83.75
460.138	76.75
460.358	82.75
460.578	74.75
460.798	101.75
461.018	88.75
461.238	72.75
461.458	92.75
461.678	75.75
461.898	85.75
462.118	87.75
462.338	81.75
462.558	96.75
462.777	69.75
462.997	79.75
463.217	77.75
463.437	64.75
463.657	85.75
463.876	87.75
464.096	78.75
464.316	83.75
464.536	86.75
464.755	78.75
464.975	98.75
465.195	136.75
465.414	143.75
465.634	98.75
465.854	70.75
466.073	81.75
466.293	81.75
466.512	75.75
466.732	73.75
466.951	87.75
467.171	88.75
467.391	103.75
467.61	91.75
467.829	91.75
468.049	77.75
468.268	70.75
468.488	97.75
468.707	71.75
468.927	78.75
469.146	85.75
469.365	81.75
469.585	88.75
469.804	88.75
470.023	79.75
470.243	83.75
470.462	98.75
470.681	93.75
470.901	65.75
471.12	85.75
471.339	78.75
471.558	93.75
471.777	104.75
471.997	84.75
472.216	85.75
472.435	85.75
472.654	88.75
472.873	96.75
473.092	89.75
473.311	61.75
473.53	73.75
473.749	80.75
473.968	95.75
474.187	112.75
474.406	81.75
474.625	78.75
474.844	80.75
475.063	77.75
475.282	72.75
475.501	67.75
475.72	78.75
475.939	84.75
476.158	83.75
476.377	87.75
476.596	79.75
476.814	84.75
477.033	96.75
477.252	84.75
477.471	67.75
477.69	80.75
477.908	92.75
478.127	82.75
478.346	92.75
478.564	75.75
478.783	89.75
479.002	82.75
479.22	80.75
479.439	90.75
479.658	91.75
479.876	88.75
480.095	91.75
480.313	72.75
480.532	88.75
480.751	86.75
480.969	92.75
481.188	90.75
481.406	87.75
481.624	78.75
481.843	78.75
482.061	85.75
482.28	89.75
482.498	82.75
482.717	68.75
482.935	87.75
483.153	81.75
483.372	76.75
483.59	82.75
483.808	89.75
484.027	86.75
484.245	86.75
484.463	88.75
484.681	101.75
484.9	96.75
485.118	92.75
485.336	86.75
485.554	83.75
485.772	84.75
485.99	89.75
486.209	84.75
486.427	94.75
486.645	113.75
486.863	97.75
487.081	101.75
487.299	105.75
487.517	85.75
487.735	83.75
487.953	93.75
488.171	108.75
488.389	90.75
488.607	92.75
488.825	87.75
489.043	78.75
489.261	81.75
489.479	81.75
489.696	90.75
489.914	83.75
490.132	86.75
490.35	88.75
490.568	73.75
490.786	77.75
491.003	94.75
491.221	97.75
491.439	99.75
491.657	98.75
491.874	85.75
492.092	72.75
492.31	94.75
492.527	104.75
492.745	78.75
492.963	80.75
493.18	75.75
493.398	97.75
493.615	98.75
493.833	95.75
494.05	82.75
494.268	87.75
494.485	94.75
494.703	63.75
494.92	101.75
495.138	88.75
495.355	76.75
495.573	93.75
495.79	83.75
496.008	99.75
496.225	83.75
496.442	97.75
496.66	87.75
496.877	86.75
497.094	94.75
497.312	96.75
497.529	97.75
497.746	70.75
497.963	79.75
498.181	91.75
498.398	86.75
498.615	93.75
498.832	98.75
499.049	91.75
499.267	78.75
499.484	88.75
499.701	104.75
499.918	77.75
500.135	75.75
500.352	80.75
500.569	79.75
500.786	76.75
501.003	79.75
501.22	93.75
501.437	85.75
501.654	85.75
501.871	88.75
502.088	89.75
502.305	85.75
502.522	76.75
502.739	82.75
502.956	102.75
503.172	90.75
503.389	87.75
503.606	94.75
503.823	94.75
504.04	93.75
504.256	92.75
504.473	83.75
504.69	90.75
504.907	91.75
505.123	89.75
505.34	87.75
505.557	84.75
505.773	81.75
505.99	79.75
506.207	82.75
506.423	73.75
506.64	91.75
506.856	92.75
507.073	101.75
507.289	77.75
507.506	76.75
507.722	99.75
507.939	92.75
508.155	91.75
508.372	92.75
508.588	93.75
508.805	93.75
509.021	94.75
509.238	101.75
509.454	96.75
509.67	97.75
509.887	101.75
510.103	111.75
510.319	172.75
510.536	643.75
510.752	2003.75
510.968	548.75
511.184	136.75
511.401	111.75
511.617	102.75
511.833	80.75
512.049	85.75
512.265	90.75
512.481	94.75
512.698	97.75
512.914	85.75
513.13	87.75
513.346	82.75
513.562	85.75
513.778	89.75
513.994	85.75
514.21	85.75
514.426	113.75
514.642	116.75
514.858	109.75
515.074	146.75
515.29	389.75
515.506	1241.75
515.721	457.75
515.937	126.75
516.153	96.75
516.369	94.75
516.585	93.75
516.801	90.75
517.016	96.75
517.232	83.75
517.448	109.75
517.664	78.75
