Data from Uncirc_1996_H10_HRD10591_00081.txt Node
Date: Wed Jan 03 11:32:18 EST 2024
User: Yrep
Spectrometer: HR+D1059
Trigger mode: 1
Integration Time (sec): 1.000000E-1
Scans to average: 1
Electric dark correction enabled: true
Nonlinearity correction enabled: false
Boxcar width: 0
XAxis mode: Wavelengths
Number of Pixels in Spectrum: 2048
>>>>>Begin Spectral Data<<<<<
223.165	-2.56
223.4	-2.56
223.635	-2.56
223.869	-21.56
224.104	-18.56
224.338	-7.56
224.573	-15.56
224.808	-6.56
225.042	-23.56
225.277	-10.56
225.511	-2.56
225.746	14.44
225.98	10.44
226.215	-1.56
226.449	14.44
226.683	9.44
226.918	33.44
227.152	28.44
227.387	42.44
227.621	38.44
227.856	53.44
228.09	43.44
228.324	52.44
228.559	54.44
228.793	56.44
229.027	46.44
229.262	54.44
229.496	67.44
229.73	80.44
229.964	90.44
230.199	75.44
230.433	79.44
230.667	61.44
230.901	73.44
231.136	89.44
231.37	80.44
231.604	93.44
231.838	69.44
232.072	86.44
232.306	82.44
232.541	76.44
232.775	90.44
233.009	78.44
233.243	73.44
233.477	73.44
233.711	82.44
233.945	83.44
234.179	77.44
234.413	80.44
234.647	77.44
234.881	73.44
235.115	83.44
235.349	80.44
235.583	97.44
235.817	86.44
236.051	81.44
236.285	81.44
236.519	86.44
236.753	90.44
236.987	78.44
237.221	81.44
237.455	77.44
237.689	72.44
237.922	76.44
238.156	77.44
238.39	65.44
238.624	74.44
238.858	71.44
239.091	89.44
239.325	84.44
239.559	90.44
239.793	81.44
240.027	78.44
240.26	67.44
240.494	70.44
240.728	84.44
240.961	86.44
241.195	80.44
241.429	78.44
241.662	77.44
241.896	89.44
242.13	93.44
242.363	80.44
242.597	56.44
242.83	77.44
243.064	71.44
243.298	81.44
243.531	83.44
243.765	95.44
243.998	85.44
244.232	79.44
244.465	82.44
244.699	82.44
244.932	80.44
245.166	75.44
245.399	73.44
245.633	65.44
245.866	75.44
246.099	78.44
246.333	76.44
246.566	65.44
246.8	75.44
247.033	79.44
247.266	79.44
247.5	70.44
247.733	82.44
247.966	88.44
248.2	81.44
248.433	81.44
248.666	82.44
248.899	86.44
249.133	89.44
249.366	87.44
249.599	92.44
249.832	78.44
250.066	94.44
250.299	80.44
250.532	66.44
250.765	81.44
250.998	76.44
251.231	79.44
251.465	73.44
251.698	80.44
251.931	73.44
252.164	74.44
252.397	90.44
252.63	77.44
252.863	89.44
253.096	86.44
253.329	83.44
253.562	65.44
253.795	72.44
254.028	83.44
254.261	86.44
254.494	91.44
254.727	83.44
254.96	91.44
255.193	82.44
255.426	83.44
255.659	69.44
255.892	77.44
256.124	82.44
256.357	77.44
256.59	64.44
256.823	73.44
257.056	90.44
257.289	72.44
257.521	76.44
257.754	74.44
257.987	88.44
258.22	78.44
258.452	70.44
258.685	73.44
258.918	75.44
259.151	75.44
259.383	83.44
259.616	86.44
259.849	77.44
260.081	76.44
260.314	75.44
260.547	74.44
260.779	74.44
261.012	73.44
261.244	80.44
261.477	91.44
261.71	81.44
261.942	107.44
262.175	108.44
262.407	78.44
262.64	74.44
262.872	81.44
263.105	78.44
263.337	100.44
263.57	88.44
263.802	81.44
264.035	62.44
264.267	73.44
264.499	85.44
264.732	85.44
264.964	88.44
265.197	91.44
265.429	86.44
265.661	91.44
265.894	92.44
266.126	85.44
266.358	86.44
266.591	79.44
266.823	80.44
267.055	74.44
267.287	88.44
267.52	91.44
267.752	78.44
267.984	88.44
268.216	78.44
268.448	93.44
268.681	88.44
268.913	82.44
269.145	74.44
269.377	77.44
269.609	75.44
269.841	71.44
270.073	84.44
270.306	78.44
270.538	81.44
270.77	83.44
271.002	99.44
271.234	78.44
271.466	86.44
271.698	81.44
271.93	85.44
272.162	86.44
272.394	81.44
272.626	100.44
272.858	80.44
273.09	81.44
273.322	76.44
273.553	89.44
273.785	93.44
274.017	82.44
274.249	86.44
274.481	83.44
274.713	97.44
274.945	85.44
275.176	92.44
275.408	97.44
275.64	84.44
275.872	89.44
276.104	76.44
276.335	85.44
276.567	104.44
276.799	120.44
277.031	113.44
277.262	90.44
277.494	83.44
277.726	85.44
277.957	90.44
278.189	71.44
278.421	85.44
278.652	81.44
278.884	81.44
279.115	72.44
279.347	85.44
279.579	79.44
279.81	85.44
280.042	85.44
280.273	77.44
280.505	83.44
280.736	99.44
280.968	83.44
281.199	90.44
281.431	90.44
281.662	98.44
281.894	84.44
282.125	106.44
282.356	113.44
282.588	150.44
282.819	119.44
283.051	96.44
283.282	91.44
283.513	98.44
283.745	85.44
283.976	88.44
284.207	78.44
284.439	81.44
284.67	90.44
284.901	88.44
285.132	83.44
285.364	88.44
285.595	91.44
285.826	89.44
286.057	91.44
286.288	87.44
286.52	90.44
286.751	85.44
286.982	80.44
287.213	87.44
287.444	86.44
287.675	86.44
287.906	91.44
288.138	96.44
288.369	98.44
288.6	81.44
288.831	89.44
289.062	87.44
289.293	92.44
289.524	80.44
289.755	78.44
289.986	70.44
290.217	92.44
290.448	87.44
290.679	87.44
290.91	79.44
291.141	87.44
291.371	92.44
291.602	91.44
291.833	78.44
292.064	89.44
292.295	86.44
292.526	89.44
292.757	80.44
292.987	87.44
293.218	83.44
293.449	84.44
293.68	84.44
293.91	97.44
294.141	93.44
294.372	81.44
294.603	86.44
294.833	89.44
295.064	95.44
295.295	87.44
295.525	100.44
295.756	90.44
295.987	115.44
296.217	133.44
296.448	113.44
296.679	98.44
296.909	83.44
297.14	81.44
297.37	95.44
297.601	97.44
297.831	82.44
298.062	79.44
298.292	91.44
298.523	94.44
298.753	78.44
298.984	99.44
299.214	85.44
299.445	101.44
299.675	101.44
299.905	89.44
300.136	78.44
300.366	83.44
300.597	86.44
300.827	110.44
301.057	109.44
301.288	118.44
301.518	94.44
301.748	86.44
301.979	99.44
302.209	93.44
302.439	97.44
302.669	91.44
302.9	104.44
303.13	91.44
303.36	91.44
303.59	99.44
303.82	101.44
304.051	99.44
304.281	87.44
304.511	87.44
304.741	78.44
304.971	83.44
305.201	87.44
305.431	110.44
305.661	85.44
305.891	98.44
306.121	95.44
306.352	92.44
306.582	111.44
306.812	85.44
307.042	83.44
307.272	94.44
307.502	92.44
307.731	94.44
307.961	94.44
308.191	87.44
308.421	95.44
308.651	96.44
308.881	88.44
309.111	84.44
309.341	87.44
309.571	93.44
309.8	87.44
310.03	95.44
310.26	97.44
310.49	98.44
310.72	99.44
310.949	105.44
311.179	98.44
311.409	91.44
311.639	90.44
311.868	91.44
312.098	96.44
312.328	117.44
312.557	105.44
312.787	94.44
313.017	88.44
313.246	99.44
313.476	99.44
313.706	96.44
313.935	99.44
314.165	104.44
314.394	91.44
314.624	106.44
314.853	96.44
315.083	99.44
315.312	90.44
315.542	104.44
315.771	90.44
316.001	92.44
316.23	96.44
316.46	95.44
316.689	82.44
316.919	90.44
317.148	97.44
317.377	99.44
317.607	104.44
317.836	91.44
318.065	94.44
318.295	93.44
318.524	96.44
318.753	91.44
318.983	97.44
319.212	95.44
319.441	108.44
319.67	87.44
319.9	90.44
320.129	98.44
320.358	79.44
320.587	90.44
320.816	96.44
321.046	97.44
321.275	87.44
321.504	105.44
321.733	87.44
321.962	97.44
322.191	95.44
322.42	103.44
322.649	102.44
322.878	110.44
323.108	96.44
323.337	138.44
323.566	151.44
323.795	141.44
324.024	192.44
324.253	368.44
324.482	767.44
324.71	1528.44
324.939	2025.44
325.168	711.44
325.397	234.44
325.626	136.44
325.855	133.44
326.084	111.44
326.313	117.44
326.542	128.44
326.77	214.44
326.999	415.44
327.228	871.44
327.457	1584.44
327.686	1248.44
327.914	364.44
328.143	191.44
328.372	159.44
328.6	106.44
328.829	119.44
329.058	130.44
329.287	120.44
329.515	110.44
329.744	100.44
329.972	100.44
330.201	98.44
330.43	96.44
330.658	113.44
330.887	136.44
331.115	124.44
331.344	99.44
331.572	96.44
331.801	97.44
332.03	91.44
332.258	104.44
332.486	84.44
332.715	98.44
332.943	92.44
333.172	88.44
333.4	93.44
333.629	89.44
333.857	94.44
334.085	102.44
334.314	86.44
334.542	90.44
334.771	96.44
334.999	92.44
335.227	95.44
335.455	92.44
335.684	88.44
335.912	93.44
336.14	101.44
336.369	82.44
336.597	106.44
336.825	95.44
337.053	94.44
337.281	96.44
337.51	98.44
337.738	94.44
337.966	90.44
338.194	105.44
338.422	97.44
338.65	98.44
338.878	97.44
339.106	102.44
339.334	102.44
339.562	112.44
339.79	91.44
340.018	92.44
340.246	100.44
340.474	106.44
340.702	80.44
340.93	103.44
341.158	96.44
341.386	101.44
341.614	88.44
341.842	107.44
342.07	90.44
342.298	91.44
342.526	92.44
342.754	92.44
342.981	82.44
343.209	82.44
343.437	93.44
343.665	100.44
343.893	87.44
344.12	89.44
344.348	98.44
344.576	90.44
344.804	76.44
345.031	101.44
345.259	95.44
345.487	107.44
345.714	90.44
345.942	85.44
346.17	93.44
346.397	80.44
346.625	92.44
346.853	103.44
347.08	92.44
347.308	95.44
347.535	98.44
347.763	108.44
347.99	105.44
348.218	96.44
348.445	106.44
348.673	105.44
348.9	104.44
349.128	96.44
349.355	97.44
349.583	90.44
349.81	90.44
350.037	86.44
350.265	96.44
350.492	107.44
350.72	88.44
350.947	113.44
351.174	115.44
351.402	118.44
351.629	100.44
351.856	94.44
352.083	101.44
352.311	103.44
352.538	100.44
352.765	92.44
352.992	97.44
353.22	93.44
353.447	90.44
353.674	96.44
353.901	100.44
354.128	93.44
354.355	102.44
354.583	97.44
354.81	79.44
355.037	103.44
355.264	105.44
355.491	95.44
355.718	89.44
355.945	97.44
356.172	97.44
356.399	97.44
356.626	101.44
356.853	102.44
357.08	97.44
357.307	87.44
357.534	100.44
357.761	93.44
357.988	90.44
358.215	98.44
358.441	96.44
358.668	83.44
358.895	99.44
359.122	98.44
359.349	94.44
359.576	108.44
359.802	93.44
360.029	115.44
360.256	96.44
360.483	110.44
360.709	81.44
360.936	87.44
361.163	90.44
361.39	97.44
361.616	101.44
361.843	93.44
362.07	89.44
362.296	90.44
362.523	95.44
362.749	82.44
362.976	98.44
363.203	78.44
363.429	94.44
363.656	90.44
363.882	82.44
364.109	87.44
364.335	89.44
364.562	97.44
364.788	95.44
365.015	92.44
365.241	97.44
365.468	108.44
365.694	114.44
365.92	93.44
366.147	90.44
366.373	94.44
366.599	79.44
366.826	90.44
367.052	85.44
367.278	82.44
367.505	92.44
367.731	91.44
367.957	82.44
368.184	79.44
368.41	90.44
368.636	111.44
368.862	121.44
369.089	108.44
369.315	84.44
369.541	86.44
369.767	91.44
369.993	88.44
370.219	94.44
370.445	96.44
370.672	81.44
370.898	94.44
371.124	70.44
371.35	95.44
371.576	86.44
371.802	86.44
372.028	83.44
372.254	86.44
372.48	83.44
372.706	86.44
372.932	106.44
373.158	86.44
373.384	95.44
373.61	80.44
373.835	94.44
374.061	93.44
374.287	99.44
374.513	96.44
374.739	80.44
374.965	84.44
375.191	89.44
375.416	94.44
375.642	100.44
375.868	91.44
376.094	84.44
376.319	93.44
376.545	97.44
376.771	92.44
376.997	101.44
377.222	93.44
377.448	80.44
377.674	81.44
377.899	88.44
378.125	93.44
378.35	98.44
378.576	88.44
378.802	96.44
379.027	100.44
379.253	83.44
379.478	108.44
379.704	97.44
379.929	78.44
380.155	85.44
380.38	90.44
380.606	95.44
380.831	91.44
381.057	95.44
381.282	93.44
381.507	99.44
381.733	103.44
381.958	89.44
382.184	110.44
382.409	105.44
382.634	100.44
382.86	106.44
383.085	102.44
383.31	93.44
383.535	98.44
383.761	91.44
383.986	96.44
384.211	97.44
384.436	97.44
384.662	82.44
384.887	79.44
385.112	95.44
385.337	89.44
385.562	95.44
385.787	95.44
386.013	93.44
386.238	118.44
386.463	87.44
386.688	110.44
386.913	96.44
387.138	86.44
387.363	85.44
387.588	102.44
387.813	99.44
388.038	107.44
388.263	109.44
388.488	95.44
388.713	100.44
388.938	88.44
389.163	85.44
389.387	93.44
389.612	81.44
389.837	98.44
390.062	93.44
390.287	77.44
390.512	106.44
390.736	78.44
390.961	97.44
391.186	96.44
391.411	101.44
391.636	83.44
391.86	92.44
392.085	80.44
392.31	82.44
392.534	81.44
392.759	98.44
392.984	75.44
393.208	90.44
393.433	77.44
393.658	85.44
393.882	95.44
394.107	96.44
394.331	83.44
394.556	86.44
394.78	84.44
395.005	104.44
395.229	86.44
395.454	90.44
395.678	57.44
395.903	96.44
396.127	90.44
396.352	88.44
396.576	76.44
396.801	80.44
397.025	99.44
397.249	65.44
397.474	94.44
397.698	98.44
397.922	73.44
398.147	93.44
398.371	80.44
398.595	96.44
398.82	92.44
399.044	97.44
399.268	92.44
399.492	105.44
399.717	88.44
399.941	88.44
400.165	92.44
400.389	90.44
400.613	91.44
400.837	91.44
401.062	102.44
401.286	82.44
401.51	86.44
401.734	87.44
401.958	104.44
402.182	122.44
402.406	135.44
402.63	110.44
402.854	94.44
403.078	84.44
403.302	86.44
403.526	98.44
403.75	88.44
403.974	76.44
404.198	94.44
404.422	102.44
404.645	79.44
404.869	93.44
405.093	98.44
405.317	82.44
405.541	82.44
405.765	103.44
405.988	102.44
406.212	159.44
406.436	209.44
406.66	124.44
406.883	102.44
407.107	85.44
407.331	89.44
407.555	93.44
407.778	82.44
408.002	97.44
408.226	95.44
408.449	91.44
408.673	89.44
408.896	83.44
409.12	115.44
409.344	87.44
409.567	94.44
409.791	92.44
410.014	104.44
410.238	86.44
410.461	94.44
410.685	96.44
410.908	106.44
411.132	97.44
411.355	101.44
411.578	87.44
411.802	86.44
412.025	93.44
412.249	95.44
412.472	99.44
412.695	71.44
412.919	79.44
413.142	90.44
413.365	92.44
413.589	87.44
413.812	90.44
414.035	87.44
414.258	89.44
414.482	86.44
414.705	97.44
414.928	89.44
415.151	86.44
415.374	91.44
415.597	95.44
415.821	87.44
416.044	87.44
416.267	72.44
416.49	103.44
416.713	95.44
416.936	85.44
417.159	98.44
417.382	81.44
417.605	99.44
417.828	88.44
418.051	101.44
418.274	80.44
418.497	93.44
418.72	79.44
418.943	90.44
419.166	93.44
419.389	87.44
419.611	93.44
419.834	82.44
420.057	78.44
420.28	88.44
420.503	80.44
420.726	76.44
420.948	90.44
421.171	94.44
421.394	106.44
421.617	81.44
421.839	82.44
422.062	96.44
422.285	95.44
422.507	93.44
422.73	104.44
422.953	90.44
423.175	77.44
423.398	86.44
423.621	80.44
423.843	96.44
424.066	79.44
424.288	85.44
424.511	76.44
424.733	109.44
424.956	93.44
425.178	93.44
425.401	95.44
425.623	97.44
425.846	91.44
426.068	91.44
426.291	91.44
426.513	91.44
426.735	86.44
426.958	83.44
427.18	98.44
427.402	138.44
427.625	149.44
427.847	126.44
428.069	82.44
428.292	84.44
428.514	91.44
428.736	72.44
428.958	89.44
429.181	96.44
429.403	87.44
429.625	69.44
429.847	97.44
430.069	109.44
430.292	90.44
430.514	80.44
430.736	83.44
430.958	81.44
431.18	90.44
431.402	80.44
431.624	79.44
431.846	82.44
432.068	81.44
432.29	86.44
432.512	94.44
432.734	85.44
432.956	87.44
433.178	85.44
433.4	106.44
433.622	80.44
433.844	75.44
434.066	86.44
434.287	85.44
434.509	96.44
434.731	87.44
434.953	89.44
435.175	87.44
435.397	66.44
435.618	92.44
435.84	104.44
436.062	120.44
436.284	105.44
436.505	106.44
436.727	101.44
436.949	103.44
437.17	98.44
437.392	85.44
437.614	99.44
437.835	101.44
438.057	99.44
438.278	89.44
438.5	91.44
438.721	114.44
438.943	107.44
439.165	91.44
439.386	88.44
439.608	82.44
439.829	100.44
440.05	131.44
440.272	136.44
440.493	85.44
440.715	101.44
440.936	94.44
441.158	87.44
441.379	83.44
441.6	75.44
441.822	77.44
442.043	105.44
442.264	113.44
442.486	98.44
442.707	97.44
442.928	102.44
443.149	114.44
443.371	124.44
443.592	99.44
443.813	109.44
444.034	109.44
444.255	94.44
444.476	72.44
444.698	77.44
444.919	94.44
445.14	135.44
445.361	118.44
445.582	93.44
445.803	106.44
446.024	123.44
446.245	130.44
446.466	110.44
446.687	83.44
446.908	89.44
447.129	81.44
447.35	91.44
447.571	91.44
447.792	91.44
448.013	103.44
448.234	102.44
448.455	92.44
448.675	104.44
448.896	99.44
449.117	105.44
449.338	100.44
449.559	113.44
449.779	119.44
450	83.44
450.221	93.44
450.442	87.44
450.662	96.44
450.883	95.44
451.104	88.44
451.324	78.44
451.545	84.44
451.766	87.44
451.986	75.44
452.207	80.44
452.428	84.44
452.648	100.44
452.869	109.44
453.089	111.44
453.31	104.44
453.53	106.44
453.751	85.44
453.971	105.44
454.192	107.44
454.412	78.44
454.633	92.44
454.853	77.44
455.073	83.44
455.294	81.44
455.514	93.44
455.734	89.44
455.955	98.44
456.175	94.44
456.395	90.44
456.616	76.44
456.836	89.44
457.056	82.44
457.276	98.44
457.497	90.44
457.717	92.44
457.937	87.44
458.157	86.44
458.377	79.44
458.598	106.44
458.818	160.44
459.038	158.44
459.258	113.44
459.478	99.44
459.698	95.44
459.918	82.44
460.138	79.44
460.358	82.44
460.578	85.44
460.798	79.44
461.018	88.44
461.238	94.44
461.458	99.44
461.678	83.44
461.898	91.44
462.118	74.44
462.338	72.44
462.558	89.44
462.777	83.44
462.997	92.44
463.217	80.44
463.437	77.44
463.657	80.44
463.876	82.44
464.096	83.44
464.316	91.44
464.536	97.44
464.755	96.44
464.975	102.44
465.195	151.44
465.414	143.44
465.634	95.44
465.854	83.44
466.073	90.44
466.293	87.44
466.512	106.44
466.732	90.44
466.951	82.44
467.171	94.44
467.391	86.44
467.61	99.44
467.829	96.44
468.049	90.44
468.268	81.44
468.488	87.44
468.707	96.44
468.927	83.44
469.146	76.44
469.365	86.44
469.585	81.44
469.804	104.44
470.023	102.44
470.243	96.44
470.462	105.44
470.681	104.44
470.901	95.44
471.12	85.44
471.339	91.44
471.558	72.44
471.777	84.44
471.997	84.44
472.216	86.44
472.435	89.44
472.654	81.44
472.873	86.44
473.092	104.44
473.311	85.44
473.53	105.44
473.749	79.44
473.968	85.44
474.187	101.44
474.406	95.44
474.625	87.44
474.844	89.44
475.063	75.44
475.282	78.44
475.501	81.44
475.72	97.44
475.939	86.44
476.158	79.44
476.377	82.44
476.596	86.44
476.814	92.44
477.033	88.44
477.252	75.44
477.471	98.44
477.69	84.44
477.908	72.44
478.127	97.44
478.346	100.44
478.564	77.44
478.783	95.44
479.002	97.44
479.22	89.44
479.439	95.44
479.658	95.44
479.876	85.44
480.095	91.44
480.313	93.44
480.532	78.44
480.751	94.44
480.969	100.44
481.188	71.44
481.406	93.44
481.624	85.44
481.843	96.44
482.061	86.44
482.28	94.44
482.498	89.44
482.717	87.44
482.935	72.44
483.153	70.44
483.372	89.44
483.59	103.44
483.808	81.44
484.027	71.44
484.245	91.44
484.463	104.44
484.681	89.44
484.9	82.44
485.118	90.44
485.336	103.44
485.554	85.44
485.772	95.44
485.99	105.44
486.209	116.44
486.427	115.44
486.645	111.44
486.863	105.44
487.081	114.44
487.299	83.44
487.517	91.44
487.735	86.44
487.953	98.44
488.171	88.44
488.389	81.44
488.607	90.44
488.825	103.44
489.043	86.44
489.261	105.44
489.479	91.44
489.696	92.44
489.914	90.44
490.132	101.44
490.35	89.44
490.568	87.44
490.786	101.44
491.003	89.44
491.221	103.44
491.439	95.44
491.657	82.44
491.874	86.44
492.092	92.44
492.31	87.44
492.527	87.44
492.745	90.44
492.963	89.44
493.18	88.44
493.398	87.44
493.615	99.44
493.833	95.44
494.05	96.44
494.268	102.44
494.485	98.44
494.703	96.44
494.92	91.44
495.138	85.44
495.355	93.44
495.573	93.44
495.79	88.44
496.008	73.44
496.225	97.44
496.442	92.44
496.66	90.44
496.877	104.44
497.094	107.44
497.312	86.44
497.529	92.44
497.746	87.44
497.963	89.44
498.181	80.44
498.398	88.44
498.615	111.44
498.832	100.44
499.049	82.44
499.267	81.44
499.484	87.44
499.701	103.44
499.918	103.44
500.135	81.44
500.352	78.44
500.569	73.44
500.786	87.44
501.003	93.44
501.22	105.44
501.437	89.44
501.654	97.44
501.871	87.44
502.088	96.44
502.305	93.44
502.522	81.44
502.739	109.44
502.956	90.44
503.172	91.44
503.389	87.44
503.606	109.44
503.823	86.44
504.04	86.44
504.256	96.44
504.473	97.44
504.69	82.44
504.907	91.44
505.123	80.44
505.34	78.44
505.557	88.44
505.773	89.44
505.99	94.44
506.207	86.44
506.423	95.44
506.64	74.44
506.856	94.44
507.073	90.44
507.289	104.44
507.506	103.44
507.722	97.44
507.939	107.44
508.155	104.44
508.372	87.44
508.588	94.44
508.805	89.44
509.021	109.44
509.238	95.44
509.454	104.44
509.67	98.44
509.887	96.44
510.103	117.44
510.319	205.44
510.536	693.44
510.752	2099.44
510.968	593.44
511.184	142.44
511.401	105.44
511.617	99.44
511.833	85.44
512.049	81.44
512.265	89.44
512.481	87.44
512.698	99.44
512.914	100.44
513.13	87.44
513.346	99.44
513.562	89.44
513.778	81.44
513.994	103.44
514.21	93.44
514.426	124.44
514.642	134.44
514.858	130.44
515.074	155.44
515.29	417.44
515.506	1265.44
515.721	464.44
515.937	140.44
516.153	110.44
516.369	103.44
