Data from Uncirc_1996_H10_HRD10591_00063.txt Node
Date: Wed Jan 03 11:32:15 EST 2024
User: Yrep
Spectrometer: HR+D1059
Trigger mode: 1
Integration Time (sec): 1.000000E-1
Scans to average: 1
Electric dark correction enabled: true
Nonlinearity correction enabled: false
Boxcar width: 0
XAxis mode: Wavelengths
Number of Pixels in Spectrum: 2048
>>>>>Begin Spectral Data<<<<<
223.165	-19.31
223.4	-19.31
223.635	-19.31
223.869	-23.31
224.104	-24.31
224.338	-13.31
224.573	-15.31
224.808	-8.31
225.042	-11.31
225.277	4.69
225.511	-4.31
225.746	0.69
225.98	6.69
226.215	18.69
226.449	21.69
226.683	19.69
226.918	29.69
227.152	17.69
227.387	30.69
227.621	41.69
227.856	40.69
228.09	47.69
228.324	60.69
228.559	53.69
228.793	51.69
229.027	52.69
229.262	68.69
229.496	76.69
229.73	87.69
229.964	72.69
230.199	72.69
230.433	69.69
230.667	73.69
230.901	84.69
231.136	89.69
231.37	76.69
231.604	65.69
231.838	79.69
232.072	75.69
232.306	72.69
232.541	85.69
232.775	90.69
233.009	69.69
233.243	77.69
233.477	84.69
233.711	80.69
233.945	77.69
234.179	89.69
234.413	71.69
234.647	91.69
234.881	88.69
235.115	85.69
235.349	85.69
235.583	69.69
235.817	89.69
236.051	78.69
236.285	70.69
236.519	79.69
236.753	72.69
236.987	80.69
237.221	82.69
237.455	85.69
237.689	79.69
237.922	69.69
238.156	77.69
238.39	81.69
238.624	65.69
238.858	88.69
239.091	71.69
239.325	79.69
239.559	82.69
239.793	91.69
240.027	86.69
240.26	79.69
240.494	77.69
240.728	85.69
240.961	88.69
241.195	76.69
241.429	79.69
241.662	59.69
241.896	70.69
242.13	75.69
242.363	86.69
242.597	72.69
242.83	92.69
243.064	84.69
243.298	85.69
243.531	75.69
243.765	83.69
243.998	75.69
244.232	77.69
244.465	77.69
244.699	81.69
244.932	84.69
245.166	91.69
245.399	85.69
245.633	65.69
245.866	79.69
246.099	64.69
246.333	84.69
246.566	73.69
246.8	83.69
247.033	76.69
247.266	79.69
247.5	84.69
247.733	85.69
247.966	77.69
248.2	73.69
248.433	75.69
248.666	68.69
248.899	85.69
249.133	89.69
249.366	86.69
249.599	91.69
249.832	92.69
250.066	77.69
250.299	77.69
250.532	75.69
250.765	74.69
250.998	77.69
251.231	78.69
251.465	78.69
251.698	76.69
251.931	91.69
252.164	73.69
252.397	85.69
252.63	87.69
252.863	68.69
253.096	65.69
253.329	70.69
253.562	73.69
253.795	77.69
254.028	77.69
254.261	90.69
254.494	80.69
254.727	80.69
254.96	61.69
255.193	73.69
255.426	80.69
255.659	83.69
255.892	57.69
256.124	90.69
256.357	79.69
256.59	72.69
256.823	78.69
257.056	84.69
257.289	75.69
257.521	84.69
257.754	84.69
257.987	68.69
258.22	74.69
258.452	86.69
258.685	60.69
258.918	89.69
259.151	83.69
259.383	73.69
259.616	88.69
259.849	69.69
260.081	79.69
260.314	86.69
260.547	70.69
260.779	69.69
261.012	83.69
261.244	88.69
261.477	81.69
261.71	93.69
261.942	83.69
262.175	107.69
262.407	91.69
262.64	79.69
262.872	63.69
263.105	77.69
263.337	87.69
263.57	87.69
263.802	76.69
264.035	87.69
264.267	80.69
264.499	85.69
264.732	89.69
264.964	81.69
265.197	94.69
265.429	82.69
265.661	80.69
265.894	78.69
266.126	103.69
266.358	76.69
266.591	80.69
266.823	90.69
267.055	84.69
267.287	76.69
267.52	77.69
267.752	79.69
267.984	86.69
268.216	91.69
268.448	90.69
268.681	84.69
268.913	81.69
269.145	84.69
269.377	76.69
269.609	81.69
269.841	80.69
270.073	85.69
270.306	89.69
270.538	88.69
270.77	87.69
271.002	75.69
271.234	87.69
271.466	80.69
271.698	78.69
271.93	85.69
272.162	86.69
272.394	92.69
272.626	77.69
272.858	67.69
273.09	91.69
273.322	85.69
273.553	70.69
273.785	82.69
274.017	78.69
274.249	91.69
274.481	82.69
274.713	88.69
274.945	94.69
275.176	84.69
275.408	88.69
275.64	72.69
275.872	72.69
276.104	88.69
276.335	95.69
276.567	97.69
276.799	93.69
277.031	92.69
277.262	87.69
277.494	86.69
277.726	62.69
277.957	76.69
278.189	81.69
278.421	91.69
278.652	80.69
278.884	83.69
279.115	85.69
279.347	82.69
279.579	89.69
279.81	87.69
280.042	71.69
280.273	82.69
280.505	79.69
280.736	91.69
280.968	78.69
281.199	97.69
281.431	85.69
281.662	81.69
281.894	88.69
282.125	85.69
282.356	121.69
282.588	133.69
282.819	114.69
283.051	84.69
283.282	71.69
283.513	85.69
283.745	78.69
283.976	79.69
284.207	91.69
284.439	83.69
284.67	89.69
284.901	94.69
285.132	85.69
285.364	85.69
285.595	88.69
285.826	86.69
286.057	87.69
286.288	92.69
286.52	97.69
286.751	87.69
286.982	86.69
287.213	101.69
287.444	91.69
287.675	83.69
287.906	85.69
288.138	93.69
288.369	82.69
288.6	119.69
288.831	100.69
289.062	92.69
289.293	77.69
289.524	93.69
289.755	78.69
289.986	88.69
290.217	91.69
290.448	85.69
290.679	76.69
290.91	84.69
291.141	81.69
291.371	86.69
291.602	87.69
291.833	94.69
292.064	87.69
292.295	88.69
292.526	92.69
292.757	74.69
292.987	76.69
293.218	80.69
293.449	81.69
293.68	86.69
293.91	92.69
294.141	72.69
294.372	94.69
294.603	83.69
294.833	78.69
295.064	90.69
295.295	82.69
295.525	98.69
295.756	83.69
295.987	109.69
296.217	128.69
296.448	108.69
296.679	84.69
296.909	91.69
297.14	88.69
297.37	85.69
297.601	80.69
297.831	90.69
298.062	95.69
298.292	83.69
298.523	79.69
298.753	81.69
298.984	68.69
299.214	93.69
299.445	88.69
299.675	91.69
299.905	98.69
300.136	97.69
300.366	91.69
300.597	92.69
300.827	103.69
301.057	95.69
301.288	112.69
301.518	87.69
301.748	99.69
301.979	92.69
302.209	90.69
302.439	90.69
302.669	101.69
302.9	97.69
303.13	98.69
303.36	81.69
303.59	103.69
303.82	101.69
304.051	95.69
304.281	91.69
304.511	100.69
304.741	93.69
304.971	79.69
305.201	80.69
305.431	86.69
305.661	94.69
305.891	93.69
306.121	92.69
306.352	114.69
306.582	99.69
306.812	92.69
307.042	89.69
307.272	87.69
307.502	88.69
307.731	85.69
307.961	91.69
308.191	73.69
308.421	78.69
308.651	99.69
308.881	87.69
309.111	90.69
309.341	86.69
309.571	104.69
309.8	94.69
310.03	84.69
310.26	95.69
310.49	82.69
310.72	93.69
310.949	89.69
311.179	92.69
311.409	104.69
311.639	101.69
311.868	95.69
312.098	88.69
312.328	88.69
312.557	106.69
312.787	107.69
313.017	88.69
313.246	95.69
313.476	95.69
313.706	93.69
313.935	90.69
314.165	90.69
314.394	112.69
314.624	92.69
314.853	97.69
315.083	96.69
315.312	93.69
315.542	99.69
315.771	85.69
316.001	101.69
316.23	93.69
316.46	86.69
316.689	92.69
316.919	88.69
317.148	91.69
317.377	99.69
317.607	86.69
317.836	88.69
318.065	98.69
318.295	84.69
318.524	86.69
318.753	106.69
318.983	105.69
319.212	100.69
319.441	109.69
319.67	108.69
319.9	95.69
320.129	88.69
320.358	91.69
320.587	100.69
320.816	93.69
321.046	107.69
321.275	100.69
321.504	106.69
321.733	99.69
321.962	99.69
322.191	85.69
322.42	105.69
322.649	107.69
322.878	109.69
323.108	118.69
323.337	116.69
323.566	131.69
323.795	157.69
324.024	225.69
324.253	429.69
324.482	858.69
324.71	1873.69
324.939	2453.69
325.168	879.69
325.397	255.69
325.626	156.69
325.855	140.69
326.084	128.69
326.313	123.69
326.542	139.69
326.77	254.69
326.999	486.69
327.228	1027.69
327.457	1824.69
327.686	1495.69
327.914	404.69
328.143	209.69
328.372	163.69
328.6	120.69
328.829	115.69
329.058	125.69
329.287	138.69
329.515	99.69
329.744	108.69
329.972	87.69
330.201	104.69
330.43	103.69
330.658	124.69
330.887	144.69
331.115	121.69
331.344	99.69
331.572	93.69
331.801	104.69
332.03	115.69
332.258	96.69
332.486	93.69
332.715	92.69
332.943	94.69
333.172	100.69
333.4	88.69
333.629	104.69
333.857	111.69
334.085	110.69
334.314	89.69
334.542	86.69
334.771	105.69
334.999	95.69
335.227	92.69
335.455	93.69
335.684	85.69
335.912	102.69
336.14	105.69
336.369	100.69
336.597	102.69
336.825	101.69
337.053	87.69
337.281	89.69
337.51	88.69
337.738	93.69
337.966	98.69
338.194	116.69
338.422	105.69
338.65	95.69
338.878	91.69
339.106	101.69
339.334	91.69
339.562	108.69
339.79	89.69
340.018	82.69
340.246	88.69
340.474	93.69
340.702	95.69
340.93	87.69
341.158	90.69
341.386	95.69
341.614	77.69
341.842	102.69
342.07	98.69
342.298	92.69
342.526	88.69
342.754	87.69
342.981	86.69
343.209	89.69
343.437	93.69
343.665	89.69
343.893	99.69
344.12	100.69
344.348	86.69
344.576	84.69
344.804	97.69
345.031	93.69
345.259	101.69
345.487	93.69
345.714	101.69
345.942	89.69
346.17	90.69
346.397	101.69
346.625	88.69
346.853	92.69
347.08	85.69
347.308	101.69
347.535	93.69
347.763	89.69
347.99	104.69
348.218	109.69
348.445	95.69
348.673	102.69
348.9	92.69
349.128	81.69
349.355	92.69
349.583	99.69
349.81	105.69
350.037	98.69
350.265	88.69
350.492	98.69
350.72	100.69
350.947	104.69
351.174	114.69
351.402	104.69
351.629	82.69
351.856	86.69
352.083	108.69
352.311	112.69
352.538	112.69
352.765	101.69
352.992	110.69
353.22	107.69
353.447	91.69
353.674	91.69
353.901	104.69
354.128	87.69
354.355	104.69
354.583	97.69
354.81	105.69
355.037	104.69
355.264	94.69
355.491	82.69
355.718	82.69
355.945	87.69
356.172	89.69
356.399	91.69
356.626	106.69
356.853	104.69
357.08	98.69
357.307	85.69
357.534	83.69
357.761	97.69
357.988	85.69
358.215	96.69
358.441	80.69
358.668	100.69
358.895	87.69
359.122	99.69
359.349	91.69
359.576	92.69
359.802	91.69
360.029	119.69
360.256	100.69
360.483	95.69
360.709	87.69
360.936	91.69
361.163	83.69
361.39	89.69
361.616	96.69
361.843	85.69
362.07	78.69
362.296	83.69
362.523	92.69
362.749	103.69
362.976	90.69
363.203	87.69
363.429	87.69
363.656	88.69
363.882	94.69
364.109	87.69
364.335	97.69
364.562	83.69
364.788	89.69
365.015	81.69
365.241	93.69
365.468	110.69
365.694	103.69
365.92	84.69
366.147	98.69
366.373	79.69
366.599	78.69
366.826	83.69
367.052	79.69
367.278	99.69
367.505	91.69
367.731	74.69
367.957	96.69
368.184	84.69
368.41	98.69
368.636	105.69
368.862	123.69
369.089	103.69
369.315	87.69
369.541	81.69
369.767	91.69
369.993	110.69
370.219	86.69
370.445	63.69
370.672	94.69
370.898	88.69
371.124	86.69
371.35	89.69
371.576	91.69
371.802	83.69
372.028	67.69
372.254	84.69
372.48	85.69
372.706	93.69
372.932	78.69
373.158	73.69
373.384	89.69
373.61	88.69
373.835	82.69
374.061	75.69
374.287	80.69
374.513	84.69
374.739	68.69
374.965	75.69
375.191	75.69
375.416	84.69
375.642	77.69
375.868	83.69
376.094	76.69
376.319	99.69
376.545	75.69
376.771	95.69
376.997	96.69
377.222	77.69
377.448	96.69
377.674	89.69
377.899	92.69
378.125	90.69
378.35	89.69
378.576	78.69
378.802	88.69
379.027	99.69
379.253	90.69
379.478	88.69
379.704	103.69
379.929	97.69
380.155	83.69
380.38	88.69
380.606	96.69
380.831	77.69
381.057	85.69
381.282	80.69
381.507	97.69
381.733	91.69
381.958	79.69
382.184	92.69
382.409	95.69
382.634	99.69
382.86	73.69
383.085	81.69
383.31	100.69
383.535	94.69
383.761	93.69
383.986	93.69
384.211	90.69
384.436	88.69
384.662	87.69
384.887	93.69
385.112	86.69
385.337	94.69
385.562	99.69
385.787	91.69
386.013	110.69
386.238	115.69
386.463	110.69
386.688	103.69
386.913	95.69
387.138	95.69
387.363	111.69
387.588	104.69
387.813	93.69
388.038	84.69
388.263	110.69
388.488	96.69
388.713	85.69
388.938	94.69
389.163	90.69
389.387	103.69
389.612	104.69
389.837	87.69
390.062	94.69
390.287	76.69
390.512	102.69
390.736	105.69
390.961	73.69
391.186	84.69
391.411	104.69
391.636	95.69
391.86	104.69
392.085	99.69
392.31	79.69
392.534	81.69
392.759	88.69
392.984	87.69
393.208	81.69
393.433	88.69
393.658	88.69
393.882	73.69
394.107	82.69
394.331	81.69
394.556	84.69
394.78	76.69
395.005	91.69
395.229	90.69
395.454	93.69
395.678	87.69
395.903	86.69
396.127	94.69
396.352	90.69
396.576	77.69
396.801	93.69
397.025	92.69
397.249	96.69
397.474	86.69
397.698	84.69
397.922	79.69
398.147	102.69
398.371	85.69
398.595	86.69
398.82	90.69
399.044	95.69
399.268	85.69
399.492	84.69
399.717	80.69
399.941	100.69
400.165	79.69
400.389	86.69
400.613	85.69
400.837	89.69
401.062	82.69
401.286	93.69
401.51	103.69
401.734	91.69
401.958	96.69
402.182	125.69
402.406	150.69
402.63	121.69
402.854	89.69
403.078	78.69
403.302	92.69
403.526	87.69
403.75	76.69
403.974	65.69
404.198	88.69
404.422	80.69
404.645	77.69
404.869	83.69
405.093	103.69
405.317	104.69
405.541	95.69
405.765	112.69
405.988	102.69
406.212	181.69
406.436	235.69
406.66	151.69
406.883	100.69
407.107	83.69
407.331	100.69
407.555	92.69
407.778	86.69
408.002	75.69
408.226	94.69
408.449	86.69
408.673	92.69
408.896	83.69
409.12	90.69
409.344	87.69
409.567	68.69
409.791	96.69
410.014	74.69
410.238	92.69
410.461	87.69
410.685	81.69
410.908	98.69
411.132	105.69
411.355	112.69
411.578	82.69
411.802	86.69
412.025	72.69
412.249	86.69
412.472	83.69
412.695	85.69
412.919	88.69
413.142	85.69
413.365	84.69
413.589	93.69
413.812	86.69
414.035	91.69
414.258	95.69
414.482	96.69
414.705	77.69
414.928	75.69
415.151	103.69
415.374	89.69
415.597	71.69
415.821	83.69
416.044	80.69
416.267	82.69
416.49	89.69
416.713	90.69
416.936	85.69
417.159	85.69
417.382	80.69
417.605	73.69
417.828	84.69
418.051	79.69
418.274	95.69
418.497	88.69
418.72	75.69
418.943	89.69
419.166	89.69
419.389	93.69
419.611	91.69
419.834	84.69
420.057	70.69
420.28	88.69
420.503	66.69
420.726	90.69
420.948	80.69
421.171	76.69
421.394	81.69
421.617	96.69
421.839	97.69
422.062	98.69
422.285	83.69
422.507	98.69
422.73	105.69
422.953	85.69
423.175	88.69
423.398	89.69
423.621	86.69
423.843	83.69
424.066	80.69
424.288	72.69
424.511	83.69
424.733	111.69
424.956	109.69
425.178	109.69
425.401	100.69
425.623	92.69
425.846	96.69
426.068	103.69
426.291	107.69
426.513	74.69
426.735	75.69
426.958	104.69
427.18	99.69
427.402	154.69
427.625	172.69
427.847	110.69
428.069	88.69
428.292	77.69
428.514	75.69
428.736	91.69
428.958	85.69
429.181	80.69
429.403	86.69
429.625	91.69
429.847	91.69
430.069	101.69
430.292	111.69
430.514	85.69
430.736	69.69
430.958	89.69
431.18	75.69
431.402	86.69
431.624	91.69
431.846	73.69
432.068	87.69
432.29	81.69
432.512	87.69
432.734	80.69
432.956	90.69
433.178	102.69
433.4	93.69
433.622	85.69
433.844	87.69
434.066	109.69
434.287	83.69
434.509	88.69
434.731	87.69
434.953	79.69
435.175	85.69
435.397	76.69
435.618	101.69
435.84	93.69
436.062	107.69
436.284	102.69
436.505	115.69
436.727	108.69
436.949	87.69
437.17	81.69
437.392	87.69
437.614	103.69
437.835	117.69
438.057	123.69
438.278	110.69
438.5	110.69
438.721	117.69
438.943	108.69
439.165	100.69
439.386	100.69
439.608	84.69
439.829	111.69
440.05	129.69
440.272	143.69
440.493	97.69
440.715	89.69
440.936	87.69
441.158	85.69
441.379	58.69
441.6	97.69
441.822	85.69
442.043	104.69
442.264	101.69
442.486	92.69
442.707	100.69
442.928	101.69
443.149	127.69
443.371	118.69
443.592	113.69
443.813	116.69
444.034	92.69
444.255	96.69
444.476	84.69
444.698	94.69
444.919	95.69
445.14	143.69
445.361	136.69
445.582	115.69
445.803	137.69
446.024	144.69
446.245	150.69
446.466	112.69
446.687	88.69
446.908	72.69
447.129	87.69
447.35	86.69
447.571	90.69
447.792	110.69
448.013	96.69
448.234	99.69
448.455	113.69
448.675	117.69
448.896	108.69
449.117	90.69
449.338	107.69
449.559	136.69
449.779	126.69
450	98.69
450.221	89.69
450.442	85.69
450.662	93.69
450.883	100.69
451.104	116.69
451.324	93.69
451.545	84.69
451.766	81.69
451.986	86.69
452.207	83.69
452.428	109.69
452.648	95.69
452.869	121.69
453.089	106.69
453.31	120.69
453.53	92.69
453.751	103.69
453.971	107.69
454.192	102.69
454.412	79.69
454.633	96.69
454.853	81.69
455.073	94.69
455.294	95.69
455.514	109.69
455.734	84.69
455.955	80.69
456.175	87.69
456.395	82.69
456.616	100.69
456.836	84.69
457.056	90.69
457.276	79.69
457.497	81.69
457.717	92.69
457.937	81.69
458.157	91.69
458.377	95.69
458.598	103.69
458.818	133.69
459.038	166.69
459.258	125.69
459.478	84.69
459.698	94.69
459.918	78.69
460.138	87.69
460.358	86.69
460.578	100.69
460.798	82.69
461.018	90.69
461.238	80.69
461.458	83.69
461.678	73.69
461.898	85.69
462.118	88.69
462.338	95.69
462.558	82.69
462.777	86.69
462.997	84.69
463.217	77.69
463.437	87.69
463.657	88.69
463.876	92.69
464.096	87.69
464.316	95.69
464.536	74.69
464.755	91.69
464.975	95.69
465.195	176.69
465.414	161.69
465.634	106.69
465.854	87.69
466.073	90.69
466.293	75.69
466.512	84.69
466.732	79.69
466.951	77.69
467.171	89.69
467.391	104.69
467.61	99.69
467.829	106.69
468.049	95.69
468.268	96.69
468.488	87.69
468.707	90.69
468.927	83.69
469.146	83.69
469.365	99.69
469.585	89.69
469.804	87.69
470.023	89.69
470.243	76.69
470.462	96.69
470.681	109.69
470.901	89.69
471.12	83.69
471.339	81.69
471.558	90.69
471.777	80.69
471.997	83.69
472.216	70.69
472.435	101.69
472.654	74.69
472.873	81.69
473.092	81.69
473.311	79.69
473.53	76.69
473.749	83.69
473.968	97.69
474.187	110.69
474.406	86.69
474.625	94.69
474.844	84.69
475.063	78.69
475.282	85.69
475.501	84.69
475.72	65.69
475.939	86.69
476.158	85.69
476.377	88.69
476.596	98.69
476.814	85.69
477.033	100.69
477.252	89.69
477.471	77.69
477.69	93.69
477.908	81.69
478.127	84.69
478.346	83.69
478.564	90.69
478.783	88.69
479.002	80.69
479.22	93.69
479.439	92.69
479.658	103.69
479.876	75.69
480.095	86.69
480.313	97.69
480.532	91.69
480.751	90.69
480.969	93.69
481.188	91.69
481.406	86.69
481.624	77.69
481.843	71.69
482.061	91.69
482.28	96.69
482.498	94.69
482.717	78.69
482.935	89.69
483.153	85.69
483.372	93.69
483.59	76.69
483.808	78.69
484.027	70.69
484.245	79.69
484.463	86.69
484.681	95.69
484.9	98.69
485.118	85.69
485.336	78.69
485.554	89.69
485.772	80.69
485.99	91.69
486.209	110.69
486.427	84.69
486.645	98.69
486.863	103.69
487.081	110.69
487.299	96.69
487.517	87.69
487.735	94.69
487.953	99.69
488.171	101.69
488.389	101.69
488.607	97.69
488.825	98.69
489.043	95.69
489.261	93.69
489.479	94.69
489.696	95.69
489.914	94.69
490.132	79.69
490.35	74.69
490.568	79.69
490.786	87.69
491.003	96.69
491.221	93.69
491.439	88.69
491.657	87.69
491.874	92.69
492.092	92.69
492.31	93.69
492.527	86.69
492.745	89.69
492.963	82.69
493.18	78.69
493.398	82.69
493.615	88.69
493.833	99.69
494.05	92.69
494.268	84.69
494.485	82.69
494.703	91.69
494.92	76.69
495.138	87.69
495.355	91.69
495.573	93.69
495.79	85.69
496.008	102.69
496.225	92.69
496.442	101.69
496.66	89.69
496.877	92.69
497.094	77.69
497.312	82.69
497.529	94.69
497.746	78.69
497.963	71.69
498.181	92.69
498.398	95.69
498.615	101.69
498.832	110.69
499.049	82.69
499.267	84.69
499.484	91.69
499.701	95.69
499.918	87.69
500.135	91.69
500.352	78.69
500.569	92.69
500.786	75.69
501.003	86.69
501.22	87.69
501.437	85.69
501.654	91.69
501.871	99.69
502.088	101.69
502.305	88.69
502.522	92.69
502.739	75.69
502.956	88.69
503.172	93.69
503.389	96.69
503.606	99.69
503.823	96.69
504.04	81.69
504.256	76.69
504.473	84.69
504.69	87.69
504.907	84.69
505.123	89.69
505.34	88.69
505.557	101.69
505.773	85.69
505.99	95.69
506.207	86.69
506.423	85.69
506.64	81.69
506.856	94.69
507.073	90.69
507.289	93.69
507.506	97.69
507.722	112.69
507.939	101.69
508.155	92.69
508.372	91.69
508.588	95.69
508.805	86.69
509.021	85.69
509.238	103.69
509.454	99.69
509.67	95.69
509.887	116.69
510.103	135.69
510.319	216.69
510.536	789.69
510.752	2428.69
510.968	651.69
511.184	157.69
511.401	101.69
511.617	101.69
511.833	97.69
512.049	78.69
512.265	91.69
512.481	90.69
512.698	88.69
512.914	96.69
513.13	87.69
513.346	83.69
513.562	77.69
513.778	109.69
513.994	108.69
514.21	88.69
514.426	106.69
514.642	135.69
514.858	114.69
515.074	160.69
515.29	490.69
515.506	1583.69
515.721	563.69
515.937	159.69
516.153	110.69
