Data from Uncirc_1996_H10_HRD10591_00003.txt Node
Date: Wed Jan 03 11:32:03 EST 2024
User: Yrep
Spectrometer: HR+D1059
Trigger mode: 1
Integration Time (sec): 1.000000E-1
Scans to average: 1
Electric dark correction enabled: true
Nonlinearity correction enabled: false
Boxcar width: 0
XAxis mode: Wavelengths
Number of Pixels in Spectrum: 2048
>>>>>Begin Spectral Data<<<<<
223.165	-15.94
223.4	-15.94
223.635	-15.94
223.869	-21.94
224.104	-18.94
224.338	-20.94
224.573	-30.94
224.808	-11.94
225.042	-6.94
225.277	0.06
225.511	-11.94
225.746	-0.94
225.98	17.06
226.215	22.06
226.449	13.06
226.683	14.06
226.918	45.06
227.152	29.06
227.387	41.06
227.621	49.06
227.856	25.06
228.09	50.06
228.324	66.06
228.559	52.06
228.793	46.06
229.027	71.06
229.262	71.06
229.496	67.06
229.73	74.06
229.964	92.06
230.199	62.06
230.433	71.06
230.667	79.06
230.901	83.06
231.136	92.06
231.37	82.06
231.604	90.06
231.838	86.06
232.072	90.06
232.306	87.06
232.541	84.06
232.775	85.06
233.009	83.06
233.243	79.06
233.477	80.06
233.711	92.06
233.945	78.06
234.179	80.06
234.413	84.06
234.647	72.06
234.881	85.06
235.115	93.06
235.349	73.06
235.583	89.06
235.817	85.06
236.051	95.06
236.285	65.06
236.519	76.06
236.753	82.06
236.987	73.06
237.221	100.06
237.455	95.06
237.689	74.06
237.922	80.06
238.156	76.06
238.39	84.06
238.624	74.06
238.858	79.06
239.091	72.06
239.325	59.06
239.559	77.06
239.793	95.06
240.027	68.06
240.26	89.06
240.494	80.06
240.728	79.06
240.961	76.06
241.195	87.06
241.429	75.06
241.662	64.06
241.896	91.06
242.13	74.06
242.363	77.06
242.597	66.06
242.83	68.06
243.064	80.06
243.298	79.06
243.531	71.06
243.765	90.06
243.998	74.06
244.232	83.06
244.465	91.06
244.699	84.06
244.932	65.06
245.166	75.06
245.399	71.06
245.633	81.06
245.866	78.06
246.099	68.06
246.333	81.06
246.566	96.06
246.8	94.06
247.033	88.06
247.266	88.06
247.5	81.06
247.733	79.06
247.966	92.06
248.2	85.06
248.433	66.06
248.666	73.06
248.899	81.06
249.133	74.06
249.366	88.06
249.599	102.06
249.832	78.06
250.066	92.06
250.299	76.06
250.532	82.06
250.765	86.06
250.998	85.06
251.231	79.06
251.465	88.06
251.698	88.06
251.931	66.06
252.164	87.06
252.397	75.06
252.63	81.06
252.863	82.06
253.096	76.06
253.329	81.06
253.562	79.06
253.795	85.06
254.028	78.06
254.261	61.06
254.494	81.06
254.727	92.06
254.96	99.06
255.193	82.06
255.426	90.06
255.659	93.06
255.892	85.06
256.124	96.06
256.357	84.06
256.59	79.06
256.823	91.06
257.056	90.06
257.289	77.06
257.521	79.06
257.754	79.06
257.987	90.06
258.22	91.06
258.452	89.06
258.685	83.06
258.918	71.06
259.151	84.06
259.383	90.06
259.616	74.06
259.849	80.06
260.081	87.06
260.314	70.06
260.547	79.06
260.779	81.06
261.012	84.06
261.244	63.06
261.477	82.06
261.71	93.06
261.942	94.06
262.175	98.06
262.407	104.06
262.64	81.06
262.872	80.06
263.105	74.06
263.337	73.06
263.57	77.06
263.802	87.06
264.035	91.06
264.267	81.06
264.499	88.06
264.732	85.06
264.964	80.06
265.197	78.06
265.429	94.06
265.661	79.06
265.894	92.06
266.126	83.06
266.358	85.06
266.591	84.06
266.823	87.06
267.055	82.06
267.287	78.06
267.52	92.06
267.752	77.06
267.984	81.06
268.216	86.06
268.448	88.06
268.681	87.06
268.913	81.06
269.145	81.06
269.377	82.06
269.609	83.06
269.841	93.06
270.073	82.06
270.306	88.06
270.538	88.06
270.77	80.06
271.002	83.06
271.234	80.06
271.466	87.06
271.698	89.06
271.93	96.06
272.162	91.06
272.394	92.06
272.626	75.06
272.858	88.06
273.09	80.06
273.322	90.06
273.553	86.06
273.785	91.06
274.017	96.06
274.249	93.06
274.481	83.06
274.713	95.06
274.945	88.06
275.176	84.06
275.408	94.06
275.64	80.06
275.872	95.06
276.104	89.06
276.335	83.06
276.567	94.06
276.799	95.06
277.031	83.06
277.262	82.06
277.494	64.06
277.726	91.06
277.957	74.06
278.189	79.06
278.421	96.06
278.652	95.06
278.884	83.06
279.115	96.06
279.347	83.06
279.579	84.06
279.81	82.06
280.042	98.06
280.273	85.06
280.505	78.06
280.736	91.06
280.968	71.06
281.199	80.06
281.431	92.06
281.662	82.06
281.894	80.06
282.125	87.06
282.356	110.06
282.588	116.06
282.819	108.06
283.051	84.06
283.282	86.06
283.513	106.06
283.745	84.06
283.976	79.06
284.207	75.06
284.439	97.06
284.67	85.06
284.901	88.06
285.132	95.06
285.364	104.06
285.595	91.06
285.826	76.06
286.057	90.06
286.288	101.06
286.52	87.06
286.751	97.06
286.982	92.06
287.213	80.06
287.444	89.06
287.675	90.06
287.906	96.06
288.138	89.06
288.369	91.06
288.6	83.06
288.831	79.06
289.062	84.06
289.293	77.06
289.524	82.06
289.755	83.06
289.986	90.06
290.217	95.06
290.448	85.06
290.679	94.06
290.91	95.06
291.141	92.06
291.371	93.06
291.602	91.06
291.833	82.06
292.064	98.06
292.295	94.06
292.526	89.06
292.757	94.06
292.987	87.06
293.218	88.06
293.449	74.06
293.68	100.06
293.91	87.06
294.141	97.06
294.372	99.06
294.603	97.06
294.833	92.06
295.064	80.06
295.295	87.06
295.525	79.06
295.756	97.06
295.987	89.06
296.217	111.06
296.448	115.06
296.679	92.06
296.909	87.06
297.14	84.06
297.37	85.06
297.601	86.06
297.831	85.06
298.062	105.06
298.292	89.06
298.523	81.06
298.753	94.06
298.984	99.06
299.214	86.06
299.445	87.06
299.675	95.06
299.905	84.06
300.136	88.06
300.366	90.06
300.597	89.06
300.827	89.06
301.057	95.06
301.288	80.06
301.518	95.06
301.748	96.06
301.979	90.06
302.209	88.06
302.439	81.06
302.669	98.06
302.9	85.06
303.13	91.06
303.36	97.06
303.59	92.06
303.82	96.06
304.051	99.06
304.281	94.06
304.511	109.06
304.741	98.06
304.971	97.06
305.201	102.06
305.431	95.06
305.661	99.06
305.891	100.06
306.121	92.06
306.352	88.06
306.582	104.06
306.812	98.06
307.042	79.06
307.272	95.06
307.502	86.06
307.731	93.06
307.961	92.06
308.191	89.06
308.421	93.06
308.651	97.06
308.881	89.06
309.111	89.06
309.341	100.06
309.571	93.06
309.8	89.06
310.03	93.06
310.26	98.06
310.49	93.06
310.72	101.06
310.949	104.06
311.179	94.06
311.409	107.06
311.639	91.06
311.868	87.06
312.098	89.06
312.328	101.06
312.557	91.06
312.787	107.06
313.017	113.06
313.246	106.06
313.476	85.06
313.706	94.06
313.935	90.06
314.165	97.06
314.394	82.06
314.624	93.06
314.853	97.06
315.083	106.06
315.312	95.06
315.542	85.06
315.771	112.06
316.001	94.06
316.23	84.06
316.46	94.06
316.689	102.06
316.919	94.06
317.148	91.06
317.377	95.06
317.607	92.06
317.836	92.06
318.065	99.06
318.295	88.06
318.524	90.06
318.753	97.06
318.983	99.06
319.212	101.06
319.441	102.06
319.67	92.06
319.9	100.06
320.129	96.06
320.358	84.06
320.587	93.06
320.816	104.06
321.046	100.06
321.275	95.06
321.504	99.06
321.733	93.06
321.962	86.06
322.191	102.06
322.42	90.06
322.649	110.06
322.878	100.06
323.108	114.06
323.337	127.06
323.566	117.06
323.795	139.06
324.024	186.06
324.253	328.06
324.482	706.06
324.71	1473.06
324.939	1965.06
325.168	711.06
325.397	230.06
325.626	145.06
325.855	128.06
326.084	127.06
326.313	121.06
326.542	153.06
326.77	205.06
326.999	420.06
327.228	837.06
327.457	1513.06
327.686	1250.06
327.914	356.06
328.143	244.06
328.372	171.06
328.6	130.06
328.829	116.06
329.058	121.06
329.287	114.06
329.515	107.06
329.744	97.06
329.972	84.06
330.201	107.06
330.43	109.06
330.658	117.06
330.887	121.06
331.115	96.06
331.344	107.06
331.572	107.06
331.801	84.06
332.03	85.06
332.258	100.06
332.486	96.06
332.715	92.06
332.943	103.06
333.172	105.06
333.4	95.06
333.629	101.06
333.857	105.06
334.085	104.06
334.314	84.06
334.542	90.06
334.771	92.06
334.999	103.06
335.227	99.06
335.455	90.06
335.684	100.06
335.912	87.06
336.14	95.06
336.369	102.06
336.597	83.06
336.825	92.06
337.053	101.06
337.281	87.06
337.51	99.06
337.738	86.06
337.966	100.06
338.194	121.06
338.422	139.06
338.65	114.06
338.878	95.06
339.106	90.06
339.334	101.06
339.562	84.06
339.79	84.06
340.018	90.06
340.246	104.06
340.474	96.06
340.702	104.06
340.93	102.06
341.158	88.06
341.386	87.06
341.614	89.06
341.842	96.06
342.07	88.06
342.298	98.06
342.526	95.06
342.754	101.06
342.981	101.06
343.209	87.06
343.437	111.06
343.665	87.06
343.893	89.06
344.12	91.06
344.348	75.06
344.576	105.06
344.804	88.06
345.031	99.06
345.259	90.06
345.487	81.06
345.714	89.06
345.942	94.06
346.17	88.06
346.397	91.06
346.625	92.06
346.853	90.06
347.08	89.06
347.308	98.06
347.535	93.06
347.763	102.06
347.99	92.06
348.218	100.06
348.445	99.06
348.673	98.06
348.9	89.06
349.128	97.06
349.355	87.06
349.583	101.06
349.81	98.06
350.037	88.06
350.265	102.06
350.492	91.06
350.72	89.06
350.947	103.06
351.174	109.06
351.402	107.06
351.629	79.06
351.856	97.06
352.083	112.06
352.311	112.06
352.538	116.06
352.765	128.06
352.992	104.06
353.22	114.06
353.447	101.06
353.674	101.06
353.901	92.06
354.128	103.06
354.355	101.06
354.583	96.06
354.81	99.06
355.037	95.06
355.264	84.06
355.491	87.06
355.718	77.06
355.945	112.06
356.172	84.06
356.399	104.06
356.626	95.06
356.853	87.06
357.08	87.06
357.307	103.06
357.534	105.06
357.761	79.06
357.988	97.06
358.215	86.06
358.441	116.06
358.668	98.06
358.895	107.06
359.122	92.06
359.349	101.06
359.576	101.06
359.802	93.06
360.029	115.06
360.256	103.06
360.483	81.06
360.709	94.06
360.936	99.06
361.163	96.06
361.39	107.06
361.616	92.06
361.843	79.06
362.07	105.06
362.296	83.06
362.523	93.06
362.749	92.06
362.976	96.06
363.203	95.06
363.429	81.06
363.656	97.06
363.882	84.06
364.109	92.06
364.335	98.06
364.562	80.06
364.788	100.06
365.015	97.06
365.241	101.06
365.468	96.06
365.694	106.06
365.92	96.06
366.147	92.06
366.373	78.06
366.599	91.06
366.826	85.06
367.052	92.06
367.278	98.06
367.505	84.06
367.731	83.06
367.957	88.06
368.184	75.06
368.41	93.06
368.636	81.06
368.862	104.06
369.089	107.06
369.315	83.06
369.541	79.06
369.767	78.06
369.993	99.06
370.219	87.06
370.445	95.06
370.672	78.06
370.898	85.06
371.124	88.06
371.35	83.06
371.576	94.06
371.802	83.06
372.028	90.06
372.254	94.06
372.48	77.06
372.706	96.06
372.932	96.06
373.158	96.06
373.384	97.06
373.61	83.06
373.835	89.06
374.061	79.06
374.287	79.06
374.513	93.06
374.739	95.06
374.965	90.06
375.191	91.06
375.416	75.06
375.642	97.06
375.868	93.06
376.094	97.06
376.319	98.06
376.545	96.06
376.771	100.06
376.997	90.06
377.222	98.06
377.448	94.06
377.674	89.06
377.899	89.06
378.125	88.06
378.35	98.06
378.576	96.06
378.802	94.06
379.027	95.06
379.253	92.06
379.478	88.06
379.704	101.06
379.929	97.06
380.155	91.06
380.38	91.06
380.606	96.06
380.831	105.06
381.057	100.06
381.282	76.06
381.507	100.06
381.733	88.06
381.958	93.06
382.184	109.06
382.409	99.06
382.634	119.06
382.86	106.06
383.085	111.06
383.31	97.06
383.535	119.06
383.761	95.06
383.986	104.06
384.211	96.06
384.436	101.06
384.662	107.06
384.887	107.06
385.112	115.06
385.337	112.06
385.562	119.06
385.787	113.06
386.013	112.06
386.238	117.06
386.463	129.06
386.688	116.06
386.913	119.06
387.138	112.06
387.363	116.06
387.588	103.06
387.813	104.06
388.038	107.06
388.263	109.06
388.488	109.06
388.713	96.06
388.938	95.06
389.163	102.06
389.387	107.06
389.612	98.06
389.837	116.06
390.062	95.06
390.287	95.06
390.512	94.06
390.736	89.06
390.961	90.06
391.186	83.06
391.411	110.06
391.636	94.06
391.86	99.06
392.085	83.06
392.31	87.06
392.534	88.06
392.759	89.06
392.984	99.06
393.208	99.06
393.433	109.06
393.658	87.06
393.882	85.06
394.107	87.06
394.331	83.06
394.556	101.06
394.78	82.06
395.005	95.06
395.229	81.06
395.454	97.06
395.678	88.06
395.903	92.06
396.127	84.06
396.352	93.06
396.576	85.06
396.801	93.06
397.025	99.06
397.249	91.06
397.474	96.06
397.698	85.06
397.922	90.06
398.147	98.06
398.371	84.06
398.595	84.06
398.82	86.06
399.044	90.06
399.268	74.06
399.492	82.06
399.717	89.06
399.941	95.06
400.165	97.06
400.389	103.06
400.613	91.06
400.837	96.06
401.062	89.06
401.286	91.06
401.51	87.06
401.734	91.06
401.958	93.06
402.182	110.06
402.406	146.06
402.63	109.06
402.854	83.06
403.078	77.06
403.302	93.06
403.526	103.06
403.75	83.06
403.974	77.06
404.198	93.06
404.422	111.06
404.645	80.06
404.869	87.06
405.093	96.06
405.317	103.06
405.541	109.06
405.765	93.06
405.988	111.06
406.212	142.06
406.436	170.06
406.66	126.06
406.883	116.06
407.107	89.06
407.331	91.06
407.555	101.06
407.778	104.06
408.002	87.06
408.226	92.06
408.449	73.06
408.673	89.06
408.896	100.06
409.12	108.06
409.344	80.06
409.567	81.06
409.791	79.06
410.014	94.06
410.238	94.06
410.461	94.06
410.685	77.06
410.908	100.06
411.132	102.06
411.355	104.06
411.578	83.06
411.802	86.06
412.025	100.06
412.249	93.06
412.472	88.06
412.695	83.06
412.919	81.06
413.142	90.06
413.365	92.06
413.589	78.06
413.812	90.06
414.035	82.06
414.258	90.06
414.482	87.06
414.705	89.06
414.928	88.06
415.151	88.06
415.374	101.06
415.597	107.06
415.821	86.06
416.044	99.06
416.267	91.06
416.49	87.06
416.713	82.06
416.936	103.06
417.159	93.06
417.382	82.06
417.605	88.06
417.828	102.06
418.051	90.06
418.274	85.06
418.497	94.06
418.72	88.06
418.943	91.06
419.166	95.06
419.389	95.06
419.611	88.06
419.834	84.06
420.057	89.06
420.28	87.06
420.503	84.06
420.726	97.06
420.948	93.06
421.171	107.06
421.394	100.06
421.617	93.06
421.839	100.06
422.062	80.06
422.285	95.06
422.507	113.06
422.73	107.06
422.953	92.06
423.175	94.06
423.398	82.06
423.621	105.06
423.843	101.06
424.066	101.06
424.288	64.06
424.511	89.06
424.733	82.06
424.956	93.06
425.178	85.06
425.401	103.06
425.623	114.06
425.846	108.06
426.068	88.06
426.291	97.06
426.513	89.06
426.735	90.06
426.958	87.06
427.18	106.06
427.402	137.06
427.625	158.06
427.847	116.06
428.069	109.06
428.292	94.06
428.514	87.06
428.736	80.06
428.958	80.06
429.181	80.06
429.403	93.06
429.625	76.06
429.847	96.06
430.069	111.06
430.292	110.06
430.514	88.06
430.736	87.06
430.958	84.06
431.18	111.06
431.402	83.06
431.624	95.06
431.846	99.06
432.068	74.06
432.29	82.06
432.512	82.06
432.734	81.06
432.956	93.06
433.178	109.06
433.4	103.06
433.622	79.06
433.844	80.06
434.066	95.06
434.287	83.06
434.509	92.06
434.731	93.06
434.953	91.06
435.175	85.06
435.397	87.06
435.618	86.06
435.84	91.06
436.062	122.06
436.284	121.06
436.505	95.06
436.727	111.06
436.949	103.06
437.17	104.06
437.392	86.06
437.614	78.06
437.835	113.06
438.057	128.06
438.278	113.06
438.5	108.06
438.721	116.06
438.943	116.06
439.165	92.06
439.386	85.06
439.608	86.06
439.829	107.06
440.05	114.06
440.272	131.06
440.493	90.06
440.715	84.06
440.936	105.06
441.158	101.06
441.379	82.06
441.6	87.06
441.822	86.06
442.043	108.06
442.264	99.06
442.486	107.06
442.707	95.06
442.928	109.06
443.149	119.06
443.371	127.06
443.592	108.06
443.813	103.06
444.034	104.06
444.255	95.06
444.476	69.06
444.698	79.06
444.919	89.06
445.14	134.06
445.361	133.06
445.582	116.06
445.803	124.06
446.024	127.06
446.245	138.06
446.466	118.06
446.687	87.06
446.908	96.06
447.129	92.06
447.35	95.06
447.571	90.06
447.792	96.06
448.013	88.06
448.234	107.06
448.455	111.06
448.675	110.06
448.896	131.06
449.117	99.06
449.338	112.06
449.559	126.06
449.779	130.06
450	93.06
450.221	100.06
450.442	82.06
450.662	102.06
450.883	114.06
451.104	104.06
451.324	96.06
451.545	95.06
451.766	88.06
451.986	107.06
452.207	81.06
452.428	101.06
452.648	88.06
452.869	98.06
453.089	96.06
453.31	100.06
453.53	87.06
453.751	99.06
453.971	95.06
454.192	93.06
454.412	90.06
454.633	84.06
454.853	89.06
455.073	96.06
455.294	73.06
455.514	117.06
455.734	87.06
455.955	99.06
456.175	85.06
456.395	84.06
456.616	90.06
456.836	92.06
457.056	84.06
457.276	87.06
457.497	84.06
457.717	87.06
457.937	89.06
458.157	88.06
458.377	100.06
458.598	96.06
458.818	116.06
459.038	131.06
459.258	106.06
459.478	96.06
459.698	82.06
459.918	92.06
460.138	95.06
460.358	101.06
460.578	73.06
460.798	94.06
461.018	101.06
461.238	89.06
461.458	89.06
461.678	84.06
461.898	91.06
462.118	89.06
462.338	89.06
462.558	89.06
462.777	76.06
462.997	78.06
463.217	80.06
463.437	87.06
463.657	95.06
463.876	83.06
464.096	94.06
464.316	89.06
464.536	94.06
464.755	94.06
464.975	91.06
465.195	137.06
465.414	134.06
465.634	93.06
465.854	95.06
466.073	89.06
466.293	87.06
466.512	84.06
466.732	88.06
466.951	89.06
467.171	89.06
467.391	98.06
467.61	94.06
467.829	103.06
468.049	88.06
468.268	83.06
468.488	96.06
468.707	95.06
468.927	85.06
469.146	77.06
469.365	95.06
469.585	93.06
469.804	95.06
470.023	98.06
470.243	88.06
470.462	99.06
470.681	96.06
470.901	93.06
471.12	89.06
471.339	85.06
471.558	82.06
471.777	97.06
471.997	100.06
472.216	96.06
472.435	101.06
472.654	96.06
472.873	82.06
473.092	83.06
473.311	88.06
473.53	91.06
473.749	96.06
473.968	95.06
474.187	105.06
474.406	90.06
474.625	81.06
474.844	94.06
475.063	96.06
475.282	76.06
475.501	82.06
475.72	110.06
475.939	87.06
476.158	79.06
476.377	80.06
476.596	87.06
476.814	88.06
477.033	96.06
477.252	83.06
477.471	92.06
477.69	87.06
477.908	92.06
478.127	83.06
478.346	92.06
478.564	90.06
478.783	89.06
479.002	100.06
479.22	81.06
479.439	99.06
479.658	101.06
479.876	82.06
480.095	90.06
480.313	103.06
480.532	97.06
480.751	95.06
480.969	96.06
481.188	94.06
481.406	100.06
481.624	84.06
481.843	92.06
482.061	84.06
482.28	91.06
482.498	82.06
482.717	89.06
482.935	83.06
483.153	95.06
483.372	97.06
483.59	90.06
483.808	73.06
484.027	103.06
484.245	86.06
484.463	84.06
484.681	99.06
484.9	93.06
485.118	103.06
485.336	100.06
485.554	99.06
485.772	109.06
485.99	106.06
486.209	100.06
486.427	98.06
486.645	129.06
486.863	127.06
487.081	100.06
487.299	105.06
487.517	105.06
487.735	90.06
487.953	85.06
488.171	92.06
488.389	113.06
488.607	99.06
488.825	88.06
489.043	87.06
489.261	105.06
489.479	100.06
489.696	94.06
489.914	76.06
490.132	89.06
490.35	86.06
490.568	92.06
490.786	92.06
491.003	81.06
491.221	88.06
491.439	85.06
491.657	93.06
491.874	97.06
492.092	99.06
492.31	100.06
492.527	94.06
492.745	83.06
492.963	87.06
493.18	74.06
493.398	101.06
493.615	89.06
493.833	77.06
494.05	95.06
494.268	97.06
494.485	96.06
494.703	85.06
494.92	97.06
495.138	84.06
495.355	88.06
495.573	85.06
495.79	98.06
496.008	96.06
496.225	109.06
496.442	100.06
496.66	86.06
496.877	105.06
497.094	113.06
497.312	100.06
497.529	93.06
497.746	78.06
497.963	85.06
498.181	86.06
498.398	93.06
498.615	101.06
498.832	101.06
499.049	95.06
499.267	92.06
499.484	82.06
499.701	90.06
499.918	85.06
500.135	77.06
500.352	93.06
500.569	94.06
500.786	84.06
501.003	88.06
501.22	88.06
501.437	83.06
501.654	93.06
501.871	95.06
502.088	77.06
502.305	90.06
502.522	81.06
502.739	82.06
502.956	94.06
503.172	88.06
503.389	109.06
503.606	110.06
503.823	95.06
504.04	106.06
504.256	88.06
504.473	95.06
504.69	83.06
504.907	100.06
505.123	95.06
505.34	89.06
505.557	93.06
505.773	85.06
505.99	82.06
506.207	101.06
506.423	104.06
506.64	83.06
506.856	92.06
507.073	88.06
507.289	74.06
507.506	107.06
507.722	112.06
507.939	102.06
508.155	101.06
508.372	87.06
508.588	85.06
508.805	100.06
509.021	106.06
509.238	96.06
509.454	99.06
509.67	92.06
509.887	103.06
510.103	108.06
510.319	168.06
510.536	538.06
510.752	1644.06
510.968	472.06
511.184	149.06
511.401	119.06
511.617	96.06
511.833	91.06
512.049	93.06
512.265	103.06
512.481	81.06
512.698	85.06
512.914	89.06
513.13	95.06
513.346	82.06
513.562	80.06
513.778	91.06
513.994	92.06
514.21	101.06
514.426	110.06
514.642	113.06
514.858	109.06
515.074	156.06
515.29	349.06
515.506	1040.06
