Data from Uncirc_1996_H10_HRD10591_00010.txt Node
Date: Wed Jan 03 11:32:04 EST 2024
User: Yrep
Spectrometer: HR+D1059
Trigger mode: 1
Integration Time (sec): 1.000000E-1
Scans to average: 1
Electric dark correction enabled: true
Nonlinearity correction enabled: false
Boxcar width: 0
XAxis mode: Wavelengths
Number of Pixels in Spectrum: 2048
>>>>>Begin Spectral Data<<<<<
223.165	-11.88
223.4	-11.88
223.635	-11.88
223.869	-24.88
224.104	-26.88
224.338	-15.88
224.573	-21.88
224.808	-5.88
225.042	-13.88
225.277	-7.88
225.511	0.12
225.746	9.12
225.98	15.12
226.215	9.12
226.449	22.12
226.683	15.12
226.918	25.12
227.152	33.12
227.387	29.12
227.621	42.12
227.856	28.12
228.09	36.12
228.324	72.12
228.559	55.12
228.793	58.12
229.027	62.12
229.262	64.12
229.496	62.12
229.73	80.12
229.964	74.12
230.199	73.12
230.433	84.12
230.667	75.12
230.901	69.12
231.136	80.12
231.37	75.12
231.604	85.12
231.838	73.12
232.072	50.12
232.306	91.12
232.541	76.12
232.775	75.12
233.009	79.12
233.243	89.12
233.477	79.12
233.711	89.12
233.945	74.12
234.179	77.12
234.413	85.12
234.647	74.12
234.881	73.12
235.115	88.12
235.349	83.12
235.583	80.12
235.817	81.12
236.051	81.12
236.285	92.12
236.519	72.12
236.753	70.12
236.987	77.12
237.221	65.12
237.455	80.12
237.689	76.12
237.922	72.12
238.156	75.12
238.39	74.12
238.624	54.12
238.858	67.12
239.091	76.12
239.325	64.12
239.559	79.12
239.793	72.12
240.027	76.12
240.26	77.12
240.494	80.12
240.728	65.12
240.961	80.12
241.195	89.12
241.429	81.12
241.662	81.12
241.896	78.12
242.13	81.12
242.363	66.12
242.597	73.12
242.83	91.12
243.064	65.12
243.298	91.12
243.531	73.12
243.765	77.12
243.998	73.12
244.232	75.12
244.465	79.12
244.699	65.12
244.932	75.12
245.166	79.12
245.399	83.12
245.633	77.12
245.866	89.12
246.099	86.12
246.333	77.12
246.566	80.12
246.8	77.12
247.033	78.12
247.266	72.12
247.5	77.12
247.733	66.12
247.966	89.12
248.2	79.12
248.433	80.12
248.666	78.12
248.899	69.12
249.133	81.12
249.366	101.12
249.599	94.12
249.832	70.12
250.066	83.12
250.299	69.12
250.532	59.12
250.765	77.12
250.998	95.12
251.231	80.12
251.465	78.12
251.698	70.12
251.931	78.12
252.164	78.12
252.397	70.12
252.63	66.12
252.863	79.12
253.096	72.12
253.329	81.12
253.562	81.12
253.795	72.12
254.028	73.12
254.261	69.12
254.494	91.12
254.727	84.12
254.96	90.12
255.193	69.12
255.426	86.12
255.659	83.12
255.892	89.12
256.124	94.12
256.357	82.12
256.59	83.12
256.823	80.12
257.056	82.12
257.289	93.12
257.521	77.12
257.754	78.12
257.987	75.12
258.22	81.12
258.452	73.12
258.685	88.12
258.918	83.12
259.151	81.12
259.383	77.12
259.616	82.12
259.849	91.12
260.081	79.12
260.314	79.12
260.547	63.12
260.779	72.12
261.012	81.12
261.244	78.12
261.477	80.12
261.71	99.12
261.942	104.12
262.175	105.12
262.407	87.12
262.64	83.12
262.872	86.12
263.105	75.12
263.337	75.12
263.57	89.12
263.802	82.12
264.035	76.12
264.267	69.12
264.499	75.12
264.732	77.12
264.964	87.12
265.197	93.12
265.429	82.12
265.661	88.12
265.894	86.12
266.126	79.12
266.358	82.12
266.591	86.12
266.823	81.12
267.055	85.12
267.287	88.12
267.52	74.12
267.752	70.12
267.984	81.12
268.216	91.12
268.448	77.12
268.681	86.12
268.913	86.12
269.145	82.12
269.377	88.12
269.609	76.12
269.841	80.12
270.073	85.12
270.306	88.12
270.538	77.12
270.77	82.12
271.002	69.12
271.234	82.12
271.466	83.12
271.698	90.12
271.93	84.12
272.162	90.12
272.394	84.12
272.626	71.12
272.858	89.12
273.09	90.12
273.322	90.12
273.553	86.12
273.785	77.12
274.017	70.12
274.249	89.12
274.481	73.12
274.713	66.12
274.945	75.12
275.176	85.12
275.408	79.12
275.64	91.12
275.872	99.12
276.104	82.12
276.335	85.12
276.567	83.12
276.799	98.12
277.031	77.12
277.262	87.12
277.494	88.12
277.726	97.12
277.957	82.12
278.189	101.12
278.421	90.12
278.652	98.12
278.884	67.12
279.115	94.12
279.347	94.12
279.579	92.12
279.81	80.12
280.042	85.12
280.273	79.12
280.505	81.12
280.736	85.12
280.968	95.12
281.199	72.12
281.431	87.12
281.662	94.12
281.894	93.12
282.125	92.12
282.356	107.12
282.588	134.12
282.819	102.12
283.051	89.12
283.282	91.12
283.513	83.12
283.745	88.12
283.976	96.12
284.207	98.12
284.439	89.12
284.67	74.12
284.901	82.12
285.132	76.12
285.364	89.12
285.595	101.12
285.826	98.12
286.057	77.12
286.288	83.12
286.52	75.12
286.751	74.12
286.982	77.12
287.213	82.12
287.444	82.12
287.675	88.12
287.906	98.12
288.138	94.12
288.369	87.12
288.6	88.12
288.831	76.12
289.062	85.12
289.293	80.12
289.524	81.12
289.755	95.12
289.986	81.12
290.217	83.12
290.448	90.12
290.679	92.12
290.91	95.12
291.141	83.12
291.371	91.12
291.602	78.12
291.833	85.12
292.064	87.12
292.295	93.12
292.526	92.12
292.757	80.12
292.987	77.12
293.218	82.12
293.449	89.12
293.68	93.12
293.91	87.12
294.141	106.12
294.372	89.12
294.603	95.12
294.833	87.12
295.064	77.12
295.295	90.12
295.525	90.12
295.756	96.12
295.987	106.12
296.217	117.12
296.448	137.12
296.679	86.12
296.909	91.12
297.14	80.12
297.37	86.12
297.601	93.12
297.831	101.12
298.062	97.12
298.292	98.12
298.523	87.12
298.753	83.12
298.984	90.12
299.214	89.12
299.445	97.12
299.675	80.12
299.905	94.12
300.136	92.12
300.366	85.12
300.597	85.12
300.827	90.12
301.057	83.12
301.288	104.12
301.518	85.12
301.748	74.12
301.979	90.12
302.209	107.12
302.439	86.12
302.669	94.12
302.9	85.12
303.13	79.12
303.36	84.12
303.59	99.12
303.82	99.12
304.051	91.12
304.281	74.12
304.511	88.12
304.741	79.12
304.971	83.12
305.201	88.12
305.431	94.12
305.661	63.12
305.891	95.12
306.121	84.12
306.352	97.12
306.582	108.12
306.812	90.12
307.042	80.12
307.272	89.12
307.502	85.12
307.731	79.12
307.961	94.12
308.191	85.12
308.421	73.12
308.651	102.12
308.881	110.12
309.111	92.12
309.341	101.12
309.571	99.12
309.8	91.12
310.03	112.12
310.26	91.12
310.49	95.12
310.72	102.12
310.949	107.12
311.179	76.12
311.409	82.12
311.639	94.12
311.868	89.12
312.098	79.12
312.328	88.12
312.557	105.12
312.787	99.12
313.017	71.12
313.246	97.12
313.476	89.12
313.706	98.12
313.935	99.12
314.165	100.12
314.394	108.12
314.624	96.12
314.853	97.12
315.083	91.12
315.312	96.12
315.542	88.12
315.771	91.12
316.001	83.12
316.23	87.12
316.46	87.12
316.689	86.12
316.919	71.12
317.148	86.12
317.377	83.12
317.607	88.12
317.836	87.12
318.065	100.12
318.295	95.12
318.524	87.12
318.753	96.12
318.983	86.12
319.212	105.12
319.441	110.12
319.67	113.12
319.9	91.12
320.129	89.12
320.358	94.12
320.587	97.12
320.816	94.12
321.046	98.12
321.275	104.12
321.504	93.12
321.733	113.12
321.962	89.12
322.191	107.12
322.42	95.12
322.649	104.12
322.878	91.12
323.108	107.12
323.337	111.12
323.566	122.12
323.795	150.12
324.024	178.12
324.253	336.12
324.482	700.12
324.71	1398.12
324.939	1866.12
325.168	689.12
325.397	213.12
325.626	135.12
325.855	131.12
326.084	114.12
326.313	138.12
326.542	155.12
326.77	230.12
326.999	401.12
327.228	837.12
327.457	1518.12
327.686	1157.12
327.914	341.12
328.143	228.12
328.372	171.12
328.6	125.12
328.829	112.12
329.058	117.12
329.287	113.12
329.515	109.12
329.744	98.12
329.972	90.12
330.201	105.12
330.43	96.12
330.658	101.12
330.887	116.12
331.115	101.12
331.344	88.12
331.572	93.12
331.801	93.12
332.03	97.12
332.258	87.12
332.486	101.12
332.715	91.12
332.943	87.12
333.172	98.12
333.4	96.12
333.629	88.12
333.857	105.12
334.085	104.12
334.314	102.12
334.542	91.12
334.771	85.12
334.999	93.12
335.227	99.12
335.455	102.12
335.684	90.12
335.912	96.12
336.14	100.12
336.369	93.12
336.597	97.12
336.825	103.12
337.053	85.12
337.281	91.12
337.51	92.12
337.738	93.12
337.966	124.12
338.194	118.12
338.422	133.12
338.65	108.12
338.878	94.12
339.106	67.12
339.334	84.12
339.562	101.12
339.79	81.12
340.018	79.12
340.246	80.12
340.474	89.12
340.702	80.12
340.93	89.12
341.158	86.12
341.386	77.12
341.614	101.12
341.842	72.12
342.07	98.12
342.298	95.12
342.526	102.12
342.754	94.12
342.981	89.12
343.209	84.12
343.437	104.12
343.665	98.12
343.893	94.12
344.12	104.12
344.348	97.12
344.576	75.12
344.804	95.12
345.031	89.12
345.259	87.12
345.487	93.12
345.714	85.12
345.942	102.12
346.17	91.12
346.397	93.12
346.625	92.12
346.853	104.12
347.08	90.12
347.308	95.12
347.535	108.12
347.763	97.12
347.99	90.12
348.218	89.12
348.445	105.12
348.673	101.12
348.9	98.12
349.128	97.12
349.355	75.12
349.583	104.12
349.81	93.12
350.037	103.12
350.265	89.12
350.492	90.12
350.72	98.12
350.947	96.12
351.174	107.12
351.402	110.12
351.629	109.12
351.856	98.12
352.083	110.12
352.311	99.12
352.538	101.12
352.765	103.12
352.992	109.12
353.22	96.12
353.447	110.12
353.674	104.12
353.901	96.12
354.128	105.12
354.355	97.12
354.583	83.12
354.81	105.12
355.037	94.12
355.264	95.12
355.491	89.12
355.718	94.12
355.945	110.12
356.172	105.12
356.399	102.12
356.626	98.12
356.853	100.12
357.08	82.12
357.307	90.12
357.534	91.12
357.761	99.12
357.988	80.12
358.215	98.12
358.441	101.12
358.668	81.12
358.895	91.12
359.122	94.12
359.349	92.12
359.576	87.12
359.802	108.12
360.029	99.12
360.256	104.12
360.483	111.12
360.709	101.12
360.936	88.12
361.163	92.12
361.39	78.12
361.616	82.12
361.843	78.12
362.07	104.12
362.296	89.12
362.523	94.12
362.749	90.12
362.976	92.12
363.203	98.12
363.429	90.12
363.656	94.12
363.882	78.12
364.109	81.12
364.335	107.12
364.562	90.12
364.788	82.12
365.015	84.12
365.241	95.12
365.468	97.12
365.694	92.12
365.92	97.12
366.147	104.12
366.373	90.12
366.599	94.12
366.826	88.12
367.052	83.12
367.278	94.12
367.505	89.12
367.731	103.12
367.957	94.12
368.184	84.12
368.41	90.12
368.636	96.12
368.862	106.12
369.089	106.12
369.315	90.12
369.541	84.12
369.767	88.12
369.993	93.12
370.219	97.12
370.445	97.12
370.672	90.12
370.898	77.12
371.124	90.12
371.35	87.12
371.576	96.12
371.802	95.12
372.028	75.12
372.254	105.12
372.48	88.12
372.706	91.12
372.932	88.12
373.158	96.12
373.384	104.12
373.61	85.12
373.835	77.12
374.061	92.12
374.287	87.12
374.513	91.12
374.739	106.12
374.965	85.12
375.191	91.12
375.416	79.12
375.642	89.12
375.868	96.12
376.094	108.12
376.319	88.12
376.545	93.12
376.771	90.12
376.997	89.12
377.222	85.12
377.448	94.12
377.674	86.12
377.899	88.12
378.125	94.12
378.35	100.12
378.576	82.12
378.802	96.12
379.027	92.12
379.253	100.12
379.478	81.12
379.704	95.12
379.929	88.12
380.155	97.12
380.38	85.12
380.606	92.12
380.831	106.12
381.057	91.12
381.282	99.12
381.507	107.12
381.733	97.12
381.958	97.12
382.184	99.12
382.409	89.12
382.634	104.12
382.86	105.12
383.085	99.12
383.31	111.12
383.535	108.12
383.761	103.12
383.986	102.12
384.211	98.12
384.436	89.12
384.662	102.12
384.887	104.12
385.112	111.12
385.337	111.12
385.562	116.12
385.787	109.12
386.013	104.12
386.238	106.12
386.463	115.12
386.688	125.12
386.913	110.12
387.138	104.12
387.363	101.12
387.588	99.12
387.813	99.12
388.038	111.12
388.263	127.12
388.488	116.12
388.713	93.12
388.938	95.12
389.163	97.12
389.387	79.12
389.612	95.12
389.837	96.12
390.062	104.12
390.287	96.12
390.512	91.12
390.736	84.12
390.961	90.12
391.186	97.12
391.411	89.12
391.636	102.12
391.86	93.12
392.085	96.12
392.31	81.12
392.534	84.12
392.759	78.12
392.984	80.12
393.208	85.12
393.433	107.12
393.658	106.12
393.882	80.12
394.107	90.12
394.331	89.12
394.556	86.12
394.78	90.12
395.005	91.12
395.229	87.12
395.454	86.12
395.678	81.12
395.903	94.12
396.127	95.12
396.352	104.12
396.576	83.12
396.801	78.12
397.025	112.12
397.249	84.12
397.474	81.12
397.698	81.12
397.922	97.12
398.147	89.12
398.371	87.12
398.595	73.12
398.82	80.12
399.044	81.12
399.268	81.12
399.492	99.12
399.717	80.12
399.941	89.12
400.165	84.12
400.389	86.12
400.613	72.12
400.837	96.12
401.062	99.12
401.286	94.12
401.51	95.12
401.734	89.12
401.958	99.12
402.182	128.12
402.406	127.12
402.63	107.12
402.854	84.12
403.078	79.12
403.302	91.12
403.526	97.12
403.75	77.12
403.974	73.12
404.198	102.12
404.422	88.12
404.645	86.12
404.869	106.12
405.093	87.12
405.317	98.12
405.541	90.12
405.765	81.12
405.988	108.12
406.212	158.12
406.436	181.12
406.66	118.12
406.883	109.12
407.107	89.12
407.331	94.12
407.555	88.12
407.778	98.12
408.002	109.12
408.226	71.12
408.449	80.12
408.673	105.12
408.896	97.12
409.12	73.12
409.344	75.12
409.567	101.12
409.791	88.12
410.014	115.12
410.238	98.12
410.461	99.12
410.685	110.12
410.908	103.12
411.132	100.12
411.355	102.12
411.578	98.12
411.802	85.12
412.025	86.12
412.249	87.12
412.472	86.12
412.695	95.12
412.919	94.12
413.142	94.12
413.365	86.12
413.589	83.12
413.812	96.12
414.035	103.12
414.258	89.12
414.482	87.12
414.705	101.12
414.928	89.12
415.151	78.12
415.374	92.12
415.597	88.12
415.821	99.12
416.044	94.12
416.267	75.12
416.49	82.12
416.713	69.12
416.936	96.12
417.159	82.12
417.382	93.12
417.605	108.12
417.828	94.12
418.051	90.12
418.274	82.12
418.497	89.12
418.72	86.12
418.943	82.12
419.166	83.12
419.389	108.12
419.611	97.12
419.834	105.12
420.057	74.12
420.28	88.12
420.503	83.12
420.726	103.12
420.948	96.12
421.171	103.12
421.394	96.12
421.617	97.12
421.839	101.12
422.062	91.12
422.285	86.12
422.507	88.12
422.73	112.12
422.953	92.12
423.175	86.12
423.398	103.12
423.621	95.12
423.843	86.12
424.066	79.12
424.288	96.12
424.511	87.12
424.733	81.12
424.956	99.12
425.178	100.12
425.401	87.12
425.623	94.12
425.846	88.12
426.068	98.12
426.291	88.12
426.513	89.12
426.735	102.12
426.958	93.12
427.18	103.12
427.402	107.12
427.625	140.12
427.847	103.12
428.069	99.12
428.292	81.12
428.514	82.12
428.736	99.12
428.958	85.12
429.181	85.12
429.403	90.12
429.625	78.12
429.847	86.12
430.069	107.12
430.292	98.12
430.514	80.12
430.736	91.12
430.958	97.12
431.18	81.12
431.402	69.12
431.624	88.12
431.846	91.12
432.068	93.12
432.29	71.12
432.512	92.12
432.734	89.12
432.956	91.12
433.178	102.12
433.4	104.12
433.622	89.12
433.844	99.12
434.066	83.12
434.287	91.12
434.509	95.12
434.731	86.12
434.953	105.12
435.175	87.12
435.397	74.12
435.618	90.12
435.84	109.12
436.062	121.12
436.284	84.12
436.505	90.12
436.727	97.12
436.949	102.12
437.17	102.12
437.392	85.12
437.614	92.12
437.835	105.12
438.057	115.12
438.278	109.12
438.5	106.12
438.721	118.12
438.943	91.12
439.165	104.12
439.386	77.12
439.608	76.12
439.829	93.12
440.05	111.12
440.272	115.12
440.493	105.12
440.715	92.12
440.936	83.12
441.158	76.12
441.379	94.12
441.6	99.12
441.822	95.12
442.043	109.12
442.264	95.12
442.486	95.12
442.707	93.12
442.928	88.12
443.149	109.12
443.371	107.12
443.592	97.12
443.813	108.12
444.034	97.12
444.255	90.12
444.476	73.12
444.698	98.12
444.919	92.12
445.14	119.12
445.361	112.12
445.582	118.12
445.803	130.12
446.024	142.12
446.245	153.12
446.466	117.12
446.687	97.12
446.908	84.12
447.129	80.12
447.35	81.12
447.571	94.12
447.792	106.12
448.013	94.12
448.234	98.12
448.455	81.12
448.675	105.12
448.896	108.12
449.117	110.12
449.338	108.12
449.559	119.12
449.779	120.12
450	95.12
450.221	95.12
450.442	84.12
450.662	93.12
450.883	106.12
451.104	89.12
451.324	96.12
451.545	83.12
451.766	80.12
451.986	77.12
452.207	92.12
452.428	91.12
452.648	99.12
452.869	102.12
453.089	110.12
453.31	102.12
453.53	99.12
453.751	98.12
453.971	99.12
454.192	87.12
454.412	86.12
454.633	92.12
454.853	87.12
455.073	85.12
455.294	89.12
455.514	87.12
455.734	84.12
455.955	83.12
456.175	82.12
456.395	85.12
456.616	89.12
456.836	92.12
457.056	66.12
457.276	80.12
457.497	89.12
457.717	91.12
457.937	85.12
458.157	89.12
458.377	93.12
458.598	99.12
458.818	115.12
459.038	144.12
459.258	97.12
459.478	104.12
459.698	83.12
459.918	90.12
460.138	89.12
460.358	98.12
460.578	83.12
460.798	82.12
461.018	83.12
461.238	72.12
461.458	81.12
461.678	79.12
461.898	89.12
462.118	63.12
462.338	90.12
462.558	88.12
462.777	84.12
462.997	84.12
463.217	90.12
463.437	70.12
463.657	98.12
463.876	79.12
464.096	69.12
464.316	91.12
464.536	78.12
464.755	98.12
464.975	110.12
465.195	146.12
465.414	141.12
465.634	98.12
465.854	80.12
466.073	98.12
466.293	94.12
466.512	88.12
466.732	84.12
466.951	99.12
467.171	85.12
467.391	97.12
467.61	103.12
467.829	99.12
468.049	88.12
468.268	83.12
468.488	71.12
468.707	90.12
468.927	85.12
469.146	80.12
469.365	91.12
469.585	81.12
469.804	99.12
470.023	89.12
470.243	88.12
470.462	81.12
470.681	91.12
470.901	88.12
471.12	95.12
471.339	84.12
471.558	88.12
471.777	88.12
471.997	87.12
472.216	99.12
472.435	96.12
472.654	83.12
472.873	88.12
473.092	89.12
473.311	98.12
473.53	80.12
473.749	96.12
473.968	87.12
474.187	104.12
474.406	95.12
474.625	95.12
474.844	93.12
475.063	82.12
475.282	79.12
475.501	93.12
475.72	94.12
475.939	75.12
476.158	81.12
476.377	81.12
476.596	86.12
476.814	89.12
477.033	86.12
477.252	94.12
477.471	95.12
477.69	97.12
477.908	85.12
478.127	78.12
478.346	86.12
478.564	89.12
478.783	100.12
479.002	81.12
479.22	81.12
479.439	85.12
479.658	80.12
479.876	87.12
480.095	95.12
480.313	98.12
480.532	85.12
480.751	81.12
480.969	108.12
481.188	98.12
481.406	90.12
481.624	88.12
481.843	75.12
482.061	85.12
482.28	81.12
482.498	94.12
482.717	83.12
482.935	90.12
483.153	96.12
483.372	101.12
483.59	85.12
483.808	79.12
484.027	95.12
484.245	84.12
484.463	91.12
484.681	88.12
484.9	100.12
485.118	79.12
485.336	88.12
485.554	94.12
485.772	92.12
485.99	97.12
486.209	106.12
486.427	106.12
486.645	113.12
486.863	107.12
487.081	95.12
487.299	97.12
487.517	99.12
487.735	89.12
487.953	87.12
488.171	95.12
488.389	96.12
488.607	98.12
488.825	93.12
489.043	82.12
489.261	95.12
489.479	97.12
489.696	84.12
489.914	87.12
490.132	92.12
490.35	81.12
490.568	93.12
490.786	73.12
491.003	79.12
491.221	91.12
491.439	98.12
491.657	82.12
491.874	89.12
492.092	95.12
492.31	92.12
492.527	81.12
492.745	87.12
492.963	87.12
493.18	87.12
493.398	94.12
493.615	95.12
493.833	74.12
494.05	99.12
494.268	91.12
494.485	92.12
494.703	85.12
494.92	97.12
495.138	101.12
495.355	97.12
495.573	85.12
495.79	86.12
496.008	88.12
496.225	99.12
496.442	96.12
496.66	103.12
496.877	85.12
497.094	77.12
497.312	89.12
497.529	94.12
497.746	77.12
497.963	87.12
498.181	77.12
498.398	102.12
498.615	105.12
498.832	93.12
499.049	93.12
499.267	85.12
499.484	84.12
499.701	109.12
499.918	87.12
500.135	87.12
500.352	94.12
500.569	94.12
500.786	96.12
501.003	84.12
501.22	97.12
501.437	110.12
501.654	93.12
501.871	97.12
502.088	96.12
502.305	93.12
502.522	80.12
502.739	82.12
502.956	91.12
503.172	88.12
503.389	82.12
503.606	104.12
503.823	95.12
504.04	88.12
504.256	80.12
504.473	81.12
504.69	88.12
504.907	102.12
505.123	73.12
505.34	87.12
505.557	95.12
505.773	79.12
505.99	86.12
506.207	87.12
506.423	91.12
506.64	99.12
506.856	97.12
507.073	79.12
507.289	108.12
507.506	94.12
507.722	98.12
507.939	106.12
508.155	81.12
508.372	73.12
508.588	99.12
508.805	92.12
509.021	98.12
509.238	94.12
509.454	87.12
509.67	79.12
509.887	86.12
510.103	107.12
510.319	173.12
510.536	553.12
510.752	1723.12
510.968	514.12
511.184	139.12
511.401	109.12
511.617	98.12
511.833	90.12
512.049	93.12
512.265	89.12
512.481	96.12
512.698	97.12
512.914	79.12
513.13	96.12
513.346	96.12
513.562	101.12
513.778	86.12
513.994	97.12
514.21	102.12
514.426	127.12
514.642	112.12
514.858	108.12
515.074	156.12
515.29	353.12
515.506	1079.12
515.721	392.12
515.937	138.12
516.153	96.12
516.369	91.12
