Data from Uncirc_1996_H10_HRD10591_00092.txt Node
Date: Wed Jan 03 11:32:20 EST 2024
User: Yrep
Spectrometer: HR+D1059
Trigger mode: 1
Integration Time (sec): 1.000000E-1
Scans to average: 1
Electric dark correction enabled: true
Nonlinearity correction enabled: false
Boxcar width: 0
XAxis mode: Wavelengths
Number of Pixels in Spectrum: 2048
>>>>>Begin Spectral Data<<<<<
223.165	-13.62
223.4	-13.62
223.635	-13.62
223.869	-28.62
224.104	-21.62
224.338	-17.62
224.573	-20.62
224.808	-7.62
225.042	-6.62
225.277	-24.62
225.511	-5.62
225.746	13.38
225.98	4.38
226.215	4.38
226.449	18.38
226.683	30.38
226.918	37.38
227.152	38.38
227.387	25.38
227.621	36.38
227.856	40.38
228.09	51.38
228.324	34.38
228.559	48.38
228.793	52.38
229.027	64.38
229.262	66.38
229.496	66.38
229.73	78.38
229.964	82.38
230.199	70.38
230.433	70.38
230.667	65.38
230.901	58.38
231.136	73.38
231.37	84.38
231.604	80.38
231.838	70.38
232.072	72.38
232.306	69.38
232.541	66.38
232.775	82.38
233.009	83.38
233.243	77.38
233.477	72.38
233.711	68.38
233.945	78.38
234.179	65.38
234.413	82.38
234.647	88.38
234.881	66.38
235.115	77.38
235.349	67.38
235.583	80.38
235.817	82.38
236.051	69.38
236.285	74.38
236.519	79.38
236.753	74.38
236.987	76.38
237.221	68.38
237.455	77.38
237.689	72.38
237.922	63.38
238.156	62.38
238.39	66.38
238.624	72.38
238.858	68.38
239.091	75.38
239.325	71.38
239.559	69.38
239.793	79.38
240.027	81.38
240.26	68.38
240.494	66.38
240.728	70.38
240.961	71.38
241.195	70.38
241.429	76.38
241.662	67.38
241.896	81.38
242.13	62.38
242.363	77.38
242.597	58.38
242.83	92.38
243.064	69.38
243.298	79.38
243.531	75.38
243.765	78.38
243.998	65.38
244.232	80.38
244.465	75.38
244.699	64.38
244.932	89.38
245.166	82.38
245.399	91.38
245.633	66.38
245.866	81.38
246.099	54.38
246.333	59.38
246.566	73.38
246.8	67.38
247.033	72.38
247.266	71.38
247.5	68.38
247.733	82.38
247.966	79.38
248.2	71.38
248.433	87.38
248.666	78.38
248.899	78.38
249.133	70.38
249.366	99.38
249.599	82.38
249.832	66.38
250.066	81.38
250.299	89.38
250.532	72.38
250.765	76.38
250.998	91.38
251.231	82.38
251.465	72.38
251.698	69.38
251.931	69.38
252.164	71.38
252.397	75.38
252.63	74.38
252.863	80.38
253.096	80.38
253.329	68.38
253.562	68.38
253.795	76.38
254.028	67.38
254.261	70.38
254.494	66.38
254.727	88.38
254.96	86.38
255.193	78.38
255.426	89.38
255.659	78.38
255.892	83.38
256.124	88.38
256.357	79.38
256.59	59.38
256.823	71.38
257.056	67.38
257.289	75.38
257.521	64.38
257.754	77.38
257.987	74.38
258.22	83.38
258.452	82.38
258.685	74.38
258.918	77.38
259.151	78.38
259.383	79.38
259.616	80.38
259.849	81.38
260.081	82.38
260.314	69.38
260.547	84.38
260.779	82.38
261.012	70.38
261.244	62.38
261.477	76.38
261.71	82.38
261.942	100.38
262.175	110.38
262.407	84.38
262.64	69.38
262.872	90.38
263.105	79.38
263.337	86.38
263.57	86.38
263.802	74.38
264.035	78.38
264.267	85.38
264.499	71.38
264.732	59.38
264.964	83.38
265.197	81.38
265.429	80.38
265.661	91.38
265.894	78.38
266.126	67.38
266.358	71.38
266.591	74.38
266.823	78.38
267.055	89.38
267.287	86.38
267.52	82.38
267.752	75.38
267.984	77.38
268.216	60.38
268.448	81.38
268.681	89.38
268.913	82.38
269.145	80.38
269.377	59.38
269.609	73.38
269.841	96.38
270.073	74.38
270.306	69.38
270.538	74.38
270.77	73.38
271.002	67.38
271.234	62.38
271.466	92.38
271.698	94.38
271.93	96.38
272.162	78.38
272.394	71.38
272.626	81.38
272.858	70.38
273.09	80.38
273.322	80.38
273.553	86.38
273.785	79.38
274.017	77.38
274.249	86.38
274.481	87.38
274.713	72.38
274.945	75.38
275.176	76.38
275.408	76.38
275.64	73.38
275.872	72.38
276.104	81.38
276.335	92.38
276.567	87.38
276.799	86.38
277.031	86.38
277.262	77.38
277.494	100.38
277.726	90.38
277.957	88.38
278.189	84.38
278.421	65.38
278.652	89.38
278.884	79.38
279.115	91.38
279.347	79.38
279.579	80.38
279.81	72.38
280.042	80.38
280.273	94.38
280.505	67.38
280.736	68.38
280.968	75.38
281.199	88.38
281.431	91.38
281.662	77.38
281.894	79.38
282.125	90.38
282.356	111.38
282.588	116.38
282.819	97.38
283.051	86.38
283.282	82.38
283.513	89.38
283.745	81.38
283.976	80.38
284.207	74.38
284.439	84.38
284.67	81.38
284.901	86.38
285.132	69.38
285.364	79.38
285.595	76.38
285.826	76.38
286.057	80.38
286.288	71.38
286.52	82.38
286.751	93.38
286.982	83.38
287.213	67.38
287.444	84.38
287.675	107.38
287.906	106.38
288.138	91.38
288.369	79.38
288.6	91.38
288.831	90.38
289.062	84.38
289.293	83.38
289.524	75.38
289.755	103.38
289.986	94.38
290.217	83.38
290.448	84.38
290.679	71.38
290.91	78.38
291.141	91.38
291.371	84.38
291.602	72.38
291.833	64.38
292.064	84.38
292.295	82.38
292.526	81.38
292.757	103.38
292.987	82.38
293.218	92.38
293.449	81.38
293.68	83.38
293.91	77.38
294.141	70.38
294.372	64.38
294.603	87.38
294.833	84.38
295.064	84.38
295.295	85.38
295.525	87.38
295.756	85.38
295.987	99.38
296.217	128.38
296.448	113.38
296.679	91.38
296.909	78.38
297.14	93.38
297.37	97.38
297.601	85.38
297.831	81.38
298.062	91.38
298.292	84.38
298.523	91.38
298.753	78.38
298.984	72.38
299.214	88.38
299.445	94.38
299.675	85.38
299.905	90.38
300.136	86.38
300.366	87.38
300.597	80.38
300.827	79.38
301.057	90.38
301.288	87.38
301.518	85.38
301.748	82.38
301.979	93.38
302.209	98.38
302.439	63.38
302.669	79.38
302.9	94.38
303.13	66.38
303.36	67.38
303.59	99.38
303.82	96.38
304.051	89.38
304.281	93.38
304.511	98.38
304.741	88.38
304.971	81.38
305.201	82.38
305.431	90.38
305.661	85.38
305.891	89.38
306.121	79.38
306.352	98.38
306.582	97.38
306.812	93.38
307.042	85.38
307.272	87.38
307.502	57.38
307.731	82.38
307.961	86.38
308.191	96.38
308.421	84.38
308.651	91.38
308.881	86.38
309.111	75.38
309.341	78.38
309.571	89.38
309.8	101.38
310.03	86.38
310.26	84.38
310.49	94.38
310.72	84.38
310.949	80.38
311.179	85.38
311.409	104.38
311.639	93.38
311.868	94.38
312.098	89.38
312.328	93.38
312.557	95.38
312.787	87.38
313.017	72.38
313.246	68.38
313.476	101.38
313.706	96.38
313.935	91.38
314.165	82.38
314.394	88.38
314.624	86.38
314.853	92.38
315.083	91.38
315.312	76.38
315.542	90.38
315.771	93.38
316.001	71.38
316.23	80.38
316.46	93.38
316.689	83.38
316.919	87.38
317.148	98.38
317.377	96.38
317.607	90.38
317.836	78.38
318.065	90.38
318.295	99.38
318.524	92.38
318.753	78.38
318.983	86.38
319.212	96.38
319.441	98.38
319.67	88.38
319.9	88.38
320.129	82.38
320.358	83.38
320.587	80.38
320.816	78.38
321.046	91.38
321.275	95.38
321.504	76.38
321.733	85.38
321.962	90.38
322.191	99.38
322.42	102.38
322.649	102.38
322.878	101.38
323.108	101.38
323.337	102.38
323.566	113.38
323.795	144.38
324.024	202.38
324.253	344.38
324.482	745.38
324.71	1521.38
324.939	2025.38
325.168	755.38
325.397	236.38
325.626	138.38
325.855	125.38
326.084	99.38
326.313	112.38
326.542	153.38
326.77	225.38
326.999	411.38
327.228	880.38
327.457	1564.38
327.686	1244.38
327.914	327.38
328.143	178.38
328.372	142.38
328.6	111.38
328.829	115.38
329.058	113.38
329.287	126.38
329.515	110.38
329.744	98.38
329.972	108.38
330.201	92.38
330.43	94.38
330.658	101.38
330.887	131.38
331.115	127.38
331.344	90.38
331.572	103.38
331.801	90.38
332.03	96.38
332.258	82.38
332.486	89.38
332.715	79.38
332.943	114.38
333.172	91.38
333.4	87.38
333.629	96.38
333.857	106.38
334.085	94.38
334.314	96.38
334.542	95.38
334.771	84.38
334.999	100.38
335.227	87.38
335.455	89.38
335.684	93.38
335.912	76.38
336.14	92.38
336.369	83.38
336.597	96.38
336.825	90.38
337.053	87.38
337.281	91.38
337.51	93.38
337.738	93.38
337.966	84.38
338.194	102.38
338.422	88.38
338.65	92.38
338.878	86.38
339.106	90.38
339.334	92.38
339.562	89.38
339.79	91.38
340.018	83.38
340.246	83.38
340.474	103.38
340.702	89.38
340.93	85.38
341.158	94.38
341.386	94.38
341.614	83.38
341.842	85.38
342.07	87.38
342.298	92.38
342.526	79.38
342.754	79.38
342.981	87.38
343.209	84.38
343.437	102.38
343.665	73.38
343.893	94.38
344.12	106.38
344.348	78.38
344.576	84.38
344.804	82.38
345.031	76.38
345.259	85.38
345.487	90.38
345.714	72.38
345.942	91.38
346.17	85.38
346.397	80.38
346.625	83.38
346.853	92.38
347.08	98.38
347.308	88.38
347.535	88.38
347.763	78.38
347.99	94.38
348.218	96.38
348.445	96.38
348.673	88.38
348.9	92.38
349.128	69.38
349.355	96.38
349.583	92.38
349.81	86.38
350.037	88.38
350.265	74.38
350.492	88.38
350.72	66.38
350.947	90.38
351.174	99.38
351.402	101.38
351.629	96.38
351.856	107.38
352.083	84.38
352.311	92.38
352.538	105.38
352.765	94.38
352.992	114.38
353.22	100.38
353.447	96.38
353.674	101.38
353.901	80.38
354.128	90.38
354.355	92.38
354.583	93.38
354.81	90.38
355.037	95.38
355.264	77.38
355.491	96.38
355.718	92.38
355.945	101.38
356.172	89.38
356.399	90.38
356.626	80.38
356.853	90.38
357.08	79.38
357.307	88.38
357.534	88.38
357.761	88.38
357.988	87.38
358.215	84.38
358.441	93.38
358.668	80.38
358.895	102.38
359.122	84.38
359.349	81.38
359.576	93.38
359.802	99.38
360.029	75.38
360.256	98.38
360.483	89.38
360.709	88.38
360.936	79.38
361.163	92.38
361.39	87.38
361.616	76.38
361.843	89.38
362.07	83.38
362.296	101.38
362.523	85.38
362.749	90.38
362.976	99.38
363.203	87.38
363.429	93.38
363.656	88.38
363.882	90.38
364.109	85.38
364.335	97.38
364.562	93.38
364.788	89.38
365.015	77.38
365.241	102.38
365.468	94.38
365.694	98.38
365.92	107.38
366.147	100.38
366.373	91.38
366.599	75.38
366.826	83.38
367.052	83.38
367.278	75.38
367.505	81.38
367.731	78.38
367.957	84.38
368.184	87.38
368.41	95.38
368.636	102.38
368.862	114.38
369.089	109.38
369.315	98.38
369.541	88.38
369.767	95.38
369.993	82.38
370.219	84.38
370.445	71.38
370.672	83.38
370.898	91.38
371.124	81.38
371.35	79.38
371.576	79.38
371.802	94.38
372.028	96.38
372.254	80.38
372.48	71.38
372.706	78.38
372.932	84.38
373.158	79.38
373.384	94.38
373.61	97.38
373.835	86.38
374.061	101.38
374.287	92.38
374.513	74.38
374.739	80.38
374.965	90.38
375.191	80.38
375.416	76.38
375.642	93.38
375.868	90.38
376.094	93.38
376.319	75.38
376.545	98.38
376.771	85.38
376.997	91.38
377.222	91.38
377.448	91.38
377.674	84.38
377.899	93.38
378.125	103.38
378.35	91.38
378.576	89.38
378.802	85.38
379.027	76.38
379.253	82.38
379.478	91.38
379.704	85.38
379.929	87.38
380.155	83.38
380.38	92.38
380.606	86.38
380.831	94.38
381.057	80.38
381.282	91.38
381.507	84.38
381.733	85.38
381.958	91.38
382.184	80.38
382.409	94.38
382.634	96.38
382.86	107.38
383.085	104.38
383.31	90.38
383.535	78.38
383.761	101.38
383.986	94.38
384.211	101.38
384.436	83.38
384.662	91.38
384.887	99.38
385.112	82.38
385.337	90.38
385.562	106.38
385.787	92.38
386.013	93.38
386.238	110.38
386.463	95.38
386.688	95.38
386.913	90.38
387.138	75.38
387.363	100.38
387.588	92.38
387.813	87.38
388.038	106.38
388.263	111.38
388.488	96.38
388.713	95.38
388.938	78.38
389.163	88.38
389.387	94.38
389.612	90.38
389.837	98.38
390.062	81.38
390.287	88.38
390.512	91.38
390.736	85.38
390.961	88.38
391.186	102.38
391.411	92.38
391.636	89.38
391.86	80.38
392.085	77.38
392.31	84.38
392.534	84.38
392.759	82.38
392.984	87.38
393.208	82.38
393.433	84.38
393.658	90.38
393.882	90.38
394.107	90.38
394.331	95.38
394.556	85.38
394.78	82.38
395.005	84.38
395.229	85.38
395.454	88.38
395.678	77.38
395.903	88.38
396.127	83.38
396.352	86.38
396.576	76.38
396.801	78.38
397.025	92.38
397.249	76.38
397.474	90.38
397.698	76.38
397.922	90.38
398.147	89.38
398.371	79.38
398.595	84.38
398.82	72.38
399.044	72.38
399.268	77.38
399.492	87.38
399.717	87.38
399.941	80.38
400.165	98.38
400.389	103.38
400.613	90.38
400.837	66.38
401.062	95.38
401.286	89.38
401.51	87.38
401.734	95.38
401.958	90.38
402.182	115.38
402.406	156.38
402.63	105.38
402.854	74.38
403.078	59.38
403.302	86.38
403.526	86.38
403.75	85.38
403.974	89.38
404.198	70.38
404.422	78.38
404.645	87.38
404.869	75.38
405.093	86.38
405.317	88.38
405.541	91.38
405.765	87.38
405.988	114.38
406.212	164.38
406.436	190.38
406.66	125.38
406.883	86.38
407.107	91.38
407.331	80.38
407.555	88.38
407.778	103.38
408.002	77.38
408.226	84.38
408.449	93.38
408.673	86.38
408.896	83.38
409.12	87.38
409.344	96.38
409.567	67.38
409.791	94.38
410.014	80.38
410.238	96.38
410.461	76.38
410.685	90.38
410.908	90.38
411.132	102.38
411.355	92.38
411.578	75.38
411.802	90.38
412.025	88.38
412.249	71.38
412.472	89.38
412.695	87.38
412.919	82.38
413.142	73.38
413.365	101.38
413.589	69.38
413.812	84.38
414.035	86.38
414.258	74.38
414.482	83.38
414.705	76.38
414.928	92.38
415.151	74.38
415.374	90.38
415.597	89.38
415.821	96.38
416.044	72.38
416.267	90.38
416.49	90.38
416.713	84.38
416.936	99.38
417.159	87.38
417.382	68.38
417.605	91.38
417.828	78.38
418.051	79.38
418.274	73.38
418.497	75.38
418.72	92.38
418.943	82.38
419.166	89.38
419.389	81.38
419.611	90.38
419.834	78.38
420.057	78.38
420.28	83.38
420.503	79.38
420.726	80.38
420.948	87.38
421.171	82.38
421.394	95.38
421.617	84.38
421.839	82.38
422.062	82.38
422.285	93.38
422.507	95.38
422.73	94.38
422.953	96.38
423.175	87.38
423.398	79.38
423.621	98.38
423.843	82.38
424.066	80.38
424.288	88.38
424.511	92.38
424.733	82.38
424.956	99.38
425.178	101.38
425.401	106.38
425.623	88.38
425.846	91.38
426.068	78.38
426.291	87.38
426.513	77.38
426.735	89.38
426.958	111.38
427.18	106.38
427.402	125.38
427.625	157.38
427.847	128.38
428.069	82.38
428.292	76.38
428.514	81.38
428.736	73.38
428.958	92.38
429.181	77.38
429.403	83.38
429.625	79.38
429.847	88.38
430.069	96.38
430.292	88.38
430.514	88.38
430.736	91.38
430.958	79.38
431.18	88.38
431.402	81.38
431.624	98.38
431.846	85.38
432.068	66.38
432.29	77.38
432.512	88.38
432.734	77.38
432.956	94.38
433.178	86.38
433.4	99.38
433.622	92.38
433.844	94.38
434.066	95.38
434.287	86.38
434.509	81.38
434.731	92.38
434.953	73.38
435.175	90.38
435.397	91.38
435.618	87.38
435.84	89.38
436.062	117.38
436.284	99.38
436.505	86.38
436.727	93.38
436.949	97.38
437.17	80.38
437.392	90.38
437.614	86.38
437.835	97.38
438.057	119.38
438.278	97.38
438.5	96.38
438.721	107.38
438.943	93.38
439.165	83.38
439.386	90.38
439.608	93.38
439.829	87.38
440.05	96.38
440.272	133.38
440.493	85.38
440.715	81.38
440.936	76.38
441.158	87.38
441.379	95.38
441.6	82.38
441.822	70.38
442.043	89.38
442.264	94.38
442.486	84.38
442.707	86.38
442.928	105.38
443.149	111.38
443.371	115.38
443.592	86.38
443.813	97.38
444.034	96.38
444.255	75.38
444.476	75.38
444.698	90.38
444.919	67.38
445.14	130.38
445.361	114.38
445.582	94.38
445.803	128.38
446.024	137.38
446.245	116.38
446.466	108.38
446.687	78.38
446.908	90.38
447.129	91.38
447.35	82.38
447.571	77.38
447.792	81.38
448.013	93.38
448.234	101.38
448.455	87.38
448.675	106.38
448.896	108.38
449.117	90.38
449.338	82.38
449.559	109.38
449.779	106.38
450	90.38
450.221	78.38
450.442	72.38
450.662	92.38
450.883	93.38
451.104	95.38
451.324	92.38
451.545	78.38
451.766	75.38
451.986	88.38
452.207	85.38
452.428	82.38
452.648	92.38
452.869	106.38
453.089	117.38
453.31	99.38
453.53	84.38
453.751	88.38
453.971	83.38
454.192	98.38
454.412	94.38
454.633	72.38
454.853	73.38
455.073	78.38
455.294	81.38
455.514	99.38
455.734	92.38
455.955	91.38
456.175	85.38
456.395	95.38
456.616	84.38
456.836	91.38
457.056	94.38
457.276	77.38
457.497	82.38
457.717	85.38
457.937	87.38
458.157	86.38
458.377	70.38
458.598	98.38
458.818	146.38
459.038	143.38
459.258	116.38
459.478	88.38
459.698	84.38
459.918	78.38
460.138	88.38
460.358	73.38
460.578	84.38
460.798	92.38
461.018	83.38
461.238	82.38
461.458	81.38
461.678	91.38
461.898	76.38
462.118	80.38
462.338	92.38
462.558	78.38
462.777	87.38
462.997	90.38
463.217	89.38
463.437	91.38
463.657	82.38
463.876	92.38
464.096	94.38
464.316	90.38
464.536	86.38
464.755	86.38
464.975	100.38
465.195	139.38
465.414	147.38
465.634	98.38
465.854	83.38
466.073	81.38
466.293	79.38
466.512	79.38
466.732	85.38
466.951	91.38
467.171	97.38
467.391	96.38
467.61	93.38
467.829	100.38
468.049	85.38
468.268	84.38
468.488	73.38
468.707	92.38
468.927	71.38
469.146	93.38
469.365	78.38
469.585	79.38
469.804	87.38
470.023	92.38
470.243	88.38
470.462	86.38
470.681	117.38
470.901	99.38
471.12	82.38
471.339	86.38
471.558	82.38
471.777	75.38
471.997	89.38
472.216	86.38
472.435	86.38
472.654	82.38
472.873	83.38
473.092	72.38
473.311	90.38
473.53	88.38
473.749	93.38
473.968	89.38
474.187	98.38
474.406	86.38
474.625	80.38
474.844	81.38
475.063	82.38
475.282	89.38
475.501	83.38
475.72	78.38
475.939	73.38
476.158	82.38
476.377	93.38
476.596	69.38
476.814	91.38
477.033	87.38
477.252	86.38
477.471	82.38
477.69	79.38
477.908	86.38
478.127	92.38
478.346	84.38
478.564	76.38
478.783	74.38
479.002	83.38
479.22	86.38
479.439	95.38
479.658	92.38
479.876	79.38
480.095	92.38
480.313	88.38
480.532	98.38
480.751	69.38
480.969	77.38
481.188	86.38
481.406	87.38
481.624	92.38
481.843	87.38
482.061	78.38
482.28	92.38
482.498	84.38
482.717	82.38
482.935	92.38
483.153	82.38
483.372	75.38
483.59	77.38
483.808	94.38
484.027	95.38
484.245	78.38
484.463	88.38
484.681	95.38
484.9	79.38
485.118	72.38
485.336	107.38
485.554	95.38
485.772	96.38
485.99	78.38
486.209	95.38
486.427	91.38
486.645	118.38
486.863	108.38
487.081	101.38
487.299	95.38
487.517	90.38
487.735	96.38
487.953	94.38
488.171	89.38
488.389	84.38
488.607	106.38
488.825	74.38
489.043	72.38
489.261	92.38
489.479	92.38
489.696	75.38
489.914	78.38
490.132	79.38
490.35	76.38
490.568	87.38
490.786	86.38
491.003	85.38
491.221	94.38
491.439	95.38
491.657	83.38
491.874	86.38
492.092	80.38
492.31	86.38
492.527	82.38
492.745	79.38
492.963	79.38
493.18	82.38
493.398	86.38
493.615	79.38
493.833	87.38
494.05	88.38
494.268	81.38
494.485	88.38
494.703	81.38
494.92	83.38
495.138	99.38
495.355	78.38
495.573	94.38
495.79	86.38
496.008	92.38
496.225	84.38
496.442	88.38
496.66	97.38
496.877	75.38
497.094	87.38
497.312	95.38
497.529	85.38
497.746	79.38
497.963	88.38
498.181	101.38
498.398	90.38
498.615	103.38
498.832	99.38
499.049	84.38
499.267	88.38
499.484	92.38
499.701	78.38
499.918	101.38
500.135	68.38
500.352	86.38
500.569	99.38
500.786	102.38
501.003	74.38
501.22	90.38
501.437	91.38
501.654	90.38
501.871	101.38
502.088	81.38
502.305	90.38
502.522	79.38
502.739	88.38
502.956	85.38
503.172	94.38
503.389	89.38
503.606	86.38
503.823	92.38
504.04	91.38
504.256	72.38
504.473	90.38
504.69	77.38
504.907	76.38
505.123	92.38
505.34	85.38
505.557	90.38
505.773	81.38
505.99	80.38
506.207	74.38
506.423	73.38
506.64	92.38
506.856	76.38
507.073	88.38
507.289	90.38
507.506	101.38
507.722	112.38
507.939	96.38
508.155	84.38
508.372	82.38
508.588	90.38
508.805	110.38
509.021	74.38
509.238	90.38
509.454	90.38
509.67	96.38
509.887	108.38
510.103	104.38
510.319	194.38
510.536	705.38
510.752	2165.38
510.968	598.38
511.184	152.38
511.401	111.38
511.617	92.38
511.833	93.38
512.049	86.38
512.265	77.38
512.481	84.38
512.698	81.38
512.914	80.38
513.13	87.38
513.346	96.38
513.562	90.38
513.778	88.38
513.994	92.38
514.21	101.38
514.426	112.38
514.642	113.38
514.858	112.38
515.074	146.38
515.29	413.38
515.506	1306.38
515.721	494.38
515.937	139.38
516.153	121.38
516.369	105.38
516.585	87.38
516.801	79.38
517.016	89.38
517.232	94.38
517.448	81.38
517.664	87.38
