Data from Uncirc_1996_H10_HRD10591_00085.txt Node
Date: Wed Jan 03 11:32:19 EST 2024
User: Yrep
Spectrometer: HR+D1059
Trigger mode: 1
Integration Time (sec): 1.000000E-1
Scans to average: 1
Electric dark correction enabled: true
Nonlinearity correction enabled: false
Boxcar width: 0
XAxis mode: Wavelengths
Number of Pixels in Spectrum: 2048
>>>>>Begin Spectral Data<<<<<
223.165	-26.06
223.4	-26.06
223.635	-26.06
223.869	-25.06
224.104	-23.06
224.338	-21.06
224.573	-26.06
224.808	5.94
225.042	-10.06
225.277	-15.06
225.511	11.94
225.746	15.94
225.98	14.94
226.215	9.94
226.449	19.94
226.683	17.94
226.918	19.94
227.152	29.94
227.387	37.94
227.621	31.94
227.856	33.94
228.09	37.94
228.324	49.94
228.559	62.94
228.793	64.94
229.027	76.94
229.262	70.94
229.496	67.94
229.73	84.94
229.964	75.94
230.199	60.94
230.433	80.94
230.667	73.94
230.901	75.94
231.136	84.94
231.37	73.94
231.604	77.94
231.838	74.94
232.072	89.94
232.306	75.94
232.541	82.94
232.775	80.94
233.009	72.94
233.243	82.94
233.477	91.94
233.711	80.94
233.945	71.94
234.179	83.94
234.413	78.94
234.647	86.94
234.881	87.94
235.115	84.94
235.349	63.94
235.583	75.94
235.817	78.94
236.051	76.94
236.285	76.94
236.519	84.94
236.753	80.94
236.987	78.94
237.221	88.94
237.455	96.94
237.689	77.94
237.922	75.94
238.156	68.94
238.39	86.94
238.624	69.94
238.858	81.94
239.091	77.94
239.325	96.94
239.559	79.94
239.793	83.94
240.027	76.94
240.26	63.94
240.494	73.94
240.728	82.94
240.961	75.94
241.195	85.94
241.429	78.94
241.662	82.94
241.896	83.94
242.13	89.94
242.363	69.94
242.597	72.94
242.83	91.94
243.064	79.94
243.298	88.94
243.531	73.94
243.765	81.94
243.998	81.94
244.232	83.94
244.465	98.94
244.699	75.94
244.932	79.94
245.166	85.94
245.399	88.94
245.633	78.94
245.866	78.94
246.099	95.94
246.333	76.94
246.566	85.94
246.8	83.94
247.033	75.94
247.266	81.94
247.5	84.94
247.733	80.94
247.966	72.94
248.2	92.94
248.433	72.94
248.666	73.94
248.899	96.94
249.133	91.94
249.366	95.94
249.599	83.94
249.832	71.94
250.066	82.94
250.299	88.94
250.532	81.94
250.765	89.94
250.998	82.94
251.231	79.94
251.465	77.94
251.698	77.94
251.931	78.94
252.164	89.94
252.397	95.94
252.63	88.94
252.863	81.94
253.096	80.94
253.329	78.94
253.562	91.94
253.795	85.94
254.028	73.94
254.261	70.94
254.494	85.94
254.727	79.94
254.96	76.94
255.193	66.94
255.426	91.94
255.659	75.94
255.892	80.94
256.124	94.94
256.357	98.94
256.59	76.94
256.823	76.94
257.056	84.94
257.289	81.94
257.521	76.94
257.754	73.94
257.987	77.94
258.22	101.94
258.452	73.94
258.685	87.94
258.918	77.94
259.151	91.94
259.383	82.94
259.616	98.94
259.849	86.94
260.081	83.94
260.314	89.94
260.547	81.94
260.779	79.94
261.012	77.94
261.244	90.94
261.477	92.94
261.71	94.94
261.942	102.94
262.175	111.94
262.407	85.94
262.64	96.94
262.872	90.94
263.105	82.94
263.337	91.94
263.57	98.94
263.802	87.94
264.035	82.94
264.267	79.94
264.499	83.94
264.732	86.94
264.964	75.94
265.197	84.94
265.429	104.94
265.661	72.94
265.894	80.94
266.126	96.94
266.358	84.94
266.591	72.94
266.823	96.94
267.055	84.94
267.287	84.94
267.52	88.94
267.752	87.94
267.984	94.94
268.216	84.94
268.448	91.94
268.681	97.94
268.913	88.94
269.145	79.94
269.377	82.94
269.609	90.94
269.841	88.94
270.073	87.94
270.306	78.94
270.538	79.94
270.77	76.94
271.002	91.94
271.234	87.94
271.466	89.94
271.698	97.94
271.93	90.94
272.162	80.94
272.394	87.94
272.626	88.94
272.858	70.94
273.09	78.94
273.322	82.94
273.553	71.94
273.785	93.94
274.017	87.94
274.249	92.94
274.481	90.94
274.713	83.94
274.945	89.94
275.176	91.94
275.408	99.94
275.64	84.94
275.872	99.94
276.104	83.94
276.335	90.94
276.567	95.94
276.799	108.94
277.031	87.94
277.262	91.94
277.494	72.94
277.726	82.94
277.957	95.94
278.189	74.94
278.421	105.94
278.652	92.94
278.884	82.94
279.115	82.94
279.347	98.94
279.579	82.94
279.81	91.94
280.042	92.94
280.273	81.94
280.505	60.94
280.736	96.94
280.968	78.94
281.199	79.94
281.431	90.94
281.662	89.94
281.894	99.94
282.125	101.94
282.356	115.94
282.588	134.94
282.819	103.94
283.051	93.94
283.282	88.94
283.513	101.94
283.745	91.94
283.976	88.94
284.207	71.94
284.439	101.94
284.67	86.94
284.901	97.94
285.132	92.94
285.364	78.94
285.595	84.94
285.826	97.94
286.057	103.94
286.288	87.94
286.52	89.94
286.751	92.94
286.982	92.94
287.213	81.94
287.444	73.94
287.675	98.94
287.906	104.94
288.138	107.94
288.369	112.94
288.6	93.94
288.831	99.94
289.062	73.94
289.293	79.94
289.524	74.94
289.755	82.94
289.986	88.94
290.217	89.94
290.448	90.94
290.679	80.94
290.91	83.94
291.141	76.94
291.371	82.94
291.602	72.94
291.833	88.94
292.064	96.94
292.295	91.94
292.526	95.94
292.757	74.94
292.987	87.94
293.218	85.94
293.449	90.94
293.68	91.94
293.91	99.94
294.141	99.94
294.372	84.94
294.603	77.94
294.833	90.94
295.064	102.94
295.295	100.94
295.525	88.94
295.756	112.94
295.987	110.94
296.217	123.94
296.448	113.94
296.679	87.94
296.909	101.94
297.14	84.94
297.37	86.94
297.601	91.94
297.831	93.94
298.062	106.94
298.292	92.94
298.523	97.94
298.753	90.94
298.984	92.94
299.214	84.94
299.445	73.94
299.675	89.94
299.905	92.94
300.136	82.94
300.366	79.94
300.597	83.94
300.827	78.94
301.057	108.94
301.288	91.94
301.518	85.94
301.748	95.94
301.979	96.94
302.209	80.94
302.439	91.94
302.669	99.94
302.9	98.94
303.13	92.94
303.36	88.94
303.59	96.94
303.82	103.94
304.051	92.94
304.281	91.94
304.511	93.94
304.741	93.94
304.971	104.94
305.201	87.94
305.431	94.94
305.661	100.94
305.891	97.94
306.121	98.94
306.352	95.94
306.582	107.94
306.812	105.94
307.042	81.94
307.272	89.94
307.502	90.94
307.731	86.94
307.961	77.94
308.191	100.94
308.421	98.94
308.651	91.94
308.881	88.94
309.111	107.94
309.341	91.94
309.571	99.94
309.8	94.94
310.03	96.94
310.26	87.94
310.49	121.94
310.72	99.94
310.949	93.94
311.179	96.94
311.409	100.94
311.639	100.94
311.868	103.94
312.098	100.94
312.328	101.94
312.557	102.94
312.787	108.94
313.017	86.94
313.246	94.94
313.476	80.94
313.706	104.94
313.935	97.94
314.165	97.94
314.394	108.94
314.624	94.94
314.853	101.94
315.083	87.94
315.312	80.94
315.542	94.94
315.771	92.94
316.001	87.94
316.23	83.94
316.46	81.94
316.689	86.94
316.919	95.94
317.148	93.94
317.377	84.94
317.607	100.94
317.836	101.94
318.065	84.94
318.295	87.94
318.524	91.94
318.753	97.94
318.983	94.94
319.212	110.94
319.441	100.94
319.67	107.94
319.9	82.94
320.129	84.94
320.358	110.94
320.587	101.94
320.816	102.94
321.046	112.94
321.275	84.94
321.504	92.94
321.733	97.94
321.962	97.94
322.191	123.94
322.42	107.94
322.649	106.94
322.878	108.94
323.108	105.94
323.337	119.94
323.566	130.94
323.795	160.94
324.024	221.94
324.253	379.94
324.482	788.94
324.71	1647.94
324.939	2135.94
325.168	758.94
325.397	237.94
325.626	157.94
325.855	123.94
326.084	135.94
326.313	132.94
326.542	147.94
326.77	213.94
326.999	432.94
327.228	919.94
327.457	1677.94
327.686	1325.94
327.914	374.94
328.143	190.94
328.372	155.94
328.6	128.94
328.829	120.94
329.058	120.94
329.287	129.94
329.515	117.94
329.744	107.94
329.972	101.94
330.201	100.94
330.43	104.94
330.658	121.94
330.887	145.94
331.115	129.94
331.344	99.94
331.572	97.94
331.801	111.94
332.03	99.94
332.258	92.94
332.486	97.94
332.715	100.94
332.943	97.94
333.172	90.94
333.4	109.94
333.629	88.94
333.857	120.94
334.085	104.94
334.314	115.94
334.542	98.94
334.771	113.94
334.999	81.94
335.227	97.94
335.455	101.94
335.684	100.94
335.912	101.94
336.14	98.94
336.369	112.94
336.597	87.94
336.825	98.94
337.053	93.94
337.281	96.94
337.51	87.94
337.738	104.94
337.966	90.94
338.194	93.94
338.422	100.94
338.65	102.94
338.878	91.94
339.106	92.94
339.334	75.94
339.562	87.94
339.79	87.94
340.018	97.94
340.246	96.94
340.474	100.94
340.702	92.94
340.93	94.94
341.158	93.94
341.386	102.94
341.614	100.94
341.842	90.94
342.07	93.94
342.298	89.94
342.526	101.94
342.754	89.94
342.981	99.94
343.209	88.94
343.437	81.94
343.665	89.94
343.893	84.94
344.12	102.94
344.348	95.94
344.576	83.94
344.804	97.94
345.031	83.94
345.259	99.94
345.487	89.94
345.714	97.94
345.942	95.94
346.17	100.94
346.397	88.94
346.625	85.94
346.853	82.94
347.08	98.94
347.308	90.94
347.535	106.94
347.763	96.94
347.99	93.94
348.218	108.94
348.445	114.94
348.673	121.94
348.9	86.94
349.128	93.94
349.355	103.94
349.583	103.94
349.81	102.94
350.037	89.94
350.265	96.94
350.492	98.94
350.72	103.94
350.947	101.94
351.174	122.94
351.402	116.94
351.629	114.94
351.856	98.94
352.083	96.94
352.311	106.94
352.538	103.94
352.765	99.94
352.992	109.94
353.22	111.94
353.447	94.94
353.674	102.94
353.901	82.94
354.128	100.94
354.355	84.94
354.583	106.94
354.81	86.94
355.037	89.94
355.264	96.94
355.491	93.94
355.718	92.94
355.945	97.94
356.172	92.94
356.399	89.94
356.626	97.94
356.853	93.94
357.08	101.94
357.307	78.94
357.534	93.94
357.761	90.94
357.988	113.94
358.215	100.94
358.441	92.94
358.668	91.94
358.895	89.94
359.122	88.94
359.349	82.94
359.576	89.94
359.802	100.94
360.029	113.94
360.256	108.94
360.483	91.94
360.709	83.94
360.936	89.94
361.163	92.94
361.39	91.94
361.616	91.94
361.843	100.94
362.07	93.94
362.296	88.94
362.523	104.94
362.749	95.94
362.976	82.94
363.203	99.94
363.429	97.94
363.656	97.94
363.882	88.94
364.109	95.94
364.335	103.94
364.562	93.94
364.788	92.94
365.015	101.94
365.241	109.94
365.468	99.94
365.694	91.94
365.92	109.94
366.147	105.94
366.373	94.94
366.599	90.94
366.826	85.94
367.052	81.94
367.278	100.94
367.505	91.94
367.731	100.94
367.957	82.94
368.184	104.94
368.41	96.94
368.636	118.94
368.862	123.94
369.089	103.94
369.315	90.94
369.541	96.94
369.767	91.94
369.993	95.94
370.219	97.94
370.445	85.94
370.672	94.94
370.898	88.94
371.124	101.94
371.35	98.94
371.576	88.94
371.802	88.94
372.028	84.94
372.254	98.94
372.48	91.94
372.706	86.94
372.932	85.94
373.158	85.94
373.384	85.94
373.61	79.94
373.835	85.94
374.061	92.94
374.287	98.94
374.513	89.94
374.739	93.94
374.965	91.94
375.191	101.94
375.416	95.94
375.642	76.94
375.868	99.94
376.094	94.94
376.319	97.94
376.545	96.94
376.771	89.94
376.997	83.94
377.222	83.94
377.448	101.94
377.674	98.94
377.899	82.94
378.125	99.94
378.35	85.94
378.576	91.94
378.802	100.94
379.027	99.94
379.253	93.94
379.478	94.94
379.704	67.94
379.929	92.94
380.155	91.94
380.38	99.94
380.606	86.94
380.831	105.94
381.057	88.94
381.282	77.94
381.507	101.94
381.733	99.94
381.958	100.94
382.184	103.94
382.409	95.94
382.634	89.94
382.86	106.94
383.085	91.94
383.31	107.94
383.535	101.94
383.761	88.94
383.986	92.94
384.211	88.94
384.436	95.94
384.662	84.94
384.887	96.94
385.112	87.94
385.337	90.94
385.562	100.94
385.787	92.94
386.013	110.94
386.238	103.94
386.463	96.94
386.688	105.94
386.913	104.94
387.138	100.94
387.363	104.94
387.588	97.94
387.813	99.94
388.038	101.94
388.263	107.94
388.488	100.94
388.713	87.94
388.938	92.94
389.163	95.94
389.387	101.94
389.612	99.94
389.837	104.94
390.062	110.94
390.287	95.94
390.512	102.94
390.736	99.94
390.961	76.94
391.186	95.94
391.411	96.94
391.636	98.94
391.86	88.94
392.085	89.94
392.31	82.94
392.534	93.94
392.759	82.94
392.984	93.94
393.208	100.94
393.433	102.94
393.658	93.94
393.882	96.94
394.107	112.94
394.331	88.94
394.556	102.94
394.78	93.94
395.005	103.94
395.229	68.94
395.454	88.94
395.678	88.94
395.903	84.94
396.127	75.94
396.352	89.94
396.576	91.94
396.801	81.94
397.025	84.94
397.249	93.94
397.474	83.94
397.698	73.94
397.922	87.94
398.147	62.94
398.371	88.94
398.595	71.94
398.82	67.94
399.044	73.94
399.268	93.94
399.492	98.94
399.717	96.94
399.941	79.94
400.165	93.94
400.389	91.94
400.613	82.94
400.837	83.94
401.062	84.94
401.286	89.94
401.51	83.94
401.734	87.94
401.958	103.94
402.182	123.94
402.406	140.94
402.63	111.94
402.854	76.94
403.078	85.94
403.302	87.94
403.526	92.94
403.75	96.94
403.974	88.94
404.198	87.94
404.422	80.94
404.645	92.94
404.869	98.94
405.093	93.94
405.317	93.94
405.541	104.94
405.765	92.94
405.988	101.94
406.212	171.94
406.436	215.94
406.66	134.94
406.883	82.94
407.107	107.94
407.331	93.94
407.555	90.94
407.778	112.94
408.002	88.94
408.226	85.94
408.449	83.94
408.673	90.94
408.896	97.94
409.12	82.94
409.344	99.94
409.567	79.94
409.791	91.94
410.014	82.94
410.238	84.94
410.461	88.94
410.685	81.94
410.908	93.94
411.132	96.94
411.355	100.94
411.578	95.94
411.802	80.94
412.025	96.94
412.249	69.94
412.472	88.94
412.695	92.94
412.919	84.94
413.142	79.94
413.365	91.94
413.589	94.94
413.812	105.94
414.035	84.94
414.258	88.94
414.482	91.94
414.705	83.94
414.928	90.94
415.151	87.94
415.374	89.94
415.597	97.94
415.821	71.94
416.044	101.94
416.267	95.94
416.49	90.94
416.713	88.94
416.936	94.94
417.159	96.94
417.382	83.94
417.605	91.94
417.828	82.94
418.051	100.94
418.274	89.94
418.497	91.94
418.72	98.94
418.943	93.94
419.166	92.94
419.389	87.94
419.611	79.94
419.834	76.94
420.057	92.94
420.28	88.94
420.503	84.94
420.726	94.94
420.948	98.94
421.171	92.94
421.394	106.94
421.617	92.94
421.839	90.94
422.062	88.94
422.285	99.94
422.507	91.94
422.73	105.94
422.953	81.94
423.175	91.94
423.398	93.94
423.621	92.94
423.843	84.94
424.066	77.94
424.288	66.94
424.511	91.94
424.733	91.94
424.956	108.94
425.178	107.94
425.401	110.94
425.623	93.94
425.846	103.94
426.068	100.94
426.291	93.94
426.513	85.94
426.735	85.94
426.958	96.94
427.18	101.94
427.402	136.94
427.625	167.94
427.847	121.94
428.069	96.94
428.292	75.94
428.514	93.94
428.736	91.94
428.958	77.94
429.181	81.94
429.403	89.94
429.625	89.94
429.847	81.94
430.069	92.94
430.292	107.94
430.514	90.94
430.736	88.94
430.958	101.94
431.18	88.94
431.402	89.94
431.624	89.94
431.846	104.94
432.068	77.94
432.29	81.94
432.512	84.94
432.734	78.94
432.956	100.94
433.178	105.94
433.4	85.94
433.622	97.94
433.844	90.94
434.066	87.94
434.287	89.94
434.509	90.94
434.731	81.94
434.953	83.94
435.175	88.94
435.397	82.94
435.618	91.94
435.84	100.94
436.062	126.94
436.284	123.94
436.505	110.94
436.727	94.94
436.949	105.94
437.17	97.94
437.392	84.94
437.614	100.94
437.835	109.94
438.057	114.94
438.278	108.94
438.5	108.94
438.721	118.94
438.943	105.94
439.165	96.94
439.386	82.94
439.608	96.94
439.829	95.94
440.05	122.94
440.272	138.94
440.493	105.94
440.715	92.94
440.936	98.94
441.158	106.94
441.379	99.94
441.6	83.94
441.822	95.94
442.043	114.94
442.264	111.94
442.486	115.94
442.707	101.94
442.928	107.94
443.149	140.94
443.371	110.94
443.592	101.94
443.813	111.94
444.034	115.94
444.255	98.94
444.476	89.94
444.698	64.94
444.919	95.94
445.14	128.94
445.361	135.94
445.582	111.94
445.803	147.94
446.024	142.94
446.245	129.94
446.466	113.94
446.687	109.94
446.908	99.94
447.129	82.94
447.35	97.94
447.571	105.94
447.792	92.94
448.013	87.94
448.234	99.94
448.455	89.94
448.675	102.94
448.896	106.94
449.117	91.94
449.338	95.94
449.559	127.94
449.779	138.94
450	105.94
450.221	99.94
450.442	81.94
450.662	108.94
450.883	105.94
451.104	95.94
451.324	101.94
451.545	95.94
451.766	92.94
451.986	77.94
452.207	89.94
452.428	86.94
452.648	93.94
452.869	98.94
453.089	105.94
453.31	113.94
453.53	97.94
453.751	89.94
453.971	112.94
454.192	112.94
454.412	97.94
454.633	77.94
454.853	89.94
455.073	86.94
455.294	87.94
455.514	97.94
455.734	74.94
455.955	89.94
456.175	81.94
456.395	79.94
456.616	95.94
456.836	74.94
457.056	74.94
457.276	91.94
457.497	87.94
457.717	93.94
457.937	77.94
458.157	77.94
458.377	95.94
458.598	99.94
458.818	126.94
459.038	165.94
459.258	101.94
459.478	104.94
459.698	96.94
459.918	95.94
460.138	94.94
460.358	87.94
460.578	83.94
460.798	95.94
461.018	97.94
461.238	82.94
461.458	82.94
461.678	79.94
461.898	94.94
462.118	85.94
462.338	88.94
462.558	93.94
462.777	84.94
462.997	75.94
463.217	83.94
463.437	90.94
463.657	79.94
463.876	76.94
464.096	89.94
464.316	81.94
464.536	95.94
464.755	85.94
464.975	106.94
465.195	159.94
465.414	163.94
465.634	89.94
465.854	94.94
466.073	101.94
466.293	73.94
466.512	78.94
466.732	84.94
466.951	88.94
467.171	109.94
467.391	88.94
467.61	92.94
467.829	114.94
468.049	95.94
468.268	73.94
468.488	74.94
468.707	73.94
468.927	77.94
469.146	72.94
469.365	76.94
469.585	93.94
469.804	107.94
470.023	97.94
470.243	93.94
470.462	101.94
470.681	88.94
470.901	93.94
471.12	97.94
471.339	100.94
471.558	85.94
471.777	91.94
471.997	84.94
472.216	98.94
472.435	81.94
472.654	79.94
472.873	82.94
473.092	91.94
473.311	95.94
473.53	91.94
473.749	64.94
473.968	100.94
474.187	97.94
474.406	88.94
474.625	83.94
474.844	91.94
475.063	89.94
475.282	96.94
475.501	74.94
475.72	97.94
475.939	97.94
476.158	88.94
476.377	102.94
476.596	91.94
476.814	99.94
477.033	103.94
477.252	98.94
477.471	96.94
477.69	93.94
477.908	78.94
478.127	82.94
478.346	84.94
478.564	98.94
478.783	94.94
479.002	88.94
479.22	102.94
479.439	95.94
479.658	112.94
479.876	96.94
480.095	103.94
480.313	85.94
480.532	94.94
480.751	89.94
480.969	83.94
481.188	109.94
481.406	93.94
481.624	98.94
481.843	87.94
482.061	89.94
482.28	91.94
482.498	73.94
482.717	86.94
482.935	85.94
483.153	86.94
483.372	94.94
483.59	91.94
483.808	96.94
484.027	87.94
484.245	97.94
484.463	93.94
484.681	105.94
484.9	95.94
485.118	103.94
485.336	99.94
485.554	92.94
485.772	98.94
485.99	103.94
486.209	107.94
486.427	103.94
486.645	96.94
486.863	114.94
487.081	100.94
487.299	101.94
487.517	78.94
487.735	95.94
487.953	95.94
488.171	95.94
488.389	102.94
488.607	103.94
488.825	92.94
489.043	93.94
489.261	99.94
489.479	86.94
489.696	85.94
489.914	92.94
490.132	89.94
490.35	85.94
490.568	108.94
490.786	106.94
491.003	95.94
491.221	98.94
491.439	85.94
491.657	100.94
491.874	90.94
492.092	90.94
492.31	87.94
492.527	90.94
492.745	87.94
492.963	85.94
493.18	84.94
493.398	92.94
493.615	108.94
493.833	94.94
494.05	81.94
494.268	77.94
494.485	88.94
494.703	94.94
494.92	93.94
495.138	93.94
495.355	94.94
495.573	92.94
495.79	98.94
496.008	101.94
496.225	99.94
496.442	82.94
496.66	107.94
496.877	105.94
497.094	80.94
497.312	79.94
497.529	91.94
497.746	96.94
497.963	91.94
498.181	93.94
498.398	93.94
498.615	85.94
498.832	89.94
499.049	106.94
499.267	91.94
499.484	91.94
499.701	99.94
499.918	94.94
500.135	92.94
500.352	89.94
500.569	87.94
500.786	89.94
501.003	93.94
501.22	84.94
501.437	91.94
501.654	107.94
501.871	106.94
502.088	99.94
502.305	95.94
502.522	94.94
502.739	85.94
502.956	93.94
503.172	98.94
503.389	93.94
503.606	95.94
503.823	93.94
504.04	97.94
504.256	76.94
504.473	101.94
504.69	78.94
504.907	95.94
505.123	96.94
505.34	99.94
505.557	92.94
505.773	93.94
505.99	95.94
506.207	92.94
506.423	99.94
506.64	92.94
506.856	87.94
507.073	86.94
507.289	90.94
507.506	112.94
507.722	113.94
507.939	117.94
508.155	102.94
508.372	96.94
508.588	99.94
508.805	76.94
509.021	102.94
509.238	96.94
509.454	97.94
509.67	100.94
509.887	123.94
510.103	110.94
510.319	193.94
510.536	693.94
510.752	2131.94
510.968	599.94
511.184	156.94
511.401	110.94
511.617	107.94
511.833	99.94
512.049	73.94
512.265	96.94
512.481	92.94
512.698	98.94
512.914	91.94
513.13	94.94
513.346	90.94
513.562	103.94
513.778	90.94
513.994	89.94
514.21	85.94
514.426	104.94
514.642	142.94
514.858	126.94
515.074	167.94
515.29	407.94
515.506	1347.94
