Data from Uncirc_1996_H10_HRD10591_00062.txt Node
Date: Wed Jan 03 11:32:14 EST 2024
User: Yrep
Spectrometer: HR+D1059
Trigger mode: 1
Integration Time (sec): 1.000000E-1
Scans to average: 1
Electric dark correction enabled: true
Nonlinearity correction enabled: false
Boxcar width: 0
XAxis mode: Wavelengths
Number of Pixels in Spectrum: 2048
>>>>>Begin Spectral Data<<<<<
223.165	-24
223.4	-24
223.635	-24
223.869	-15
224.104	-17
224.338	-15
224.573	-16
224.808	-15
225.042	-6
225.277	-11
225.511	-2
225.746	14
225.98	19
226.215	9
226.449	11
226.683	9
226.918	22
227.152	37
227.387	20
227.621	30
227.856	53
228.09	47
228.324	36
228.559	55
228.793	163
229.027	445
229.262	523
229.496	635
229.73	810
229.964	823
230.199	564
230.433	493
230.667	465
230.901	478
231.136	479
231.37	483
231.604	438
231.838	456
232.072	447
232.306	473
232.541	469
232.775	470
233.009	485
233.243	475
233.477	499
233.711	484
233.945	532
234.179	527
234.413	524
234.647	515
234.881	504
235.115	533
235.349	535
235.583	567
235.817	604
236.051	665
236.285	613
236.519	628
236.753	723
236.987	920
237.221	1419
237.455	1555
237.689	931
237.922	739
238.156	713
238.39	690
238.624	654
238.858	633
239.091	661
239.325	676
239.559	706
239.793	732
240.027	774
240.26	909
240.494	974
240.728	972
240.961	934
241.195	815
241.429	787
241.662	783
241.896	792
242.13	770
242.363	756
242.597	801
242.83	847
243.064	824
243.298	815
243.531	841
243.765	841
243.998	863
244.232	877
244.465	898
244.699	925
244.932	915
245.166	908
245.399	947
245.633	924
245.866	917
246.099	935
246.333	942
246.566	961
246.8	983
247.033	1027
247.266	1051
247.5	1101
247.733	1175
247.966	1177
248.2	1149
248.433	1179
248.666	1258
248.899	1361
249.133	1483
249.366	1457
249.599	1346
249.832	1227
250.066	1235
250.299	1250
250.532	1361
250.765	1503
250.998	1747
251.231	1663
251.465	1496
251.698	1433
251.931	1427
252.164	1424
252.397	1435
252.63	1499
252.863	1578
253.096	1694
253.329	1770
253.562	1646
253.795	1605
254.028	1581
254.261	1642
254.494	1851
254.727	2159
254.96	2266
255.193	1985
255.426	1750
255.659	1650
255.892	1585
256.124	1579
256.357	1535
256.59	1551
256.823	1525
257.056	1465
257.289	1555
257.521	1553
257.754	1566
257.987	1559
258.22	1524
258.452	1528
258.685	1579
258.918	1613
259.151	1663
259.383	1717
259.616	1740
259.849	1782
260.081	1909
260.314	2152
260.547	2030
260.779	1927
261.012	1812
261.244	1770
261.477	1735
261.71	1730
261.942	1771
262.175	1786
262.407	1723
262.64	1671
262.872	1663
263.105	1675
263.337	1658
263.57	1680
263.802	1692
264.035	1724
264.267	1704
264.499	1694
264.732	1724
264.964	1695
265.197	1721
265.429	1744
265.661	1734
265.894	1753
266.126	1751
266.358	1800
266.591	1839
266.823	1883
267.055	1951
267.287	1885
267.52	1878
267.752	1887
267.984	1890
268.216	1940
268.448	1965
268.681	2037
268.913	2171
269.145	2391
269.377	2441
269.609	2330
269.841	2325
270.073	2406
270.306	2711
270.538	2882
270.77	2787
271.002	2585
271.234	2481
271.466	2691
271.698	2787
271.93	2811
272.162	2808
272.394	2786
272.626	2565
272.858	2406
273.09	2301
273.322	2297
273.553	2269
273.785	2275
274.017	2294
274.249	2302
274.481	2273
274.713	2291
274.945	2314
275.176	2306
275.408	2352
275.64	2244
275.872	2312
276.104	2311
276.335	2368
276.567	2421
276.799	2573
277.031	2864
277.262	2972
277.494	2817
277.726	2634
277.957	2535
278.189	2507
278.421	2430
278.652	2450
278.884	2465
279.115	2392
279.347	2424
279.579	2399
279.81	2430
280.042	2384
280.273	2409
280.505	2424
280.736	2432
280.968	2480
281.199	2477
281.431	2516
281.662	2544
281.894	2551
282.125	2510
282.356	2751
282.588	2887
282.819	2717
283.051	2576
283.282	2541
283.513	2585
283.745	2687
283.976	2697
284.207	2698
284.439	2643
284.67	2667
284.901	2687
285.132	2670
285.364	2661
285.595	2706
285.826	2698
286.057	2670
286.288	2720
286.52	2730
286.751	2774
286.982	2756
287.213	2750
287.444	2797
287.675	2813
287.906	2913
288.138	3014
288.369	2951
288.6	2952
288.831	2892
289.062	2936
289.293	2868
289.524	2855
289.755	2887
289.986	2821
290.217	2858
290.448	2873
290.679	2927
290.91	2879
291.141	2875
291.371	2859
291.602	2881
291.833	2854
292.064	2909
292.295	2882
292.526	2905
292.757	2906
292.987	2873
293.218	2869
293.449	2953
293.68	2941
293.91	2876
294.141	2895
294.372	2901
294.603	2902
294.833	2901
295.064	2915
295.295	2887
295.525	2963
295.756	3082
295.987	3040
296.217	3221
296.448	3195
296.679	3018
296.909	3051
297.14	3036
297.37	3090
297.601	3125
297.831	3087
298.062	3099
298.292	3196
298.523	3159
298.753	3188
298.984	3204
299.214	3149
299.445	3141
299.675	3176
299.905	3288
300.136	3211
300.366	3211
300.597	3247
300.827	3373
301.057	3370
301.288	3426
301.518	3404
301.748	3391
301.979	3424
302.209	3486
302.439	3490
302.669	3379
302.9	3406
303.13	3399
303.36	3373
303.59	3461
303.82	3447
304.051	3468
304.281	3413
304.511	3357
304.741	3372
304.971	3310
305.201	3314
305.431	3371
305.661	3373
305.891	3413
306.121	3379
306.352	3402
306.582	3393
306.812	3295
307.042	3360
307.272	3356
307.502	3419
307.731	3375
307.961	3335
308.191	3349
308.421	3345
308.651	3354
308.881	3375
309.111	3463
309.341	3416
309.571	3465
309.8	3578
310.03	3642
310.26	3686
310.49	3657
310.72	3818
310.949	3857
311.179	3813
311.409	3717
311.639	3721
311.868	3817
312.098	3811
312.328	3840
312.557	4008
312.787	4086
313.017	3914
313.246	3854
313.476	3829
313.706	3896
313.935	3894
314.165	3951
314.394	4077
314.624	3965
314.853	3872
315.083	3850
315.312	3847
315.542	3856
315.771	3742
316.001	3767
316.23	3738
316.46	3766
316.689	3830
316.919	3822
317.148	3904
317.377	3866
317.607	3845
317.836	3811
318.065	3782
318.295	3771
318.524	3799
318.753	3743
318.983	3768
319.212	3704
319.441	3862
319.67	3825
319.9	3768
320.129	3838
320.358	3779
320.587	3812
320.816	3863
321.046	3919
321.275	3902
321.504	3859
321.733	3937
321.962	4032
322.191	4052
322.42	4186
322.649	4253
322.878	4305
323.108	4382
323.337	4590
323.566	4772
323.795	5071
324.024	5686
324.253	7392
324.482	11153
324.71	15394
324.939	15619
325.168	13295
325.397	6733
325.626	5420
325.855	4910
326.084	4849
326.313	4896
326.542	5041
326.77	5618
326.999	7129
327.228	10513
327.457	14525
327.686	13729
327.914	7409
328.143	5923
328.372	5545
328.6	5272
328.829	5282
329.058	5462
329.287	5346
329.515	5065
329.744	4779
329.972	4907
330.201	4978
330.43	5152
330.658	5498
330.887	5844
331.115	5420
331.344	5057
331.572	4951
331.801	5065
332.03	5122
332.258	5066
332.486	4982
332.715	5116
332.943	5294
333.172	5355
333.4	5569
333.629	5653
333.857	5675
334.085	5609
334.314	5437
334.542	5468
334.771	5392
334.999	5300
335.227	5201
335.455	5209
335.684	5144
335.912	5105
336.14	5009
336.369	5071
336.597	5082
336.825	5054
337.053	4993
337.281	4815
337.51	4843
337.738	4837
337.966	4824
338.194	4848
338.422	4776
338.65	4629
338.878	4649
339.106	4518
339.334	4582
339.562	4509
339.79	4513
340.018	4488
340.246	4488
340.474	4532
340.702	4457
340.93	4568
341.158	4517
341.386	4491
341.614	4466
341.842	4436
342.07	4470
342.298	4431
342.526	4442
342.754	4369
342.981	4399
343.209	4471
343.437	4759
343.665	4993
343.893	5368
344.12	5251
344.348	5017
344.576	4868
344.804	4830
345.031	4728
345.259	4672
345.487	4564
345.714	4511
345.942	4367
346.17	4336
346.397	4311
346.625	4292
346.853	4311
347.08	4330
347.308	4298
347.535	4440
347.763	4406
347.99	4346
348.218	4429
348.445	4433
348.673	4317
348.9	4288
349.128	4174
349.355	4246
349.583	4190
349.81	4170
350.037	4144
350.265	4191
350.492	4153
350.72	4119
350.947	4197
351.174	4229
351.402	4322
351.629	4249
351.856	4215
352.083	4386
352.311	4330
352.538	4229
352.765	4261
352.992	4301
353.22	4202
353.447	4175
353.674	4130
353.901	4094
354.128	4059
354.355	4061
354.583	4081
354.81	4061
355.037	4096
355.264	4076
355.491	4021
355.718	4024
355.945	4076
356.172	4054
356.399	4051
356.626	4081
356.853	4109
357.08	3967
357.307	4072
357.534	4073
357.761	4045
357.988	4065
358.215	4062
358.441	4076
358.668	4096
358.895	4175
359.122	4145
359.349	4234
359.576	4351
359.802	4526
360.029	4687
360.256	4629
360.483	4478
360.709	4409
360.936	4312
361.163	4340
361.39	4328
361.616	4285
361.843	4203
362.07	4326
362.296	4283
362.523	4245
362.749	4311
362.976	4205
363.203	4193
363.429	4159
363.656	4176
363.882	4187
364.109	4173
364.335	4101
364.562	4095
364.788	4080
365.015	4130
365.241	4070
365.468	4183
365.694	4229
365.92	4204
366.147	4144
366.373	4113
366.599	4095
366.826	4097
367.052	4081
367.278	4139
367.505	4183
367.731	4142
367.957	4163
368.184	4238
368.41	4275
368.636	4337
368.862	4334
369.089	4282
369.315	4294
369.541	4209
369.767	4303
369.993	4317
370.219	4269
370.445	4274
370.672	4285
370.898	4359
371.124	4363
371.35	4368
371.576	4399
371.802	4368
372.028	4381
372.254	4353
372.48	4449
372.706	4540
372.932	4546
373.158	4482
373.384	4486
373.61	4473
373.835	4475
374.061	4498
374.287	4533
374.513	4645
374.739	4797
374.965	4882
375.191	4828
375.416	4749
375.642	4613
375.868	4560
376.094	4535
376.319	4544
376.545	4509
376.771	4557
376.997	4445
377.222	4470
377.448	4434
377.674	4440
377.899	4352
378.125	4337
378.35	4344
378.576	4373
378.802	4346
379.027	4365
379.253	4350
379.478	4274
379.704	4346
379.929	4439
380.155	4345
380.38	4399
380.606	4446
380.831	4367
381.057	4434
381.282	4491
381.507	4431
381.733	4515
381.958	4486
382.184	4541
382.409	4621
382.634	4714
382.86	4629
383.085	4655
383.31	4803
383.535	4887
383.761	4913
383.986	5042
384.211	5042
384.436	5128
384.662	5227
384.887	5259
385.112	5218
385.337	5370
385.562	5310
385.787	5377
386.013	5449
386.238	5425
386.463	5423
386.688	5416
386.913	5288
387.138	5252
387.363	5293
387.588	5210
387.813	5278
388.038	5212
388.263	5278
388.488	5332
388.713	5347
388.938	5184
389.163	5272
389.387	5244
389.612	5167
389.837	5242
390.062	5173
390.287	5217
390.512	5195
390.736	5293
390.961	5371
391.186	5457
391.411	5634
391.636	5734
391.86	5863
392.085	5905
392.31	5809
392.534	5690
392.759	5630
392.984	5441
393.208	5570
393.433	5458
393.658	5505
393.882	5432
394.107	5491
394.331	5527
394.556	5543
394.78	5643
395.005	5584
395.229	5657
395.454	5847
395.678	6003
395.903	5979
396.127	5989
396.352	5854
396.576	5590
396.801	5612
397.025	5719
397.249	5868
397.474	5951
397.698	5930
397.922	6153
398.147	6309
398.371	6315
398.595	6418
398.82	6760
399.044	7353
399.268	8085
399.492	9096
399.717	9852
399.941	9637
400.165	8915
400.389	8204
400.613	7371
400.837	6974
401.062	6785
401.286	6717
401.51	6607
401.734	6583
401.958	6788
402.182	6885
402.406	6919
402.63	7079
402.854	7165
403.078	7259
403.302	7479
403.526	7477
403.75	7518
403.974	7557
404.198	7589
404.422	7669
404.645	7518
404.869	7408
405.093	7608
405.317	7665
405.541	7687
405.765	7356
405.988	7339
406.212	7533
406.436	7682
406.66	7886
406.883	7809
407.107	8561
407.331	9018
407.555	9559
407.778	9171
408.002	8546
408.226	8103
408.449	7992
408.673	7786
408.896	7965
409.12	8137
409.344	7651
409.567	7325
409.791	7378
410.014	7167
410.238	7234
410.461	7159
410.685	7153
410.908	7257
411.132	7557
411.355	7509
411.578	7210
411.802	6888
412.025	6861
412.249	6863
412.472	6942
412.695	6733
412.919	6505
413.142	6567
413.365	6525
413.589	6604
413.812	6476
414.035	6385
414.258	6519
414.482	6518
414.705	6594
414.928	6588
415.151	6472
415.374	6625
415.597	6425
415.821	6435
416.044	6471
416.267	6368
416.49	6396
416.713	6347
416.936	6464
417.159	6377
417.382	6496
417.605	6474
417.828	6629
418.051	6790
418.274	6690
418.497	6551
418.72	6753
418.943	6654
419.166	7054
419.389	7485
419.611	7164
419.834	7090
420.057	6961
420.28	6692
420.503	6553
420.726	6576
420.948	6729
421.171	7175
421.394	7221
421.617	6737
421.839	6687
422.062	6773
422.285	6915
422.507	7688
422.73	8225
422.953	7501
423.175	7182
423.398	7183
423.621	7216
423.843	7391
424.066	7374
424.288	7303
424.511	7517
424.733	8016
424.956	8429
425.178	7977
425.401	8101
425.623	7996
425.846	6972
426.068	6777
426.291	6701
426.513	6722
426.735	6913
426.958	7362
427.18	8138
427.402	9349
427.625	9297
427.847	7744
428.069	6859
428.292	6635
428.514	6219
428.736	6085
428.958	6142
429.181	5991
429.403	6020
429.625	6158
429.847	6487
430.069	7119
430.292	6645
430.514	5949
430.736	5946
430.958	5881
431.18	5793
431.402	5762
431.624	5783
431.846	5833
432.068	5802
432.29	6007
432.512	5899
432.734	6021
432.956	5920
433.178	5943
433.4	6001
433.622	5921
433.844	5915
434.066	5905
434.287	6058
434.509	6249
434.731	6463
434.953	6595
435.175	6737
435.397	6874
435.618	6800
435.84	7144
436.062	8049
436.284	8012
436.505	6735
436.727	6437
436.949	6119
437.17	5996
437.392	5948
437.614	6103
437.835	6421
438.057	7639
438.278	8226
438.5	8134
438.721	9046
438.943	7880
439.165	6569
439.386	6425
439.608	6449
439.829	6475
440.05	6897
440.272	7192
440.493	6641
440.715	6315
440.936	6333
441.158	6281
441.379	6452
441.6	6738
441.822	7003
442.043	7416
442.264	8312
442.486	7976
442.707	7077
442.928	6957
443.149	7111
443.371	7387
443.592	7981
443.813	9009
444.034	8886
444.255	7845
444.476	7538
444.698	7693
444.919	7775
445.14	7616
445.361	7483
445.582	7613
445.803	8310
446.024	8945
446.245	8489
446.466	7624
446.687	6620
446.908	6290
447.129	5939
447.35	5864
447.571	5835
447.792	5746
448.013	5888
448.234	6105
448.455	6729
448.675	8041
448.896	8479
449.117	6940
449.338	7261
449.559	8633
449.779	8755
450	6659
450.221	5927
450.442	5746
450.662	5670
450.883	5714
451.104	5807
451.324	5607
451.545	5491
451.766	5323
451.986	5255
452.207	5239
452.428	5235
452.648	5302
452.869	5248
453.089	5333
453.31	5405
453.53	5167
453.751	5128
453.971	5189
454.192	5242
454.412	5058
454.633	5041
454.853	5042
455.073	5072
455.294	5453
455.514	6080
455.734	5583
455.955	4917
456.175	4873
456.395	4734
456.616	4785
456.836	4796
457.056	4793
457.276	4681
457.497	4857
457.717	4803
457.937	4982
458.157	5085
458.377	5085
458.598	5467
458.818	6152
459.038	6956
459.258	6845
459.478	6086
459.698	6007
459.918	6039
460.138	6265
460.358	6475
460.578	6427
460.798	6500
461.018	6469
461.238	6357
461.458	6367
461.678	6385
461.898	6540
462.118	6533
462.338	6890
462.558	7115
462.777	7372
462.997	7943
463.217	8322
463.437	8054
463.657	7598
463.876	7278
464.096	7301
464.316	7333
464.536	7464
464.755	7143
464.975	7087
465.195	7208
465.414	7257
465.634	6353
465.854	6035
466.073	5755
466.293	5625
466.512	5482
466.732	5398
466.951	5345
467.171	5323
467.391	5438
467.61	5392
467.829	5452
468.049	5327
468.268	5166
468.488	5119
468.707	5054
468.927	5135
469.146	5097
469.365	5151
469.585	5275
469.804	5435
470.023	5571
470.243	5563
470.462	5641
470.681	5766
470.901	5680
471.12	5487
471.339	5407
471.558	5403
471.777	5322
471.997	5159
472.216	5082
472.435	5121
472.654	5107
472.873	4990
473.092	5033
473.311	5058
473.53	5104
473.749	5294
473.968	5814
474.187	6846
474.406	6392
474.625	5442
474.844	5167
475.063	5089
475.282	5117
475.501	5158
475.72	5251
475.939	5218
476.158	5300
476.377	5328
476.596	5347
476.814	5485
477.033	5466
477.252	5559
477.471	5650
477.69	5791
477.908	5878
478.127	6069
478.346	6130
478.564	6249
478.783	6246
479.002	6513
479.22	6427
479.439	6565
479.658	6605
479.876	6754
480.095	6905
480.313	7439
480.532	7197
480.751	7014
480.969	6888
481.188	6689
481.406	6531
481.624	6374
481.843	6317
482.061	6057
482.28	6020
482.498	6110
482.717	6002
482.935	5958
483.153	6013
483.372	5900
483.59	5917
483.808	5964
484.027	6061
484.245	6098
484.463	6139
484.681	6206
484.9	6196
485.118	6198
485.336	6300
485.554	6388
485.772	6373
485.99	6447
486.209	6403
486.427	6484
486.645	6550
486.863	6638
487.081	6537
487.299	6421
487.517	6474
487.735	6455
487.953	6409
488.171	6405
488.389	6409
488.607	6470
488.825	6425
489.043	6482
489.261	6513
489.479	6469
489.696	6593
489.914	6653
490.132	6720
490.35	6772
490.568	6816
490.786	6895
491.003	7003
491.221	7078
491.439	7167
491.657	7228
491.874	7287
492.092	7317
492.31	7270
492.527	7335
492.745	7386
492.963	7404
493.18	7483
493.398	7618
493.615	7700
493.833	7670
494.05	7653
494.268	7747
494.485	7620
494.703	7611
494.92	7591
495.138	7613
495.355	7599
495.573	7682
495.79	7639
496.008	7710
496.225	7747
496.442	7751
496.66	7739
496.877	7810
497.094	7964
497.312	8155
497.529	8331
497.746	8485
497.963	8686
498.181	9089
498.398	9213
498.615	9788
498.832	10261
499.049	10697
499.267	11290
499.484	12237
499.701	12906
499.918	13618
500.135	14459
500.352	14995
500.569	15112
500.786	14998
501.003	14550
501.22	13883
501.437	13209
501.654	12404
501.871	11795
502.088	11008
502.305	10350
502.522	9931
502.739	9495
502.956	9074
503.172	8799
503.389	8448
503.606	8519
503.823	8391
504.04	8323
504.256	8283
504.473	8510
504.69	8564
504.907	8253
505.123	7895
505.34	7647
505.557	7406
505.773	7373
505.99	7355
506.207	7189
506.423	7176
506.64	7152
506.856	7050
507.073	6894
507.289	6914
507.506	6826
507.722	6896
507.939	6978
508.155	6702
508.372	6643
508.588	6585
508.805	6533
509.021	6585
509.238	6707
509.454	6828
509.67	6627
509.887	6437
510.103	6509
510.319	6572
510.536	7818
510.752	11165
510.968	7644
511.184	6279
511.401	6197
511.617	6098
511.833	6006
512.049	5932
512.265	5975
512.481	5978
512.698	6011
512.914	5963
513.13	5979
513.346	5971
513.562	5992
513.778	6052
513.994	6158
514.21	6218
514.426	6437
514.642	6647
514.858	6926
515.074	7150
515.29	8642
515.506	11251
515.721	8279
515.937	7108
516.153	6865
516.369	6819
516.585	6846
516.801	6985
517.016	7255
517.232	7463
517.448	7623
517.664	7698
517.879	7751
518.095	7598
518.311	7590
518.527	7297
518.742	7040
518.958	6766
519.173	6666
519.389	6536
519.605	6403
519.82	6333
520.036	6463
520.251	6539
520.467	6544
520.682	6512
520.898	6417
521.113	6593
521.329	6846
521.544	7576
521.76	9393
521.975	13863
522.19	11054
522.406	7127
522.621	6218
522.836	5886
523.052	5673
523.267	5504
523.482	5418
523.698	5345
523.913	5445
524.128	5318
524.343	5230
524.559	5130
524.774	5099
524.989	5074
525.204	5082
525.419	5177
525.634	5072
525.849	4992
526.064	5026
526.28	4937
526.495	4897
526.71	4936
526.925	4848
527.14	4880
527.355	4861
527.57	4846
527.785	4886
527.999	4907
528.214	4872
528.429	4835
528.644	4867
528.859	4886
529.074	4945
529.289	5048
529.503	5677
529.718	5311
529.933	5104
530.148	4930
530.363	4844
530.577	4887
530.792	4847
531.007	4791
531.221	4830
531.436	4840
531.651	4829
531.865	4756
532.08	4842
532.295	4838
532.509	4792
532.724	4697
532.938	4765
533.153	4767
533.367	4805
533.582	4747
533.796	4702
534.011	4628
534.225	4740
534.44	4703
534.654	4637
534.868	4610
535.083	4653
535.297	4631
535.511	4702
535.726	4698
535.94	4727
536.154	4570
536.369	4513
536.583	4461
536.797	4437
537.011	4409
537.225	4430
537.44	4451
537.654	4483
537.868	4470
538.082	4474
538.296	4464
538.51	4491
538.724	4475
538.938	4431
539.153	4334
539.367	4491
539.581	4313
539.795	4329
540.009	4318
540.222	4289
540.436	4295
540.65	4338
540.864	4350
541.078	4362
541.292	4349
541.506	4337
541.72	4220
541.934	4178
542.147	4202
