Data from Uncirc_1996_H10_HRD10591_00073.txt Node
Date: Wed Jan 03 11:32:17 EST 2024
User: Yrep
Spectrometer: HR+D1059
Trigger mode: 1
Integration Time (sec): 1.000000E-1
Scans to average: 1
Electric dark correction enabled: true
Nonlinearity correction enabled: false
Boxcar width: 0
XAxis mode: Wavelengths
Number of Pixels in Spectrum: 2048
>>>>>Begin Spectral Data<<<<<
223.165	-28.31
223.4	-28.31
223.635	-28.31
223.869	-12.31
224.104	-10.31
224.338	-18.31
224.573	-25.31
224.808	-20.31
225.042	-5.31
225.277	-1.31
225.511	-5.31
225.746	20.69
225.98	20.69
226.215	13.69
226.449	-6.31
226.683	20.69
226.918	34.69
227.152	22.69
227.387	41.69
227.621	46.69
227.856	43.69
228.09	37.69
228.324	57.69
228.559	65.69
228.793	69.69
229.027	72.69
229.262	72.69
229.496	91.69
229.73	83.69
229.964	81.69
230.199	76.69
230.433	92.69
230.667	73.69
230.901	74.69
231.136	89.69
231.37	81.69
231.604	96.69
231.838	91.69
232.072	85.69
232.306	80.69
232.541	93.69
232.775	77.69
233.009	85.69
233.243	94.69
233.477	88.69
233.711	85.69
233.945	94.69
234.179	100.69
234.413	78.69
234.647	85.69
234.881	77.69
235.115	87.69
235.349	79.69
235.583	80.69
235.817	85.69
236.051	77.69
236.285	83.69
236.519	76.69
236.753	76.69
236.987	83.69
237.221	92.69
237.455	83.69
237.689	96.69
237.922	66.69
238.156	66.69
238.39	86.69
238.624	72.69
238.858	76.69
239.091	62.69
239.325	78.69
239.559	84.69
239.793	80.69
240.027	73.69
240.26	75.69
240.494	69.69
240.728	83.69
240.961	85.69
241.195	77.69
241.429	84.69
241.662	82.69
241.896	78.69
242.13	79.69
242.363	83.69
242.597	85.69
242.83	78.69
243.064	75.69
243.298	85.69
243.531	70.69
243.765	78.69
243.998	92.69
244.232	82.69
244.465	83.69
244.699	89.69
244.932	92.69
245.166	60.69
245.399	89.69
245.633	76.69
245.866	80.69
246.099	93.69
246.333	88.69
246.566	84.69
246.8	85.69
247.033	97.69
247.266	78.69
247.5	80.69
247.733	79.69
247.966	72.69
248.2	83.69
248.433	89.69
248.666	80.69
248.899	85.69
249.133	83.69
249.366	93.69
249.599	91.69
249.832	88.69
250.066	80.69
250.299	75.69
250.532	87.69
250.765	93.69
250.998	73.69
251.231	77.69
251.465	93.69
251.698	84.69
251.931	88.69
252.164	82.69
252.397	87.69
252.63	85.69
252.863	83.69
253.096	69.69
253.329	89.69
253.562	86.69
253.795	82.69
254.028	87.69
254.261	75.69
254.494	78.69
254.727	88.69
254.96	81.69
255.193	78.69
255.426	80.69
255.659	102.69
255.892	66.69
256.124	93.69
256.357	77.69
256.59	80.69
256.823	76.69
257.056	82.69
257.289	73.69
257.521	78.69
257.754	81.69
257.987	84.69
258.22	86.69
258.452	82.69
258.685	61.69
258.918	78.69
259.151	86.69
259.383	91.69
259.616	79.69
259.849	75.69
260.081	81.69
260.314	96.69
260.547	67.69
260.779	75.69
261.012	96.69
261.244	77.69
261.477	95.69
261.71	101.69
261.942	115.69
262.175	105.69
262.407	76.69
262.64	82.69
262.872	69.69
263.105	76.69
263.337	95.69
263.57	82.69
263.802	98.69
264.035	86.69
264.267	70.69
264.499	88.69
264.732	92.69
264.964	77.69
265.197	88.69
265.429	99.69
265.661	84.69
265.894	88.69
266.126	96.69
266.358	85.69
266.591	78.69
266.823	93.69
267.055	81.69
267.287	82.69
267.52	87.69
267.752	76.69
267.984	93.69
268.216	87.69
268.448	96.69
268.681	76.69
268.913	78.69
269.145	81.69
269.377	92.69
269.609	94.69
269.841	78.69
270.073	82.69
270.306	64.69
270.538	77.69
270.77	83.69
271.002	88.69
271.234	85.69
271.466	96.69
271.698	90.69
271.93	83.69
272.162	76.69
272.394	86.69
272.626	90.69
272.858	90.69
273.09	93.69
273.322	97.69
273.553	89.69
273.785	78.69
274.017	94.69
274.249	95.69
274.481	85.69
274.713	92.69
274.945	82.69
275.176	91.69
275.408	92.69
275.64	95.69
275.872	101.69
276.104	95.69
276.335	92.69
276.567	94.69
276.799	94.69
277.031	97.69
277.262	77.69
277.494	83.69
277.726	78.69
277.957	73.69
278.189	93.69
278.421	78.69
278.652	83.69
278.884	78.69
279.115	82.69
279.347	98.69
279.579	95.69
279.81	101.69
280.042	96.69
280.273	91.69
280.505	86.69
280.736	82.69
280.968	77.69
281.199	78.69
281.431	84.69
281.662	81.69
281.894	85.69
282.125	96.69
282.356	120.69
282.588	130.69
282.819	127.69
283.051	81.69
283.282	94.69
283.513	78.69
283.745	87.69
283.976	86.69
284.207	96.69
284.439	88.69
284.67	104.69
284.901	74.69
285.132	72.69
285.364	94.69
285.595	90.69
285.826	80.69
286.057	95.69
286.288	93.69
286.52	101.69
286.751	100.69
286.982	86.69
287.213	85.69
287.444	95.69
287.675	89.69
287.906	90.69
288.138	82.69
288.369	96.69
288.6	83.69
288.831	92.69
289.062	90.69
289.293	80.69
289.524	87.69
289.755	97.69
289.986	93.69
290.217	97.69
290.448	77.69
290.679	93.69
290.91	102.69
291.141	73.69
291.371	85.69
291.602	94.69
291.833	85.69
292.064	81.69
292.295	87.69
292.526	101.69
292.757	85.69
292.987	94.69
293.218	90.69
293.449	88.69
293.68	87.69
293.91	78.69
294.141	94.69
294.372	90.69
294.603	91.69
294.833	86.69
295.064	81.69
295.295	95.69
295.525	99.69
295.756	101.69
295.987	118.69
296.217	137.69
296.448	130.69
296.679	93.69
296.909	91.69
297.14	82.69
297.37	92.69
297.601	89.69
297.831	88.69
298.062	79.69
298.292	89.69
298.523	91.69
298.753	86.69
298.984	86.69
299.214	98.69
299.445	93.69
299.675	101.69
299.905	118.69
300.136	96.69
300.366	98.69
300.597	98.69
300.827	86.69
301.057	88.69
301.288	96.69
301.518	98.69
301.748	97.69
301.979	95.69
302.209	101.69
302.439	92.69
302.669	91.69
302.9	95.69
303.13	95.69
303.36	98.69
303.59	107.69
303.82	106.69
304.051	102.69
304.281	109.69
304.511	97.69
304.741	92.69
304.971	89.69
305.201	99.69
305.431	93.69
305.661	86.69
305.891	100.69
306.121	95.69
306.352	100.69
306.582	93.69
306.812	95.69
307.042	101.69
307.272	93.69
307.502	108.69
307.731	97.69
307.961	86.69
308.191	103.69
308.421	93.69
308.651	92.69
308.881	94.69
309.111	90.69
309.341	92.69
309.571	88.69
309.8	116.69
310.03	108.69
310.26	106.69
310.49	104.69
310.72	94.69
310.949	109.69
311.179	102.69
311.409	101.69
311.639	100.69
311.868	101.69
312.098	89.69
312.328	91.69
312.557	107.69
312.787	109.69
313.017	90.69
313.246	94.69
313.476	77.69
313.706	102.69
313.935	97.69
314.165	83.69
314.394	95.69
314.624	102.69
314.853	102.69
315.083	80.69
315.312	92.69
315.542	108.69
315.771	97.69
316.001	83.69
316.23	93.69
316.46	84.69
316.689	112.69
316.919	99.69
317.148	90.69
317.377	94.69
317.607	94.69
317.836	100.69
318.065	91.69
318.295	97.69
318.524	90.69
318.753	96.69
318.983	97.69
319.212	106.69
319.441	98.69
319.67	108.69
319.9	104.69
320.129	97.69
320.358	96.69
320.587	106.69
320.816	99.69
321.046	97.69
321.275	99.69
321.504	100.69
321.733	99.69
321.962	96.69
322.191	97.69
322.42	115.69
322.649	114.69
322.878	120.69
323.108	118.69
323.337	125.69
323.566	137.69
323.795	140.69
324.024	207.69
324.253	385.69
324.482	854.69
324.71	1702.69
324.939	2188.69
325.168	814.69
325.397	251.69
325.626	168.69
325.855	143.69
326.084	132.69
326.313	119.69
326.542	155.69
326.77	218.69
326.999	458.69
327.228	961.69
327.457	1743.69
327.686	1387.69
327.914	386.69
328.143	207.69
328.372	160.69
328.6	133.69
328.829	118.69
329.058	121.69
329.287	122.69
329.515	109.69
329.744	119.69
329.972	91.69
330.201	97.69
330.43	118.69
330.658	127.69
330.887	142.69
331.115	122.69
331.344	108.69
331.572	106.69
331.801	89.69
332.03	108.69
332.258	97.69
332.486	94.69
332.715	86.69
332.943	95.69
333.172	100.69
333.4	102.69
333.629	98.69
333.857	106.69
334.085	95.69
334.314	104.69
334.542	101.69
334.771	89.69
334.999	92.69
335.227	97.69
335.455	94.69
335.684	97.69
335.912	86.69
336.14	97.69
336.369	105.69
336.597	105.69
336.825	98.69
337.053	85.69
337.281	89.69
337.51	89.69
337.738	101.69
337.966	100.69
338.194	87.69
338.422	101.69
338.65	105.69
338.878	102.69
339.106	94.69
339.334	94.69
339.562	76.69
339.79	89.69
340.018	94.69
340.246	97.69
340.474	98.69
340.702	81.69
340.93	99.69
341.158	89.69
341.386	99.69
341.614	100.69
341.842	100.69
342.07	97.69
342.298	92.69
342.526	87.69
342.754	98.69
342.981	86.69
343.209	91.69
343.437	117.69
343.665	105.69
343.893	103.69
344.12	101.69
344.348	90.69
344.576	98.69
344.804	80.69
345.031	84.69
345.259	107.69
345.487	77.69
345.714	88.69
345.942	105.69
346.17	105.69
346.397	99.69
346.625	110.69
346.853	87.69
347.08	92.69
347.308	108.69
347.535	96.69
347.763	101.69
347.99	101.69
348.218	101.69
348.445	113.69
348.673	87.69
348.9	93.69
349.128	84.69
349.355	82.69
349.583	104.69
349.81	101.69
350.037	88.69
350.265	110.69
350.492	93.69
350.72	103.69
350.947	100.69
351.174	106.69
351.402	101.69
351.629	110.69
351.856	85.69
352.083	110.69
352.311	111.69
352.538	114.69
352.765	106.69
352.992	137.69
353.22	110.69
353.447	105.69
353.674	91.69
353.901	109.69
354.128	111.69
354.355	87.69
354.583	90.69
354.81	93.69
355.037	109.69
355.264	99.69
355.491	98.69
355.718	94.69
355.945	106.69
356.172	98.69
356.399	99.69
356.626	94.69
356.853	89.69
357.08	103.69
357.307	88.69
357.534	89.69
357.761	102.69
357.988	100.69
358.215	93.69
358.441	87.69
358.668	97.69
358.895	70.69
359.122	97.69
359.349	77.69
359.576	93.69
359.802	101.69
360.029	118.69
360.256	115.69
360.483	105.69
360.709	92.69
360.936	100.69
361.163	103.69
361.39	101.69
361.616	101.69
361.843	107.69
362.07	84.69
362.296	102.69
362.523	93.69
362.749	96.69
362.976	92.69
363.203	85.69
363.429	92.69
363.656	89.69
363.882	101.69
364.109	96.69
364.335	98.69
364.562	98.69
364.788	99.69
365.015	101.69
365.241	102.69
365.468	109.69
365.694	97.69
365.92	102.69
366.147	94.69
366.373	89.69
366.599	74.69
366.826	94.69
367.052	105.69
367.278	86.69
367.505	82.69
367.731	97.69
367.957	96.69
368.184	104.69
368.41	101.69
368.636	97.69
368.862	125.69
369.089	110.69
369.315	92.69
369.541	98.69
369.767	92.69
369.993	99.69
370.219	91.69
370.445	89.69
370.672	94.69
370.898	89.69
371.124	109.69
371.35	86.69
371.576	90.69
371.802	106.69
372.028	84.69
372.254	91.69
372.48	89.69
372.706	86.69
372.932	92.69
373.158	88.69
373.384	114.69
373.61	92.69
373.835	100.69
374.061	112.69
374.287	100.69
374.513	101.69
374.739	89.69
374.965	93.69
375.191	82.69
375.416	90.69
375.642	106.69
375.868	85.69
376.094	92.69
376.319	96.69
376.545	94.69
376.771	76.69
376.997	93.69
377.222	90.69
377.448	81.69
377.674	96.69
377.899	107.69
378.125	92.69
378.35	91.69
378.576	90.69
378.802	84.69
379.027	95.69
379.253	92.69
379.478	87.69
379.704	86.69
379.929	94.69
380.155	88.69
380.38	90.69
380.606	100.69
380.831	117.69
381.057	107.69
381.282	106.69
381.507	90.69
381.733	107.69
381.958	97.69
382.184	99.69
382.409	107.69
382.634	112.69
382.86	89.69
383.085	88.69
383.31	94.69
383.535	96.69
383.761	101.69
383.986	107.69
384.211	94.69
384.436	88.69
384.662	110.69
384.887	107.69
385.112	113.69
385.337	104.69
385.562	97.69
385.787	111.69
386.013	117.69
386.238	116.69
386.463	100.69
386.688	100.69
386.913	94.69
387.138	114.69
387.363	108.69
387.588	102.69
387.813	104.69
388.038	100.69
388.263	98.69
388.488	106.69
388.713	86.69
388.938	94.69
389.163	99.69
389.387	110.69
389.612	99.69
389.837	91.69
390.062	94.69
390.287	85.69
390.512	68.69
390.736	93.69
390.961	102.69
391.186	118.69
391.411	111.69
391.636	97.69
391.86	90.69
392.085	90.69
392.31	84.69
392.534	93.69
392.759	104.69
392.984	99.69
393.208	81.69
393.433	99.69
393.658	98.69
393.882	82.69
394.107	61.69
394.331	96.69
394.556	98.69
394.78	90.69
395.005	81.69
395.229	82.69
395.454	93.69
395.678	87.69
395.903	91.69
396.127	98.69
396.352	100.69
396.576	82.69
396.801	102.69
397.025	93.69
397.249	100.69
397.474	96.69
397.698	98.69
397.922	96.69
398.147	83.69
398.371	78.69
398.595	77.69
398.82	97.69
399.044	90.69
399.268	92.69
399.492	92.69
399.717	107.69
399.941	95.69
400.165	90.69
400.389	85.69
400.613	96.69
400.837	83.69
401.062	96.69
401.286	104.69
401.51	96.69
401.734	94.69
401.958	114.69
402.182	117.69
402.406	145.69
402.63	113.69
402.854	92.69
403.078	84.69
403.302	102.69
403.526	102.69
403.75	94.69
403.974	82.69
404.198	91.69
404.422	88.69
404.645	82.69
404.869	89.69
405.093	113.69
405.317	101.69
405.541	90.69
405.765	106.69
405.988	107.69
406.212	168.69
406.436	210.69
406.66	139.69
406.883	98.69
407.107	92.69
407.331	96.69
407.555	99.69
407.778	94.69
408.002	91.69
408.226	97.69
408.449	82.69
408.673	89.69
408.896	99.69
409.12	97.69
409.344	93.69
409.567	100.69
409.791	90.69
410.014	93.69
410.238	98.69
410.461	101.69
410.685	87.69
410.908	97.69
411.132	117.69
411.355	109.69
411.578	99.69
411.802	97.69
412.025	97.69
412.249	94.69
412.472	85.69
412.695	83.69
412.919	78.69
413.142	79.69
413.365	81.69
413.589	90.69
413.812	88.69
414.035	75.69
414.258	88.69
414.482	93.69
414.705	106.69
414.928	93.69
415.151	95.69
415.374	92.69
415.597	101.69
415.821	102.69
416.044	88.69
416.267	84.69
416.49	97.69
416.713	94.69
416.936	100.69
417.159	93.69
417.382	98.69
417.605	85.69
417.828	93.69
418.051	100.69
418.274	92.69
418.497	99.69
418.72	99.69
418.943	99.69
419.166	100.69
419.389	102.69
419.611	99.69
419.834	95.69
420.057	87.69
420.28	80.69
420.503	84.69
420.726	86.69
420.948	83.69
421.171	98.69
421.394	100.69
421.617	87.69
421.839	76.69
422.062	98.69
422.285	89.69
422.507	105.69
422.73	111.69
422.953	105.69
423.175	98.69
423.398	96.69
423.621	90.69
423.843	94.69
424.066	97.69
424.288	97.69
424.511	84.69
424.733	89.69
424.956	104.69
425.178	93.69
425.401	104.69
425.623	102.69
425.846	94.69
426.068	88.69
426.291	98.69
426.513	90.69
426.735	94.69
426.958	108.69
427.18	120.69
427.402	146.69
427.625	173.69
427.847	122.69
428.069	102.69
428.292	94.69
428.514	88.69
428.736	80.69
428.958	93.69
429.181	99.69
429.403	106.69
429.625	85.69
429.847	88.69
430.069	96.69
430.292	103.69
430.514	96.69
430.736	96.69
430.958	91.69
431.18	73.69
431.402	100.69
431.624	98.69
431.846	76.69
432.068	88.69
432.29	86.69
432.512	77.69
432.734	92.69
432.956	97.69
433.178	108.69
433.4	107.69
433.622	102.69
433.844	85.69
434.066	99.69
434.287	100.69
434.509	100.69
434.731	92.69
434.953	101.69
435.175	76.69
435.397	83.69
435.618	103.69
435.84	112.69
436.062	123.69
436.284	107.69
436.505	115.69
436.727	103.69
436.949	98.69
437.17	91.69
437.392	89.69
437.614	109.69
437.835	118.69
438.057	112.69
438.278	121.69
438.5	110.69
438.721	114.69
438.943	102.69
439.165	107.69
439.386	102.69
439.608	97.69
439.829	98.69
440.05	116.69
440.272	152.69
440.493	95.69
440.715	90.69
440.936	92.69
441.158	85.69
441.379	96.69
441.6	103.69
441.822	82.69
442.043	105.69
442.264	100.69
442.486	111.69
442.707	106.69
442.928	95.69
443.149	128.69
443.371	121.69
443.592	95.69
443.813	123.69
444.034	109.69
444.255	94.69
444.476	91.69
444.698	91.69
444.919	92.69
445.14	156.69
445.361	118.69
445.582	125.69
445.803	150.69
446.024	139.69
446.245	140.69
446.466	108.69
446.687	82.69
446.908	89.69
447.129	118.69
447.35	115.69
447.571	103.69
447.792	109.69
448.013	109.69
448.234	114.69
448.455	107.69
448.675	101.69
448.896	112.69
449.117	97.69
449.338	103.69
449.559	138.69
449.779	130.69
450	97.69
450.221	90.69
450.442	102.69
450.662	85.69
450.883	105.69
451.104	105.69
451.324	106.69
451.545	91.69
451.766	98.69
451.986	106.69
452.207	97.69
452.428	97.69
452.648	104.69
452.869	121.69
453.089	117.69
453.31	108.69
453.53	116.69
453.751	92.69
453.971	110.69
454.192	105.69
454.412	103.69
454.633	106.69
454.853	93.69
455.073	103.69
455.294	97.69
455.514	99.69
455.734	100.69
455.955	95.69
456.175	98.69
456.395	96.69
456.616	93.69
456.836	91.69
457.056	89.69
457.276	81.69
457.497	78.69
457.717	100.69
457.937	98.69
458.157	90.69
458.377	82.69
458.598	119.69
458.818	160.69
459.038	170.69
459.258	137.69
459.478	98.69
459.698	88.69
459.918	89.69
460.138	87.69
460.358	80.69
460.578	88.69
460.798	96.69
461.018	93.69
461.238	95.69
461.458	85.69
461.678	95.69
461.898	77.69
462.118	94.69
462.338	86.69
462.558	92.69
462.777	90.69
462.997	94.69
463.217	101.69
463.437	89.69
463.657	95.69
463.876	98.69
464.096	95.69
464.316	95.69
464.536	88.69
464.755	94.69
464.975	102.69
465.195	170.69
465.414	158.69
465.634	105.69
465.854	97.69
466.073	96.69
466.293	98.69
466.512	96.69
466.732	89.69
466.951	82.69
467.171	86.69
467.391	97.69
467.61	112.69
467.829	93.69
468.049	101.69
468.268	91.69
468.488	84.69
468.707	88.69
468.927	78.69
469.146	82.69
469.365	95.69
469.585	85.69
469.804	99.69
470.023	96.69
470.243	78.69
470.462	93.69
470.681	105.69
470.901	97.69
471.12	98.69
471.339	96.69
471.558	91.69
471.777	87.69
471.997	91.69
472.216	88.69
472.435	101.69
472.654	97.69
472.873	92.69
473.092	80.69
473.311	85.69
473.53	95.69
473.749	93.69
473.968	108.69
474.187	90.69
474.406	101.69
474.625	93.69
474.844	92.69
475.063	88.69
475.282	96.69
475.501	89.69
475.72	81.69
475.939	95.69
476.158	83.69
476.377	78.69
476.596	93.69
476.814	92.69
477.033	113.69
477.252	88.69
477.471	90.69
477.69	89.69
477.908	88.69
478.127	97.69
478.346	84.69
478.564	88.69
478.783	99.69
479.002	88.69
479.22	106.69
479.439	101.69
479.658	97.69
479.876	90.69
480.095	91.69
480.313	94.69
480.532	91.69
480.751	93.69
480.969	88.69
481.188	111.69
481.406	107.69
481.624	92.69
481.843	84.69
482.061	85.69
482.28	97.69
482.498	98.69
482.717	87.69
482.935	99.69
483.153	77.69
483.372	91.69
483.59	84.69
483.808	88.69
484.027	92.69
484.245	85.69
484.463	97.69
484.681	92.69
484.9	103.69
485.118	94.69
485.336	107.69
485.554	88.69
485.772	103.69
485.99	105.69
486.209	99.69
486.427	103.69
486.645	114.69
486.863	123.69
487.081	104.69
487.299	92.69
487.517	98.69
487.735	98.69
487.953	109.69
488.171	92.69
488.389	90.69
488.607	95.69
488.825	94.69
489.043	94.69
489.261	100.69
489.479	91.69
489.696	81.69
489.914	106.69
490.132	82.69
490.35	85.69
490.568	92.69
490.786	99.69
491.003	96.69
491.221	105.69
491.439	96.69
491.657	89.69
491.874	95.69
492.092	96.69
492.31	87.69
492.527	90.69
492.745	96.69
492.963	78.69
493.18	89.69
493.398	86.69
493.615	94.69
493.833	88.69
494.05	91.69
494.268	95.69
494.485	90.69
494.703	92.69
494.92	90.69
495.138	94.69
495.355	104.69
495.573	113.69
495.79	90.69
496.008	89.69
496.225	81.69
496.442	92.69
496.66	93.69
496.877	88.69
497.094	92.69
497.312	65.69
497.529	107.69
497.746	97.69
497.963	88.69
498.181	99.69
498.398	90.69
498.615	114.69
498.832	102.69
499.049	94.69
499.267	88.69
499.484	96.69
499.701	100.69
499.918	89.69
500.135	81.69
500.352	83.69
500.569	106.69
500.786	102.69
501.003	81.69
501.22	86.69
501.437	92.69
501.654	104.69
501.871	108.69
502.088	84.69
502.305	97.69
502.522	77.69
502.739	90.69
502.956	80.69
503.172	104.69
503.389	113.69
503.606	116.69
503.823	99.69
504.04	95.69
504.256	104.69
504.473	86.69
504.69	88.69
504.907	90.69
505.123	84.69
505.34	92.69
505.557	88.69
505.773	78.69
505.99	82.69
506.207	97.69
506.423	104.69
506.64	101.69
506.856	92.69
507.073	90.69
507.289	100.69
507.506	90.69
507.722	115.69
507.939	111.69
508.155	89.69
508.372	104.69
508.588	103.69
508.805	100.69
509.021	96.69
509.238	98.69
509.454	106.69
509.67	111.69
509.887	99.69
510.103	124.69
510.319	212.69
510.536	738.69
510.752	2252.69
510.968	605.69
511.184	141.69
511.401	106.69
511.617	92.69
511.833	87.69
512.049	98.69
512.265	94.69
512.481	100.69
512.698	90.69
512.914	98.69
513.13	89.69
513.346	93.69
513.562	86.69
513.778	80.69
513.994	93.69
514.21	110.69
514.426	131.69
514.642	128.69
