Data from Uncirc_1996_H10_HRD10591_00009.txt Node
Date: Wed Jan 03 11:32:04 EST 2024
User: Yrep
Spectrometer: HR+D1059
Trigger mode: 1
Integration Time (sec): 1.000000E-1
Scans to average: 1
Electric dark correction enabled: true
Nonlinearity correction enabled: false
Boxcar width: 0
XAxis mode: Wavelengths
Number of Pixels in Spectrum: 2048
>>>>>Begin Spectral Data<<<<<
223.165	-9.38
223.4	-9.38
223.635	-9.38
223.869	-13.38
224.104	-28.38
224.338	-20.38
224.573	-23.38
224.808	-13.38
225.042	0.62
225.277	-9.38
225.511	-9.38
225.746	-1.38
225.98	1.62
226.215	16.62
226.449	22.62
226.683	29.62
226.918	24.62
227.152	32.62
227.387	34.62
227.621	27.62
227.856	38.62
228.09	51.62
228.324	56.62
228.559	54.62
228.793	57.62
229.027	56.62
229.262	62.62
229.496	70.62
229.73	71.62
229.964	75.62
230.199	67.62
230.433	72.62
230.667	75.62
230.901	62.62
231.136	75.62
231.37	90.62
231.604	79.62
231.838	81.62
232.072	78.62
232.306	79.62
232.541	79.62
232.775	84.62
233.009	87.62
233.243	78.62
233.477	69.62
233.711	70.62
233.945	74.62
234.179	73.62
234.413	80.62
234.647	89.62
234.881	64.62
235.115	74.62
235.349	82.62
235.583	89.62
235.817	89.62
236.051	82.62
236.285	77.62
236.519	72.62
236.753	88.62
236.987	82.62
237.221	70.62
237.455	103.62
237.689	72.62
237.922	83.62
238.156	97.62
238.39	95.62
238.624	83.62
238.858	82.62
239.091	75.62
239.325	77.62
239.559	69.62
239.793	80.62
240.027	70.62
240.26	73.62
240.494	73.62
240.728	70.62
240.961	83.62
241.195	96.62
241.429	80.62
241.662	77.62
241.896	61.62
242.13	69.62
242.363	75.62
242.597	69.62
242.83	72.62
243.064	71.62
243.298	71.62
243.531	56.62
243.765	77.62
243.998	85.62
244.232	65.62
244.465	73.62
244.699	73.62
244.932	76.62
245.166	65.62
245.399	71.62
245.633	74.62
245.866	82.62
246.099	90.62
246.333	65.62
246.566	71.62
246.8	75.62
247.033	83.62
247.266	87.62
247.5	91.62
247.733	79.62
247.966	68.62
248.2	89.62
248.433	77.62
248.666	85.62
248.899	80.62
249.133	91.62
249.366	103.62
249.599	83.62
249.832	76.62
250.066	93.62
250.299	77.62
250.532	76.62
250.765	78.62
250.998	80.62
251.231	79.62
251.465	77.62
251.698	86.62
251.931	81.62
252.164	76.62
252.397	74.62
252.63	87.62
252.863	74.62
253.096	81.62
253.329	86.62
253.562	79.62
253.795	89.62
254.028	90.62
254.261	69.62
254.494	81.62
254.727	86.62
254.96	93.62
255.193	76.62
255.426	83.62
255.659	79.62
255.892	77.62
256.124	93.62
256.357	84.62
256.59	81.62
256.823	77.62
257.056	82.62
257.289	73.62
257.521	79.62
257.754	74.62
257.987	77.62
258.22	79.62
258.452	81.62
258.685	75.62
258.918	79.62
259.151	77.62
259.383	79.62
259.616	80.62
259.849	73.62
260.081	90.62
260.314	81.62
260.547	80.62
260.779	81.62
261.012	89.62
261.244	74.62
261.477	83.62
261.71	86.62
261.942	91.62
262.175	90.62
262.407	89.62
262.64	91.62
262.872	83.62
263.105	85.62
263.337	69.62
263.57	89.62
263.802	85.62
264.035	90.62
264.267	82.62
264.499	94.62
264.732	68.62
264.964	89.62
265.197	74.62
265.429	80.62
265.661	86.62
265.894	86.62
266.126	79.62
266.358	89.62
266.591	84.62
266.823	78.62
267.055	85.62
267.287	94.62
267.52	80.62
267.752	81.62
267.984	72.62
268.216	83.62
268.448	65.62
268.681	89.62
268.913	91.62
269.145	85.62
269.377	82.62
269.609	83.62
269.841	76.62
270.073	77.62
270.306	72.62
270.538	77.62
270.77	75.62
271.002	90.62
271.234	86.62
271.466	61.62
271.698	80.62
271.93	75.62
272.162	86.62
272.394	85.62
272.626	74.62
272.858	79.62
273.09	80.62
273.322	89.62
273.553	87.62
273.785	89.62
274.017	72.62
274.249	91.62
274.481	80.62
274.713	92.62
274.945	71.62
275.176	82.62
275.408	79.62
275.64	89.62
275.872	74.62
276.104	98.62
276.335	87.62
276.567	82.62
276.799	92.62
277.031	86.62
277.262	90.62
277.494	82.62
277.726	89.62
277.957	83.62
278.189	70.62
278.421	65.62
278.652	89.62
278.884	91.62
279.115	73.62
279.347	88.62
279.579	89.62
279.81	88.62
280.042	82.62
280.273	86.62
280.505	90.62
280.736	83.62
280.968	77.62
281.199	78.62
281.431	97.62
281.662	94.62
281.894	92.62
282.125	86.62
282.356	98.62
282.588	113.62
282.819	110.62
283.051	95.62
283.282	100.62
283.513	96.62
283.745	86.62
283.976	85.62
284.207	99.62
284.439	92.62
284.67	79.62
284.901	106.62
285.132	89.62
285.364	90.62
285.595	77.62
285.826	97.62
286.057	87.62
286.288	83.62
286.52	85.62
286.751	60.62
286.982	97.62
287.213	86.62
287.444	76.62
287.675	80.62
287.906	91.62
288.138	87.62
288.369	86.62
288.6	80.62
288.831	77.62
289.062	84.62
289.293	94.62
289.524	87.62
289.755	80.62
289.986	83.62
290.217	75.62
290.448	84.62
290.679	97.62
290.91	75.62
291.141	77.62
291.371	80.62
291.602	97.62
291.833	86.62
292.064	90.62
292.295	87.62
292.526	91.62
292.757	93.62
292.987	81.62
293.218	82.62
293.449	81.62
293.68	85.62
293.91	86.62
294.141	103.62
294.372	88.62
294.603	81.62
294.833	91.62
295.064	80.62
295.295	97.62
295.525	94.62
295.756	111.62
295.987	94.62
296.217	117.62
296.448	111.62
296.679	94.62
296.909	81.62
297.14	77.62
297.37	89.62
297.601	103.62
297.831	90.62
298.062	97.62
298.292	85.62
298.523	80.62
298.753	91.62
298.984	95.62
299.214	99.62
299.445	88.62
299.675	93.62
299.905	82.62
300.136	76.62
300.366	98.62
300.597	98.62
300.827	89.62
301.057	100.62
301.288	93.62
301.518	92.62
301.748	81.62
301.979	99.62
302.209	95.62
302.439	98.62
302.669	87.62
302.9	74.62
303.13	81.62
303.36	90.62
303.59	90.62
303.82	101.62
304.051	88.62
304.281	90.62
304.511	77.62
304.741	86.62
304.971	83.62
305.201	79.62
305.431	90.62
305.661	84.62
305.891	89.62
306.121	90.62
306.352	78.62
306.582	98.62
306.812	94.62
307.042	77.62
307.272	83.62
307.502	86.62
307.731	85.62
307.961	93.62
308.191	103.62
308.421	85.62
308.651	82.62
308.881	91.62
309.111	109.62
309.341	91.62
309.571	106.62
309.8	86.62
310.03	98.62
310.26	87.62
310.49	90.62
310.72	83.62
310.949	97.62
311.179	97.62
311.409	87.62
311.639	95.62
311.868	95.62
312.098	91.62
312.328	98.62
312.557	95.62
312.787	96.62
313.017	89.62
313.246	88.62
313.476	93.62
313.706	96.62
313.935	101.62
314.165	92.62
314.394	87.62
314.624	89.62
314.853	94.62
315.083	103.62
315.312	84.62
315.542	87.62
315.771	102.62
316.001	99.62
316.23	86.62
316.46	87.62
316.689	81.62
316.919	93.62
317.148	89.62
317.377	101.62
317.607	101.62
317.836	88.62
318.065	95.62
318.295	88.62
318.524	86.62
318.753	89.62
318.983	86.62
319.212	90.62
319.441	100.62
319.67	98.62
319.9	102.62
320.129	85.62
320.358	106.62
320.587	106.62
320.816	101.62
321.046	88.62
321.275	103.62
321.504	104.62
321.733	111.62
321.962	102.62
322.191	100.62
322.42	110.62
322.649	101.62
322.878	106.62
323.108	95.62
323.337	99.62
323.566	109.62
323.795	139.62
324.024	175.62
324.253	332.62
324.482	667.62
324.71	1369.62
324.939	1818.62
325.168	675.62
325.397	200.62
325.626	126.62
325.855	128.62
326.084	112.62
326.313	105.62
326.542	121.62
326.77	189.62
326.999	421.62
327.228	819.62
327.457	1438.62
327.686	1162.62
327.914	347.62
328.143	216.62
328.372	156.62
328.6	110.62
328.829	109.62
329.058	113.62
329.287	121.62
329.515	98.62
329.744	88.62
329.972	92.62
330.201	102.62
330.43	88.62
330.658	117.62
330.887	126.62
331.115	114.62
331.344	104.62
331.572	103.62
331.801	91.62
332.03	99.62
332.258	100.62
332.486	95.62
332.715	76.62
332.943	91.62
333.172	79.62
333.4	88.62
333.629	96.62
333.857	99.62
334.085	95.62
334.314	95.62
334.542	103.62
334.771	93.62
334.999	99.62
335.227	82.62
335.455	82.62
335.684	82.62
335.912	86.62
336.14	93.62
336.369	109.62
336.597	101.62
336.825	92.62
337.053	101.62
337.281	92.62
337.51	83.62
337.738	95.62
337.966	121.62
338.194	110.62
338.422	141.62
338.65	109.62
338.878	86.62
339.106	102.62
339.334	101.62
339.562	78.62
339.79	111.62
340.018	86.62
340.246	84.62
340.474	77.62
340.702	91.62
340.93	83.62
341.158	105.62
341.386	99.62
341.614	115.62
341.842	100.62
342.07	90.62
342.298	85.62
342.526	85.62
342.754	88.62
342.981	81.62
343.209	84.62
343.437	109.62
343.665	86.62
343.893	80.62
344.12	87.62
344.348	107.62
344.576	95.62
344.804	89.62
345.031	81.62
345.259	90.62
345.487	97.62
345.714	98.62
345.942	87.62
346.17	79.62
346.397	91.62
346.625	85.62
346.853	89.62
347.08	93.62
347.308	97.62
347.535	87.62
347.763	99.62
347.99	96.62
348.218	93.62
348.445	84.62
348.673	103.62
348.9	91.62
349.128	93.62
349.355	108.62
349.583	93.62
349.81	104.62
350.037	110.62
350.265	89.62
350.492	89.62
350.72	90.62
350.947	104.62
351.174	99.62
351.402	98.62
351.629	94.62
351.856	103.62
352.083	117.62
352.311	120.62
352.538	113.62
352.765	106.62
352.992	109.62
353.22	117.62
353.447	107.62
353.674	92.62
353.901	106.62
354.128	93.62
354.355	95.62
354.583	96.62
354.81	98.62
355.037	97.62
355.264	99.62
355.491	83.62
355.718	102.62
355.945	87.62
356.172	100.62
356.399	108.62
356.626	93.62
356.853	94.62
357.08	84.62
357.307	105.62
357.534	95.62
357.761	96.62
357.988	91.62
358.215	96.62
358.441	79.62
358.668	88.62
358.895	99.62
359.122	97.62
359.349	86.62
359.576	85.62
359.802	117.62
360.029	103.62
360.256	93.62
360.483	86.62
360.709	86.62
360.936	86.62
361.163	87.62
361.39	97.62
361.616	99.62
361.843	90.62
362.07	93.62
362.296	82.62
362.523	92.62
362.749	99.62
362.976	75.62
363.203	96.62
363.429	78.62
363.656	94.62
363.882	92.62
364.109	82.62
364.335	77.62
364.562	98.62
364.788	88.62
365.015	91.62
365.241	92.62
365.468	99.62
365.694	95.62
365.92	86.62
366.147	87.62
366.373	91.62
366.599	75.62
366.826	93.62
367.052	74.62
367.278	82.62
367.505	90.62
367.731	101.62
367.957	103.62
368.184	96.62
368.41	82.62
368.636	96.62
368.862	94.62
369.089	104.62
369.315	89.62
369.541	80.62
369.767	91.62
369.993	105.62
370.219	90.62
370.445	98.62
370.672	100.62
370.898	88.62
371.124	87.62
371.35	93.62
371.576	92.62
371.802	98.62
372.028	87.62
372.254	93.62
372.48	81.62
372.706	71.62
372.932	81.62
373.158	88.62
373.384	92.62
373.61	86.62
373.835	85.62
374.061	81.62
374.287	95.62
374.513	91.62
374.739	90.62
374.965	90.62
375.191	95.62
375.416	103.62
375.642	86.62
375.868	96.62
376.094	82.62
376.319	95.62
376.545	88.62
376.771	100.62
376.997	87.62
377.222	74.62
377.448	80.62
377.674	101.62
377.899	95.62
378.125	99.62
378.35	95.62
378.576	93.62
378.802	86.62
379.027	92.62
379.253	89.62
379.478	89.62
379.704	97.62
379.929	96.62
380.155	91.62
380.38	106.62
380.606	94.62
380.831	95.62
381.057	109.62
381.282	88.62
381.507	83.62
381.733	92.62
381.958	89.62
382.184	100.62
382.409	103.62
382.634	109.62
382.86	94.62
383.085	89.62
383.31	99.62
383.535	89.62
383.761	107.62
383.986	97.62
384.211	98.62
384.436	110.62
384.662	105.62
384.887	103.62
385.112	107.62
385.337	111.62
385.562	106.62
385.787	115.62
386.013	115.62
386.238	99.62
386.463	99.62
386.688	102.62
386.913	99.62
387.138	127.62
387.363	94.62
387.588	99.62
387.813	94.62
388.038	96.62
388.263	110.62
388.488	131.62
388.713	100.62
388.938	94.62
389.163	90.62
389.387	91.62
389.612	86.62
389.837	96.62
390.062	94.62
390.287	99.62
390.512	90.62
390.736	73.62
390.961	73.62
391.186	105.62
391.411	107.62
391.636	82.62
391.86	89.62
392.085	73.62
392.31	94.62
392.534	89.62
392.759	84.62
392.984	85.62
393.208	91.62
393.433	106.62
393.658	91.62
393.882	89.62
394.107	90.62
394.331	93.62
394.556	91.62
394.78	93.62
395.005	82.62
395.229	71.62
395.454	96.62
395.678	89.62
395.903	95.62
396.127	93.62
396.352	81.62
396.576	93.62
396.801	99.62
397.025	99.62
397.249	84.62
397.474	93.62
397.698	85.62
397.922	89.62
398.147	85.62
398.371	96.62
398.595	90.62
398.82	84.62
399.044	79.62
399.268	94.62
399.492	104.62
399.717	98.62
399.941	91.62
400.165	101.62
400.389	85.62
400.613	81.62
400.837	87.62
401.062	89.62
401.286	99.62
401.51	98.62
401.734	88.62
401.958	100.62
402.182	107.62
402.406	127.62
402.63	113.62
402.854	98.62
403.078	93.62
403.302	86.62
403.526	83.62
403.75	88.62
403.974	88.62
404.198	86.62
404.422	83.62
404.645	97.62
404.869	93.62
405.093	89.62
405.317	88.62
405.541	93.62
405.765	80.62
405.988	102.62
406.212	145.62
406.436	150.62
406.66	133.62
406.883	92.62
407.107	101.62
407.331	97.62
407.555	105.62
407.778	96.62
408.002	79.62
408.226	94.62
408.449	79.62
408.673	95.62
408.896	96.62
409.12	95.62
409.344	79.62
409.567	85.62
409.791	90.62
410.014	87.62
410.238	86.62
410.461	98.62
410.685	95.62
410.908	93.62
411.132	95.62
411.355	107.62
411.578	98.62
411.802	79.62
412.025	87.62
412.249	77.62
412.472	89.62
412.695	83.62
412.919	87.62
413.142	100.62
413.365	94.62
413.589	94.62
413.812	99.62
414.035	93.62
414.258	86.62
414.482	87.62
414.705	93.62
414.928	86.62
415.151	103.62
415.374	98.62
415.597	93.62
415.821	74.62
416.044	94.62
416.267	96.62
416.49	82.62
416.713	65.62
416.936	79.62
417.159	97.62
417.382	91.62
417.605	95.62
417.828	90.62
418.051	94.62
418.274	89.62
418.497	98.62
418.72	91.62
418.943	102.62
419.166	91.62
419.389	77.62
419.611	87.62
419.834	93.62
420.057	93.62
420.28	79.62
420.503	83.62
420.726	89.62
420.948	60.62
421.171	83.62
421.394	97.62
421.617	95.62
421.839	93.62
422.062	76.62
422.285	90.62
422.507	110.62
422.73	128.62
422.953	94.62
423.175	97.62
423.398	75.62
423.621	81.62
423.843	88.62
424.066	86.62
424.288	84.62
424.511	89.62
424.733	109.62
424.956	112.62
425.178	90.62
425.401	104.62
425.623	99.62
425.846	99.62
426.068	90.62
426.291	92.62
426.513	81.62
426.735	96.62
426.958	99.62
427.18	107.62
427.402	129.62
427.625	134.62
427.847	117.62
428.069	73.62
428.292	71.62
428.514	90.62
428.736	99.62
428.958	86.62
429.181	87.62
429.403	74.62
429.625	67.62
429.847	81.62
430.069	96.62
430.292	85.62
430.514	99.62
430.736	86.62
430.958	87.62
431.18	73.62
431.402	95.62
431.624	90.62
431.846	70.62
432.068	80.62
432.29	88.62
432.512	81.62
432.734	77.62
432.956	93.62
433.178	84.62
433.4	87.62
433.622	90.62
433.844	86.62
434.066	76.62
434.287	100.62
434.509	77.62
434.731	100.62
434.953	96.62
435.175	94.62
435.397	93.62
435.618	85.62
435.84	109.62
436.062	137.62
436.284	131.62
436.505	110.62
436.727	90.62
436.949	101.62
437.17	69.62
437.392	79.62
437.614	91.62
437.835	114.62
438.057	116.62
438.278	106.62
438.5	87.62
438.721	119.62
438.943	103.62
439.165	92.62
439.386	94.62
439.608	94.62
439.829	96.62
440.05	107.62
440.272	137.62
440.493	90.62
440.715	83.62
440.936	88.62
441.158	77.62
441.379	79.62
441.6	90.62
441.822	86.62
442.043	99.62
442.264	99.62
442.486	88.62
442.707	96.62
442.928	106.62
443.149	115.62
443.371	122.62
443.592	108.62
443.813	112.62
444.034	111.62
444.255	95.62
444.476	89.62
444.698	98.62
444.919	87.62
445.14	130.62
445.361	128.62
445.582	102.62
445.803	118.62
446.024	132.62
446.245	125.62
446.466	119.62
446.687	93.62
446.908	99.62
447.129	87.62
447.35	77.62
447.571	84.62
447.792	82.62
448.013	92.62
448.234	96.62
448.455	104.62
448.675	97.62
448.896	135.62
449.117	103.62
449.338	98.62
449.559	134.62
449.779	116.62
450	112.62
450.221	97.62
450.442	87.62
450.662	86.62
450.883	89.62
451.104	83.62
451.324	103.62
451.545	81.62
451.766	88.62
451.986	91.62
452.207	88.62
452.428	87.62
452.648	96.62
452.869	90.62
453.089	110.62
453.31	106.62
453.53	89.62
453.751	96.62
453.971	96.62
454.192	107.62
454.412	93.62
454.633	82.62
454.853	97.62
455.073	95.62
455.294	97.62
455.514	96.62
455.734	94.62
455.955	90.62
456.175	75.62
456.395	80.62
456.616	90.62
456.836	91.62
457.056	80.62
457.276	92.62
457.497	90.62
457.717	92.62
457.937	90.62
458.157	91.62
458.377	96.62
458.598	95.62
458.818	120.62
459.038	141.62
459.258	89.62
459.478	85.62
459.698	68.62
459.918	87.62
460.138	88.62
460.358	84.62
460.578	79.62
460.798	94.62
461.018	88.62
461.238	97.62
461.458	99.62
461.678	85.62
461.898	88.62
462.118	73.62
462.338	86.62
462.558	88.62
462.777	76.62
462.997	87.62
463.217	94.62
463.437	89.62
463.657	86.62
463.876	90.62
464.096	88.62
464.316	77.62
464.536	90.62
464.755	94.62
464.975	95.62
465.195	128.62
465.414	110.62
465.634	99.62
465.854	91.62
466.073	76.62
466.293	98.62
466.512	89.62
466.732	86.62
466.951	88.62
467.171	90.62
467.391	90.62
467.61	94.62
467.829	100.62
468.049	92.62
468.268	87.62
468.488	93.62
468.707	82.62
468.927	80.62
469.146	97.62
469.365	85.62
469.585	94.62
469.804	96.62
470.023	97.62
470.243	100.62
470.462	90.62
470.681	103.62
470.901	86.62
471.12	81.62
471.339	89.62
471.558	94.62
471.777	96.62
471.997	82.62
472.216	82.62
472.435	87.62
472.654	86.62
472.873	84.62
473.092	85.62
473.311	75.62
473.53	88.62
473.749	88.62
473.968	96.62
474.187	113.62
474.406	86.62
474.625	89.62
474.844	107.62
475.063	81.62
475.282	107.62
475.501	82.62
475.72	75.62
475.939	73.62
476.158	87.62
476.377	82.62
476.596	87.62
476.814	94.62
477.033	95.62
477.252	81.62
477.471	101.62
477.69	92.62
477.908	95.62
478.127	103.62
478.346	83.62
478.564	97.62
478.783	89.62
479.002	96.62
479.22	99.62
479.439	103.62
479.658	93.62
479.876	89.62
480.095	98.62
480.313	94.62
480.532	97.62
480.751	89.62
480.969	76.62
481.188	88.62
481.406	85.62
481.624	87.62
481.843	90.62
482.061	101.62
482.28	89.62
482.498	91.62
482.717	101.62
482.935	72.62
483.153	80.62
483.372	90.62
483.59	90.62
483.808	83.62
484.027	75.62
484.245	88.62
484.463	104.62
484.681	112.62
484.9	98.62
485.118	86.62
485.336	93.62
485.554	86.62
485.772	103.62
485.99	104.62
486.209	114.62
486.427	86.62
486.645	110.62
486.863	112.62
487.081	80.62
487.299	81.62
487.517	95.62
487.735	94.62
487.953	92.62
488.171	97.62
488.389	103.62
488.607	99.62
488.825	93.62
489.043	79.62
489.261	79.62
489.479	93.62
489.696	91.62
489.914	82.62
490.132	103.62
490.35	90.62
490.568	83.62
490.786	89.62
491.003	94.62
491.221	87.62
491.439	93.62
491.657	110.62
491.874	102.62
492.092	86.62
492.31	85.62
492.527	98.62
492.745	85.62
492.963	88.62
493.18	93.62
493.398	90.62
493.615	97.62
493.833	99.62
494.05	102.62
494.268	83.62
494.485	86.62
494.703	87.62
494.92	83.62
495.138	91.62
495.355	106.62
495.573	93.62
495.79	89.62
496.008	90.62
496.225	98.62
496.442	85.62
496.66	91.62
496.877	90.62
497.094	89.62
497.312	94.62
497.529	84.62
497.746	86.62
497.963	83.62
498.181	74.62
498.398	88.62
498.615	93.62
498.832	101.62
499.049	92.62
499.267	77.62
499.484	103.62
499.701	102.62
499.918	98.62
500.135	93.62
500.352	85.62
500.569	80.62
500.786	97.62
501.003	83.62
501.22	104.62
501.437	93.62
501.654	89.62
501.871	91.62
502.088	86.62
502.305	103.62
502.522	100.62
502.739	87.62
502.956	93.62
503.172	91.62
503.389	91.62
503.606	95.62
503.823	98.62
504.04	81.62
504.256	92.62
504.473	106.62
504.69	84.62
504.907	78.62
505.123	91.62
505.34	70.62
505.557	93.62
505.773	90.62
505.99	89.62
506.207	88.62
506.423	81.62
506.64	97.62
506.856	93.62
507.073	94.62
507.289	93.62
507.506	85.62
507.722	99.62
507.939	101.62
508.155	99.62
508.372	106.62
508.588	85.62
508.805	93.62
509.021	105.62
509.238	96.62
509.454	88.62
509.67	90.62
509.887	96.62
510.103	115.62
510.319	152.62
510.536	528.62
510.752	1577.62
510.968	467.62
511.184	124.62
511.401	107.62
511.617	89.62
511.833	86.62
512.049	90.62
512.265	88.62
512.481	103.62
512.698	84.62
512.914	88.62
513.13	87.62
513.346	94.62
513.562	99.62
513.778	90.62
513.994	86.62
514.21	95.62
514.426	100.62
514.642	104.62
514.858	125.62
515.074	130.62
515.29	310.62
515.506	941.62
515.721	361.62
515.937	133.62
516.153	105.62
516.369	92.62
516.585	97.62
