Data from Uncirc_1996_H10_HRD10591_00072.txt Node
Date: Wed Jan 03 11:32:16 EST 2024
User: Yrep
Spectrometer: HR+D1059
Trigger mode: 1
Integration Time (sec): 1.000000E-1
Scans to average: 1
Electric dark correction enabled: true
Nonlinearity correction enabled: false
Boxcar width: 0
XAxis mode: Wavelengths
Number of Pixels in Spectrum: 2048
>>>>>Begin Spectral Data<<<<<
223.165	-20.5
223.4	-20.5
223.635	-20.5
223.869	-30.5
224.104	-27.5
224.338	-19.5
224.573	-11.5
224.808	-12.5
225.042	-3.5
225.277	-15.5
225.511	-5.5
225.746	12.5
225.98	-11.5
226.215	15.5
226.449	25.5
226.683	13.5
226.918	40.5
227.152	50.5
227.387	32.5
227.621	33.5
227.856	37.5
228.09	48.5
228.324	63.5
228.559	62.5
228.793	50.5
229.027	60.5
229.262	72.5
229.496	75.5
229.73	84.5
229.964	79.5
230.199	76.5
230.433	73.5
230.667	80.5
230.901	61.5
231.136	72.5
231.37	85.5
231.604	80.5
231.838	88.5
232.072	77.5
232.306	94.5
232.541	85.5
232.775	79.5
233.009	75.5
233.243	83.5
233.477	81.5
233.711	82.5
233.945	83.5
234.179	91.5
234.413	82.5
234.647	82.5
234.881	96.5
235.115	86.5
235.349	87.5
235.583	66.5
235.817	81.5
236.051	88.5
236.285	82.5
236.519	85.5
236.753	90.5
236.987	82.5
237.221	69.5
237.455	74.5
237.689	67.5
237.922	77.5
238.156	82.5
238.39	74.5
238.624	77.5
238.858	78.5
239.091	62.5
239.325	86.5
239.559	90.5
239.793	82.5
240.027	88.5
240.26	75.5
240.494	75.5
240.728	96.5
240.961	63.5
241.195	72.5
241.429	85.5
241.662	66.5
241.896	57.5
242.13	74.5
242.363	76.5
242.597	62.5
242.83	77.5
243.064	73.5
243.298	70.5
243.531	81.5
243.765	66.5
243.998	78.5
244.232	76.5
244.465	70.5
244.699	78.5
244.932	76.5
245.166	77.5
245.399	90.5
245.633	74.5
245.866	68.5
246.099	61.5
246.333	76.5
246.566	86.5
246.8	76.5
247.033	75.5
247.266	72.5
247.5	68.5
247.733	81.5
247.966	76.5
248.2	81.5
248.433	74.5
248.666	77.5
248.899	75.5
249.133	85.5
249.366	87.5
249.599	88.5
249.832	85.5
250.066	67.5
250.299	88.5
250.532	66.5
250.765	74.5
250.998	70.5
251.231	81.5
251.465	74.5
251.698	77.5
251.931	96.5
252.164	86.5
252.397	55.5
252.63	92.5
252.863	86.5
253.096	75.5
253.329	91.5
253.562	71.5
253.795	64.5
254.028	77.5
254.261	81.5
254.494	78.5
254.727	88.5
254.96	63.5
255.193	78.5
255.426	80.5
255.659	74.5
255.892	89.5
256.124	88.5
256.357	84.5
256.59	88.5
256.823	81.5
257.056	68.5
257.289	77.5
257.521	78.5
257.754	79.5
257.987	80.5
258.22	83.5
258.452	93.5
258.685	72.5
258.918	97.5
259.151	82.5
259.383	87.5
259.616	81.5
259.849	83.5
260.081	80.5
260.314	84.5
260.547	86.5
260.779	78.5
261.012	83.5
261.244	85.5
261.477	92.5
261.71	78.5
261.942	102.5
262.175	101.5
262.407	93.5
262.64	68.5
262.872	87.5
263.105	71.5
263.337	84.5
263.57	76.5
263.802	73.5
264.035	73.5
264.267	87.5
264.499	94.5
264.732	85.5
264.964	86.5
265.197	83.5
265.429	80.5
265.661	86.5
265.894	81.5
266.126	74.5
266.358	80.5
266.591	83.5
266.823	80.5
267.055	77.5
267.287	78.5
267.52	96.5
267.752	87.5
267.984	88.5
268.216	81.5
268.448	77.5
268.681	67.5
268.913	82.5
269.145	79.5
269.377	74.5
269.609	81.5
269.841	96.5
270.073	89.5
270.306	82.5
270.538	79.5
270.77	78.5
271.002	80.5
271.234	84.5
271.466	79.5
271.698	81.5
271.93	86.5
272.162	102.5
272.394	84.5
272.626	96.5
272.858	72.5
273.09	93.5
273.322	94.5
273.553	86.5
273.785	73.5
274.017	85.5
274.249	90.5
274.481	82.5
274.713	82.5
274.945	79.5
275.176	80.5
275.408	90.5
275.64	81.5
275.872	73.5
276.104	92.5
276.335	105.5
276.567	93.5
276.799	99.5
277.031	106.5
277.262	84.5
277.494	87.5
277.726	82.5
277.957	74.5
278.189	83.5
278.421	88.5
278.652	67.5
278.884	96.5
279.115	86.5
279.347	82.5
279.579	98.5
279.81	77.5
280.042	85.5
280.273	79.5
280.505	91.5
280.736	96.5
280.968	102.5
281.199	88.5
281.431	77.5
281.662	93.5
281.894	102.5
282.125	88.5
282.356	113.5
282.588	110.5
282.819	102.5
283.051	92.5
283.282	96.5
283.513	86.5
283.745	82.5
283.976	79.5
284.207	87.5
284.439	99.5
284.67	87.5
284.901	78.5
285.132	77.5
285.364	93.5
285.595	90.5
285.826	90.5
286.057	83.5
286.288	90.5
286.52	92.5
286.751	85.5
286.982	81.5
287.213	85.5
287.444	88.5
287.675	83.5
287.906	92.5
288.138	84.5
288.369	92.5
288.6	76.5
288.831	94.5
289.062	88.5
289.293	93.5
289.524	82.5
289.755	85.5
289.986	88.5
290.217	80.5
290.448	82.5
290.679	88.5
290.91	84.5
291.141	72.5
291.371	91.5
291.602	80.5
291.833	78.5
292.064	72.5
292.295	83.5
292.526	92.5
292.757	84.5
292.987	77.5
293.218	90.5
293.449	86.5
293.68	91.5
293.91	89.5
294.141	91.5
294.372	96.5
294.603	90.5
294.833	94.5
295.064	92.5
295.295	105.5
295.525	89.5
295.756	98.5
295.987	102.5
296.217	113.5
296.448	117.5
296.679	77.5
296.909	92.5
297.14	92.5
297.37	93.5
297.601	88.5
297.831	78.5
298.062	88.5
298.292	78.5
298.523	100.5
298.753	101.5
298.984	102.5
299.214	99.5
299.445	91.5
299.675	107.5
299.905	89.5
300.136	91.5
300.366	80.5
300.597	92.5
300.827	83.5
301.057	96.5
301.288	92.5
301.518	79.5
301.748	90.5
301.979	95.5
302.209	98.5
302.439	86.5
302.669	97.5
302.9	86.5
303.13	95.5
303.36	91.5
303.59	94.5
303.82	86.5
304.051	80.5
304.281	92.5
304.511	86.5
304.741	100.5
304.971	96.5
305.201	75.5
305.431	90.5
305.661	83.5
305.891	88.5
306.121	82.5
306.352	99.5
306.582	100.5
306.812	92.5
307.042	96.5
307.272	96.5
307.502	94.5
307.731	89.5
307.961	106.5
308.191	94.5
308.421	98.5
308.651	88.5
308.881	86.5
309.111	88.5
309.341	101.5
309.571	102.5
309.8	96.5
310.03	93.5
310.26	94.5
310.49	100.5
310.72	94.5
310.949	87.5
311.179	92.5
311.409	109.5
311.639	90.5
311.868	105.5
312.098	97.5
312.328	106.5
312.557	103.5
312.787	97.5
313.017	113.5
313.246	102.5
313.476	86.5
313.706	95.5
313.935	92.5
314.165	100.5
314.394	84.5
314.624	99.5
314.853	110.5
315.083	83.5
315.312	93.5
315.542	99.5
315.771	91.5
316.001	92.5
316.23	86.5
316.46	99.5
316.689	113.5
316.919	110.5
317.148	86.5
317.377	94.5
317.607	101.5
317.836	81.5
318.065	83.5
318.295	92.5
318.524	97.5
318.753	84.5
318.983	88.5
319.212	93.5
319.441	93.5
319.67	96.5
319.9	95.5
320.129	95.5
320.358	96.5
320.587	84.5
320.816	95.5
321.046	94.5
321.275	97.5
321.504	99.5
321.733	105.5
321.962	82.5
322.191	100.5
322.42	99.5
322.649	108.5
322.878	118.5
323.108	127.5
323.337	120.5
323.566	113.5
323.795	140.5
324.024	192.5
324.253	371.5
324.482	748.5
324.71	1528.5
324.939	2018.5
325.168	752.5
325.397	216.5
325.626	147.5
325.855	141.5
326.084	124.5
326.313	122.5
326.542	158.5
326.77	228.5
326.999	435.5
327.228	870.5
327.457	1622.5
327.686	1245.5
327.914	342.5
328.143	195.5
328.372	141.5
328.6	129.5
328.829	107.5
329.058	121.5
329.287	126.5
329.515	107.5
329.744	95.5
329.972	96.5
330.201	105.5
330.43	106.5
330.658	131.5
330.887	122.5
331.115	118.5
331.344	98.5
331.572	100.5
331.801	101.5
332.03	104.5
332.258	79.5
332.486	88.5
332.715	83.5
332.943	91.5
333.172	102.5
333.4	95.5
333.629	107.5
333.857	108.5
334.085	87.5
334.314	106.5
334.542	98.5
334.771	88.5
334.999	100.5
335.227	93.5
335.455	99.5
335.684	89.5
335.912	89.5
336.14	88.5
336.369	84.5
336.597	98.5
336.825	115.5
337.053	110.5
337.281	95.5
337.51	82.5
337.738	87.5
337.966	100.5
338.194	98.5
338.422	98.5
338.65	98.5
338.878	90.5
339.106	88.5
339.334	89.5
339.562	87.5
339.79	83.5
340.018	90.5
340.246	89.5
340.474	90.5
340.702	100.5
340.93	98.5
341.158	80.5
341.386	86.5
341.614	93.5
341.842	99.5
342.07	83.5
342.298	86.5
342.526	96.5
342.754	85.5
342.981	77.5
343.209	83.5
343.437	111.5
343.665	87.5
343.893	95.5
344.12	90.5
344.348	76.5
344.576	103.5
344.804	104.5
345.031	99.5
345.259	101.5
345.487	94.5
345.714	101.5
345.942	100.5
346.17	90.5
346.397	94.5
346.625	89.5
346.853	94.5
347.08	92.5
347.308	96.5
347.535	105.5
347.763	94.5
347.99	92.5
348.218	106.5
348.445	88.5
348.673	93.5
348.9	100.5
349.128	94.5
349.355	101.5
349.583	89.5
349.81	83.5
350.037	99.5
350.265	101.5
350.492	100.5
350.72	100.5
350.947	97.5
351.174	106.5
351.402	105.5
351.629	101.5
351.856	98.5
352.083	108.5
352.311	106.5
352.538	109.5
352.765	123.5
352.992	110.5
353.22	109.5
353.447	105.5
353.674	97.5
353.901	87.5
354.128	100.5
354.355	94.5
354.583	91.5
354.81	108.5
355.037	109.5
355.264	82.5
355.491	106.5
355.718	100.5
355.945	94.5
356.172	97.5
356.399	85.5
356.626	87.5
356.853	88.5
357.08	88.5
357.307	103.5
357.534	111.5
357.761	98.5
357.988	99.5
358.215	92.5
358.441	95.5
358.668	96.5
358.895	104.5
359.122	93.5
359.349	90.5
359.576	84.5
359.802	102.5
360.029	99.5
360.256	107.5
360.483	100.5
360.709	95.5
360.936	92.5
361.163	97.5
361.39	93.5
361.616	80.5
361.843	88.5
362.07	88.5
362.296	89.5
362.523	86.5
362.749	90.5
362.976	87.5
363.203	94.5
363.429	89.5
363.656	74.5
363.882	85.5
364.109	83.5
364.335	99.5
364.562	100.5
364.788	89.5
365.015	106.5
365.241	97.5
365.468	96.5
365.694	92.5
365.92	104.5
366.147	96.5
366.373	70.5
366.599	87.5
366.826	100.5
367.052	90.5
367.278	94.5
367.505	84.5
367.731	97.5
367.957	103.5
368.184	89.5
368.41	80.5
368.636	99.5
368.862	103.5
369.089	107.5
369.315	97.5
369.541	99.5
369.767	85.5
369.993	113.5
370.219	91.5
370.445	97.5
370.672	76.5
370.898	100.5
371.124	97.5
371.35	79.5
371.576	95.5
371.802	89.5
372.028	92.5
372.254	96.5
372.48	88.5
372.706	94.5
372.932	75.5
373.158	93.5
373.384	85.5
373.61	100.5
373.835	91.5
374.061	88.5
374.287	93.5
374.513	87.5
374.739	98.5
374.965	88.5
375.191	92.5
375.416	91.5
375.642	94.5
375.868	96.5
376.094	75.5
376.319	80.5
376.545	82.5
376.771	88.5
376.997	80.5
377.222	85.5
377.448	92.5
377.674	75.5
377.899	98.5
378.125	95.5
378.35	88.5
378.576	103.5
378.802	91.5
379.027	98.5
379.253	88.5
379.478	89.5
379.704	85.5
379.929	89.5
380.155	91.5
380.38	90.5
380.606	89.5
380.831	79.5
381.057	93.5
381.282	100.5
381.507	91.5
381.733	89.5
381.958	96.5
382.184	93.5
382.409	111.5
382.634	119.5
382.86	87.5
383.085	100.5
383.31	107.5
383.535	98.5
383.761	104.5
383.986	99.5
384.211	94.5
384.436	104.5
384.662	101.5
384.887	110.5
385.112	89.5
385.337	97.5
385.562	97.5
385.787	95.5
386.013	108.5
386.238	113.5
386.463	102.5
386.688	98.5
386.913	96.5
387.138	100.5
387.363	100.5
387.588	99.5
387.813	102.5
388.038	111.5
388.263	99.5
388.488	89.5
388.713	100.5
388.938	87.5
389.163	100.5
389.387	96.5
389.612	97.5
389.837	94.5
390.062	95.5
390.287	92.5
390.512	85.5
390.736	80.5
390.961	94.5
391.186	99.5
391.411	100.5
391.636	93.5
391.86	91.5
392.085	85.5
392.31	100.5
392.534	95.5
392.759	95.5
392.984	85.5
393.208	89.5
393.433	82.5
393.658	91.5
393.882	82.5
394.107	84.5
394.331	96.5
394.556	93.5
394.78	81.5
395.005	87.5
395.229	78.5
395.454	85.5
395.678	83.5
395.903	88.5
396.127	106.5
396.352	104.5
396.576	97.5
396.801	86.5
397.025	96.5
397.249	88.5
397.474	93.5
397.698	89.5
397.922	92.5
398.147	83.5
398.371	80.5
398.595	75.5
398.82	89.5
399.044	96.5
399.268	83.5
399.492	77.5
399.717	93.5
399.941	88.5
400.165	92.5
400.389	97.5
400.613	90.5
400.837	84.5
401.062	90.5
401.286	91.5
401.51	86.5
401.734	91.5
401.958	94.5
402.182	102.5
402.406	146.5
402.63	105.5
402.854	88.5
403.078	90.5
403.302	82.5
403.526	96.5
403.75	87.5
403.974	75.5
404.198	86.5
404.422	90.5
404.645	101.5
404.869	85.5
405.093	97.5
405.317	84.5
405.541	97.5
405.765	90.5
405.988	102.5
406.212	156.5
406.436	242.5
406.66	129.5
406.883	87.5
407.107	90.5
407.331	93.5
407.555	108.5
407.778	93.5
408.002	88.5
408.226	92.5
408.449	95.5
408.673	93.5
408.896	78.5
409.12	82.5
409.344	98.5
409.567	103.5
409.791	104.5
410.014	92.5
410.238	89.5
410.461	94.5
410.685	76.5
410.908	81.5
411.132	98.5
411.355	104.5
411.578	89.5
411.802	77.5
412.025	86.5
412.249	100.5
412.472	93.5
412.695	98.5
412.919	75.5
413.142	98.5
413.365	94.5
413.589	79.5
413.812	90.5
414.035	91.5
414.258	93.5
414.482	92.5
414.705	88.5
414.928	100.5
415.151	96.5
415.374	93.5
415.597	79.5
415.821	75.5
416.044	102.5
416.267	90.5
416.49	87.5
416.713	75.5
416.936	91.5
417.159	92.5
417.382	99.5
417.605	74.5
417.828	80.5
418.051	94.5
418.274	87.5
418.497	88.5
418.72	95.5
418.943	75.5
419.166	78.5
419.389	91.5
419.611	83.5
419.834	88.5
420.057	100.5
420.28	84.5
420.503	89.5
420.726	93.5
420.948	90.5
421.171	111.5
421.394	107.5
421.617	98.5
421.839	80.5
422.062	97.5
422.285	91.5
422.507	113.5
422.73	99.5
422.953	87.5
423.175	87.5
423.398	94.5
423.621	92.5
423.843	91.5
424.066	96.5
424.288	78.5
424.511	95.5
424.733	95.5
424.956	104.5
425.178	95.5
425.401	102.5
425.623	110.5
425.846	87.5
426.068	88.5
426.291	93.5
426.513	70.5
426.735	111.5
426.958	88.5
427.18	101.5
427.402	131.5
427.625	156.5
427.847	118.5
428.069	96.5
428.292	91.5
428.514	88.5
428.736	80.5
428.958	89.5
429.181	93.5
429.403	89.5
429.625	90.5
429.847	88.5
430.069	95.5
430.292	95.5
430.514	89.5
430.736	81.5
430.958	70.5
431.18	81.5
431.402	80.5
431.624	89.5
431.846	89.5
432.068	86.5
432.29	86.5
432.512	97.5
432.734	88.5
432.956	91.5
433.178	95.5
433.4	95.5
433.622	102.5
433.844	91.5
434.066	91.5
434.287	101.5
434.509	98.5
434.731	91.5
434.953	92.5
435.175	88.5
435.397	80.5
435.618	99.5
435.84	101.5
436.062	123.5
436.284	121.5
436.505	105.5
436.727	111.5
436.949	106.5
437.17	79.5
437.392	83.5
437.614	97.5
437.835	109.5
438.057	110.5
438.278	121.5
438.5	102.5
438.721	110.5
438.943	98.5
439.165	76.5
439.386	77.5
439.608	86.5
439.829	97.5
440.05	107.5
440.272	126.5
440.493	108.5
440.715	85.5
440.936	81.5
441.158	88.5
441.379	87.5
441.6	105.5
441.822	84.5
442.043	99.5
442.264	100.5
442.486	82.5
442.707	110.5
442.928	109.5
443.149	118.5
443.371	110.5
443.592	98.5
443.813	113.5
444.034	97.5
444.255	108.5
444.476	86.5
444.698	90.5
444.919	90.5
445.14	146.5
445.361	129.5
445.582	124.5
445.803	127.5
446.024	127.5
446.245	139.5
446.466	111.5
446.687	82.5
446.908	87.5
447.129	92.5
447.35	88.5
447.571	90.5
447.792	102.5
448.013	95.5
448.234	106.5
448.455	110.5
448.675	113.5
448.896	110.5
449.117	96.5
449.338	101.5
449.559	114.5
449.779	132.5
450	94.5
450.221	80.5
450.442	79.5
450.662	104.5
450.883	95.5
451.104	110.5
451.324	103.5
451.545	105.5
451.766	95.5
451.986	72.5
452.207	96.5
452.428	106.5
452.648	105.5
452.869	110.5
453.089	95.5
453.31	91.5
453.53	108.5
453.751	77.5
453.971	90.5
454.192	107.5
454.412	101.5
454.633	83.5
454.853	79.5
455.073	71.5
455.294	83.5
455.514	93.5
455.734	88.5
455.955	97.5
456.175	98.5
456.395	95.5
456.616	80.5
456.836	89.5
457.056	86.5
457.276	79.5
457.497	72.5
457.717	93.5
457.937	74.5
458.157	76.5
458.377	86.5
458.598	103.5
458.818	142.5
459.038	152.5
459.258	126.5
459.478	84.5
459.698	86.5
459.918	78.5
460.138	100.5
460.358	93.5
460.578	76.5
460.798	97.5
461.018	96.5
461.238	94.5
461.458	87.5
461.678	88.5
461.898	81.5
462.118	89.5
462.338	94.5
462.558	91.5
462.777	88.5
462.997	101.5
463.217	93.5
463.437	79.5
463.657	89.5
463.876	94.5
464.096	88.5
464.316	81.5
464.536	94.5
464.755	91.5
464.975	111.5
465.195	150.5
465.414	142.5
465.634	91.5
465.854	90.5
466.073	86.5
466.293	83.5
466.512	89.5
466.732	77.5
466.951	90.5
467.171	105.5
467.391	86.5
467.61	102.5
467.829	99.5
468.049	87.5
468.268	91.5
468.488	97.5
468.707	71.5
468.927	94.5
469.146	92.5
469.365	84.5
469.585	92.5
469.804	109.5
470.023	92.5
470.243	89.5
470.462	91.5
470.681	106.5
470.901	78.5
471.12	74.5
471.339	87.5
471.558	89.5
471.777	80.5
471.997	84.5
472.216	82.5
472.435	86.5
472.654	84.5
472.873	99.5
473.092	90.5
473.311	86.5
473.53	90.5
473.749	94.5
473.968	99.5
474.187	105.5
474.406	92.5
474.625	98.5
474.844	82.5
475.063	75.5
475.282	96.5
475.501	100.5
475.72	80.5
475.939	96.5
476.158	90.5
476.377	94.5
476.596	110.5
476.814	79.5
477.033	95.5
477.252	97.5
477.471	89.5
477.69	106.5
477.908	80.5
478.127	79.5
478.346	86.5
478.564	87.5
478.783	90.5
479.002	109.5
479.22	89.5
479.439	90.5
479.658	115.5
479.876	101.5
480.095	97.5
480.313	95.5
480.532	98.5
480.751	89.5
480.969	97.5
481.188	88.5
481.406	80.5
481.624	90.5
481.843	82.5
482.061	71.5
482.28	87.5
482.498	67.5
482.717	97.5
482.935	103.5
483.153	86.5
483.372	100.5
483.59	100.5
483.808	92.5
484.027	92.5
484.245	84.5
484.463	84.5
484.681	91.5
484.9	86.5
485.118	83.5
485.336	92.5
485.554	96.5
485.772	104.5
485.99	103.5
486.209	114.5
486.427	99.5
486.645	101.5
486.863	108.5
487.081	95.5
487.299	87.5
487.517	105.5
487.735	89.5
487.953	98.5
488.171	89.5
488.389	90.5
488.607	86.5
488.825	90.5
489.043	96.5
489.261	84.5
489.479	87.5
489.696	85.5
489.914	81.5
490.132	88.5
490.35	86.5
490.568	95.5
490.786	91.5
491.003	82.5
491.221	98.5
491.439	89.5
491.657	81.5
491.874	93.5
492.092	90.5
492.31	95.5
492.527	86.5
492.745	96.5
492.963	101.5
493.18	96.5
493.398	83.5
493.615	89.5
493.833	96.5
494.05	102.5
494.268	84.5
494.485	96.5
494.703	103.5
494.92	92.5
495.138	94.5
495.355	91.5
495.573	103.5
495.79	98.5
496.008	91.5
496.225	97.5
496.442	89.5
496.66	98.5
496.877	90.5
497.094	85.5
497.312	82.5
497.529	98.5
497.746	89.5
497.963	91.5
498.181	97.5
498.398	102.5
498.615	100.5
498.832	96.5
499.049	87.5
499.267	103.5
499.484	106.5
499.701	95.5
499.918	90.5
500.135	98.5
500.352	75.5
500.569	97.5
500.786	102.5
501.003	89.5
501.22	86.5
501.437	84.5
501.654	107.5
501.871	125.5
502.088	99.5
502.305	94.5
502.522	101.5
502.739	80.5
502.956	70.5
503.172	94.5
503.389	85.5
503.606	106.5
503.823	95.5
504.04	93.5
504.256	87.5
504.473	91.5
504.69	105.5
504.907	87.5
505.123	94.5
505.34	85.5
505.557	79.5
505.773	80.5
505.99	88.5
506.207	85.5
506.423	94.5
506.64	87.5
506.856	91.5
507.073	90.5
507.289	96.5
507.506	102.5
507.722	95.5
507.939	85.5
508.155	86.5
508.372	98.5
508.588	86.5
508.805	87.5
509.021	93.5
509.238	95.5
509.454	97.5
509.67	93.5
509.887	120.5
510.103	121.5
510.319	202.5
510.536	654.5
510.752	2038.5
510.968	572.5
511.184	146.5
511.401	119.5
511.617	94.5
511.833	87.5
512.049	97.5
512.265	85.5
512.481	93.5
512.698	88.5
512.914	99.5
513.13	91.5
513.346	93.5
513.562	106.5
513.778	104.5
513.994	97.5
514.21	97.5
514.426	126.5
514.642	123.5
514.858	136.5
515.074	158.5
515.29	390.5
515.506	1247.5
515.721	460.5
515.937	132.5
516.153	103.5
516.369	100.5
516.585	87.5
516.801	97.5
517.016	104.5
517.232	98.5
517.448	104.5
517.664	94.5
517.879	80.5
518.095	110.5
518.311	92.5
518.527	95.5
518.742	96.5
518.958	86.5
519.173	102.5
519.389	101.5
519.605	104.5
519.82	81.5
520.036	106.5
520.251	115.5
520.467	106.5
520.682	96.5
520.898	98.5
521.113	112.5
521.329	127.5
521.544	174.5
521.76	500.5
521.975	2050.5
522.19	1226.5
522.406	281.5
522.621	120.5
522.836	94.5
523.052	99.5
523.267	86.5
523.482	95.5
523.698	99.5
523.913	112.5
524.128	106.5
524.343	90.5
524.559	97.5
524.774	89.5
524.989	105.5
525.204	105.5
525.419	105.5
525.634	84.5
525.849	84.5
526.064	90.5
526.28	95.5
526.495	90.5
526.71	94.5
526.925	86.5
527.14	113.5
527.355	79.5
527.57	87.5
527.785	83.5
527.999	96.5
528.214	98.5
528.429	98.5
528.644	82.5
528.859	107.5
529.074	109.5
529.289	113.5
529.503	164.5
529.718	110.5
529.933	116.5
530.148	88.5
530.363	84.5
530.577	75.5
530.792	82.5
531.007	79.5
531.221	98.5
531.436	97.5
531.651	108.5
531.865	94.5
532.08	87.5
532.295	103.5
532.509	83.5
532.724	106.5
532.938	97.5
533.153	102.5
533.367	100.5
533.582	96.5
533.796	107.5
534.011	95.5
534.225	89.5
534.44	95.5
534.654	90.5
534.868	89.5
535.083	99.5
535.297	87.5
