Data from Uncirc_1996_H10_HRD10591_00091.txt Node
Date: Wed Jan 03 11:32:20 EST 2024
User: Yrep
Spectrometer: HR+D1059
Trigger mode: 1
Integration Time (sec): 1.000000E-1
Scans to average: 1
Electric dark correction enabled: true
Nonlinearity correction enabled: false
Boxcar width: 0
XAxis mode: Wavelengths
Number of Pixels in Spectrum: 2048
>>>>>Begin Spectral Data<<<<<
223.165	-13.44
223.4	-13.44
223.635	-13.44
223.869	-16.44
224.104	-18.44
224.338	-21.44
224.573	-16.44
224.808	-20.44
225.042	7.56
225.277	-6.44
225.511	-1.44
225.746	6.56
225.98	1.56
226.215	7.56
226.449	13.56
226.683	22.56
226.918	25.56
227.152	29.56
227.387	35.56
227.621	24.56
227.856	46.56
228.09	39.56
228.324	36.56
228.559	46.56
228.793	60.56
229.027	57.56
229.262	60.56
229.496	69.56
229.73	74.56
229.964	70.56
230.199	68.56
230.433	54.56
230.667	61.56
230.901	69.56
231.136	70.56
231.37	76.56
231.604	78.56
231.838	72.56
232.072	77.56
232.306	80.56
232.541	80.56
232.775	76.56
233.009	70.56
233.243	85.56
233.477	80.56
233.711	75.56
233.945	82.56
234.179	82.56
234.413	80.56
234.647	73.56
234.881	70.56
235.115	59.56
235.349	53.56
235.583	71.56
235.817	70.56
236.051	68.56
236.285	78.56
236.519	70.56
236.753	78.56
236.987	75.56
237.221	76.56
237.455	84.56
237.689	74.56
237.922	95.56
238.156	86.56
238.39	66.56
238.624	73.56
238.858	75.56
239.091	74.56
239.325	78.56
239.559	72.56
239.793	73.56
240.027	71.56
240.26	72.56
240.494	76.56
240.728	76.56
240.961	67.56
241.195	69.56
241.429	71.56
241.662	86.56
241.896	61.56
242.13	63.56
242.363	72.56
242.597	68.56
242.83	79.56
243.064	82.56
243.298	74.56
243.531	66.56
243.765	74.56
243.998	73.56
244.232	76.56
244.465	74.56
244.699	72.56
244.932	72.56
245.166	77.56
245.399	64.56
245.633	64.56
245.866	70.56
246.099	88.56
246.333	70.56
246.566	86.56
246.8	79.56
247.033	63.56
247.266	76.56
247.5	68.56
247.733	64.56
247.966	79.56
248.2	65.56
248.433	67.56
248.666	76.56
248.899	72.56
249.133	71.56
249.366	95.56
249.599	94.56
249.832	84.56
250.066	77.56
250.299	83.56
250.532	80.56
250.765	83.56
250.998	63.56
251.231	81.56
251.465	75.56
251.698	78.56
251.931	77.56
252.164	86.56
252.397	76.56
252.63	83.56
252.863	77.56
253.096	79.56
253.329	66.56
253.562	79.56
253.795	70.56
254.028	85.56
254.261	86.56
254.494	78.56
254.727	70.56
254.96	78.56
255.193	90.56
255.426	79.56
255.659	80.56
255.892	69.56
256.124	72.56
256.357	80.56
256.59	76.56
256.823	69.56
257.056	70.56
257.289	89.56
257.521	78.56
257.754	76.56
257.987	73.56
258.22	86.56
258.452	82.56
258.685	78.56
258.918	64.56
259.151	77.56
259.383	80.56
259.616	76.56
259.849	89.56
260.081	88.56
260.314	71.56
260.547	71.56
260.779	87.56
261.012	71.56
261.244	81.56
261.477	73.56
261.71	91.56
261.942	98.56
262.175	102.56
262.407	78.56
262.64	73.56
262.872	77.56
263.105	89.56
263.337	77.56
263.57	87.56
263.802	68.56
264.035	90.56
264.267	84.56
264.499	87.56
264.732	63.56
264.964	79.56
265.197	72.56
265.429	93.56
265.661	92.56
265.894	85.56
266.126	87.56
266.358	70.56
266.591	74.56
266.823	81.56
267.055	92.56
267.287	87.56
267.52	91.56
267.752	72.56
267.984	81.56
268.216	72.56
268.448	86.56
268.681	74.56
268.913	80.56
269.145	76.56
269.377	79.56
269.609	78.56
269.841	89.56
270.073	84.56
270.306	78.56
270.538	77.56
270.77	71.56
271.002	93.56
271.234	72.56
271.466	94.56
271.698	83.56
271.93	89.56
272.162	77.56
272.394	80.56
272.626	100.56
272.858	77.56
273.09	94.56
273.322	90.56
273.553	81.56
273.785	88.56
274.017	83.56
274.249	79.56
274.481	79.56
274.713	93.56
274.945	83.56
275.176	74.56
275.408	68.56
275.64	85.56
275.872	87.56
276.104	91.56
276.335	82.56
276.567	94.56
276.799	98.56
277.031	90.56
277.262	83.56
277.494	76.56
277.726	97.56
277.957	78.56
278.189	92.56
278.421	81.56
278.652	84.56
278.884	68.56
279.115	84.56
279.347	78.56
279.579	87.56
279.81	92.56
280.042	93.56
280.273	89.56
280.505	75.56
280.736	86.56
280.968	86.56
281.199	77.56
281.431	83.56
281.662	67.56
281.894	86.56
282.125	105.56
282.356	102.56
282.588	129.56
282.819	103.56
283.051	98.56
283.282	88.56
283.513	78.56
283.745	76.56
283.976	75.56
284.207	72.56
284.439	74.56
284.67	94.56
284.901	71.56
285.132	69.56
285.364	87.56
285.595	71.56
285.826	82.56
286.057	75.56
286.288	85.56
286.52	84.56
286.751	78.56
286.982	94.56
287.213	71.56
287.444	82.56
287.675	71.56
287.906	100.56
288.138	79.56
288.369	70.56
288.6	96.56
288.831	84.56
289.062	94.56
289.293	91.56
289.524	88.56
289.755	82.56
289.986	74.56
290.217	74.56
290.448	73.56
290.679	83.56
290.91	73.56
291.141	88.56
291.371	86.56
291.602	90.56
291.833	84.56
292.064	99.56
292.295	85.56
292.526	96.56
292.757	100.56
292.987	85.56
293.218	70.56
293.449	85.56
293.68	85.56
293.91	88.56
294.141	101.56
294.372	80.56
294.603	92.56
294.833	76.56
295.064	86.56
295.295	87.56
295.525	103.56
295.756	100.56
295.987	99.56
296.217	135.56
296.448	125.56
296.679	92.56
296.909	88.56
297.14	85.56
297.37	83.56
297.601	76.56
297.831	96.56
298.062	82.56
298.292	70.56
298.523	88.56
298.753	77.56
298.984	103.56
299.214	90.56
299.445	88.56
299.675	87.56
299.905	84.56
300.136	89.56
300.366	84.56
300.597	91.56
300.827	72.56
301.057	101.56
301.288	74.56
301.518	98.56
301.748	86.56
301.979	86.56
302.209	95.56
302.439	90.56
302.669	85.56
302.9	83.56
303.13	80.56
303.36	96.56
303.59	92.56
303.82	108.56
304.051	103.56
304.281	82.56
304.511	88.56
304.741	89.56
304.971	88.56
305.201	101.56
305.431	80.56
305.661	99.56
305.891	85.56
306.121	87.56
306.352	99.56
306.582	108.56
306.812	98.56
307.042	84.56
307.272	84.56
307.502	90.56
307.731	82.56
307.961	98.56
308.191	90.56
308.421	84.56
308.651	88.56
308.881	104.56
309.111	100.56
309.341	82.56
309.571	95.56
309.8	91.56
310.03	101.56
310.26	95.56
310.49	90.56
310.72	104.56
310.949	97.56
311.179	89.56
311.409	82.56
311.639	86.56
311.868	99.56
312.098	84.56
312.328	91.56
312.557	99.56
312.787	107.56
313.017	96.56
313.246	80.56
313.476	91.56
313.706	82.56
313.935	86.56
314.165	95.56
314.394	97.56
314.624	85.56
314.853	110.56
315.083	96.56
315.312	92.56
315.542	87.56
315.771	82.56
316.001	87.56
316.23	104.56
316.46	92.56
316.689	85.56
316.919	96.56
317.148	90.56
317.377	91.56
317.607	77.56
317.836	90.56
318.065	107.56
318.295	91.56
318.524	100.56
318.753	96.56
318.983	89.56
319.212	98.56
319.441	94.56
319.67	89.56
319.9	103.56
320.129	96.56
320.358	92.56
320.587	90.56
320.816	90.56
321.046	94.56
321.275	96.56
321.504	90.56
321.733	95.56
321.962	89.56
322.191	84.56
322.42	106.56
322.649	110.56
322.878	115.56
323.108	104.56
323.337	117.56
323.566	129.56
323.795	137.56
324.024	207.56
324.253	381.56
324.482	793.56
324.71	1628.56
324.939	2128.56
325.168	767.56
325.397	230.56
325.626	141.56
325.855	127.56
326.084	113.56
326.313	132.56
326.542	147.56
326.77	242.56
326.999	452.56
327.228	925.56
327.457	1645.56
327.686	1290.56
327.914	361.56
328.143	208.56
328.372	146.56
328.6	115.56
328.829	111.56
329.058	109.56
329.287	106.56
329.515	99.56
329.744	100.56
329.972	87.56
330.201	90.56
330.43	103.56
330.658	97.56
330.887	135.56
331.115	117.56
331.344	94.56
331.572	104.56
331.801	95.56
332.03	87.56
332.258	88.56
332.486	96.56
332.715	104.56
332.943	93.56
333.172	96.56
333.4	85.56
333.629	96.56
333.857	112.56
334.085	94.56
334.314	100.56
334.542	91.56
334.771	103.56
334.999	92.56
335.227	85.56
335.455	92.56
335.684	87.56
335.912	92.56
336.14	83.56
336.369	91.56
336.597	100.56
336.825	91.56
337.053	103.56
337.281	102.56
337.51	79.56
337.738	79.56
337.966	94.56
338.194	105.56
338.422	109.56
338.65	89.56
338.878	81.56
339.106	87.56
339.334	97.56
339.562	92.56
339.79	97.56
340.018	78.56
340.246	90.56
340.474	90.56
340.702	90.56
340.93	91.56
341.158	82.56
341.386	79.56
341.614	91.56
341.842	119.56
342.07	88.56
342.298	83.56
342.526	68.56
342.754	88.56
342.981	90.56
343.209	79.56
343.437	101.56
343.665	92.56
343.893	90.56
344.12	94.56
344.348	85.56
344.576	73.56
344.804	86.56
345.031	89.56
345.259	100.56
345.487	90.56
345.714	78.56
345.942	95.56
346.17	97.56
346.397	84.56
346.625	88.56
346.853	86.56
347.08	78.56
347.308	93.56
347.535	93.56
347.763	90.56
347.99	99.56
348.218	125.56
348.445	100.56
348.673	94.56
348.9	97.56
349.128	104.56
349.355	86.56
349.583	107.56
349.81	107.56
350.037	100.56
350.265	89.56
350.492	86.56
350.72	98.56
350.947	105.56
351.174	115.56
351.402	111.56
351.629	95.56
351.856	87.56
352.083	107.56
352.311	86.56
352.538	106.56
352.765	123.56
352.992	106.56
353.22	99.56
353.447	97.56
353.674	93.56
353.901	89.56
354.128	88.56
354.355	103.56
354.583	100.56
354.81	101.56
355.037	90.56
355.264	95.56
355.491	81.56
355.718	94.56
355.945	82.56
356.172	90.56
356.399	105.56
356.626	90.56
356.853	79.56
357.08	92.56
357.307	92.56
357.534	85.56
357.761	89.56
357.988	98.56
358.215	99.56
358.441	99.56
358.668	88.56
358.895	92.56
359.122	97.56
359.349	83.56
359.576	88.56
359.802	86.56
360.029	115.56
360.256	96.56
360.483	83.56
360.709	92.56
360.936	96.56
361.163	94.56
361.39	96.56
361.616	86.56
361.843	85.56
362.07	86.56
362.296	94.56
362.523	91.56
362.749	96.56
362.976	84.56
363.203	103.56
363.429	76.56
363.656	83.56
363.882	72.56
364.109	87.56
364.335	85.56
364.562	88.56
364.788	83.56
365.015	88.56
365.241	73.56
365.468	104.56
365.694	89.56
365.92	91.56
366.147	94.56
366.373	73.56
366.599	82.56
366.826	78.56
367.052	86.56
367.278	92.56
367.505	94.56
367.731	91.56
367.957	75.56
368.184	80.56
368.41	91.56
368.636	105.56
368.862	121.56
369.089	101.56
369.315	74.56
369.541	82.56
369.767	82.56
369.993	78.56
370.219	94.56
370.445	94.56
370.672	83.56
370.898	86.56
371.124	77.56
371.35	82.56
371.576	76.56
371.802	86.56
372.028	88.56
372.254	91.56
372.48	92.56
372.706	83.56
372.932	85.56
373.158	86.56
373.384	101.56
373.61	85.56
373.835	72.56
374.061	95.56
374.287	91.56
374.513	76.56
374.739	70.56
374.965	97.56
375.191	92.56
375.416	83.56
375.642	89.56
375.868	74.56
376.094	85.56
376.319	98.56
376.545	80.56
376.771	80.56
376.997	78.56
377.222	91.56
377.448	76.56
377.674	88.56
377.899	85.56
378.125	97.56
378.35	87.56
378.576	94.56
378.802	87.56
379.027	67.56
379.253	88.56
379.478	79.56
379.704	100.56
379.929	85.56
380.155	95.56
380.38	86.56
380.606	89.56
380.831	92.56
381.057	78.56
381.282	90.56
381.507	85.56
381.733	101.56
381.958	86.56
382.184	81.56
382.409	87.56
382.634	96.56
382.86	93.56
383.085	84.56
383.31	93.56
383.535	102.56
383.761	88.56
383.986	94.56
384.211	88.56
384.436	87.56
384.662	109.56
384.887	94.56
385.112	94.56
385.337	101.56
385.562	85.56
385.787	86.56
386.013	109.56
386.238	105.56
386.463	85.56
386.688	99.56
386.913	90.56
387.138	100.56
387.363	113.56
387.588	100.56
387.813	100.56
388.038	95.56
388.263	93.56
388.488	87.56
388.713	95.56
388.938	77.56
389.163	79.56
389.387	100.56
389.612	100.56
389.837	94.56
390.062	82.56
390.287	85.56
390.512	96.56
390.736	99.56
390.961	83.56
391.186	104.56
391.411	84.56
391.636	94.56
391.86	79.56
392.085	86.56
392.31	96.56
392.534	76.56
392.759	86.56
392.984	68.56
393.208	67.56
393.433	88.56
393.658	77.56
393.882	77.56
394.107	87.56
394.331	86.56
394.556	86.56
394.78	79.56
395.005	82.56
395.229	83.56
395.454	78.56
395.678	83.56
395.903	100.56
396.127	91.56
396.352	77.56
396.576	78.56
396.801	76.56
397.025	72.56
397.249	97.56
397.474	80.56
397.698	78.56
397.922	85.56
398.147	86.56
398.371	93.56
398.595	77.56
398.82	79.56
399.044	84.56
399.268	73.56
399.492	91.56
399.717	88.56
399.941	75.56
400.165	78.56
400.389	80.56
400.613	94.56
400.837	87.56
401.062	97.56
401.286	80.56
401.51	72.56
401.734	86.56
401.958	100.56
402.182	116.56
402.406	150.56
402.63	100.56
402.854	91.56
403.078	85.56
403.302	85.56
403.526	84.56
403.75	66.56
403.974	92.56
404.198	80.56
404.422	85.56
404.645	96.56
404.869	95.56
405.093	87.56
405.317	107.56
405.541	88.56
405.765	103.56
405.988	121.56
406.212	142.56
406.436	194.56
406.66	142.56
406.883	86.56
407.107	100.56
407.331	96.56
407.555	102.56
407.778	91.56
408.002	95.56
408.226	91.56
408.449	82.56
408.673	87.56
408.896	86.56
409.12	99.56
409.344	76.56
409.567	92.56
409.791	84.56
410.014	86.56
410.238	87.56
410.461	89.56
410.685	81.56
410.908	87.56
411.132	88.56
411.355	91.56
411.578	82.56
411.802	84.56
412.025	77.56
412.249	88.56
412.472	89.56
412.695	95.56
412.919	84.56
413.142	87.56
413.365	78.56
413.589	91.56
413.812	96.56
414.035	95.56
414.258	91.56
414.482	75.56
414.705	79.56
414.928	93.56
415.151	92.56
415.374	101.56
415.597	88.56
415.821	86.56
416.044	84.56
416.267	85.56
416.49	85.56
416.713	77.56
416.936	83.56
417.159	104.56
417.382	84.56
417.605	77.56
417.828	76.56
418.051	83.56
418.274	88.56
418.497	86.56
418.72	85.56
418.943	91.56
419.166	79.56
419.389	92.56
419.611	78.56
419.834	88.56
420.057	90.56
420.28	73.56
420.503	86.56
420.726	80.56
420.948	76.56
421.171	84.56
421.394	92.56
421.617	74.56
421.839	92.56
422.062	77.56
422.285	76.56
422.507	101.56
422.73	92.56
422.953	86.56
423.175	82.56
423.398	84.56
423.621	79.56
423.843	70.56
424.066	78.56
424.288	75.56
424.511	94.56
424.733	115.56
424.956	93.56
425.178	111.56
425.401	86.56
425.623	96.56
425.846	67.56
426.068	89.56
426.291	79.56
426.513	84.56
426.735	93.56
426.958	85.56
427.18	108.56
427.402	136.56
427.625	139.56
427.847	115.56
428.069	91.56
428.292	70.56
428.514	78.56
428.736	72.56
428.958	88.56
429.181	77.56
429.403	79.56
429.625	80.56
429.847	102.56
430.069	99.56
430.292	86.56
430.514	82.56
430.736	94.56
430.958	79.56
431.18	80.56
431.402	81.56
431.624	80.56
431.846	94.56
432.068	77.56
432.29	85.56
432.512	82.56
432.734	85.56
432.956	82.56
433.178	97.56
433.4	86.56
433.622	95.56
433.844	89.56
434.066	88.56
434.287	83.56
434.509	91.56
434.731	95.56
434.953	81.56
435.175	88.56
435.397	85.56
435.618	75.56
435.84	94.56
436.062	119.56
436.284	100.56
436.505	103.56
436.727	117.56
436.949	82.56
437.17	75.56
437.392	81.56
437.614	83.56
437.835	107.56
438.057	108.56
438.278	85.56
438.5	93.56
438.721	101.56
438.943	87.56
439.165	74.56
439.386	80.56
439.608	80.56
439.829	105.56
440.05	112.56
440.272	133.56
440.493	90.56
440.715	83.56
440.936	80.56
441.158	76.56
441.379	91.56
441.6	84.56
441.822	90.56
442.043	104.56
442.264	100.56
442.486	92.56
442.707	96.56
442.928	100.56
443.149	121.56
443.371	127.56
443.592	107.56
443.813	94.56
444.034	100.56
444.255	92.56
444.476	80.56
444.698	78.56
444.919	87.56
445.14	110.56
445.361	120.56
445.582	104.56
445.803	123.56
446.024	139.56
446.245	122.56
446.466	98.56
446.687	106.56
446.908	96.56
447.129	106.56
447.35	89.56
447.571	94.56
447.792	100.56
448.013	98.56
448.234	91.56
448.455	93.56
448.675	118.56
448.896	102.56
449.117	74.56
449.338	111.56
449.559	128.56
449.779	125.56
450	97.56
450.221	83.56
450.442	86.56
450.662	91.56
450.883	107.56
451.104	95.56
451.324	101.56
451.545	77.56
451.766	92.56
451.986	78.56
452.207	94.56
452.428	100.56
452.648	98.56
452.869	111.56
453.089	111.56
453.31	91.56
453.53	81.56
453.751	90.56
453.971	111.56
454.192	101.56
454.412	97.56
454.633	90.56
454.853	76.56
455.073	58.56
455.294	84.56
455.514	101.56
455.734	90.56
455.955	86.56
456.175	84.56
456.395	83.56
456.616	88.56
456.836	87.56
457.056	69.56
457.276	75.56
457.497	82.56
457.717	72.56
457.937	83.56
458.157	83.56
458.377	96.56
458.598	102.56
458.818	133.56
459.038	140.56
459.258	108.56
459.478	92.56
459.698	78.56
459.918	71.56
460.138	84.56
460.358	82.56
460.578	77.56
460.798	81.56
461.018	79.56
461.238	79.56
461.458	104.56
461.678	88.56
461.898	73.56
462.118	84.56
462.338	85.56
462.558	91.56
462.777	86.56
462.997	79.56
463.217	72.56
463.437	78.56
463.657	79.56
463.876	78.56
464.096	82.56
464.316	91.56
464.536	82.56
464.755	80.56
464.975	101.56
465.195	155.56
465.414	149.56
465.634	90.56
465.854	82.56
466.073	85.56
466.293	73.56
466.512	69.56
466.732	76.56
466.951	79.56
467.171	84.56
467.391	89.56
467.61	112.56
467.829	83.56
468.049	91.56
468.268	82.56
468.488	68.56
468.707	83.56
468.927	71.56
469.146	83.56
469.365	84.56
469.585	79.56
469.804	80.56
470.023	86.56
470.243	93.56
470.462	95.56
470.681	106.56
470.901	84.56
471.12	80.56
471.339	80.56
471.558	88.56
471.777	71.56
471.997	89.56
472.216	74.56
472.435	83.56
472.654	84.56
472.873	68.56
473.092	91.56
473.311	77.56
473.53	87.56
473.749	91.56
473.968	91.56
474.187	111.56
474.406	91.56
474.625	95.56
474.844	70.56
475.063	59.56
475.282	88.56
475.501	72.56
475.72	82.56
475.939	78.56
476.158	91.56
476.377	88.56
476.596	95.56
476.814	95.56
477.033	93.56
477.252	99.56
477.471	75.56
477.69	76.56
477.908	90.56
478.127	83.56
478.346	80.56
478.564	86.56
478.783	90.56
479.002	90.56
479.22	85.56
479.439	96.56
479.658	93.56
479.876	87.56
480.095	90.56
480.313	90.56
480.532	82.56
480.751	82.56
480.969	92.56
481.188	79.56
481.406	100.56
481.624	81.56
481.843	69.56
482.061	89.56
482.28	85.56
482.498	81.56
482.717	74.56
482.935	85.56
483.153	80.56
483.372	86.56
483.59	82.56
483.808	96.56
484.027	78.56
484.245	90.56
484.463	89.56
484.681	88.56
484.9	97.56
485.118	95.56
485.336	89.56
485.554	100.56
485.772	93.56
485.99	110.56
486.209	82.56
486.427	109.56
486.645	109.56
486.863	109.56
487.081	89.56
487.299	110.56
487.517	82.56
487.735	88.56
487.953	87.56
488.171	78.56
488.389	111.56
488.607	98.56
488.825	87.56
489.043	76.56
489.261	93.56
489.479	67.56
489.696	78.56
489.914	95.56
490.132	96.56
490.35	82.56
490.568	83.56
490.786	83.56
491.003	74.56
491.221	87.56
491.439	97.56
491.657	82.56
491.874	84.56
492.092	88.56
492.31	88.56
492.527	70.56
492.745	88.56
492.963	93.56
493.18	78.56
493.398	93.56
493.615	91.56
493.833	99.56
494.05	83.56
494.268	93.56
494.485	82.56
494.703	79.56
494.92	87.56
495.138	80.56
495.355	81.56
495.573	79.56
495.79	92.56
496.008	98.56
496.225	98.56
496.442	77.56
496.66	88.56
496.877	82.56
497.094	107.56
497.312	105.56
497.529	83.56
497.746	83.56
497.963	91.56
498.181	90.56
498.398	94.56
498.615	100.56
498.832	94.56
499.049	90.56
499.267	83.56
499.484	80.56
499.701	82.56
499.918	78.56
500.135	83.56
500.352	80.56
500.569	89.56
500.786	83.56
501.003	78.56
501.22	81.56
501.437	77.56
501.654	90.56
501.871	101.56
502.088	88.56
502.305	88.56
502.522	74.56
502.739	96.56
502.956	92.56
503.172	82.56
503.389	82.56
503.606	88.56
503.823	95.56
504.04	91.56
504.256	79.56
504.473	77.56
504.69	103.56
504.907	94.56
505.123	84.56
505.34	83.56
505.557	83.56
505.773	89.56
505.99	92.56
506.207	78.56
506.423	82.56
506.64	79.56
506.856	80.56
507.073	102.56
507.289	84.56
507.506	98.56
507.722	89.56
507.939	99.56
508.155	92.56
508.372	93.56
508.588	89.56
508.805	88.56
509.021	89.56
509.238	89.56
509.454	96.56
509.67	106.56
509.887	112.56
510.103	128.56
510.319	209.56
510.536	744.56
510.752	2402.56
510.968	652.56
511.184	156.56
511.401	109.56
511.617	100.56
511.833	102.56
512.049	94.56
512.265	83.56
512.481	91.56
512.698	85.56
512.914	75.56
513.13	101.56
513.346	92.56
513.562	90.56
513.778	88.56
513.994	80.56
514.21	88.56
514.426	107.56
514.642	131.56
514.858	128.56
515.074	143.56
515.29	431.56
515.506	1438.56
515.721	541.56
515.937	156.56
516.153	111.56
516.369	101.56
516.585	96.56
516.801	85.56
