Data from Uncirc_1996_H10_HRD10591_00027.txt Node
Date: Wed Jan 03 11:32:07 EST 2024
User: Yrep
Spectrometer: HR+D1059
Trigger mode: 1
Integration Time (sec): 1.000000E-1
Scans to average: 1
Electric dark correction enabled: true
Nonlinearity correction enabled: false
Boxcar width: 0
XAxis mode: Wavelengths
Number of Pixels in Spectrum: 2048
>>>>>Begin Spectral Data<<<<<
223.165	-13.88
223.4	-13.88
223.635	-13.88
223.869	-22.88
224.104	-24.88
224.338	-7.88
224.573	-22.88
224.808	-14.88
225.042	-8.88
225.277	-8.88
225.511	-7.88
225.746	8.12
225.98	12.12
226.215	17.12
226.449	13.12
226.683	23.12
226.918	31.12
227.152	28.12
227.387	38.12
227.621	34.12
227.856	59.12
228.09	54.12
228.324	45.12
228.559	71.12
228.793	66.12
229.027	68.12
229.262	71.12
229.496	77.12
229.73	72.12
229.964	73.12
230.199	80.12
230.433	73.12
230.667	85.12
230.901	82.12
231.136	83.12
231.37	84.12
231.604	81.12
231.838	89.12
232.072	95.12
232.306	85.12
232.541	85.12
232.775	84.12
233.009	81.12
233.243	63.12
233.477	84.12
233.711	77.12
233.945	75.12
234.179	77.12
234.413	75.12
234.647	85.12
234.881	87.12
235.115	83.12
235.349	83.12
235.583	80.12
235.817	77.12
236.051	85.12
236.285	78.12
236.519	79.12
236.753	84.12
236.987	79.12
237.221	84.12
237.455	84.12
237.689	74.12
237.922	74.12
238.156	78.12
238.39	73.12
238.624	88.12
238.858	63.12
239.091	73.12
239.325	75.12
239.559	78.12
239.793	86.12
240.027	58.12
240.26	66.12
240.494	91.12
240.728	80.12
240.961	77.12
241.195	91.12
241.429	87.12
241.662	98.12
241.896	79.12
242.13	78.12
242.363	79.12
242.597	82.12
242.83	86.12
243.064	81.12
243.298	77.12
243.531	80.12
243.765	82.12
243.998	79.12
244.232	80.12
244.465	90.12
244.699	83.12
244.932	83.12
245.166	64.12
245.399	75.12
245.633	80.12
245.866	68.12
246.099	79.12
246.333	94.12
246.566	86.12
246.8	91.12
247.033	79.12
247.266	83.12
247.5	91.12
247.733	83.12
247.966	81.12
248.2	84.12
248.433	92.12
248.666	75.12
248.899	91.12
249.133	82.12
249.366	100.12
249.599	100.12
249.832	86.12
250.066	81.12
250.299	94.12
250.532	74.12
250.765	75.12
250.998	90.12
251.231	87.12
251.465	76.12
251.698	91.12
251.931	79.12
252.164	74.12
252.397	80.12
252.63	85.12
252.863	87.12
253.096	80.12
253.329	72.12
253.562	83.12
253.795	67.12
254.028	77.12
254.261	83.12
254.494	87.12
254.727	86.12
254.96	80.12
255.193	79.12
255.426	76.12
255.659	91.12
255.892	84.12
256.124	76.12
256.357	80.12
256.59	91.12
256.823	81.12
257.056	76.12
257.289	95.12
257.521	82.12
257.754	84.12
257.987	66.12
258.22	88.12
258.452	88.12
258.685	74.12
258.918	97.12
259.151	90.12
259.383	80.12
259.616	82.12
259.849	81.12
260.081	73.12
260.314	87.12
260.547	89.12
260.779	82.12
261.012	87.12
261.244	73.12
261.477	98.12
261.71	83.12
261.942	97.12
262.175	104.12
262.407	89.12
262.64	83.12
262.872	95.12
263.105	80.12
263.337	83.12
263.57	81.12
263.802	80.12
264.035	86.12
264.267	74.12
264.499	69.12
264.732	90.12
264.964	85.12
265.197	89.12
265.429	84.12
265.661	86.12
265.894	84.12
266.126	87.12
266.358	83.12
266.591	87.12
266.823	75.12
267.055	86.12
267.287	96.12
267.52	77.12
267.752	102.12
267.984	71.12
268.216	87.12
268.448	93.12
268.681	93.12
268.913	86.12
269.145	81.12
269.377	69.12
269.609	81.12
269.841	84.12
270.073	85.12
270.306	85.12
270.538	88.12
270.77	82.12
271.002	87.12
271.234	81.12
271.466	81.12
271.698	93.12
271.93	97.12
272.162	94.12
272.394	83.12
272.626	81.12
272.858	76.12
273.09	95.12
273.322	91.12
273.553	85.12
273.785	78.12
274.017	71.12
274.249	80.12
274.481	84.12
274.713	83.12
274.945	86.12
275.176	88.12
275.408	84.12
275.64	92.12
275.872	90.12
276.104	90.12
276.335	83.12
276.567	91.12
276.799	110.12
277.031	97.12
277.262	99.12
277.494	91.12
277.726	86.12
277.957	89.12
278.189	80.12
278.421	84.12
278.652	85.12
278.884	88.12
279.115	83.12
279.347	87.12
279.579	83.12
279.81	83.12
280.042	87.12
280.273	90.12
280.505	82.12
280.736	90.12
280.968	89.12
281.199	94.12
281.431	90.12
281.662	79.12
281.894	100.12
282.125	79.12
282.356	119.12
282.588	120.12
282.819	99.12
283.051	96.12
283.282	96.12
283.513	80.12
283.745	91.12
283.976	84.12
284.207	101.12
284.439	78.12
284.67	81.12
284.901	93.12
285.132	94.12
285.364	93.12
285.595	91.12
285.826	86.12
286.057	87.12
286.288	94.12
286.52	91.12
286.751	83.12
286.982	89.12
287.213	78.12
287.444	103.12
287.675	97.12
287.906	87.12
288.138	88.12
288.369	89.12
288.6	98.12
288.831	83.12
289.062	106.12
289.293	78.12
289.524	92.12
289.755	95.12
289.986	80.12
290.217	101.12
290.448	80.12
290.679	89.12
290.91	69.12
291.141	95.12
291.371	92.12
291.602	97.12
291.833	85.12
292.064	91.12
292.295	84.12
292.526	76.12
292.757	98.12
292.987	83.12
293.218	84.12
293.449	81.12
293.68	81.12
293.91	92.12
294.141	73.12
294.372	76.12
294.603	92.12
294.833	79.12
295.064	87.12
295.295	92.12
295.525	89.12
295.756	96.12
295.987	102.12
296.217	125.12
296.448	118.12
296.679	103.12
296.909	103.12
297.14	96.12
297.37	93.12
297.601	105.12
297.831	82.12
298.062	94.12
298.292	77.12
298.523	91.12
298.753	89.12
298.984	79.12
299.214	84.12
299.445	91.12
299.675	100.12
299.905	79.12
300.136	83.12
300.366	88.12
300.597	88.12
300.827	90.12
301.057	83.12
301.288	105.12
301.518	100.12
301.748	88.12
301.979	100.12
302.209	96.12
302.439	90.12
302.669	98.12
302.9	88.12
303.13	93.12
303.36	82.12
303.59	98.12
303.82	87.12
304.051	71.12
304.281	97.12
304.511	96.12
304.741	93.12
304.971	94.12
305.201	81.12
305.431	78.12
305.661	95.12
305.891	91.12
306.121	85.12
306.352	90.12
306.582	91.12
306.812	96.12
307.042	101.12
307.272	92.12
307.502	100.12
307.731	96.12
307.961	77.12
308.191	95.12
308.421	81.12
308.651	88.12
308.881	100.12
309.111	85.12
309.341	101.12
309.571	95.12
309.8	91.12
310.03	102.12
310.26	100.12
310.49	101.12
310.72	100.12
310.949	103.12
311.179	99.12
311.409	99.12
311.639	80.12
311.868	91.12
312.098	79.12
312.328	105.12
312.557	109.12
312.787	102.12
313.017	109.12
313.246	98.12
313.476	95.12
313.706	82.12
313.935	90.12
314.165	105.12
314.394	80.12
314.624	89.12
314.853	89.12
315.083	87.12
315.312	96.12
315.542	94.12
315.771	88.12
316.001	96.12
316.23	96.12
316.46	88.12
316.689	87.12
316.919	106.12
317.148	97.12
317.377	96.12
317.607	101.12
317.836	85.12
318.065	81.12
318.295	103.12
318.524	110.12
318.753	98.12
318.983	111.12
319.212	100.12
319.441	108.12
319.67	96.12
319.9	85.12
320.129	105.12
320.358	96.12
320.587	95.12
320.816	93.12
321.046	90.12
321.275	96.12
321.504	82.12
321.733	95.12
321.962	91.12
322.191	107.12
322.42	106.12
322.649	94.12
322.878	94.12
323.108	122.12
323.337	123.12
323.566	132.12
323.795	141.12
324.024	178.12
324.253	349.12
324.482	761.12
324.71	1568.12
324.939	2064.12
325.168	776.12
325.397	229.12
325.626	148.12
325.855	131.12
326.084	117.12
326.313	119.12
326.542	130.12
326.77	217.12
326.999	434.12
327.228	898.12
327.457	1620.12
327.686	1264.12
327.914	358.12
328.143	224.12
328.372	163.12
328.6	132.12
328.829	119.12
329.058	107.12
329.287	112.12
329.515	101.12
329.744	107.12
329.972	99.12
330.201	95.12
330.43	77.12
330.658	114.12
330.887	137.12
331.115	110.12
331.344	100.12
331.572	100.12
331.801	87.12
332.03	109.12
332.258	96.12
332.486	94.12
332.715	93.12
332.943	92.12
333.172	103.12
333.4	97.12
333.629	94.12
333.857	107.12
334.085	124.12
334.314	93.12
334.542	95.12
334.771	91.12
334.999	96.12
335.227	89.12
335.455	88.12
335.684	92.12
335.912	100.12
336.14	100.12
336.369	106.12
336.597	98.12
336.825	92.12
337.053	84.12
337.281	94.12
337.51	81.12
337.738	92.12
337.966	95.12
338.194	103.12
338.422	125.12
338.65	112.12
338.878	85.12
339.106	89.12
339.334	89.12
339.562	92.12
339.79	101.12
340.018	93.12
340.246	96.12
340.474	92.12
340.702	94.12
340.93	77.12
341.158	114.12
341.386	99.12
341.614	113.12
341.842	98.12
342.07	89.12
342.298	83.12
342.526	93.12
342.754	85.12
342.981	66.12
343.209	99.12
343.437	99.12
343.665	91.12
343.893	84.12
344.12	88.12
344.348	84.12
344.576	80.12
344.804	96.12
345.031	98.12
345.259	102.12
345.487	104.12
345.714	104.12
345.942	92.12
346.17	93.12
346.397	78.12
346.625	91.12
346.853	83.12
347.08	89.12
347.308	94.12
347.535	107.12
347.763	97.12
347.99	96.12
348.218	111.12
348.445	95.12
348.673	96.12
348.9	99.12
349.128	103.12
349.355	89.12
349.583	92.12
349.81	78.12
350.037	97.12
350.265	94.12
350.492	91.12
350.72	96.12
350.947	100.12
351.174	113.12
351.402	106.12
351.629	100.12
351.856	103.12
352.083	100.12
352.311	98.12
352.538	108.12
352.765	106.12
352.992	102.12
353.22	96.12
353.447	87.12
353.674	101.12
353.901	94.12
354.128	91.12
354.355	95.12
354.583	106.12
354.81	103.12
355.037	101.12
355.264	99.12
355.491	81.12
355.718	98.12
355.945	93.12
356.172	85.12
356.399	94.12
356.626	98.12
356.853	90.12
357.08	91.12
357.307	90.12
357.534	98.12
357.761	89.12
357.988	91.12
358.215	91.12
358.441	95.12
358.668	87.12
358.895	101.12
359.122	96.12
359.349	93.12
359.576	82.12
359.802	93.12
360.029	110.12
360.256	89.12
360.483	98.12
360.709	93.12
360.936	106.12
361.163	99.12
361.39	99.12
361.616	87.12
361.843	78.12
362.07	87.12
362.296	94.12
362.523	84.12
362.749	84.12
362.976	95.12
363.203	104.12
363.429	89.12
363.656	99.12
363.882	89.12
364.109	107.12
364.335	97.12
364.562	90.12
364.788	70.12
365.015	104.12
365.241	85.12
365.468	105.12
365.694	103.12
365.92	90.12
366.147	106.12
366.373	82.12
366.599	85.12
366.826	94.12
367.052	88.12
367.278	91.12
367.505	103.12
367.731	100.12
367.957	101.12
368.184	84.12
368.41	94.12
368.636	101.12
368.862	111.12
369.089	106.12
369.315	96.12
369.541	96.12
369.767	86.12
369.993	84.12
370.219	87.12
370.445	86.12
370.672	79.12
370.898	93.12
371.124	97.12
371.35	89.12
371.576	84.12
371.802	91.12
372.028	93.12
372.254	84.12
372.48	69.12
372.706	100.12
372.932	86.12
373.158	105.12
373.384	96.12
373.61	84.12
373.835	91.12
374.061	76.12
374.287	75.12
374.513	95.12
374.739	92.12
374.965	88.12
375.191	94.12
375.416	93.12
375.642	89.12
375.868	86.12
376.094	88.12
376.319	84.12
376.545	102.12
376.771	86.12
376.997	83.12
377.222	89.12
377.448	99.12
377.674	93.12
377.899	91.12
378.125	91.12
378.35	95.12
378.576	85.12
378.802	95.12
379.027	95.12
379.253	91.12
379.478	90.12
379.704	93.12
379.929	113.12
380.155	95.12
380.38	96.12
380.606	92.12
380.831	93.12
381.057	101.12
381.282	101.12
381.507	101.12
381.733	108.12
381.958	92.12
382.184	96.12
382.409	93.12
382.634	97.12
382.86	93.12
383.085	90.12
383.31	88.12
383.535	110.12
383.761	92.12
383.986	93.12
384.211	91.12
384.436	85.12
384.662	109.12
384.887	91.12
385.112	81.12
385.337	95.12
385.562	100.12
385.787	87.12
386.013	108.12
386.238	113.12
386.463	111.12
386.688	107.12
386.913	88.12
387.138	103.12
387.363	105.12
387.588	99.12
387.813	86.12
388.038	121.12
388.263	93.12
388.488	111.12
388.713	98.12
388.938	89.12
389.163	89.12
389.387	91.12
389.612	99.12
389.837	86.12
390.062	94.12
390.287	94.12
390.512	88.12
390.736	104.12
390.961	87.12
391.186	105.12
391.411	91.12
391.636	91.12
391.86	87.12
392.085	94.12
392.31	98.12
392.534	90.12
392.759	94.12
392.984	93.12
393.208	96.12
393.433	109.12
393.658	83.12
393.882	86.12
394.107	93.12
394.331	79.12
394.556	86.12
394.78	88.12
395.005	79.12
395.229	71.12
395.454	78.12
395.678	81.12
395.903	90.12
396.127	77.12
396.352	78.12
396.576	75.12
396.801	89.12
397.025	100.12
397.249	85.12
397.474	83.12
397.698	88.12
397.922	99.12
398.147	79.12
398.371	86.12
398.595	82.12
398.82	83.12
399.044	93.12
399.268	84.12
399.492	96.12
399.717	91.12
399.941	85.12
400.165	95.12
400.389	85.12
400.613	80.12
400.837	88.12
401.062	83.12
401.286	90.12
401.51	96.12
401.734	93.12
401.958	89.12
402.182	118.12
402.406	127.12
402.63	107.12
402.854	75.12
403.078	93.12
403.302	95.12
403.526	89.12
403.75	83.12
403.974	80.12
404.198	68.12
404.422	81.12
404.645	83.12
404.869	93.12
405.093	82.12
405.317	104.12
405.541	96.12
405.765	99.12
405.988	109.12
406.212	157.12
406.436	196.12
406.66	126.12
406.883	103.12
407.107	105.12
407.331	95.12
407.555	111.12
407.778	99.12
408.002	91.12
408.226	92.12
408.449	90.12
408.673	88.12
408.896	89.12
409.12	95.12
409.344	105.12
409.567	79.12
409.791	75.12
410.014	94.12
410.238	106.12
410.461	106.12
410.685	108.12
410.908	100.12
411.132	98.12
411.355	98.12
411.578	82.12
411.802	88.12
412.025	82.12
412.249	85.12
412.472	94.12
412.695	89.12
412.919	85.12
413.142	78.12
413.365	90.12
413.589	100.12
413.812	87.12
414.035	93.12
414.258	114.12
414.482	96.12
414.705	82.12
414.928	97.12
415.151	90.12
415.374	93.12
415.597	89.12
415.821	83.12
416.044	91.12
416.267	79.12
416.49	94.12
416.713	96.12
416.936	75.12
417.159	87.12
417.382	83.12
417.605	109.12
417.828	75.12
418.051	92.12
418.274	79.12
418.497	92.12
418.72	100.12
418.943	92.12
419.166	88.12
419.389	95.12
419.611	90.12
419.834	91.12
420.057	88.12
420.28	95.12
420.503	82.12
420.726	83.12
420.948	84.12
421.171	101.12
421.394	89.12
421.617	88.12
421.839	94.12
422.062	105.12
422.285	99.12
422.507	104.12
422.73	100.12
422.953	84.12
423.175	85.12
423.398	85.12
423.621	90.12
423.843	84.12
424.066	99.12
424.288	85.12
424.511	99.12
424.733	101.12
424.956	91.12
425.178	101.12
425.401	108.12
425.623	85.12
425.846	98.12
426.068	85.12
426.291	85.12
426.513	104.12
426.735	97.12
426.958	91.12
427.18	107.12
427.402	128.12
427.625	162.12
427.847	114.12
428.069	91.12
428.292	94.12
428.514	78.12
428.736	67.12
428.958	80.12
429.181	94.12
429.403	104.12
429.625	93.12
429.847	91.12
430.069	93.12
430.292	100.12
430.514	84.12
430.736	83.12
430.958	83.12
431.18	90.12
431.402	101.12
431.624	95.12
431.846	85.12
432.068	83.12
432.29	97.12
432.512	87.12
432.734	84.12
432.956	83.12
433.178	85.12
433.4	105.12
433.622	103.12
433.844	95.12
434.066	91.12
434.287	92.12
434.509	82.12
434.731	88.12
434.953	81.12
435.175	81.12
435.397	84.12
435.618	109.12
435.84	110.12
436.062	124.12
436.284	111.12
436.505	111.12
436.727	91.12
436.949	87.12
437.17	88.12
437.392	80.12
437.614	92.12
437.835	94.12
438.057	119.12
438.278	98.12
438.5	85.12
438.721	113.12
438.943	112.12
439.165	78.12
439.386	84.12
439.608	99.12
439.829	116.12
440.05	113.12
440.272	129.12
440.493	97.12
440.715	87.12
440.936	72.12
441.158	85.12
441.379	89.12
441.6	89.12
441.822	114.12
442.043	93.12
442.264	93.12
442.486	92.12
442.707	85.12
442.928	81.12
443.149	116.12
443.371	126.12
443.592	113.12
443.813	118.12
444.034	114.12
444.255	83.12
444.476	81.12
444.698	101.12
444.919	86.12
445.14	150.12
445.361	120.12
445.582	110.12
445.803	145.12
446.024	122.12
446.245	143.12
446.466	106.12
446.687	93.12
446.908	88.12
447.129	96.12
447.35	98.12
447.571	94.12
447.792	83.12
448.013	95.12
448.234	94.12
448.455	98.12
448.675	103.12
448.896	122.12
449.117	100.12
449.338	111.12
449.559	122.12
449.779	130.12
450	102.12
450.221	85.12
450.442	89.12
450.662	91.12
450.883	113.12
451.104	107.12
451.324	96.12
451.545	78.12
451.766	94.12
451.986	91.12
452.207	84.12
452.428	83.12
452.648	82.12
452.869	109.12
453.089	127.12
453.31	115.12
453.53	100.12
453.751	85.12
453.971	95.12
454.192	92.12
454.412	89.12
454.633	101.12
454.853	92.12
455.073	80.12
455.294	95.12
455.514	94.12
455.734	86.12
455.955	71.12
456.175	98.12
456.395	82.12
456.616	97.12
456.836	91.12
457.056	81.12
457.276	91.12
457.497	85.12
457.717	95.12
457.937	84.12
458.157	74.12
458.377	91.12
458.598	110.12
458.818	135.12
459.038	144.12
459.258	109.12
459.478	85.12
459.698	78.12
459.918	85.12
460.138	75.12
460.358	99.12
460.578	76.12
460.798	96.12
461.018	104.12
461.238	87.12
461.458	84.12
461.678	80.12
461.898	81.12
462.118	95.12
462.338	80.12
462.558	92.12
462.777	80.12
462.997	97.12
463.217	91.12
463.437	86.12
463.657	83.12
463.876	90.12
464.096	81.12
464.316	84.12
464.536	98.12
464.755	102.12
464.975	109.12
465.195	143.12
465.414	151.12
465.634	96.12
465.854	105.12
466.073	82.12
466.293	104.12
466.512	82.12
466.732	90.12
466.951	97.12
467.171	101.12
467.391	98.12
467.61	84.12
467.829	88.12
468.049	81.12
468.268	80.12
468.488	87.12
468.707	104.12
468.927	88.12
469.146	76.12
469.365	87.12
469.585	92.12
469.804	93.12
470.023	92.12
470.243	94.12
470.462	98.12
470.681	112.12
470.901	87.12
471.12	95.12
471.339	88.12
471.558	82.12
471.777	87.12
471.997	91.12
472.216	89.12
472.435	88.12
472.654	91.12
472.873	87.12
473.092	77.12
473.311	78.12
473.53	75.12
473.749	94.12
473.968	105.12
474.187	97.12
474.406	104.12
474.625	88.12
474.844	87.12
475.063	74.12
475.282	76.12
475.501	87.12
475.72	110.12
475.939	87.12
476.158	90.12
476.377	94.12
476.596	100.12
476.814	91.12
477.033	83.12
477.252	91.12
477.471	80.12
477.69	91.12
477.908	87.12
478.127	88.12
478.346	96.12
478.564	97.12
478.783	93.12
479.002	98.12
479.22	89.12
479.439	107.12
479.658	96.12
479.876	103.12
480.095	96.12
480.313	87.12
480.532	104.12
480.751	103.12
480.969	92.12
481.188	99.12
481.406	93.12
481.624	81.12
481.843	79.12
482.061	100.12
482.28	88.12
482.498	72.12
482.717	93.12
482.935	99.12
483.153	82.12
483.372	81.12
483.59	90.12
483.808	95.12
484.027	100.12
484.245	93.12
484.463	92.12
484.681	90.12
484.9	101.12
485.118	88.12
485.336	93.12
485.554	94.12
485.772	100.12
485.99	102.12
486.209	106.12
486.427	102.12
486.645	105.12
486.863	95.12
487.081	91.12
487.299	99.12
487.517	107.12
487.735	90.12
487.953	95.12
488.171	110.12
488.389	97.12
488.607	112.12
488.825	92.12
489.043	80.12
489.261	102.12
489.479	99.12
489.696	86.12
489.914	79.12
490.132	95.12
490.35	75.12
490.568	100.12
490.786	86.12
491.003	96.12
491.221	77.12
491.439	91.12
491.657	98.12
491.874	105.12
492.092	97.12
492.31	99.12
492.527	76.12
492.745	90.12
492.963	83.12
493.18	95.12
493.398	95.12
493.615	101.12
493.833	86.12
494.05	91.12
494.268	82.12
494.485	98.12
494.703	77.12
494.92	96.12
495.138	93.12
495.355	82.12
495.573	80.12
495.79	95.12
496.008	82.12
496.225	109.12
496.442	100.12
496.66	98.12
496.877	88.12
497.094	81.12
497.312	94.12
497.529	95.12
497.746	105.12
497.963	80.12
498.181	91.12
498.398	91.12
498.615	124.12
498.832	101.12
499.049	95.12
499.267	92.12
499.484	87.12
499.701	94.12
499.918	92.12
500.135	91.12
500.352	84.12
500.569	96.12
500.786	90.12
501.003	88.12
501.22	79.12
501.437	100.12
501.654	92.12
501.871	98.12
502.088	97.12
502.305	90.12
502.522	96.12
502.739	97.12
502.956	91.12
503.172	92.12
503.389	93.12
503.606	87.12
503.823	89.12
504.04	96.12
504.256	77.12
504.473	86.12
504.69	98.12
504.907	91.12
505.123	82.12
505.34	90.12
505.557	90.12
505.773	93.12
505.99	92.12
506.207	85.12
506.423	81.12
506.64	95.12
506.856	105.12
507.073	79.12
507.289	94.12
507.506	92.12
507.722	107.12
507.939	110.12
508.155	91.12
508.372	86.12
508.588	99.12
508.805	91.12
509.021	99.12
509.238	93.12
509.454	97.12
509.67	99.12
509.887	106.12
510.103	128.12
510.319	201.12
510.536	635.12
510.752	1893.12
510.968	539.12
511.184	143.12
511.401	104.12
511.617	107.12
511.833	98.12
512.049	90.12
512.265	100.12
512.481	93.12
512.698	75.12
512.914	77.12
513.13	87.12
513.346	90.12
513.562	106.12
513.778	104.12
513.994	109.12
514.21	97.12
514.426	115.12
514.642	136.12
514.858	124.12
515.074	147.12
515.29	400.12
515.506	1215.12
515.721	449.12
515.937	139.12
