Data from Uncirc_1996_H10_HRD10591_00043.txt Node
Date: Wed Jan 03 11:32:11 EST 2024
User: Yrep
Spectrometer: HR+D1059
Trigger mode: 1
Integration Time (sec): 1.000000E-1
Scans to average: 1
Electric dark correction enabled: true
Nonlinearity correction enabled: false
Boxcar width: 0
XAxis mode: Wavelengths
Number of Pixels in Spectrum: 2048
>>>>>Begin Spectral Data<<<<<
223.165	-18.25
223.4	-18.25
223.635	-18.25
223.869	-12.25
224.104	-26.25
224.338	-17.25
224.573	-14.25
224.808	-15.25
225.042	-12.25
225.277	-1.25
225.511	-2.25
225.746	6.75
225.98	5.75
226.215	14.75
226.449	20.75
226.683	20.75
226.918	23.75
227.152	26.75
227.387	43.75
227.621	46.75
227.856	40.75
228.09	46.75
228.324	58.75
228.559	56.75
228.793	54.75
229.027	75.75
229.262	65.75
229.496	76.75
229.73	90.75
229.964	77.75
230.199	74.75
230.433	76.75
230.667	81.75
230.901	97.75
231.136	80.75
231.37	81.75
231.604	80.75
231.838	90.75
232.072	98.75
232.306	91.75
232.541	86.75
232.775	85.75
233.009	77.75
233.243	82.75
233.477	77.75
233.711	83.75
233.945	89.75
234.179	92.75
234.413	79.75
234.647	86.75
234.881	88.75
235.115	77.75
235.349	88.75
235.583	80.75
235.817	75.75
236.051	86.75
236.285	73.75
236.519	73.75
236.753	86.75
236.987	80.75
237.221	84.75
237.455	83.75
237.689	82.75
237.922	65.75
238.156	89.75
238.39	83.75
238.624	80.75
238.858	96.75
239.091	87.75
239.325	66.75
239.559	94.75
239.793	73.75
240.027	84.75
240.26	81.75
240.494	91.75
240.728	80.75
240.961	80.75
241.195	76.75
241.429	80.75
241.662	79.75
241.896	61.75
242.13	68.75
242.363	80.75
242.597	76.75
242.83	92.75
243.064	91.75
243.298	86.75
243.531	79.75
243.765	72.75
243.998	92.75
244.232	68.75
244.465	88.75
244.699	85.75
244.932	75.75
245.166	79.75
245.399	82.75
245.633	80.75
245.866	83.75
246.099	85.75
246.333	87.75
246.566	89.75
246.8	82.75
247.033	75.75
247.266	73.75
247.5	80.75
247.733	78.75
247.966	82.75
248.2	86.75
248.433	77.75
248.666	94.75
248.899	78.75
249.133	85.75
249.366	95.75
249.599	97.75
249.832	88.75
250.066	92.75
250.299	76.75
250.532	77.75
250.765	79.75
250.998	88.75
251.231	74.75
251.465	89.75
251.698	84.75
251.931	76.75
252.164	90.75
252.397	79.75
252.63	82.75
252.863	86.75
253.096	84.75
253.329	79.75
253.562	73.75
253.795	76.75
254.028	85.75
254.261	78.75
254.494	86.75
254.727	84.75
254.96	80.75
255.193	71.75
255.426	98.75
255.659	91.75
255.892	83.75
256.124	77.75
256.357	81.75
256.59	89.75
256.823	88.75
257.056	83.75
257.289	86.75
257.521	86.75
257.754	82.75
257.987	92.75
258.22	88.75
258.452	76.75
258.685	88.75
258.918	92.75
259.151	76.75
259.383	93.75
259.616	74.75
259.849	81.75
260.081	79.75
260.314	68.75
260.547	74.75
260.779	92.75
261.012	78.75
261.244	90.75
261.477	81.75
261.71	77.75
261.942	93.75
262.175	105.75
262.407	98.75
262.64	92.75
262.872	87.75
263.105	89.75
263.337	77.75
263.57	82.75
263.802	82.75
264.035	83.75
264.267	97.75
264.499	81.75
264.732	87.75
264.964	99.75
265.197	83.75
265.429	89.75
265.661	82.75
265.894	92.75
266.126	83.75
266.358	85.75
266.591	81.75
266.823	84.75
267.055	82.75
267.287	87.75
267.52	78.75
267.752	83.75
267.984	84.75
268.216	99.75
268.448	84.75
268.681	86.75
268.913	92.75
269.145	71.75
269.377	86.75
269.609	83.75
269.841	75.75
270.073	81.75
270.306	89.75
270.538	88.75
270.77	88.75
271.002	102.75
271.234	81.75
271.466	80.75
271.698	91.75
271.93	90.75
272.162	94.75
272.394	83.75
272.626	70.75
272.858	90.75
273.09	89.75
273.322	87.75
273.553	82.75
273.785	72.75
274.017	78.75
274.249	83.75
274.481	78.75
274.713	83.75
274.945	99.75
275.176	89.75
275.408	88.75
275.64	85.75
275.872	84.75
276.104	88.75
276.335	98.75
276.567	89.75
276.799	106.75
277.031	102.75
277.262	96.75
277.494	89.75
277.726	86.75
277.957	80.75
278.189	88.75
278.421	87.75
278.652	91.75
278.884	93.75
279.115	82.75
279.347	90.75
279.579	101.75
279.81	89.75
280.042	93.75
280.273	88.75
280.505	85.75
280.736	91.75
280.968	92.75
281.199	96.75
281.431	81.75
281.662	88.75
281.894	103.75
282.125	98.75
282.356	84.75
282.588	120.75
282.819	117.75
283.051	96.75
283.282	84.75
283.513	91.75
283.745	91.75
283.976	86.75
284.207	95.75
284.439	94.75
284.67	94.75
284.901	96.75
285.132	83.75
285.364	80.75
285.595	74.75
285.826	87.75
286.057	88.75
286.288	88.75
286.52	86.75
286.751	110.75
286.982	94.75
287.213	78.75
287.444	83.75
287.675	81.75
287.906	88.75
288.138	91.75
288.369	88.75
288.6	80.75
288.831	79.75
289.062	93.75
289.293	84.75
289.524	90.75
289.755	91.75
289.986	76.75
290.217	96.75
290.448	79.75
290.679	93.75
290.91	92.75
291.141	86.75
291.371	87.75
291.602	91.75
291.833	99.75
292.064	95.75
292.295	90.75
292.526	104.75
292.757	105.75
292.987	92.75
293.218	100.75
293.449	92.75
293.68	92.75
293.91	92.75
294.141	103.75
294.372	81.75
294.603	85.75
294.833	95.75
295.064	85.75
295.295	77.75
295.525	91.75
295.756	120.75
295.987	105.75
296.217	136.75
296.448	118.75
296.679	89.75
296.909	86.75
297.14	94.75
297.37	101.75
297.601	94.75
297.831	94.75
298.062	90.75
298.292	86.75
298.523	82.75
298.753	108.75
298.984	96.75
299.214	95.75
299.445	102.75
299.675	99.75
299.905	85.75
300.136	108.75
300.366	80.75
300.597	87.75
300.827	93.75
301.057	96.75
301.288	100.75
301.518	95.75
301.748	91.75
301.979	89.75
302.209	72.75
302.439	102.75
302.669	90.75
302.9	84.75
303.13	105.75
303.36	88.75
303.59	84.75
303.82	111.75
304.051	96.75
304.281	83.75
304.511	100.75
304.741	84.75
304.971	92.75
305.201	80.75
305.431	88.75
305.661	97.75
305.891	99.75
306.121	101.75
306.352	99.75
306.582	106.75
306.812	96.75
307.042	99.75
307.272	89.75
307.502	84.75
307.731	91.75
307.961	98.75
308.191	95.75
308.421	78.75
308.651	84.75
308.881	84.75
309.111	89.75
309.341	97.75
309.571	99.75
309.8	95.75
310.03	91.75
310.26	90.75
310.49	96.75
310.72	103.75
310.949	101.75
311.179	99.75
311.409	92.75
311.639	99.75
311.868	84.75
312.098	99.75
312.328	108.75
312.557	106.75
312.787	102.75
313.017	96.75
313.246	84.75
313.476	99.75
313.706	110.75
313.935	82.75
314.165	91.75
314.394	94.75
314.624	102.75
314.853	100.75
315.083	96.75
315.312	101.75
315.542	87.75
315.771	93.75
316.001	89.75
316.23	92.75
316.46	90.75
316.689	93.75
316.919	71.75
317.148	90.75
317.377	96.75
317.607	95.75
317.836	97.75
318.065	110.75
318.295	95.75
318.524	98.75
318.753	84.75
318.983	91.75
319.212	94.75
319.441	107.75
319.67	99.75
319.9	89.75
320.129	91.75
320.358	85.75
320.587	116.75
320.816	99.75
321.046	96.75
321.275	102.75
321.504	98.75
321.733	97.75
321.962	98.75
322.191	99.75
322.42	93.75
322.649	110.75
322.878	121.75
323.108	93.75
323.337	117.75
323.566	129.75
323.795	141.75
324.024	202.75
324.253	353.75
324.482	724.75
324.71	1490.75
324.939	1940.75
325.168	712.75
325.397	225.75
325.626	156.75
325.855	132.75
326.084	129.75
326.313	128.75
326.542	146.75
326.77	213.75
326.999	416.75
327.228	858.75
327.457	1530.75
327.686	1230.75
327.914	328.75
328.143	211.75
328.372	157.75
328.6	124.75
328.829	111.75
329.058	136.75
329.287	114.75
329.515	111.75
329.744	105.75
329.972	98.75
330.201	110.75
330.43	110.75
330.658	121.75
330.887	125.75
331.115	124.75
331.344	112.75
331.572	110.75
331.801	92.75
332.03	109.75
332.258	90.75
332.486	95.75
332.715	83.75
332.943	112.75
333.172	98.75
333.4	94.75
333.629	110.75
333.857	98.75
334.085	112.75
334.314	98.75
334.542	85.75
334.771	90.75
334.999	93.75
335.227	100.75
335.455	104.75
335.684	111.75
335.912	102.75
336.14	101.75
336.369	102.75
336.597	103.75
336.825	99.75
337.053	92.75
337.281	96.75
337.51	93.75
337.738	79.75
337.966	117.75
338.194	105.75
338.422	102.75
338.65	94.75
338.878	105.75
339.106	91.75
339.334	106.75
339.562	100.75
339.79	97.75
340.018	87.75
340.246	95.75
340.474	98.75
340.702	84.75
340.93	97.75
341.158	87.75
341.386	94.75
341.614	99.75
341.842	83.75
342.07	94.75
342.298	102.75
342.526	84.75
342.754	88.75
342.981	94.75
343.209	89.75
343.437	98.75
343.665	79.75
343.893	91.75
344.12	95.75
344.348	82.75
344.576	81.75
344.804	93.75
345.031	89.75
345.259	97.75
345.487	111.75
345.714	90.75
345.942	89.75
346.17	89.75
346.397	92.75
346.625	80.75
346.853	92.75
347.08	93.75
347.308	90.75
347.535	102.75
347.763	93.75
347.99	103.75
348.218	96.75
348.445	102.75
348.673	97.75
348.9	101.75
349.128	94.75
349.355	97.75
349.583	112.75
349.81	114.75
350.037	106.75
350.265	91.75
350.492	101.75
350.72	102.75
350.947	98.75
351.174	100.75
351.402	112.75
351.629	97.75
351.856	101.75
352.083	94.75
352.311	106.75
352.538	119.75
352.765	104.75
352.992	119.75
353.22	116.75
353.447	108.75
353.674	103.75
353.901	94.75
354.128	98.75
354.355	90.75
354.583	100.75
354.81	101.75
355.037	111.75
355.264	101.75
355.491	100.75
355.718	95.75
355.945	92.75
356.172	88.75
356.399	81.75
356.626	99.75
356.853	99.75
357.08	81.75
357.307	88.75
357.534	99.75
357.761	106.75
357.988	101.75
358.215	100.75
358.441	93.75
358.668	90.75
358.895	97.75
359.122	97.75
359.349	89.75
359.576	98.75
359.802	99.75
360.029	114.75
360.256	99.75
360.483	91.75
360.709	86.75
360.936	98.75
361.163	99.75
361.39	94.75
361.616	102.75
361.843	100.75
362.07	95.75
362.296	91.75
362.523	99.75
362.749	91.75
362.976	98.75
363.203	95.75
363.429	108.75
363.656	90.75
363.882	87.75
364.109	92.75
364.335	95.75
364.562	97.75
364.788	84.75
365.015	92.75
365.241	90.75
365.468	111.75
365.694	110.75
365.92	105.75
366.147	99.75
366.373	88.75
366.599	100.75
366.826	94.75
367.052	87.75
367.278	91.75
367.505	82.75
367.731	95.75
367.957	87.75
368.184	96.75
368.41	103.75
368.636	112.75
368.862	117.75
369.089	103.75
369.315	99.75
369.541	88.75
369.767	82.75
369.993	90.75
370.219	94.75
370.445	98.75
370.672	85.75
370.898	88.75
371.124	84.75
371.35	98.75
371.576	98.75
371.802	91.75
372.028	99.75
372.254	86.75
372.48	97.75
372.706	89.75
372.932	95.75
373.158	95.75
373.384	92.75
373.61	85.75
373.835	86.75
374.061	85.75
374.287	97.75
374.513	107.75
374.739	94.75
374.965	84.75
375.191	90.75
375.416	82.75
375.642	88.75
375.868	93.75
376.094	89.75
376.319	92.75
376.545	88.75
376.771	92.75
376.997	81.75
377.222	94.75
377.448	107.75
377.674	88.75
377.899	96.75
378.125	92.75
378.35	111.75
378.576	92.75
378.802	94.75
379.027	88.75
379.253	103.75
379.478	96.75
379.704	95.75
379.929	105.75
380.155	108.75
380.38	82.75
380.606	93.75
380.831	95.75
381.057	115.75
381.282	102.75
381.507	97.75
381.733	95.75
381.958	101.75
382.184	106.75
382.409	93.75
382.634	109.75
382.86	104.75
383.085	102.75
383.31	106.75
383.535	100.75
383.761	96.75
383.986	98.75
384.211	116.75
384.436	104.75
384.662	95.75
384.887	102.75
385.112	97.75
385.337	100.75
385.562	100.75
385.787	99.75
386.013	108.75
386.238	109.75
386.463	108.75
386.688	116.75
386.913	99.75
387.138	107.75
387.363	104.75
387.588	103.75
387.813	100.75
388.038	99.75
388.263	113.75
388.488	94.75
388.713	109.75
388.938	106.75
389.163	95.75
389.387	99.75
389.612	99.75
389.837	102.75
390.062	93.75
390.287	96.75
390.512	98.75
390.736	90.75
390.961	110.75
391.186	83.75
391.411	94.75
391.636	85.75
391.86	90.75
392.085	95.75
392.31	93.75
392.534	92.75
392.759	91.75
392.984	74.75
393.208	97.75
393.433	108.75
393.658	89.75
393.882	76.75
394.107	108.75
394.331	82.75
394.556	106.75
394.78	93.75
395.005	94.75
395.229	88.75
395.454	91.75
395.678	92.75
395.903	84.75
396.127	100.75
396.352	90.75
396.576	85.75
396.801	101.75
397.025	93.75
397.249	78.75
397.474	80.75
397.698	102.75
397.922	102.75
398.147	101.75
398.371	93.75
398.595	86.75
398.82	90.75
399.044	97.75
399.268	88.75
399.492	82.75
399.717	69.75
399.941	96.75
400.165	97.75
400.389	102.75
400.613	88.75
400.837	94.75
401.062	91.75
401.286	112.75
401.51	82.75
401.734	99.75
401.958	97.75
402.182	122.75
402.406	150.75
402.63	102.75
402.854	92.75
403.078	95.75
403.302	85.75
403.526	86.75
403.75	97.75
403.974	86.75
404.198	86.75
404.422	100.75
404.645	104.75
404.869	96.75
405.093	92.75
405.317	106.75
405.541	103.75
405.765	97.75
405.988	123.75
406.212	170.75
406.436	189.75
406.66	133.75
406.883	105.75
407.107	94.75
407.331	96.75
407.555	88.75
407.778	94.75
408.002	100.75
408.226	88.75
408.449	102.75
408.673	89.75
408.896	108.75
409.12	102.75
409.344	97.75
409.567	78.75
409.791	84.75
410.014	97.75
410.238	84.75
410.461	102.75
410.685	104.75
410.908	98.75
411.132	113.75
411.355	99.75
411.578	103.75
411.802	93.75
412.025	91.75
412.249	85.75
412.472	80.75
412.695	84.75
412.919	90.75
413.142	82.75
413.365	79.75
413.589	97.75
413.812	74.75
414.035	88.75
414.258	82.75
414.482	101.75
414.705	82.75
414.928	99.75
415.151	100.75
415.374	102.75
415.597	93.75
415.821	84.75
416.044	89.75
416.267	95.75
416.49	97.75
416.713	103.75
416.936	90.75
417.159	97.75
417.382	93.75
417.605	92.75
417.828	104.75
418.051	108.75
418.274	94.75
418.497	89.75
418.72	87.75
418.943	78.75
419.166	96.75
419.389	92.75
419.611	89.75
419.834	84.75
420.057	96.75
420.28	84.75
420.503	88.75
420.726	94.75
420.948	89.75
421.171	92.75
421.394	95.75
421.617	89.75
421.839	83.75
422.062	100.75
422.285	112.75
422.507	101.75
422.73	96.75
422.953	93.75
423.175	70.75
423.398	102.75
423.621	108.75
423.843	88.75
424.066	97.75
424.288	95.75
424.511	93.75
424.733	108.75
424.956	109.75
425.178	90.75
425.401	115.75
425.623	109.75
425.846	104.75
426.068	107.75
426.291	100.75
426.513	94.75
426.735	92.75
426.958	90.75
427.18	104.75
427.402	145.75
427.625	150.75
427.847	112.75
428.069	98.75
428.292	80.75
428.514	85.75
428.736	84.75
428.958	79.75
429.181	88.75
429.403	73.75
429.625	99.75
429.847	95.75
430.069	107.75
430.292	90.75
430.514	93.75
430.736	100.75
430.958	76.75
431.18	98.75
431.402	90.75
431.624	84.75
431.846	95.75
432.068	89.75
432.29	93.75
432.512	85.75
432.734	86.75
432.956	83.75
433.178	98.75
433.4	104.75
433.622	90.75
433.844	95.75
434.066	79.75
434.287	92.75
434.509	91.75
434.731	91.75
434.953	80.75
435.175	100.75
435.397	101.75
435.618	88.75
435.84	108.75
436.062	128.75
436.284	123.75
436.505	90.75
436.727	108.75
436.949	69.75
437.17	91.75
437.392	97.75
437.614	95.75
437.835	102.75
438.057	117.75
438.278	116.75
438.5	107.75
438.721	115.75
438.943	109.75
439.165	96.75
439.386	97.75
439.608	100.75
439.829	100.75
440.05	125.75
440.272	133.75
440.493	84.75
440.715	83.75
440.936	88.75
441.158	89.75
441.379	98.75
441.6	101.75
441.822	100.75
442.043	88.75
442.264	100.75
442.486	101.75
442.707	94.75
442.928	101.75
443.149	138.75
443.371	122.75
443.592	110.75
443.813	119.75
444.034	124.75
444.255	103.75
444.476	93.75
444.698	88.75
444.919	76.75
445.14	125.75
445.361	114.75
445.582	128.75
445.803	123.75
446.024	138.75
446.245	133.75
446.466	94.75
446.687	84.75
446.908	94.75
447.129	96.75
447.35	92.75
447.571	96.75
447.792	89.75
448.013	105.75
448.234	108.75
448.455	94.75
448.675	127.75
448.896	114.75
449.117	110.75
449.338	111.75
449.559	138.75
449.779	132.75
450	100.75
450.221	95.75
450.442	96.75
450.662	105.75
450.883	122.75
451.104	118.75
451.324	90.75
451.545	102.75
451.766	83.75
451.986	81.75
452.207	93.75
452.428	88.75
452.648	102.75
452.869	115.75
453.089	93.75
453.31	113.75
453.53	101.75
453.751	90.75
453.971	96.75
454.192	87.75
454.412	91.75
454.633	90.75
454.853	88.75
455.073	84.75
455.294	92.75
455.514	101.75
455.734	101.75
455.955	81.75
456.175	89.75
456.395	88.75
456.616	99.75
456.836	104.75
457.056	108.75
457.276	100.75
457.497	67.75
457.717	86.75
457.937	81.75
458.157	83.75
458.377	105.75
458.598	119.75
458.818	137.75
459.038	147.75
459.258	109.75
459.478	90.75
459.698	90.75
459.918	80.75
460.138	90.75
460.358	95.75
460.578	93.75
460.798	98.75
461.018	88.75
461.238	86.75
461.458	92.75
461.678	89.75
461.898	95.75
462.118	105.75
462.338	80.75
462.558	83.75
462.777	93.75
462.997	92.75
463.217	102.75
463.437	78.75
463.657	77.75
463.876	89.75
464.096	89.75
464.316	90.75
464.536	91.75
464.755	104.75
464.975	119.75
465.195	154.75
465.414	150.75
465.634	97.75
465.854	72.75
466.073	85.75
466.293	99.75
466.512	84.75
466.732	84.75
466.951	91.75
467.171	96.75
467.391	96.75
467.61	117.75
467.829	114.75
468.049	93.75
468.268	81.75
468.488	84.75
468.707	96.75
468.927	97.75
469.146	83.75
469.365	91.75
469.585	93.75
469.804	90.75
470.023	96.75
470.243	94.75
470.462	96.75
470.681	103.75
470.901	111.75
471.12	87.75
471.339	65.75
471.558	89.75
471.777	96.75
471.997	90.75
472.216	94.75
472.435	89.75
472.654	78.75
472.873	91.75
473.092	90.75
473.311	93.75
473.53	90.75
473.749	92.75
473.968	97.75
474.187	100.75
474.406	98.75
474.625	89.75
474.844	87.75
475.063	90.75
475.282	99.75
475.501	92.75
475.72	84.75
475.939	95.75
476.158	93.75
476.377	99.75
476.596	91.75
476.814	85.75
477.033	91.75
477.252	89.75
477.471	92.75
477.69	80.75
477.908	88.75
478.127	94.75
478.346	93.75
478.564	102.75
478.783	97.75
479.002	91.75
479.22	86.75
479.439	95.75
479.658	92.75
479.876	95.75
480.095	99.75
480.313	95.75
480.532	77.75
480.751	90.75
480.969	100.75
481.188	86.75
481.406	99.75
481.624	99.75
481.843	82.75
482.061	98.75
482.28	92.75
482.498	98.75
482.717	84.75
482.935	86.75
483.153	93.75
483.372	102.75
483.59	102.75
483.808	95.75
484.027	84.75
484.245	98.75
484.463	76.75
484.681	86.75
484.9	89.75
485.118	78.75
485.336	102.75
485.554	87.75
485.772	94.75
485.99	94.75
486.209	108.75
486.427	116.75
486.645	94.75
486.863	101.75
487.081	94.75
487.299	100.75
487.517	86.75
487.735	90.75
487.953	98.75
488.171	94.75
488.389	111.75
488.607	99.75
488.825	83.75
489.043	85.75
489.261	90.75
489.479	103.75
489.696	89.75
489.914	96.75
490.132	92.75
490.35	85.75
490.568	89.75
490.786	92.75
491.003	94.75
491.221	90.75
491.439	93.75
491.657	101.75
491.874	99.75
492.092	91.75
492.31	104.75
492.527	84.75
492.745	97.75
492.963	98.75
493.18	86.75
493.398	80.75
493.615	107.75
493.833	101.75
494.05	90.75
494.268	85.75
494.485	85.75
494.703	97.75
494.92	97.75
495.138	85.75
495.355	95.75
495.573	94.75
495.79	87.75
496.008	98.75
496.225	95.75
496.442	91.75
496.66	100.75
496.877	100.75
497.094	102.75
497.312	93.75
497.529	98.75
497.746	96.75
497.963	91.75
498.181	92.75
498.398	83.75
498.615	120.75
498.832	108.75
499.049	83.75
499.267	90.75
499.484	97.75
499.701	103.75
499.918	97.75
500.135	78.75
500.352	98.75
500.569	104.75
500.786	92.75
501.003	97.75
501.22	89.75
501.437	95.75
501.654	107.75
501.871	100.75
502.088	81.75
502.305	95.75
502.522	83.75
502.739	85.75
502.956	89.75
503.172	101.75
503.389	94.75
503.606	108.75
503.823	105.75
504.04	87.75
504.256	95.75
504.473	100.75
504.69	90.75
504.907	92.75
505.123	76.75
505.34	91.75
505.557	91.75
505.773	94.75
505.99	86.75
506.207	84.75
506.423	90.75
506.64	104.75
506.856	93.75
507.073	91.75
507.289	86.75
507.506	96.75
507.722	112.75
507.939	109.75
508.155	98.75
508.372	94.75
508.588	81.75
508.805	95.75
509.021	94.75
509.238	96.75
509.454	91.75
509.67	99.75
509.887	109.75
510.103	137.75
510.319	197.75
510.536	634.75
510.752	1995.75
510.968	563.75
511.184	148.75
511.401	112.75
511.617	97.75
511.833	98.75
512.049	94.75
512.265	88.75
512.481	90.75
512.698	95.75
512.914	93.75
513.13	92.75
513.346	97.75
513.562	101.75
513.778	98.75
513.994	100.75
514.21	108.75
514.426	114.75
514.642	129.75
514.858	106.75
515.074	140.75
