Data from Uncirc_1996_H10_HRD10591_00068.txt Node
Date: Wed Jan 03 11:32:16 EST 2024
User: Yrep
Spectrometer: HR+D1059
Trigger mode: 1
Integration Time (sec): 1.000000E-1
Scans to average: 1
Electric dark correction enabled: true
Nonlinearity correction enabled: false
Boxcar width: 0
XAxis mode: Wavelengths
Number of Pixels in Spectrum: 2048
>>>>>Begin Spectral Data<<<<<
223.165	-19.12
223.4	-19.12
223.635	-19.12
223.869	-13.12
224.104	-12.12
224.338	-31.12
224.573	-21.12
224.808	-16.12
225.042	-7.12
225.277	-9.12
225.511	6.88
225.746	2.88
225.98	9.88
226.215	10.88
226.449	19.88
226.683	24.88
226.918	26.88
227.152	26.88
227.387	32.88
227.621	33.88
227.856	36.88
228.09	44.88
228.324	42.88
228.559	57.88
228.793	53.88
229.027	46.88
229.262	73.88
229.496	67.88
229.73	64.88
229.964	67.88
230.199	65.88
230.433	62.88
230.667	72.88
230.901	78.88
231.136	63.88
231.37	83.88
231.604	72.88
231.838	73.88
232.072	60.88
232.306	81.88
232.541	72.88
232.775	69.88
233.009	81.88
233.243	70.88
233.477	84.88
233.711	73.88
233.945	80.88
234.179	75.88
234.413	84.88
234.647	76.88
234.881	72.88
235.115	74.88
235.349	84.88
235.583	67.88
235.817	74.88
236.051	73.88
236.285	61.88
236.519	74.88
236.753	81.88
236.987	57.88
237.221	75.88
237.455	81.88
237.689	57.88
237.922	77.88
238.156	85.88
238.39	76.88
238.624	76.88
238.858	71.88
239.091	76.88
239.325	71.88
239.559	74.88
239.793	62.88
240.027	73.88
240.26	66.88
240.494	75.88
240.728	66.88
240.961	70.88
241.195	68.88
241.429	82.88
241.662	76.88
241.896	71.88
242.13	73.88
242.363	72.88
242.597	67.88
242.83	69.88
243.064	74.88
243.298	64.88
243.531	64.88
243.765	72.88
243.998	75.88
244.232	78.88
244.465	86.88
244.699	69.88
244.932	66.88
245.166	55.88
245.399	78.88
245.633	61.88
245.866	57.88
246.099	79.88
246.333	75.88
246.566	83.88
246.8	61.88
247.033	68.88
247.266	77.88
247.5	77.88
247.733	57.88
247.966	90.88
248.2	67.88
248.433	79.88
248.666	90.88
248.899	71.88
249.133	91.88
249.366	99.88
249.599	81.88
249.832	77.88
250.066	86.88
250.299	75.88
250.532	70.88
250.765	60.88
250.998	68.88
251.231	71.88
251.465	68.88
251.698	84.88
251.931	75.88
252.164	73.88
252.397	86.88
252.63	80.88
252.863	61.88
253.096	78.88
253.329	84.88
253.562	59.88
253.795	86.88
254.028	70.88
254.261	76.88
254.494	72.88
254.727	75.88
254.96	69.88
255.193	64.88
255.426	58.88
255.659	70.88
255.892	96.88
256.124	67.88
256.357	79.88
256.59	80.88
256.823	92.88
257.056	70.88
257.289	76.88
257.521	89.88
257.754	70.88
257.987	73.88
258.22	84.88
258.452	66.88
258.685	65.88
258.918	76.88
259.151	76.88
259.383	73.88
259.616	70.88
259.849	80.88
260.081	83.88
260.314	82.88
260.547	81.88
260.779	75.88
261.012	80.88
261.244	72.88
261.477	93.88
261.71	81.88
261.942	107.88
262.175	111.88
262.407	82.88
262.64	75.88
262.872	73.88
263.105	69.88
263.337	83.88
263.57	72.88
263.802	78.88
264.035	54.88
264.267	83.88
264.499	71.88
264.732	84.88
264.964	72.88
265.197	75.88
265.429	80.88
265.661	79.88
265.894	72.88
266.126	73.88
266.358	79.88
266.591	78.88
266.823	104.88
267.055	82.88
267.287	83.88
267.52	66.88
267.752	89.88
267.984	85.88
268.216	75.88
268.448	81.88
268.681	71.88
268.913	77.88
269.145	87.88
269.377	72.88
269.609	70.88
269.841	80.88
270.073	88.88
270.306	68.88
270.538	77.88
270.77	78.88
271.002	70.88
271.234	81.88
271.466	84.88
271.698	84.88
271.93	77.88
272.162	78.88
272.394	81.88
272.626	80.88
272.858	71.88
273.09	89.88
273.322	73.88
273.553	84.88
273.785	68.88
274.017	70.88
274.249	61.88
274.481	74.88
274.713	82.88
274.945	81.88
275.176	67.88
275.408	71.88
275.64	83.88
275.872	73.88
276.104	93.88
276.335	90.88
276.567	88.88
276.799	100.88
277.031	95.88
277.262	83.88
277.494	79.88
277.726	68.88
277.957	76.88
278.189	79.88
278.421	93.88
278.652	72.88
278.884	89.88
279.115	91.88
279.347	69.88
279.579	61.88
279.81	82.88
280.042	85.88
280.273	89.88
280.505	76.88
280.736	75.88
280.968	68.88
281.199	83.88
281.431	90.88
281.662	99.88
281.894	88.88
282.125	68.88
282.356	75.88
282.588	122.88
282.819	108.88
283.051	84.88
283.282	70.88
283.513	71.88
283.745	81.88
283.976	82.88
284.207	80.88
284.439	84.88
284.67	93.88
284.901	83.88
285.132	84.88
285.364	89.88
285.595	78.88
285.826	80.88
286.057	79.88
286.288	69.88
286.52	70.88
286.751	85.88
286.982	85.88
287.213	76.88
287.444	94.88
287.675	94.88
287.906	82.88
288.138	97.88
288.369	87.88
288.6	71.88
288.831	87.88
289.062	91.88
289.293	82.88
289.524	77.88
289.755	71.88
289.986	90.88
290.217	83.88
290.448	76.88
290.679	80.88
290.91	99.88
291.141	93.88
291.371	86.88
291.602	91.88
291.833	72.88
292.064	90.88
292.295	88.88
292.526	90.88
292.757	87.88
292.987	78.88
293.218	74.88
293.449	82.88
293.68	91.88
293.91	86.88
294.141	84.88
294.372	89.88
294.603	78.88
294.833	86.88
295.064	80.88
295.295	87.88
295.525	87.88
295.756	85.88
295.987	102.88
296.217	118.88
296.448	97.88
296.679	80.88
296.909	78.88
297.14	98.88
297.37	97.88
297.601	80.88
297.831	74.88
298.062	82.88
298.292	73.88
298.523	66.88
298.753	71.88
298.984	82.88
299.214	90.88
299.445	73.88
299.675	96.88
299.905	81.88
300.136	84.88
300.366	80.88
300.597	89.88
300.827	88.88
301.057	80.88
301.288	85.88
301.518	93.88
301.748	74.88
301.979	83.88
302.209	85.88
302.439	77.88
302.669	89.88
302.9	80.88
303.13	81.88
303.36	80.88
303.59	91.88
303.82	102.88
304.051	89.88
304.281	82.88
304.511	77.88
304.741	82.88
304.971	78.88
305.201	85.88
305.431	89.88
305.661	80.88
305.891	87.88
306.121	78.88
306.352	90.88
306.582	100.88
306.812	86.88
307.042	86.88
307.272	84.88
307.502	82.88
307.731	97.88
307.961	85.88
308.191	82.88
308.421	77.88
308.651	94.88
308.881	83.88
309.111	96.88
309.341	89.88
309.571	90.88
309.8	99.88
310.03	100.88
310.26	94.88
310.49	80.88
310.72	93.88
310.949	96.88
311.179	94.88
311.409	91.88
311.639	108.88
311.868	80.88
312.098	89.88
312.328	87.88
312.557	106.88
312.787	77.88
313.017	86.88
313.246	85.88
313.476	78.88
313.706	84.88
313.935	77.88
314.165	78.88
314.394	99.88
314.624	62.88
314.853	87.88
315.083	80.88
315.312	100.88
315.542	85.88
315.771	81.88
316.001	93.88
316.23	85.88
316.46	103.88
316.689	86.88
316.919	95.88
317.148	90.88
317.377	80.88
317.607	78.88
317.836	96.88
318.065	78.88
318.295	92.88
318.524	86.88
318.753	72.88
318.983	86.88
319.212	85.88
319.441	94.88
319.67	95.88
319.9	86.88
320.129	89.88
320.358	78.88
320.587	106.88
320.816	92.88
321.046	85.88
321.275	84.88
321.504	82.88
321.733	82.88
321.962	91.88
322.191	97.88
322.42	93.88
322.649	91.88
322.878	118.88
323.108	101.88
323.337	107.88
323.566	135.88
323.795	136.88
324.024	195.88
324.253	342.88
324.482	717.88
324.71	1492.88
324.939	1908.88
325.168	722.88
325.397	232.88
325.626	137.88
325.855	99.88
326.084	114.88
326.313	115.88
326.542	138.88
326.77	215.88
326.999	410.88
327.228	853.88
327.457	1558.88
327.686	1213.88
327.914	329.88
328.143	183.88
328.372	144.88
328.6	99.88
328.829	99.88
329.058	116.88
329.287	126.88
329.515	100.88
329.744	89.88
329.972	85.88
330.201	93.88
330.43	90.88
330.658	112.88
330.887	128.88
331.115	118.88
331.344	98.88
331.572	95.88
331.801	89.88
332.03	78.88
332.258	89.88
332.486	86.88
332.715	73.88
332.943	105.88
333.172	78.88
333.4	88.88
333.629	85.88
333.857	102.88
334.085	109.88
334.314	95.88
334.542	92.88
334.771	86.88
334.999	100.88
335.227	91.88
335.455	83.88
335.684	88.88
335.912	91.88
336.14	91.88
336.369	96.88
336.597	101.88
336.825	80.88
337.053	68.88
337.281	91.88
337.51	85.88
337.738	83.88
337.966	95.88
338.194	90.88
338.422	98.88
338.65	90.88
338.878	88.88
339.106	74.88
339.334	82.88
339.562	89.88
339.79	79.88
340.018	79.88
340.246	86.88
340.474	78.88
340.702	96.88
340.93	98.88
341.158	98.88
341.386	88.88
341.614	89.88
341.842	90.88
342.07	94.88
342.298	80.88
342.526	82.88
342.754	90.88
342.981	81.88
343.209	68.88
343.437	83.88
343.665	81.88
343.893	93.88
344.12	80.88
344.348	83.88
344.576	72.88
344.804	90.88
345.031	92.88
345.259	98.88
345.487	94.88
345.714	100.88
345.942	96.88
346.17	63.88
346.397	92.88
346.625	72.88
346.853	89.88
347.08	79.88
347.308	90.88
347.535	103.88
347.763	91.88
347.99	99.88
348.218	87.88
348.445	99.88
348.673	94.88
348.9	97.88
349.128	74.88
349.355	76.88
349.583	89.88
349.81	85.88
350.037	82.88
350.265	78.88
350.492	94.88
350.72	90.88
350.947	88.88
351.174	107.88
351.402	99.88
351.629	80.88
351.856	88.88
352.083	83.88
352.311	111.88
352.538	104.88
352.765	102.88
352.992	104.88
353.22	97.88
353.447	102.88
353.674	86.88
353.901	109.88
354.128	100.88
354.355	95.88
354.583	97.88
354.81	89.88
355.037	88.88
355.264	85.88
355.491	92.88
355.718	86.88
355.945	82.88
356.172	93.88
356.399	83.88
356.626	99.88
356.853	78.88
357.08	88.88
357.307	101.88
357.534	84.88
357.761	77.88
357.988	81.88
358.215	87.88
358.441	86.88
358.668	81.88
358.895	89.88
359.122	92.88
359.349	87.88
359.576	89.88
359.802	91.88
360.029	115.88
360.256	99.88
360.483	79.88
360.709	82.88
360.936	93.88
361.163	88.88
361.39	92.88
361.616	84.88
361.843	82.88
362.07	83.88
362.296	89.88
362.523	82.88
362.749	69.88
362.976	77.88
363.203	89.88
363.429	76.88
363.656	85.88
363.882	77.88
364.109	81.88
364.335	81.88
364.562	56.88
364.788	96.88
365.015	72.88
365.241	102.88
365.468	84.88
365.694	86.88
365.92	69.88
366.147	76.88
366.373	79.88
366.599	74.88
366.826	82.88
367.052	90.88
367.278	89.88
367.505	95.88
367.731	80.88
367.957	89.88
368.184	90.88
368.41	92.88
368.636	104.88
368.862	108.88
369.089	88.88
369.315	88.88
369.541	83.88
369.767	92.88
369.993	87.88
370.219	81.88
370.445	80.88
370.672	98.88
370.898	81.88
371.124	87.88
371.35	89.88
371.576	83.88
371.802	84.88
372.028	80.88
372.254	87.88
372.48	87.88
372.706	86.88
372.932	80.88
373.158	93.88
373.384	94.88
373.61	82.88
373.835	97.88
374.061	77.88
374.287	75.88
374.513	86.88
374.739	78.88
374.965	62.88
375.191	80.88
375.416	91.88
375.642	78.88
375.868	93.88
376.094	88.88
376.319	86.88
376.545	85.88
376.771	72.88
376.997	81.88
377.222	76.88
377.448	84.88
377.674	86.88
377.899	82.88
378.125	75.88
378.35	84.88
378.576	86.88
378.802	77.88
379.027	95.88
379.253	89.88
379.478	86.88
379.704	86.88
379.929	88.88
380.155	84.88
380.38	80.88
380.606	78.88
380.831	109.88
381.057	106.88
381.282	83.88
381.507	74.88
381.733	94.88
381.958	73.88
382.184	100.88
382.409	93.88
382.634	101.88
382.86	82.88
383.085	94.88
383.31	92.88
383.535	98.88
383.761	95.88
383.986	98.88
384.211	102.88
384.436	82.88
384.662	95.88
384.887	89.88
385.112	89.88
385.337	92.88
385.562	90.88
385.787	89.88
386.013	113.88
386.238	109.88
386.463	96.88
386.688	102.88
386.913	101.88
387.138	112.88
387.363	85.88
387.588	93.88
387.813	99.88
388.038	85.88
388.263	86.88
388.488	85.88
388.713	99.88
388.938	77.88
389.163	75.88
389.387	77.88
389.612	86.88
389.837	83.88
390.062	76.88
390.287	84.88
390.512	82.88
390.736	80.88
390.961	87.88
391.186	82.88
391.411	109.88
391.636	82.88
391.86	74.88
392.085	72.88
392.31	76.88
392.534	93.88
392.759	84.88
392.984	75.88
393.208	94.88
393.433	73.88
393.658	76.88
393.882	74.88
394.107	77.88
394.331	76.88
394.556	90.88
394.78	93.88
395.005	80.88
395.229	79.88
395.454	84.88
395.678	80.88
395.903	93.88
396.127	84.88
396.352	68.88
396.576	87.88
396.801	92.88
397.025	91.88
397.249	86.88
397.474	72.88
397.698	64.88
397.922	80.88
398.147	75.88
398.371	79.88
398.595	66.88
398.82	84.88
399.044	84.88
399.268	81.88
399.492	95.88
399.717	92.88
399.941	76.88
400.165	88.88
400.389	82.88
400.613	82.88
400.837	77.88
401.062	76.88
401.286	78.88
401.51	85.88
401.734	79.88
401.958	100.88
402.182	94.88
402.406	143.88
402.63	100.88
402.854	91.88
403.078	73.88
403.302	83.88
403.526	90.88
403.75	93.88
403.974	87.88
404.198	79.88
404.422	84.88
404.645	90.88
404.869	94.88
405.093	86.88
405.317	86.88
405.541	92.88
405.765	77.88
405.988	111.88
406.212	150.88
406.436	198.88
406.66	125.88
406.883	88.88
407.107	71.88
407.331	91.88
407.555	85.88
407.778	79.88
408.002	82.88
408.226	79.88
408.449	83.88
408.673	73.88
408.896	94.88
409.12	85.88
409.344	86.88
409.567	88.88
409.791	91.88
410.014	100.88
410.238	89.88
410.461	91.88
410.685	84.88
410.908	91.88
411.132	103.88
411.355	69.88
411.578	79.88
411.802	96.88
412.025	82.88
412.249	87.88
412.472	73.88
412.695	78.88
412.919	89.88
413.142	88.88
413.365	76.88
413.589	74.88
413.812	73.88
414.035	90.88
414.258	90.88
414.482	99.88
414.705	83.88
414.928	83.88
415.151	86.88
415.374	94.88
415.597	82.88
415.821	75.88
416.044	79.88
416.267	80.88
416.49	86.88
416.713	66.88
416.936	66.88
417.159	70.88
417.382	75.88
417.605	93.88
417.828	91.88
418.051	82.88
418.274	82.88
418.497	75.88
418.72	80.88
418.943	82.88
419.166	90.88
419.389	94.88
419.611	87.88
419.834	74.88
420.057	86.88
420.28	84.88
420.503	81.88
420.726	92.88
420.948	84.88
421.171	83.88
421.394	77.88
421.617	88.88
421.839	82.88
422.062	93.88
422.285	88.88
422.507	96.88
422.73	103.88
422.953	78.88
423.175	82.88
423.398	85.88
423.621	101.88
423.843	90.88
424.066	86.88
424.288	83.88
424.511	81.88
424.733	93.88
424.956	87.88
425.178	94.88
425.401	91.88
425.623	97.88
425.846	82.88
426.068	90.88
426.291	92.88
426.513	78.88
426.735	82.88
426.958	80.88
427.18	101.88
427.402	139.88
427.625	155.88
427.847	119.88
428.069	83.88
428.292	84.88
428.514	68.88
428.736	79.88
428.958	87.88
429.181	91.88
429.403	82.88
429.625	84.88
429.847	82.88
430.069	102.88
430.292	95.88
430.514	86.88
430.736	75.88
430.958	87.88
431.18	74.88
431.402	68.88
431.624	80.88
431.846	89.88
432.068	80.88
432.29	89.88
432.512	80.88
432.734	75.88
432.956	69.88
433.178	82.88
433.4	86.88
433.622	87.88
433.844	82.88
434.066	81.88
434.287	81.88
434.509	88.88
434.731	85.88
434.953	70.88
435.175	92.88
435.397	77.88
435.618	99.88
435.84	93.88
436.062	111.88
436.284	96.88
436.505	85.88
436.727	94.88
436.949	103.88
437.17	72.88
437.392	78.88
437.614	87.88
437.835	78.88
438.057	106.88
438.278	123.88
438.5	105.88
438.721	103.88
438.943	80.88
439.165	66.88
439.386	89.88
439.608	90.88
439.829	78.88
440.05	101.88
440.272	119.88
440.493	83.88
440.715	87.88
440.936	85.88
441.158	92.88
441.379	85.88
441.6	81.88
441.822	77.88
442.043	99.88
442.264	80.88
442.486	88.88
442.707	85.88
442.928	93.88
443.149	132.88
443.371	116.88
443.592	99.88
443.813	92.88
444.034	91.88
444.255	78.88
444.476	80.88
444.698	91.88
444.919	86.88
445.14	114.88
445.361	113.88
445.582	104.88
445.803	139.88
446.024	143.88
446.245	121.88
446.466	108.88
446.687	86.88
446.908	81.88
447.129	82.88
447.35	76.88
447.571	88.88
447.792	80.88
448.013	93.88
448.234	84.88
448.455	94.88
448.675	105.88
448.896	103.88
449.117	77.88
449.338	87.88
449.559	112.88
449.779	123.88
450	100.88
450.221	73.88
450.442	86.88
450.662	89.88
450.883	92.88
451.104	99.88
451.324	94.88
451.545	80.88
451.766	80.88
451.986	81.88
452.207	86.88
452.428	74.88
452.648	92.88
452.869	110.88
453.089	108.88
453.31	106.88
453.53	100.88
453.751	99.88
453.971	94.88
454.192	92.88
454.412	76.88
454.633	76.88
454.853	73.88
455.073	84.88
455.294	71.88
455.514	99.88
455.734	78.88
455.955	89.88
456.175	81.88
456.395	77.88
456.616	85.88
456.836	83.88
457.056	83.88
457.276	81.88
457.497	89.88
457.717	83.88
457.937	81.88
458.157	79.88
458.377	93.88
458.598	90.88
458.818	123.88
459.038	151.88
459.258	105.88
459.478	89.88
459.698	80.88
459.918	80.88
460.138	77.88
460.358	76.88
460.578	72.88
460.798	77.88
461.018	89.88
461.238	76.88
461.458	81.88
461.678	64.88
461.898	84.88
462.118	91.88
462.338	70.88
462.558	94.88
462.777	93.88
462.997	70.88
463.217	80.88
463.437	90.88
463.657	83.88
463.876	81.88
464.096	76.88
464.316	83.88
464.536	81.88
464.755	81.88
464.975	103.88
465.195	148.88
465.414	126.88
465.634	97.88
465.854	84.88
466.073	85.88
466.293	89.88
466.512	89.88
466.732	81.88
466.951	75.88
467.171	72.88
467.391	77.88
467.61	85.88
467.829	90.88
468.049	102.88
468.268	83.88
468.488	87.88
468.707	67.88
468.927	83.88
469.146	73.88
469.365	76.88
469.585	84.88
469.804	72.88
470.023	89.88
470.243	84.88
470.462	88.88
470.681	103.88
470.901	84.88
471.12	75.88
471.339	72.88
471.558	85.88
471.777	59.88
471.997	78.88
472.216	75.88
472.435	85.88
472.654	69.88
472.873	87.88
473.092	90.88
473.311	93.88
473.53	77.88
473.749	67.88
473.968	85.88
474.187	99.88
474.406	100.88
474.625	75.88
474.844	83.88
475.063	82.88
475.282	67.88
475.501	72.88
475.72	84.88
475.939	75.88
476.158	82.88
476.377	83.88
476.596	93.88
476.814	75.88
477.033	79.88
477.252	68.88
477.471	77.88
477.69	84.88
477.908	86.88
478.127	90.88
478.346	76.88
478.564	72.88
478.783	89.88
479.002	83.88
479.22	84.88
479.439	81.88
479.658	90.88
479.876	93.88
480.095	80.88
480.313	83.88
480.532	89.88
480.751	76.88
480.969	101.88
481.188	83.88
481.406	83.88
481.624	91.88
481.843	64.88
482.061	76.88
482.28	66.88
482.498	74.88
482.717	70.88
482.935	85.88
483.153	83.88
483.372	70.88
483.59	89.88
483.808	83.88
484.027	83.88
484.245	90.88
484.463	92.88
484.681	83.88
484.9	88.88
485.118	85.88
485.336	87.88
485.554	102.88
485.772	101.88
485.99	109.88
486.209	104.88
486.427	99.88
486.645	93.88
486.863	98.88
487.081	92.88
487.299	89.88
487.517	87.88
487.735	97.88
487.953	82.88
488.171	90.88
488.389	84.88
488.607	81.88
488.825	94.88
489.043	80.88
489.261	88.88
489.479	82.88
489.696	89.88
489.914	78.88
490.132	88.88
490.35	73.88
490.568	89.88
490.786	81.88
491.003	82.88
491.221	97.88
491.439	94.88
491.657	86.88
491.874	92.88
492.092	84.88
492.31	84.88
492.527	82.88
492.745	78.88
492.963	90.88
493.18	82.88
493.398	77.88
493.615	101.88
493.833	83.88
494.05	83.88
494.268	87.88
494.485	61.88
494.703	80.88
494.92	83.88
495.138	84.88
495.355	83.88
495.573	79.88
495.79	75.88
496.008	81.88
496.225	97.88
496.442	76.88
496.66	87.88
496.877	87.88
497.094	86.88
497.312	93.88
497.529	92.88
497.746	82.88
497.963	80.88
498.181	88.88
498.398	80.88
498.615	91.88
498.832	92.88
499.049	104.88
499.267	96.88
499.484	80.88
499.701	85.88
499.918	73.88
500.135	94.88
500.352	84.88
500.569	87.88
500.786	80.88
501.003	81.88
501.22	72.88
501.437	76.88
501.654	74.88
501.871	88.88
502.088	85.88
502.305	65.88
502.522	67.88
502.739	76.88
502.956	84.88
503.172	90.88
503.389	77.88
503.606	93.88
503.823	85.88
504.04	73.88
504.256	89.88
504.473	82.88
504.69	85.88
504.907	104.88
505.123	82.88
505.34	83.88
505.557	74.88
505.773	76.88
505.99	88.88
506.207	83.88
506.423	76.88
506.64	90.88
506.856	91.88
507.073	93.88
507.289	81.88
507.506	81.88
507.722	83.88
507.939	106.88
508.155	102.88
508.372	88.88
508.588	86.88
508.805	95.88
509.021	86.88
509.238	93.88
509.454	99.88
509.67	100.88
509.887	90.88
510.103	131.88
510.319	171.88
510.536	622.88
510.752	1924.88
510.968	535.88
511.184	122.88
511.401	98.88
511.617	77.88
511.833	82.88
512.049	89.88
512.265	77.88
512.481	84.88
512.698	81.88
512.914	94.88
513.13	94.88
513.346	92.88
513.562	92.88
513.778	92.88
513.994	87.88
514.21	97.88
514.426	98.88
514.642	112.88
514.858	119.88
515.074	138.88
515.29	368.88
515.506	1176.88
515.721	438.88
515.937	135.88
516.153	110.88
516.369	97.88
516.585	88.88
516.801	94.88
517.016	76.88
517.232	75.88
517.448	91.88
517.664	82.88
517.879	84.88
