Data from Uncirc_1996_H10_HRD10591_00057.txt Node
Date: Wed Jan 03 11:32:13 EST 2024
User: Yrep
Spectrometer: HR+D1059
Trigger mode: 1
Integration Time (sec): 1.000000E-1
Scans to average: 1
Electric dark correction enabled: true
Nonlinearity correction enabled: false
Boxcar width: 0
XAxis mode: Wavelengths
Number of Pixels in Spectrum: 2048
>>>>>Begin Spectral Data<<<<<
223.165	-16.19
223.4	-16.19
223.635	-16.19
223.869	-23.19
224.104	-30.19
224.338	-10.19
224.573	-12.19
224.808	-27.19
225.042	-4.19
225.277	4.81
225.511	6.81
225.746	7.81
225.98	12.81
226.215	11.81
226.449	3.81
226.683	32.81
226.918	21.81
227.152	20.81
227.387	32.81
227.621	36.81
227.856	40.81
228.09	52.81
228.324	48.81
228.559	62.81
228.793	55.81
229.027	68.81
229.262	56.81
229.496	69.81
229.73	75.81
229.964	84.81
230.199	74.81
230.433	78.81
230.667	78.81
230.901	69.81
231.136	69.81
231.37	73.81
231.604	80.81
231.838	82.81
232.072	86.81
232.306	85.81
232.541	84.81
232.775	75.81
233.009	72.81
233.243	81.81
233.477	85.81
233.711	83.81
233.945	83.81
234.179	85.81
234.413	82.81
234.647	90.81
234.881	86.81
235.115	65.81
235.349	82.81
235.583	90.81
235.817	72.81
236.051	80.81
236.285	75.81
236.519	83.81
236.753	81.81
236.987	66.81
237.221	85.81
237.455	83.81
237.689	72.81
237.922	77.81
238.156	68.81
238.39	74.81
238.624	59.81
238.858	65.81
239.091	64.81
239.325	78.81
239.559	74.81
239.793	75.81
240.027	80.81
240.26	70.81
240.494	84.81
240.728	79.81
240.961	76.81
241.195	81.81
241.429	79.81
241.662	72.81
241.896	74.81
242.13	76.81
242.363	71.81
242.597	65.81
242.83	72.81
243.064	78.81
243.298	83.81
243.531	77.81
243.765	74.81
243.998	79.81
244.232	69.81
244.465	65.81
244.699	78.81
244.932	64.81
245.166	76.81
245.399	70.81
245.633	72.81
245.866	77.81
246.099	78.81
246.333	67.81
246.566	65.81
246.8	83.81
247.033	79.81
247.266	83.81
247.5	81.81
247.733	76.81
247.966	84.81
248.2	76.81
248.433	70.81
248.666	84.81
248.899	75.81
249.133	78.81
249.366	84.81
249.599	109.81
249.832	83.81
250.066	77.81
250.299	95.81
250.532	67.81
250.765	89.81
250.998	67.81
251.231	83.81
251.465	78.81
251.698	76.81
251.931	89.81
252.164	69.81
252.397	78.81
252.63	81.81
252.863	78.81
253.096	80.81
253.329	78.81
253.562	77.81
253.795	86.81
254.028	85.81
254.261	91.81
254.494	91.81
254.727	80.81
254.96	81.81
255.193	89.81
255.426	78.81
255.659	62.81
255.892	72.81
256.124	71.81
256.357	85.81
256.59	79.81
256.823	91.81
257.056	83.81
257.289	72.81
257.521	94.81
257.754	76.81
257.987	65.81
258.22	74.81
258.452	83.81
258.685	92.81
258.918	89.81
259.151	83.81
259.383	77.81
259.616	74.81
259.849	78.81
260.081	84.81
260.314	93.81
260.547	70.81
260.779	82.81
261.012	86.81
261.244	75.81
261.477	96.81
261.71	90.81
261.942	120.81
262.175	107.81
262.407	82.81
262.64	75.81
262.872	79.81
263.105	89.81
263.337	94.81
263.57	90.81
263.802	97.81
264.035	84.81
264.267	89.81
264.499	82.81
264.732	79.81
264.964	84.81
265.197	74.81
265.429	75.81
265.661	80.81
265.894	90.81
266.126	90.81
266.358	78.81
266.591	88.81
266.823	83.81
267.055	77.81
267.287	79.81
267.52	93.81
267.752	83.81
267.984	82.81
268.216	102.81
268.448	85.81
268.681	68.81
268.913	85.81
269.145	77.81
269.377	98.81
269.609	83.81
269.841	69.81
270.073	81.81
270.306	86.81
270.538	81.81
270.77	86.81
271.002	83.81
271.234	74.81
271.466	81.81
271.698	83.81
271.93	70.81
272.162	91.81
272.394	91.81
272.626	82.81
272.858	106.81
273.09	78.81
273.322	74.81
273.553	77.81
273.785	90.81
274.017	82.81
274.249	90.81
274.481	101.81
274.713	76.81
274.945	82.81
275.176	76.81
275.408	91.81
275.64	68.81
275.872	82.81
276.104	79.81
276.335	95.81
276.567	95.81
276.799	107.81
277.031	106.81
277.262	83.81
277.494	95.81
277.726	87.81
277.957	91.81
278.189	91.81
278.421	77.81
278.652	75.81
278.884	87.81
279.115	96.81
279.347	71.81
279.579	73.81
279.81	78.81
280.042	79.81
280.273	86.81
280.505	82.81
280.736	72.81
280.968	86.81
281.199	89.81
281.431	96.81
281.662	84.81
281.894	77.81
282.125	105.81
282.356	121.81
282.588	123.81
282.819	112.81
283.051	98.81
283.282	87.81
283.513	91.81
283.745	86.81
283.976	70.81
284.207	90.81
284.439	93.81
284.67	88.81
284.901	81.81
285.132	90.81
285.364	85.81
285.595	96.81
285.826	68.81
286.057	89.81
286.288	85.81
286.52	81.81
286.751	87.81
286.982	104.81
287.213	93.81
287.444	88.81
287.675	80.81
287.906	86.81
288.138	88.81
288.369	84.81
288.6	86.81
288.831	98.81
289.062	101.81
289.293	87.81
289.524	91.81
289.755	68.81
289.986	84.81
290.217	87.81
290.448	88.81
290.679	91.81
290.91	81.81
291.141	87.81
291.371	98.81
291.602	92.81
291.833	81.81
292.064	88.81
292.295	96.81
292.526	88.81
292.757	98.81
292.987	94.81
293.218	88.81
293.449	93.81
293.68	79.81
293.91	79.81
294.141	83.81
294.372	92.81
294.603	80.81
294.833	88.81
295.064	87.81
295.295	88.81
295.525	92.81
295.756	97.81
295.987	116.81
296.217	124.81
296.448	119.81
296.679	97.81
296.909	100.81
297.14	79.81
297.37	106.81
297.601	81.81
297.831	88.81
298.062	94.81
298.292	99.81
298.523	83.81
298.753	85.81
298.984	85.81
299.214	83.81
299.445	91.81
299.675	88.81
299.905	81.81
300.136	78.81
300.366	108.81
300.597	91.81
300.827	99.81
301.057	95.81
301.288	105.81
301.518	92.81
301.748	79.81
301.979	94.81
302.209	87.81
302.439	92.81
302.669	89.81
302.9	86.81
303.13	87.81
303.36	96.81
303.59	93.81
303.82	86.81
304.051	90.81
304.281	81.81
304.511	104.81
304.741	93.81
304.971	88.81
305.201	87.81
305.431	85.81
305.661	88.81
305.891	81.81
306.121	90.81
306.352	89.81
306.582	93.81
306.812	92.81
307.042	99.81
307.272	91.81
307.502	95.81
307.731	82.81
307.961	88.81
308.191	83.81
308.421	90.81
308.651	80.81
308.881	78.81
309.111	96.81
309.341	98.81
309.571	85.81
309.8	103.81
310.03	99.81
310.26	99.81
310.49	93.81
310.72	106.81
310.949	108.81
311.179	105.81
311.409	110.81
311.639	91.81
311.868	92.81
312.098	84.81
312.328	103.81
312.557	111.81
312.787	100.81
313.017	103.81
313.246	105.81
313.476	102.81
313.706	98.81
313.935	90.81
314.165	94.81
314.394	111.81
314.624	95.81
314.853	89.81
315.083	91.81
315.312	98.81
315.542	91.81
315.771	93.81
316.001	77.81
316.23	92.81
316.46	104.81
316.689	75.81
316.919	98.81
317.148	100.81
317.377	107.81
317.607	91.81
317.836	93.81
318.065	93.81
318.295	100.81
318.524	93.81
318.753	83.81
318.983	83.81
319.212	114.81
319.441	110.81
319.67	108.81
319.9	106.81
320.129	89.81
320.358	107.81
320.587	92.81
320.816	96.81
321.046	96.81
321.275	97.81
321.504	96.81
321.733	85.81
321.962	93.81
322.191	101.81
322.42	104.81
322.649	110.81
322.878	117.81
323.108	109.81
323.337	113.81
323.566	127.81
323.795	148.81
324.024	195.81
324.253	359.81
324.482	803.81
324.71	1665.81
324.939	2190.81
325.168	774.81
325.397	230.81
325.626	132.81
325.855	130.81
326.084	131.81
326.313	121.81
326.542	144.81
326.77	216.81
326.999	432.81
327.228	905.81
327.457	1739.81
327.686	1345.81
327.914	368.81
328.143	207.81
328.372	160.81
328.6	125.81
328.829	107.81
329.058	132.81
329.287	130.81
329.515	112.81
329.744	108.81
329.972	105.81
330.201	83.81
330.43	100.81
330.658	123.81
330.887	155.81
331.115	121.81
331.344	109.81
331.572	95.81
331.801	109.81
332.03	110.81
332.258	97.81
332.486	86.81
332.715	91.81
332.943	84.81
333.172	87.81
333.4	108.81
333.629	108.81
333.857	107.81
334.085	99.81
334.314	89.81
334.542	98.81
334.771	94.81
334.999	98.81
335.227	98.81
335.455	98.81
335.684	94.81
335.912	89.81
336.14	94.81
336.369	95.81
336.597	100.81
336.825	115.81
337.053	90.81
337.281	78.81
337.51	102.81
337.738	100.81
337.966	102.81
338.194	90.81
338.422	100.81
338.65	98.81
338.878	99.81
339.106	98.81
339.334	90.81
339.562	107.81
339.79	88.81
340.018	97.81
340.246	88.81
340.474	82.81
340.702	115.81
340.93	100.81
341.158	79.81
341.386	90.81
341.614	88.81
341.842	81.81
342.07	87.81
342.298	94.81
342.526	103.81
342.754	93.81
342.981	91.81
343.209	79.81
343.437	103.81
343.665	98.81
343.893	98.81
344.12	79.81
344.348	94.81
344.576	91.81
344.804	100.81
345.031	97.81
345.259	112.81
345.487	98.81
345.714	92.81
345.942	102.81
346.17	102.81
346.397	99.81
346.625	99.81
346.853	103.81
347.08	96.81
347.308	100.81
347.535	90.81
347.763	83.81
347.99	98.81
348.218	87.81
348.445	99.81
348.673	105.81
348.9	88.81
349.128	94.81
349.355	82.81
349.583	100.81
349.81	105.81
350.037	98.81
350.265	91.81
350.492	88.81
350.72	94.81
350.947	109.81
351.174	106.81
351.402	105.81
351.629	96.81
351.856	116.81
352.083	99.81
352.311	100.81
352.538	115.81
352.765	100.81
352.992	103.81
353.22	104.81
353.447	104.81
353.674	99.81
353.901	100.81
354.128	93.81
354.355	96.81
354.583	99.81
354.81	97.81
355.037	104.81
355.264	94.81
355.491	100.81
355.718	96.81
355.945	101.81
356.172	94.81
356.399	83.81
356.626	97.81
356.853	88.81
357.08	95.81
357.307	103.81
357.534	93.81
357.761	93.81
357.988	90.81
358.215	93.81
358.441	93.81
358.668	98.81
358.895	80.81
359.122	87.81
359.349	86.81
359.576	100.81
359.802	111.81
360.029	109.81
360.256	111.81
360.483	99.81
360.709	95.81
360.936	99.81
361.163	88.81
361.39	94.81
361.616	92.81
361.843	92.81
362.07	98.81
362.296	90.81
362.523	94.81
362.749	102.81
362.976	91.81
363.203	83.81
363.429	83.81
363.656	101.81
363.882	84.81
364.109	95.81
364.335	87.81
364.562	94.81
364.788	92.81
365.015	94.81
365.241	98.81
365.468	102.81
365.694	104.81
365.92	97.81
366.147	97.81
366.373	102.81
366.599	82.81
366.826	95.81
367.052	89.81
367.278	81.81
367.505	103.81
367.731	89.81
367.957	93.81
368.184	74.81
368.41	102.81
368.636	110.81
368.862	117.81
369.089	100.81
369.315	102.81
369.541	102.81
369.767	88.81
369.993	98.81
370.219	96.81
370.445	99.81
370.672	92.81
370.898	95.81
371.124	90.81
371.35	90.81
371.576	83.81
371.802	87.81
372.028	92.81
372.254	86.81
372.48	104.81
372.706	98.81
372.932	84.81
373.158	84.81
373.384	91.81
373.61	90.81
373.835	89.81
374.061	87.81
374.287	87.81
374.513	73.81
374.739	95.81
374.965	100.81
375.191	84.81
375.416	98.81
375.642	78.81
375.868	82.81
376.094	82.81
376.319	77.81
376.545	73.81
376.771	86.81
376.997	86.81
377.222	81.81
377.448	100.81
377.674	94.81
377.899	95.81
378.125	82.81
378.35	93.81
378.576	95.81
378.802	84.81
379.027	85.81
379.253	84.81
379.478	91.81
379.704	74.81
379.929	92.81
380.155	96.81
380.38	94.81
380.606	86.81
380.831	94.81
381.057	92.81
381.282	84.81
381.507	83.81
381.733	96.81
381.958	87.81
382.184	96.81
382.409	88.81
382.634	80.81
382.86	113.81
383.085	113.81
383.31	91.81
383.535	102.81
383.761	104.81
383.986	104.81
384.211	91.81
384.436	94.81
384.662	105.81
384.887	107.81
385.112	101.81
385.337	104.81
385.562	92.81
385.787	88.81
386.013	97.81
386.238	122.81
386.463	113.81
386.688	109.81
386.913	103.81
387.138	117.81
387.363	98.81
387.588	89.81
387.813	98.81
388.038	100.81
388.263	106.81
388.488	100.81
388.713	91.81
388.938	90.81
389.163	79.81
389.387	84.81
389.612	84.81
389.837	89.81
390.062	91.81
390.287	98.81
390.512	92.81
390.736	95.81
390.961	95.81
391.186	87.81
391.411	94.81
391.636	101.81
391.86	93.81
392.085	91.81
392.31	91.81
392.534	94.81
392.759	84.81
392.984	94.81
393.208	93.81
393.433	94.81
393.658	66.81
393.882	86.81
394.107	86.81
394.331	96.81
394.556	90.81
394.78	88.81
395.005	78.81
395.229	86.81
395.454	86.81
395.678	80.81
395.903	96.81
396.127	80.81
396.352	93.81
396.576	84.81
396.801	87.81
397.025	88.81
397.249	95.81
397.474	81.81
397.698	83.81
397.922	95.81
398.147	87.81
398.371	83.81
398.595	93.81
398.82	91.81
399.044	94.81
399.268	84.81
399.492	87.81
399.717	91.81
399.941	93.81
400.165	94.81
400.389	112.81
400.613	105.81
400.837	94.81
401.062	86.81
401.286	74.81
401.51	79.81
401.734	91.81
401.958	95.81
402.182	110.81
402.406	147.81
402.63	114.81
402.854	91.81
403.078	99.81
403.302	87.81
403.526	82.81
403.75	88.81
403.974	90.81
404.198	74.81
404.422	86.81
404.645	82.81
404.869	96.81
405.093	88.81
405.317	90.81
405.541	106.81
405.765	110.81
405.988	116.81
406.212	189.81
406.436	218.81
406.66	150.81
406.883	109.81
407.107	77.81
407.331	91.81
407.555	106.81
407.778	104.81
408.002	84.81
408.226	86.81
408.449	90.81
408.673	88.81
408.896	98.81
409.12	89.81
409.344	99.81
409.567	80.81
409.791	92.81
410.014	94.81
410.238	89.81
410.461	92.81
410.685	86.81
410.908	101.81
411.132	98.81
411.355	96.81
411.578	96.81
411.802	86.81
412.025	73.81
412.249	93.81
412.472	97.81
412.695	88.81
412.919	82.81
413.142	82.81
413.365	96.81
413.589	98.81
413.812	85.81
414.035	86.81
414.258	92.81
414.482	81.81
414.705	94.81
414.928	95.81
415.151	96.81
415.374	95.81
415.597	87.81
415.821	94.81
416.044	98.81
416.267	87.81
416.49	82.81
416.713	92.81
416.936	85.81
417.159	87.81
417.382	88.81
417.605	89.81
417.828	91.81
418.051	78.81
418.274	82.81
418.497	97.81
418.72	102.81
418.943	89.81
419.166	88.81
419.389	87.81
419.611	95.81
419.834	85.81
420.057	76.81
420.28	93.81
420.503	78.81
420.726	99.81
420.948	96.81
421.171	92.81
421.394	88.81
421.617	92.81
421.839	90.81
422.062	98.81
422.285	96.81
422.507	90.81
422.73	103.81
422.953	90.81
423.175	93.81
423.398	91.81
423.621	103.81
423.843	88.81
424.066	84.81
424.288	88.81
424.511	83.81
424.733	92.81
424.956	99.81
425.178	107.81
425.401	118.81
425.623	94.81
425.846	100.81
426.068	103.81
426.291	91.81
426.513	89.81
426.735	99.81
426.958	103.81
427.18	102.81
427.402	144.81
427.625	175.81
427.847	119.81
428.069	90.81
428.292	94.81
428.514	94.81
428.736	78.81
428.958	73.81
429.181	87.81
429.403	94.81
429.625	76.81
429.847	96.81
430.069	93.81
430.292	93.81
430.514	80.81
430.736	90.81
430.958	80.81
431.18	80.81
431.402	74.81
431.624	81.81
431.846	77.81
432.068	88.81
432.29	96.81
432.512	73.81
432.734	100.81
432.956	80.81
433.178	94.81
433.4	89.81
433.622	98.81
433.844	77.81
434.066	98.81
434.287	97.81
434.509	89.81
434.731	102.81
434.953	75.81
435.175	79.81
435.397	99.81
435.618	98.81
435.84	102.81
436.062	111.81
436.284	109.81
436.505	111.81
436.727	97.81
436.949	87.81
437.17	79.81
437.392	105.81
437.614	99.81
437.835	111.81
438.057	122.81
438.278	119.81
438.5	99.81
438.721	117.81
438.943	99.81
439.165	96.81
439.386	89.81
439.608	100.81
439.829	93.81
440.05	123.81
440.272	142.81
440.493	99.81
440.715	89.81
440.936	87.81
441.158	90.81
441.379	87.81
441.6	98.81
441.822	90.81
442.043	87.81
442.264	99.81
442.486	97.81
442.707	86.81
442.928	108.81
443.149	141.81
443.371	128.81
443.592	106.81
443.813	108.81
444.034	113.81
444.255	97.81
444.476	84.81
444.698	84.81
444.919	91.81
445.14	141.81
445.361	116.81
445.582	115.81
445.803	139.81
446.024	124.81
446.245	135.81
446.466	109.81
446.687	95.81
446.908	90.81
447.129	96.81
447.35	87.81
447.571	90.81
447.792	97.81
448.013	108.81
448.234	105.81
448.455	100.81
448.675	107.81
448.896	113.81
449.117	96.81
449.338	100.81
449.559	124.81
449.779	132.81
450	90.81
450.221	92.81
450.442	90.81
450.662	111.81
450.883	104.81
451.104	123.81
451.324	95.81
451.545	86.81
451.766	94.81
451.986	83.81
452.207	94.81
452.428	89.81
452.648	81.81
452.869	113.81
453.089	101.81
453.31	113.81
453.53	104.81
453.751	104.81
453.971	94.81
454.192	94.81
454.412	89.81
454.633	97.81
454.853	101.81
455.073	80.81
455.294	85.81
455.514	114.81
455.734	97.81
455.955	94.81
456.175	78.81
456.395	88.81
456.616	88.81
456.836	78.81
457.056	95.81
457.276	90.81
457.497	93.81
457.717	80.81
457.937	82.81
458.157	71.81
458.377	100.81
458.598	107.81
458.818	148.81
459.038	162.81
459.258	117.81
459.478	84.81
459.698	86.81
459.918	78.81
460.138	82.81
460.358	78.81
460.578	80.81
460.798	87.81
461.018	93.81
461.238	99.81
461.458	84.81
461.678	87.81
461.898	80.81
462.118	79.81
462.338	86.81
462.558	82.81
462.777	86.81
462.997	82.81
463.217	102.81
463.437	83.81
463.657	80.81
463.876	96.81
464.096	91.81
464.316	92.81
464.536	109.81
464.755	100.81
464.975	115.81
465.195	152.81
465.414	157.81
465.634	89.81
465.854	88.81
466.073	95.81
466.293	90.81
466.512	96.81
466.732	83.81
466.951	94.81
467.171	88.81
467.391	92.81
467.61	96.81
467.829	91.81
468.049	82.81
468.268	91.81
468.488	104.81
468.707	97.81
468.927	89.81
469.146	80.81
469.365	67.81
469.585	85.81
469.804	93.81
470.023	102.81
470.243	89.81
470.462	92.81
470.681	89.81
470.901	98.81
471.12	87.81
471.339	72.81
471.558	96.81
471.777	99.81
471.997	85.81
472.216	85.81
472.435	92.81
472.654	100.81
472.873	90.81
473.092	81.81
473.311	86.81
473.53	78.81
473.749	90.81
473.968	86.81
474.187	116.81
474.406	98.81
474.625	96.81
474.844	79.81
475.063	83.81
475.282	86.81
475.501	82.81
475.72	110.81
475.939	84.81
476.158	81.81
476.377	90.81
476.596	91.81
476.814	96.81
477.033	96.81
477.252	77.81
477.471	84.81
477.69	114.81
477.908	75.81
478.127	90.81
478.346	76.81
478.564	90.81
478.783	94.81
479.002	99.81
479.22	83.81
479.439	95.81
479.658	120.81
479.876	83.81
480.095	99.81
480.313	90.81
480.532	86.81
480.751	78.81
480.969	81.81
481.188	111.81
481.406	88.81
481.624	104.81
481.843	81.81
482.061	88.81
482.28	92.81
482.498	86.81
482.717	73.81
482.935	75.81
483.153	90.81
483.372	85.81
483.59	89.81
483.808	93.81
484.027	79.81
484.245	97.81
484.463	91.81
484.681	77.81
484.9	82.81
485.118	81.81
485.336	74.81
485.554	103.81
485.772	105.81
485.99	110.81
486.209	111.81
486.427	102.81
486.645	115.81
486.863	118.81
487.081	100.81
487.299	91.81
487.517	90.81
487.735	92.81
487.953	93.81
488.171	96.81
488.389	94.81
488.607	92.81
488.825	81.81
489.043	87.81
489.261	87.81
489.479	74.81
489.696	92.81
489.914	79.81
490.132	100.81
490.35	80.81
490.568	94.81
490.786	86.81
491.003	90.81
491.221	91.81
491.439	92.81
491.657	81.81
491.874	85.81
492.092	103.81
492.31	104.81
492.527	73.81
492.745	86.81
492.963	99.81
493.18	85.81
493.398	79.81
493.615	94.81
493.833	90.81
494.05	100.81
494.268	87.81
494.485	77.81
494.703	87.81
494.92	99.81
495.138	107.81
495.355	91.81
495.573	107.81
495.79	86.81
496.008	93.81
496.225	87.81
496.442	87.81
496.66	93.81
496.877	83.81
497.094	94.81
497.312	86.81
497.529	93.81
497.746	92.81
497.963	88.81
498.181	101.81
498.398	100.81
498.615	99.81
498.832	88.81
499.049	100.81
499.267	92.81
499.484	83.81
499.701	87.81
499.918	89.81
500.135	85.81
500.352	110.81
500.569	100.81
500.786	84.81
501.003	100.81
501.22	84.81
501.437	100.81
501.654	91.81
501.871	125.81
502.088	93.81
502.305	81.81
502.522	81.81
502.739	77.81
502.956	103.81
503.172	91.81
503.389	92.81
503.606	103.81
503.823	90.81
504.04	103.81
504.256	89.81
504.473	88.81
504.69	89.81
504.907	100.81
505.123	90.81
505.34	90.81
505.557	93.81
505.773	89.81
505.99	106.81
506.207	90.81
506.423	82.81
506.64	93.81
506.856	81.81
507.073	104.81
507.289	97.81
507.506	92.81
507.722	108.81
507.939	104.81
508.155	99.81
508.372	83.81
508.588	113.81
508.805	99.81
509.021	95.81
509.238	97.81
509.454	102.81
509.67	105.81
509.887	105.81
510.103	122.81
510.319	209.81
510.536	676.81
510.752	2168.81
510.968	605.81
511.184	136.81
511.401	115.81
511.617	113.81
511.833	96.81
512.049	86.81
512.265	95.81
512.481	93.81
512.698	83.81
512.914	96.81
513.13	89.81
513.346	98.81
513.562	84.81
513.778	96.81
513.994	97.81
514.21	112.81
514.426	108.81
514.642	137.81
514.858	118.81
515.074	171.81
515.29	434.81
515.506	1352.81
515.721	506.81
