Data from Uncirc_1996_H10_HRD10591_00095.txt Node
Date: Wed Jan 03 11:32:21 EST 2024
User: Yrep
Spectrometer: HR+D1059
Trigger mode: 1
Integration Time (sec): 1.000000E-1
Scans to average: 1
Electric dark correction enabled: true
Nonlinearity correction enabled: false
Boxcar width: 0
XAxis mode: Wavelengths
Number of Pixels in Spectrum: 2048
>>>>>Begin Spectral Data<<<<<
223.165	-20.12
223.4	-20.12
223.635	-20.12
223.869	-26.12
224.104	-23.12
224.338	-18.12
224.573	-9.12
224.808	-13.12
225.042	0.88
225.277	-5.12
225.511	2.88
225.746	6.88
225.98	2.88
226.215	18.88
226.449	13.88
226.683	15.88
226.918	26.88
227.152	25.88
227.387	34.88
227.621	30.88
227.856	32.88
228.09	50.88
228.324	53.88
228.559	59.88
228.793	151.88
229.027	444.88
229.262	523.88
229.496	626.88
229.73	813.88
229.964	840.88
230.199	567.88
230.433	474.88
230.667	499.88
230.901	483.88
231.136	465.88
231.37	460.88
231.604	458.88
231.838	463.88
232.072	459.88
232.306	471.88
232.541	469.88
232.775	453.88
233.009	474.88
233.243	488.88
233.477	482.88
233.711	500.88
233.945	515.88
234.179	515.88
234.413	522.88
234.647	519.88
234.881	517.88
235.115	536.88
235.349	568.88
235.583	607.88
235.817	606.88
236.051	635.88
236.285	633.88
236.519	635.88
236.753	720.88
236.987	922.88
237.221	1442.88
237.455	1614.88
237.689	937.88
237.922	756.88
238.156	748.88
238.39	668.88
238.624	663.88
238.858	667.88
239.091	658.88
239.325	673.88
239.559	717.88
239.793	717.88
240.027	798.88
240.26	941.88
240.494	990.88
240.728	977.88
240.961	922.88
241.195	819.88
241.429	790.88
241.662	778.88
241.896	762.88
242.13	801.88
242.363	793.88
242.597	813.88
242.83	825.88
243.064	834.88
243.298	850.88
243.531	811.88
243.765	854.88
243.998	853.88
244.232	861.88
244.465	894.88
244.699	916.88
244.932	927.88
245.166	930.88
245.399	896.88
245.633	928.88
245.866	930.88
246.099	954.88
246.333	947.88
246.566	982.88
246.8	992.88
247.033	1020.88
247.266	1072.88
247.5	1138.88
247.733	1185.88
247.966	1162.88
248.2	1184.88
248.433	1206.88
248.666	1261.88
248.899	1359.88
249.133	1480.88
249.366	1415.88
249.599	1341.88
249.832	1225.88
250.066	1243.88
250.299	1265.88
250.532	1351.88
250.765	1546.88
250.998	1762.88
251.231	1654.88
251.465	1557.88
251.698	1442.88
251.931	1402.88
252.164	1409.88
252.397	1437.88
252.63	1471.88
252.863	1562.88
253.096	1705.88
253.329	1751.88
253.562	1710.88
253.795	1615.88
254.028	1573.88
254.261	1650.88
254.494	1873.88
254.727	2197.88
254.96	2309.88
255.193	1988.88
255.426	1781.88
255.659	1643.88
255.892	1589.88
256.124	1582.88
256.357	1537.88
256.59	1507.88
256.823	1516.88
257.056	1506.88
257.289	1562.88
257.521	1563.88
257.754	1580.88
257.987	1518.88
258.22	1533.88
258.452	1554.88
258.685	1585.88
258.918	1636.88
259.151	1670.88
259.383	1742.88
259.616	1749.88
259.849	1809.88
260.081	1975.88
260.314	2205.88
260.547	2069.88
260.779	1910.88
261.012	1831.88
261.244	1740.88
261.477	1702.88
261.71	1712.88
261.942	1793.88
262.175	1835.88
262.407	1741.88
262.64	1677.88
262.872	1691.88
263.105	1692.88
263.337	1687.88
263.57	1703.88
263.802	1724.88
264.035	1703.88
264.267	1721.88
264.499	1694.88
264.732	1697.88
264.964	1745.88
265.197	1769.88
265.429	1763.88
265.661	1759.88
265.894	1727.88
266.126	1793.88
266.358	1809.88
266.591	1816.88
266.823	1890.88
267.055	1879.88
267.287	1889.88
267.52	1877.88
267.752	1845.88
267.984	1917.88
268.216	1950.88
268.448	1979.88
268.681	2012.88
268.913	2203.88
269.145	2410.88
269.377	2465.88
269.609	2329.88
269.841	2335.88
270.073	2474.88
270.306	2711.88
270.538	2912.88
270.77	2754.88
271.002	2557.88
271.234	2491.88
271.466	2730.88
271.698	2843.88
271.93	2881.88
272.162	2873.88
272.394	2754.88
272.626	2618.88
272.858	2486.88
273.09	2416.88
273.322	2352.88
273.553	2316.88
273.785	2290.88
274.017	2277.88
274.249	2334.88
274.481	2265.88
274.713	2313.88
274.945	2350.88
275.176	2333.88
275.408	2310.88
275.64	2293.88
275.872	2312.88
276.104	2349.88
276.335	2399.88
276.567	2461.88
276.799	2616.88
277.031	2812.88
277.262	2998.88
277.494	2837.88
277.726	2635.88
277.957	2526.88
278.189	2509.88
278.421	2443.88
278.652	2453.88
278.884	2417.88
279.115	2411.88
279.347	2419.88
279.579	2411.88
279.81	2456.88
280.042	2439.88
280.273	2466.88
280.505	2498.88
280.736	2480.88
280.968	2440.88
281.199	2446.88
281.431	2531.88
281.662	2495.88
281.894	2546.88
282.125	2595.88
282.356	2774.88
282.588	2854.88
282.819	2733.88
283.051	2589.88
283.282	2567.88
283.513	2654.88
283.745	2672.88
283.976	2736.88
284.207	2690.88
284.439	2681.88
284.67	2701.88
284.901	2708.88
285.132	2701.88
285.364	2677.88
285.595	2663.88
285.826	2743.88
286.057	2726.88
286.288	2714.88
286.52	2731.88
286.751	2734.88
286.982	2780.88
287.213	2779.88
287.444	2777.88
287.675	2853.88
287.906	2975.88
288.138	2976.88
288.369	3009.88
288.6	2979.88
288.831	2943.88
289.062	2905.88
289.293	2861.88
289.524	2863.88
289.755	2883.88
289.986	2856.88
290.217	2808.88
290.448	2891.88
290.679	2885.88
290.91	2854.88
291.141	2838.88
291.371	2900.88
291.602	2890.88
291.833	2896.88
292.064	2878.88
292.295	2911.88
292.526	2913.88
292.757	2897.88
292.987	2876.88
293.218	2863.88
293.449	2968.88
293.68	2925.88
293.91	2914.88
294.141	2971.88
294.372	2908.88
294.603	2993.88
294.833	2977.88
295.064	2916.88
295.295	2984.88
295.525	2956.88
295.756	3018.88
295.987	3154.88
296.217	3253.88
296.448	3197.88
296.679	3032.88
296.909	3049.88
297.14	3035.88
297.37	3099.88
297.601	3147.88
297.831	3126.88
298.062	3105.88
298.292	3159.88
298.523	3200.88
298.753	3177.88
298.984	3162.88
299.214	3190.88
299.445	3192.88
299.675	3170.88
299.905	3245.88
300.136	3229.88
300.366	3273.88
300.597	3289.88
300.827	3363.88
301.057	3391.88
301.288	3435.88
301.518	3427.88
301.748	3463.88
301.979	3505.88
302.209	3429.88
302.439	3494.88
302.669	3441.88
302.9	3377.88
303.13	3415.88
303.36	3372.88
303.59	3493.88
303.82	3486.88
304.051	3453.88
304.281	3434.88
304.511	3418.88
304.741	3390.88
304.971	3405.88
305.201	3358.88
305.431	3324.88
305.661	3362.88
305.891	3361.88
306.121	3365.88
306.352	3441.88
306.582	3456.88
306.812	3311.88
307.042	3375.88
307.272	3365.88
307.502	3397.88
307.731	3370.88
307.961	3361.88
308.191	3422.88
308.421	3381.88
308.651	3341.88
308.881	3413.88
309.111	3467.88
309.341	3451.88
309.571	3543.88
309.8	3566.88
310.03	3720.88
310.26	3660.88
310.49	3665.88
310.72	3761.88
310.949	3872.88
311.179	3824.88
311.409	3741.88
311.639	3758.88
311.868	3736.88
312.098	3765.88
312.328	3886.88
312.557	4011.88
312.787	4113.88
313.017	3934.88
313.246	3905.88
313.476	3810.88
313.706	3968.88
313.935	4004.88
314.165	4097.88
314.394	4087.88
314.624	4013.88
314.853	3923.88
315.083	3883.88
315.312	3844.88
315.542	3870.88
315.771	3800.88
316.001	3770.88
316.23	3741.88
316.46	3755.88
316.689	3850.88
316.919	3845.88
317.148	3911.88
317.377	3870.88
317.607	3781.88
317.836	3807.88
318.065	3767.88
318.295	3748.88
318.524	3811.88
318.753	3751.88
318.983	3781.88
319.212	3752.88
319.441	3858.88
319.67	3906.88
319.9	3857.88
320.129	3793.88
320.358	3797.88
320.587	3803.88
320.816	3937.88
321.046	3965.88
321.275	3920.88
321.504	3946.88
321.733	3988.88
321.962	3965.88
322.191	4131.88
322.42	4239.88
322.649	4311.88
322.878	4309.88
323.108	4424.88
323.337	4722.88
323.566	4772.88
323.795	5092.88
324.024	5682.88
324.253	7407.88
324.482	11170.88
324.71	15390.88
324.939	15619.88
325.168	13333.88
325.397	6784.88
325.626	5341.88
325.855	4977.88
326.084	4811.88
326.313	4855.88
326.542	5096.88
326.77	5670.88
326.999	7164.88
327.228	10442.88
327.457	14487.88
327.686	13787.88
327.914	7474.88
328.143	5899.88
328.372	5566.88
328.6	5328.88
328.829	5310.88
329.058	5485.88
329.287	5413.88
329.515	5115.88
329.744	4857.88
329.972	4922.88
330.201	4924.88
330.43	5225.88
330.658	5449.88
330.887	5803.88
331.115	5399.88
331.344	5087.88
331.572	5011.88
331.801	5185.88
332.03	5154.88
332.258	5069.88
332.486	5038.88
332.715	5194.88
332.943	5335.88
333.172	5423.88
333.4	5685.88
333.629	5677.88
333.857	5778.88
334.085	5624.88
334.314	5607.88
334.542	5452.88
334.771	5442.88
334.999	5342.88
335.227	5397.88
335.455	5290.88
335.684	5143.88
335.912	5161.88
336.14	5036.88
336.369	5082.88
336.597	5146.88
336.825	5103.88
337.053	5075.88
337.281	4921.88
337.51	4833.88
337.738	4883.88
337.966	4842.88
338.194	4833.88
338.422	4777.88
338.65	4711.88
338.878	4739.88
339.106	4719.88
339.334	4721.88
339.562	4579.88
339.79	4454.88
340.018	4525.88
340.246	4533.88
340.474	4550.88
340.702	4546.88
340.93	4589.88
341.158	4563.88
341.386	4567.88
341.614	4573.88
341.842	4546.88
342.07	4437.88
342.298	4428.88
342.526	4421.88
342.754	4415.88
342.981	4475.88
343.209	4583.88
343.437	4822.88
343.665	5053.88
343.893	5345.88
344.12	5356.88
344.348	5119.88
344.576	4927.88
344.804	4891.88
345.031	4815.88
345.259	4700.88
345.487	4502.88
345.714	4563.88
345.942	4405.88
346.17	4357.88
346.397	4325.88
346.625	4333.88
346.853	4317.88
347.08	4345.88
347.308	4375.88
347.535	4427.88
347.763	4457.88
347.99	4368.88
348.218	4429.88
348.445	4435.88
348.673	4308.88
348.9	4335.88
349.128	4207.88
349.355	4159.88
349.583	4249.88
349.81	4204.88
350.037	4141.88
350.265	4133.88
350.492	4162.88
350.72	4203.88
350.947	4223.88
351.174	4338.88
351.402	4301.88
351.629	4246.88
351.856	4349.88
352.083	4364.88
352.311	4345.88
352.538	4381.88
352.765	4369.88
352.992	4259.88
353.22	4266.88
353.447	4226.88
353.674	4210.88
353.901	4070.88
354.128	4030.88
354.355	4091.88
354.583	4095.88
354.81	4070.88
355.037	4078.88
355.264	4021.88
355.491	4032.88
355.718	4053.88
355.945	4054.88
356.172	4103.88
356.399	4104.88
356.626	4097.88
356.853	4004.88
357.08	4039.88
357.307	4035.88
357.534	4122.88
357.761	4073.88
357.988	4103.88
358.215	4125.88
358.441	4142.88
358.668	4116.88
358.895	4188.88
359.122	4239.88
359.349	4283.88
359.576	4402.88
359.802	4640.88
360.029	4710.88
360.256	4720.88
360.483	4506.88
360.709	4399.88
360.936	4323.88
361.163	4313.88
361.39	4335.88
361.616	4301.88
361.843	4284.88
362.07	4290.88
362.296	4295.88
362.523	4298.88
362.749	4272.88
362.976	4256.88
363.203	4235.88
363.429	4138.88
363.656	4199.88
363.882	4205.88
364.109	4108.88
364.335	4183.88
364.562	4202.88
364.788	4133.88
365.015	4169.88
365.241	4136.88
365.468	4160.88
365.694	4256.88
365.92	4209.88
366.147	4155.88
366.373	4210.88
366.599	4168.88
366.826	4118.88
367.052	4129.88
367.278	4182.88
367.505	4198.88
367.731	4217.88
367.957	4178.88
368.184	4257.88
368.41	4301.88
368.636	4368.88
368.862	4402.88
369.089	4329.88
369.315	4267.88
369.541	4285.88
369.767	4298.88
369.993	4337.88
370.219	4343.88
370.445	4305.88
370.672	4314.88
370.898	4360.88
371.124	4391.88
371.35	4454.88
371.576	4372.88
371.802	4425.88
372.028	4446.88
372.254	4421.88
372.48	4540.88
372.706	4606.88
372.932	4540.88
373.158	4592.88
373.384	4524.88
373.61	4442.88
373.835	4513.88
374.061	4503.88
374.287	4563.88
374.513	4621.88
374.739	4804.88
374.965	4870.88
375.191	4921.88
375.416	4771.88
375.642	4678.88
375.868	4672.88
376.094	4583.88
376.319	4584.88
376.545	4555.88
376.771	4534.88
376.997	4443.88
377.222	4484.88
377.448	4439.88
377.674	4360.88
377.899	4426.88
378.125	4407.88
378.35	4449.88
378.576	4414.88
378.802	4363.88
379.027	4363.88
379.253	4412.88
379.478	4432.88
379.704	4379.88
379.929	4451.88
380.155	4378.88
380.38	4439.88
380.606	4504.88
380.831	4443.88
381.057	4503.88
381.282	4502.88
381.507	4485.88
381.733	4479.88
381.958	4579.88
382.184	4638.88
382.409	4682.88
382.634	4704.88
382.86	4779.88
383.085	4809.88
383.31	4828.88
383.535	4920.88
383.761	4959.88
383.986	5020.88
384.211	5118.88
384.436	5181.88
384.662	5257.88
384.887	5351.88
385.112	5376.88
385.337	5375.88
385.562	5406.88
385.787	5376.88
386.013	5437.88
386.238	5509.88
386.463	5467.88
386.688	5439.88
386.913	5286.88
387.138	5295.88
387.363	5297.88
387.588	5268.88
387.813	5324.88
388.038	5295.88
388.263	5272.88
388.488	5307.88
388.713	5268.88
388.938	5259.88
389.163	5309.88
389.387	5320.88
389.612	5197.88
389.837	5311.88
390.062	5169.88
390.287	5238.88
390.512	5283.88
390.736	5287.88
390.961	5463.88
391.186	5510.88
391.411	5587.88
391.636	5735.88
391.86	5954.88
392.085	5992.88
392.31	5875.88
392.534	5725.88
392.759	5680.88
392.984	5568.88
393.208	5499.88
393.433	5565.88
393.658	5556.88
393.882	5533.88
394.107	5497.88
394.331	5637.88
394.556	5597.88
394.78	5630.88
395.005	5679.88
395.229	5715.88
395.454	5921.88
395.678	6070.88
395.903	6001.88
396.127	6035.88
396.352	5913.88
396.576	5685.88
396.801	5641.88
397.025	5805.88
397.249	5867.88
397.474	6000.88
397.698	6055.88
397.922	6167.88
398.147	6295.88
398.371	6356.88
398.595	6561.88
398.82	6773.88
399.044	7351.88
399.268	8183.88
399.492	9299.88
399.717	9868.88
399.941	9625.88
400.165	8987.88
400.389	8265.88
400.613	7420.88
400.837	6999.88
401.062	6903.88
401.286	6780.88
401.51	6684.88
401.734	6651.88
401.958	6837.88
402.182	6923.88
402.406	7017.88
402.63	7222.88
402.854	7227.88
403.078	7332.88
403.302	7439.88
403.526	7544.88
403.75	7658.88
403.974	7703.88
404.198	7625.88
404.422	7734.88
404.645	7656.88
404.869	7477.88
405.093	7591.88
405.317	7692.88
405.541	7733.88
405.765	7433.88
405.988	7415.88
406.212	7608.88
406.436	7841.88
406.66	7973.88
406.883	7996.88
407.107	8583.88
407.331	9203.88
407.555	9704.88
407.778	9344.88
408.002	8542.88
408.226	8200.88
408.449	7957.88
408.673	7761.88
408.896	8051.88
409.12	8148.88
409.344	7752.88
409.567	7450.88
409.791	7349.88
410.014	7229.88
410.238	7213.88
410.461	7213.88
410.685	7257.88
410.908	7364.88
411.132	7632.88
411.355	7634.88
411.578	7230.88
411.802	6975.88
412.025	6930.88
412.249	7027.88
412.472	6975.88
412.695	6881.88
412.919	6594.88
413.142	6618.88
413.365	6587.88
413.589	6728.88
413.812	6588.88
414.035	6460.88
414.258	6577.88
414.482	6555.88
414.705	6670.88
414.928	6662.88
415.151	6626.88
415.374	6581.88
415.597	6535.88
415.821	6434.88
416.044	6434.88
416.267	6422.88
416.49	6462.88
416.713	6343.88
416.936	6485.88
417.159	6531.88
417.382	6619.88
417.605	6585.88
417.828	6715.88
418.051	6930.88
418.274	6698.88
418.497	6652.88
418.72	6810.88
418.943	6697.88
419.166	7149.88
419.389	7548.88
419.611	7360.88
419.834	7043.88
420.057	7003.88
420.28	6728.88
420.503	6557.88
420.726	6636.88
420.948	6766.88
421.171	7281.88
421.394	7189.88
421.617	6724.88
421.839	6753.88
422.062	6873.88
422.285	7028.88
422.507	7626.88
422.73	8281.88
422.953	7609.88
423.175	7282.88
423.398	7214.88
423.621	7257.88
423.843	7601.88
424.066	7450.88
424.288	7386.88
424.511	7545.88
424.733	8086.88
424.956	8428.88
425.178	8083.88
425.401	8210.88
425.623	8063.88
425.846	7052.88
426.068	6945.88
426.291	6793.88
426.513	6785.88
426.735	6907.88
426.958	7493.88
427.18	8254.88
427.402	9440.88
427.625	9363.88
427.847	7779.88
428.069	7015.88
428.292	6608.88
428.514	6337.88
428.736	6146.88
428.958	6158.88
429.181	6007.88
429.403	5986.88
429.625	6299.88
429.847	6537.88
430.069	7121.88
430.292	6581.88
430.514	6029.88
430.736	6036.88
430.958	5898.88
431.18	5852.88
431.402	5830.88
431.624	5885.88
431.846	5899.88
432.068	5955.88
432.29	6088.88
432.512	5936.88
432.734	6039.88
432.956	5970.88
433.178	6016.88
433.4	5993.88
433.622	5969.88
433.844	5931.88
434.066	5939.88
434.287	6089.88
434.509	6328.88
434.731	6505.88
434.953	6675.88
435.175	6850.88
435.397	6916.88
435.618	6823.88
435.84	7255.88
436.062	8098.88
436.284	7989.88
436.505	6768.88
436.727	6397.88
436.949	6197.88
437.17	5978.88
437.392	6042.88
437.614	6214.88
437.835	6634.88
438.057	7654.88
438.278	8274.88
438.5	8154.88
438.721	9061.88
438.943	7841.88
439.165	6710.88
439.386	6473.88
439.608	6510.88
439.829	6612.88
440.05	6949.88
440.272	7353.88
440.493	6791.88
440.715	6361.88
440.936	6271.88
441.158	6383.88
441.379	6529.88
441.6	6737.88
441.822	7037.88
442.043	7578.88
442.264	8380.88
442.486	8017.88
442.707	7194.88
442.928	6991.88
443.149	7150.88
443.371	7457.88
443.592	8050.88
443.813	9039.88
444.034	9006.88
444.255	7778.88
444.476	7633.88
444.698	7855.88
444.919	7926.88
445.14	7681.88
445.361	7475.88
445.582	7631.88
445.803	8310.88
446.024	9037.88
446.245	8587.88
446.466	7691.88
446.687	6762.88
446.908	6398.88
447.129	6046.88
447.35	5890.88
447.571	5930.88
447.792	5805.88
448.013	5902.88
448.234	6026.88
448.455	6825.88
448.675	8059.88
448.896	8573.88
449.117	7033.88
449.338	7222.88
449.559	8619.88
449.779	8809.88
450	6794.88
450.221	6065.88
450.442	5664.88
450.662	5743.88
450.883	5755.88
451.104	5858.88
451.324	5674.88
451.545	5480.88
451.766	5374.88
451.986	5307.88
452.207	5191.88
452.428	5184.88
452.648	5212.88
452.869	5255.88
453.089	5347.88
453.31	5502.88
453.53	5244.88
453.751	5184.88
453.971	5214.88
454.192	5321.88
454.412	5175.88
454.633	5086.88
454.853	5093.88
455.073	5086.88
455.294	5548.88
455.514	6118.88
455.734	5554.88
455.955	4951.88
456.175	4920.88
456.395	4803.88
456.616	4845.88
456.836	4822.88
457.056	4774.88
457.276	4723.88
457.497	4866.88
457.717	4967.88
457.937	4961.88
458.157	5005.88
458.377	5131.88
458.598	5516.88
458.818	6239.88
459.038	7019.88
459.258	6911.88
459.478	6121.88
459.698	5935.88
459.918	6052.88
460.138	6216.88
460.358	6534.88
460.578	6495.88
460.798	6633.88
461.018	6606.88
461.238	6452.88
461.458	6419.88
461.678	6400.88
461.898	6543.88
462.118	6567.88
462.338	6896.88
462.558	7091.88
462.777	7321.88
462.997	7890.88
463.217	8377.88
463.437	8137.88
463.657	7517.88
463.876	7405.88
464.096	7360.88
464.316	7436.88
464.536	7405.88
464.755	7187.88
464.975	7068.88
465.195	7199.88
465.414	7221.88
465.634	6371.88
465.854	6099.88
466.073	5912.88
466.293	5671.88
466.512	5532.88
466.732	5421.88
466.951	5338.88
467.171	5372.88
467.391	5493.88
467.61	5481.88
467.829	5432.88
468.049	5326.88
468.268	5199.88
468.488	5193.88
468.707	5155.88
468.927	5143.88
469.146	5154.88
469.365	5230.88
469.585	5220.88
469.804	5425.88
470.023	5595.88
470.243	5607.88
470.462	5677.88
470.681	5835.88
470.901	5655.88
471.12	5533.88
471.339	5498.88
471.558	5455.88
471.777	5402.88
471.997	5260.88
472.216	5171.88
472.435	5206.88
472.654	5103.88
472.873	5070.88
473.092	5127.88
473.311	5071.88
473.53	5069.88
473.749	5330.88
473.968	5898.88
474.187	6878.88
474.406	6421.88
474.625	5473.88
474.844	5244.88
475.063	5166.88
475.282	5128.88
475.501	5231.88
475.72	5246.88
475.939	5356.88
476.158	5367.88
476.377	5364.88
476.596	5398.88
476.814	5446.88
477.033	5606.88
477.252	5647.88
477.471	5713.88
477.69	5806.88
477.908	5905.88
478.127	6099.88
478.346	6132.88
478.564	6291.88
478.783	6417.88
479.002	6515.88
479.22	6508.88
479.439	6551.88
479.658	6647.88
479.876	6678.88
480.095	6927.88
480.313	7416.88
480.532	7371.88
480.751	7121.88
480.969	6995.88
481.188	6832.88
481.406	6577.88
481.624	6463.88
481.843	6261.88
482.061	6207.88
482.28	6071.88
482.498	6037.88
482.717	6067.88
482.935	6071.88
483.153	6016.88
483.372	6004.88
483.59	6052.88
483.808	5997.88
484.027	6023.88
484.245	6074.88
484.463	6162.88
484.681	6238.88
484.9	6282.88
485.118	6274.88
485.336	6346.88
485.554	6462.88
485.772	6469.88
485.99	6477.88
486.209	6460.88
486.427	6546.88
486.645	6536.88
486.863	6716.88
487.081	6595.88
487.299	6568.88
487.517	6492.88
487.735	6504.88
487.953	6434.88
