Data from Uncirc_1996_H10_HRD10591_00054.txt Node
Date: Wed Jan 03 11:32:13 EST 2024
User: Yrep
Spectrometer: HR+D1059
Trigger mode: 1
Integration Time (sec): 1.000000E-1
Scans to average: 1
Electric dark correction enabled: true
Nonlinearity correction enabled: false
Boxcar width: 0
XAxis mode: Wavelengths
Number of Pixels in Spectrum: 2048
>>>>>Begin Spectral Data<<<<<
223.165	-22.38
223.4	-22.38
223.635	-22.38
223.869	-22.38
224.104	-20.38
224.338	-14.38
224.573	-9.38
224.808	-9.38
225.042	-3.38
225.277	-5.38
225.511	-2.38
225.746	-4.38
225.98	14.62
226.215	12.62
226.449	17.62
226.683	14.62
226.918	31.62
227.152	22.62
227.387	36.62
227.621	46.62
227.856	56.62
228.09	56.62
228.324	56.62
228.559	46.62
228.793	45.62
229.027	54.62
229.262	78.62
229.496	75.62
229.73	90.62
229.964	101.62
230.199	59.62
230.433	80.62
230.667	84.62
230.901	65.62
231.136	77.62
231.37	70.62
231.604	91.62
231.838	78.62
232.072	77.62
232.306	76.62
232.541	99.62
232.775	81.62
233.009	92.62
233.243	85.62
233.477	80.62
233.711	80.62
233.945	85.62
234.179	81.62
234.413	76.62
234.647	70.62
234.881	67.62
235.115	84.62
235.349	76.62
235.583	83.62
235.817	76.62
236.051	92.62
236.285	77.62
236.519	90.62
236.753	78.62
236.987	90.62
237.221	87.62
237.455	80.62
237.689	81.62
237.922	72.62
238.156	73.62
238.39	75.62
238.624	72.62
238.858	73.62
239.091	78.62
239.325	69.62
239.559	63.62
239.793	70.62
240.027	75.62
240.26	67.62
240.494	76.62
240.728	76.62
240.961	75.62
241.195	81.62
241.429	81.62
241.662	86.62
241.896	66.62
242.13	65.62
242.363	82.62
242.597	74.62
242.83	73.62
243.064	78.62
243.298	82.62
243.531	77.62
243.765	74.62
243.998	82.62
244.232	77.62
244.465	89.62
244.699	78.62
244.932	70.62
245.166	72.62
245.399	84.62
245.633	76.62
245.866	78.62
246.099	81.62
246.333	71.62
246.566	84.62
246.8	74.62
247.033	78.62
247.266	69.62
247.5	86.62
247.733	90.62
247.966	78.62
248.2	81.62
248.433	69.62
248.666	93.62
248.899	78.62
249.133	93.62
249.366	88.62
249.599	92.62
249.832	87.62
250.066	78.62
250.299	60.62
250.532	78.62
250.765	77.62
250.998	92.62
251.231	84.62
251.465	80.62
251.698	76.62
251.931	92.62
252.164	82.62
252.397	70.62
252.63	83.62
252.863	80.62
253.096	91.62
253.329	70.62
253.562	81.62
253.795	93.62
254.028	94.62
254.261	84.62
254.494	77.62
254.727	81.62
254.96	77.62
255.193	82.62
255.426	81.62
255.659	77.62
255.892	89.62
256.124	88.62
256.357	83.62
256.59	68.62
256.823	78.62
257.056	67.62
257.289	78.62
257.521	90.62
257.754	80.62
257.987	86.62
258.22	81.62
258.452	72.62
258.685	86.62
258.918	93.62
259.151	80.62
259.383	69.62
259.616	82.62
259.849	77.62
260.081	88.62
260.314	89.62
260.547	84.62
260.779	85.62
261.012	90.62
261.244	68.62
261.477	88.62
261.71	93.62
261.942	100.62
262.175	94.62
262.407	97.62
262.64	85.62
262.872	92.62
263.105	80.62
263.337	88.62
263.57	69.62
263.802	91.62
264.035	76.62
264.267	86.62
264.499	89.62
264.732	69.62
264.964	85.62
265.197	88.62
265.429	82.62
265.661	86.62
265.894	76.62
266.126	74.62
266.358	88.62
266.591	94.62
266.823	80.62
267.055	71.62
267.287	95.62
267.52	85.62
267.752	79.62
267.984	96.62
268.216	78.62
268.448	85.62
268.681	77.62
268.913	67.62
269.145	85.62
269.377	77.62
269.609	85.62
269.841	92.62
270.073	86.62
270.306	95.62
270.538	87.62
270.77	78.62
271.002	88.62
271.234	94.62
271.466	82.62
271.698	69.62
271.93	85.62
272.162	102.62
272.394	90.62
272.626	81.62
272.858	90.62
273.09	94.62
273.322	74.62
273.553	91.62
273.785	97.62
274.017	90.62
274.249	85.62
274.481	81.62
274.713	75.62
274.945	95.62
275.176	84.62
275.408	101.62
275.64	86.62
275.872	84.62
276.104	80.62
276.335	83.62
276.567	101.62
276.799	101.62
277.031	85.62
277.262	76.62
277.494	81.62
277.726	89.62
277.957	91.62
278.189	83.62
278.421	89.62
278.652	78.62
278.884	87.62
279.115	95.62
279.347	78.62
279.579	87.62
279.81	84.62
280.042	88.62
280.273	88.62
280.505	83.62
280.736	93.62
280.968	89.62
281.199	77.62
281.431	82.62
281.662	87.62
281.894	84.62
282.125	117.62
282.356	113.62
282.588	131.62
282.819	100.62
283.051	91.62
283.282	96.62
283.513	90.62
283.745	74.62
283.976	95.62
284.207	98.62
284.439	96.62
284.67	93.62
284.901	95.62
285.132	95.62
285.364	87.62
285.595	99.62
285.826	92.62
286.057	87.62
286.288	89.62
286.52	85.62
286.751	90.62
286.982	93.62
287.213	85.62
287.444	88.62
287.675	96.62
287.906	86.62
288.138	86.62
288.369	80.62
288.6	87.62
288.831	83.62
289.062	100.62
289.293	92.62
289.524	88.62
289.755	80.62
289.986	77.62
290.217	74.62
290.448	97.62
290.679	88.62
290.91	79.62
291.141	98.62
291.371	78.62
291.602	77.62
291.833	87.62
292.064	98.62
292.295	102.62
292.526	103.62
292.757	90.62
292.987	87.62
293.218	88.62
293.449	77.62
293.68	90.62
293.91	88.62
294.141	86.62
294.372	92.62
294.603	90.62
294.833	90.62
295.064	88.62
295.295	86.62
295.525	96.62
295.756	104.62
295.987	112.62
296.217	125.62
296.448	106.62
296.679	90.62
296.909	86.62
297.14	76.62
297.37	89.62
297.601	81.62
297.831	92.62
298.062	85.62
298.292	90.62
298.523	84.62
298.753	95.62
298.984	88.62
299.214	86.62
299.445	79.62
299.675	94.62
299.905	91.62
300.136	86.62
300.366	87.62
300.597	94.62
300.827	96.62
301.057	108.62
301.288	107.62
301.518	90.62
301.748	97.62
301.979	104.62
302.209	88.62
302.439	95.62
302.669	88.62
302.9	80.62
303.13	91.62
303.36	90.62
303.59	92.62
303.82	107.62
304.051	94.62
304.281	96.62
304.511	88.62
304.741	85.62
304.971	88.62
305.201	95.62
305.431	82.62
305.661	101.62
305.891	84.62
306.121	82.62
306.352	109.62
306.582	117.62
306.812	98.62
307.042	102.62
307.272	86.62
307.502	91.62
307.731	91.62
307.961	95.62
308.191	95.62
308.421	86.62
308.651	85.62
308.881	99.62
309.111	95.62
309.341	99.62
309.571	102.62
309.8	94.62
310.03	116.62
310.26	90.62
310.49	92.62
310.72	100.62
310.949	101.62
311.179	89.62
311.409	92.62
311.639	92.62
311.868	106.62
312.098	82.62
312.328	106.62
312.557	113.62
312.787	108.62
313.017	95.62
313.246	83.62
313.476	89.62
313.706	91.62
313.935	85.62
314.165	99.62
314.394	92.62
314.624	93.62
314.853	99.62
315.083	93.62
315.312	73.62
315.542	94.62
315.771	92.62
316.001	102.62
316.23	90.62
316.46	92.62
316.689	77.62
316.919	98.62
317.148	89.62
317.377	94.62
317.607	109.62
317.836	99.62
318.065	82.62
318.295	99.62
318.524	102.62
318.753	77.62
318.983	72.62
319.212	91.62
319.441	100.62
319.67	118.62
319.9	90.62
320.129	94.62
320.358	97.62
320.587	98.62
320.816	83.62
321.046	109.62
321.275	95.62
321.504	102.62
321.733	95.62
321.962	110.62
322.191	104.62
322.42	104.62
322.649	80.62
322.878	110.62
323.108	110.62
323.337	126.62
323.566	129.62
323.795	153.62
324.024	176.62
324.253	369.62
324.482	757.62
324.71	1580.62
324.939	2009.62
325.168	752.62
325.397	222.62
325.626	152.62
325.855	120.62
326.084	125.62
326.313	125.62
326.542	152.62
326.77	213.62
326.999	432.62
327.228	893.62
327.457	1628.62
327.686	1227.62
327.914	347.62
328.143	203.62
328.372	149.62
328.6	119.62
328.829	125.62
329.058	124.62
329.287	121.62
329.515	100.62
329.744	98.62
329.972	95.62
330.201	98.62
330.43	107.62
330.658	120.62
330.887	144.62
331.115	123.62
331.344	111.62
331.572	106.62
331.801	95.62
332.03	90.62
332.258	99.62
332.486	98.62
332.715	96.62
332.943	79.62
333.172	93.62
333.4	94.62
333.629	106.62
333.857	116.62
334.085	104.62
334.314	82.62
334.542	94.62
334.771	87.62
334.999	100.62
335.227	84.62
335.455	103.62
335.684	100.62
335.912	101.62
336.14	94.62
336.369	90.62
336.597	109.62
336.825	99.62
337.053	90.62
337.281	92.62
337.51	97.62
337.738	106.62
337.966	100.62
338.194	101.62
338.422	99.62
338.65	93.62
338.878	101.62
339.106	88.62
339.334	92.62
339.562	92.62
339.79	107.62
340.018	86.62
340.246	97.62
340.474	99.62
340.702	114.62
340.93	84.62
341.158	84.62
341.386	88.62
341.614	103.62
341.842	98.62
342.07	106.62
342.298	90.62
342.526	100.62
342.754	97.62
342.981	98.62
343.209	75.62
343.437	99.62
343.665	93.62
343.893	99.62
344.12	100.62
344.348	94.62
344.576	96.62
344.804	103.62
345.031	86.62
345.259	92.62
345.487	92.62
345.714	103.62
345.942	92.62
346.17	89.62
346.397	91.62
346.625	97.62
346.853	92.62
347.08	76.62
347.308	97.62
347.535	92.62
347.763	86.62
347.99	97.62
348.218	94.62
348.445	106.62
348.673	101.62
348.9	106.62
349.128	100.62
349.355	93.62
349.583	104.62
349.81	97.62
350.037	97.62
350.265	100.62
350.492	95.62
350.72	100.62
350.947	102.62
351.174	98.62
351.402	114.62
351.629	90.62
351.856	97.62
352.083	117.62
352.311	96.62
352.538	112.62
352.765	116.62
352.992	105.62
353.22	118.62
353.447	117.62
353.674	111.62
353.901	103.62
354.128	104.62
354.355	78.62
354.583	90.62
354.81	97.62
355.037	93.62
355.264	98.62
355.491	95.62
355.718	99.62
355.945	102.62
356.172	96.62
356.399	97.62
356.626	93.62
356.853	98.62
357.08	88.62
357.307	99.62
357.534	100.62
357.761	92.62
357.988	95.62
358.215	86.62
358.441	92.62
358.668	79.62
358.895	96.62
359.122	102.62
359.349	92.62
359.576	100.62
359.802	94.62
360.029	93.62
360.256	96.62
360.483	101.62
360.709	88.62
360.936	98.62
361.163	85.62
361.39	101.62
361.616	100.62
361.843	87.62
362.07	93.62
362.296	95.62
362.523	93.62
362.749	92.62
362.976	92.62
363.203	96.62
363.429	95.62
363.656	85.62
363.882	88.62
364.109	109.62
364.335	78.62
364.562	103.62
364.788	91.62
365.015	102.62
365.241	104.62
365.468	99.62
365.694	104.62
365.92	104.62
366.147	93.62
366.373	99.62
366.599	95.62
366.826	91.62
367.052	86.62
367.278	100.62
367.505	96.62
367.731	102.62
367.957	103.62
368.184	78.62
368.41	107.62
368.636	112.62
368.862	119.62
369.089	102.62
369.315	86.62
369.541	80.62
369.767	96.62
369.993	99.62
370.219	98.62
370.445	106.62
370.672	92.62
370.898	101.62
371.124	91.62
371.35	84.62
371.576	88.62
371.802	92.62
372.028	83.62
372.254	82.62
372.48	95.62
372.706	99.62
372.932	78.62
373.158	84.62
373.384	93.62
373.61	97.62
373.835	92.62
374.061	78.62
374.287	101.62
374.513	96.62
374.739	101.62
374.965	86.62
375.191	96.62
375.416	95.62
375.642	90.62
375.868	98.62
376.094	106.62
376.319	90.62
376.545	88.62
376.771	76.62
376.997	85.62
377.222	85.62
377.448	98.62
377.674	97.62
377.899	88.62
378.125	90.62
378.35	102.62
378.576	93.62
378.802	89.62
379.027	87.62
379.253	93.62
379.478	97.62
379.704	90.62
379.929	102.62
380.155	88.62
380.38	90.62
380.606	101.62
380.831	81.62
381.057	102.62
381.282	92.62
381.507	78.62
381.733	86.62
381.958	108.62
382.184	97.62
382.409	92.62
382.634	93.62
382.86	93.62
383.085	91.62
383.31	98.62
383.535	104.62
383.761	98.62
383.986	103.62
384.211	105.62
384.436	95.62
384.662	85.62
384.887	100.62
385.112	102.62
385.337	97.62
385.562	101.62
385.787	109.62
386.013	104.62
386.238	101.62
386.463	102.62
386.688	112.62
386.913	112.62
387.138	106.62
387.363	108.62
387.588	105.62
387.813	103.62
388.038	84.62
388.263	105.62
388.488	115.62
388.713	94.62
388.938	96.62
389.163	104.62
389.387	92.62
389.612	93.62
389.837	107.62
390.062	90.62
390.287	104.62
390.512	85.62
390.736	94.62
390.961	94.62
391.186	96.62
391.411	98.62
391.636	93.62
391.86	96.62
392.085	97.62
392.31	74.62
392.534	79.62
392.759	91.62
392.984	95.62
393.208	106.62
393.433	99.62
393.658	95.62
393.882	93.62
394.107	97.62
394.331	100.62
394.556	90.62
394.78	101.62
395.005	85.62
395.229	82.62
395.454	105.62
395.678	88.62
395.903	87.62
396.127	90.62
396.352	85.62
396.576	102.62
396.801	89.62
397.025	91.62
397.249	99.62
397.474	102.62
397.698	88.62
397.922	86.62
398.147	101.62
398.371	90.62
398.595	84.62
398.82	80.62
399.044	88.62
399.268	68.62
399.492	95.62
399.717	97.62
399.941	73.62
400.165	99.62
400.389	93.62
400.613	88.62
400.837	94.62
401.062	73.62
401.286	76.62
401.51	94.62
401.734	90.62
401.958	87.62
402.182	113.62
402.406	133.62
402.63	103.62
402.854	91.62
403.078	92.62
403.302	80.62
403.526	97.62
403.75	67.62
403.974	86.62
404.198	103.62
404.422	93.62
404.645	91.62
404.869	76.62
405.093	88.62
405.317	105.62
405.541	89.62
405.765	95.62
405.988	111.62
406.212	158.62
406.436	192.62
406.66	137.62
406.883	100.62
407.107	95.62
407.331	102.62
407.555	99.62
407.778	101.62
408.002	85.62
408.226	93.62
408.449	86.62
408.673	83.62
408.896	104.62
409.12	89.62
409.344	96.62
409.567	101.62
409.791	85.62
410.014	103.62
410.238	88.62
410.461	98.62
410.685	100.62
410.908	96.62
411.132	102.62
411.355	103.62
411.578	101.62
411.802	100.62
412.025	105.62
412.249	86.62
412.472	97.62
412.695	92.62
412.919	99.62
413.142	85.62
413.365	84.62
413.589	85.62
413.812	81.62
414.035	89.62
414.258	92.62
414.482	93.62
414.705	96.62
414.928	89.62
415.151	75.62
415.374	99.62
415.597	87.62
415.821	85.62
416.044	89.62
416.267	98.62
416.49	97.62
416.713	87.62
416.936	97.62
417.159	92.62
417.382	90.62
417.605	82.62
417.828	98.62
418.051	89.62
418.274	101.62
418.497	98.62
418.72	90.62
418.943	91.62
419.166	100.62
419.389	83.62
419.611	84.62
419.834	93.62
420.057	79.62
420.28	97.62
420.503	101.62
420.726	93.62
420.948	100.62
421.171	104.62
421.394	98.62
421.617	99.62
421.839	100.62
422.062	99.62
422.285	92.62
422.507	94.62
422.73	100.62
422.953	99.62
423.175	88.62
423.398	81.62
423.621	90.62
423.843	80.62
424.066	77.62
424.288	99.62
424.511	90.62
424.733	95.62
424.956	107.62
425.178	106.62
425.401	108.62
425.623	110.62
425.846	82.62
426.068	85.62
426.291	91.62
426.513	95.62
426.735	90.62
426.958	96.62
427.18	110.62
427.402	119.62
427.625	156.62
427.847	126.62
428.069	111.62
428.292	83.62
428.514	89.62
428.736	81.62
428.958	91.62
429.181	76.62
429.403	77.62
429.625	76.62
429.847	93.62
430.069	96.62
430.292	92.62
430.514	85.62
430.736	86.62
430.958	86.62
431.18	83.62
431.402	85.62
431.624	93.62
431.846	98.62
432.068	95.62
432.29	85.62
432.512	99.62
432.734	96.62
432.956	93.62
433.178	96.62
433.4	93.62
433.622	85.62
433.844	93.62
434.066	87.62
434.287	102.62
434.509	81.62
434.731	95.62
434.953	85.62
435.175	83.62
435.397	89.62
435.618	102.62
435.84	91.62
436.062	137.62
436.284	108.62
436.505	93.62
436.727	113.62
436.949	79.62
437.17	89.62
437.392	81.62
437.614	99.62
437.835	97.62
438.057	102.62
438.278	113.62
438.5	98.62
438.721	129.62
438.943	116.62
439.165	85.62
439.386	98.62
439.608	95.62
439.829	93.62
440.05	137.62
440.272	130.62
440.493	100.62
440.715	102.62
440.936	98.62
441.158	94.62
441.379	80.62
441.6	100.62
441.822	89.62
442.043	103.62
442.264	119.62
442.486	109.62
442.707	109.62
442.928	99.62
443.149	116.62
443.371	105.62
443.592	114.62
443.813	105.62
444.034	109.62
444.255	81.62
444.476	69.62
444.698	69.62
444.919	92.62
445.14	136.62
445.361	140.62
445.582	120.62
445.803	138.62
446.024	125.62
446.245	132.62
446.466	105.62
446.687	101.62
446.908	98.62
447.129	78.62
447.35	102.62
447.571	92.62
447.792	97.62
448.013	108.62
448.234	106.62
448.455	97.62
448.675	121.62
448.896	120.62
449.117	108.62
449.338	122.62
449.559	118.62
449.779	124.62
450	99.62
450.221	97.62
450.442	79.62
450.662	98.62
450.883	110.62
451.104	103.62
451.324	96.62
451.545	84.62
451.766	88.62
451.986	83.62
452.207	91.62
452.428	92.62
452.648	93.62
452.869	111.62
453.089	107.62
453.31	118.62
453.53	92.62
453.751	86.62
453.971	113.62
454.192	105.62
454.412	103.62
454.633	89.62
454.853	84.62
455.073	86.62
455.294	86.62
455.514	94.62
455.734	80.62
455.955	96.62
456.175	92.62
456.395	85.62
456.616	96.62
456.836	90.62
457.056	92.62
457.276	85.62
457.497	85.62
457.717	87.62
457.937	87.62
458.157	86.62
458.377	97.62
458.598	93.62
458.818	130.62
459.038	130.62
459.258	112.62
459.478	98.62
459.698	97.62
459.918	98.62
460.138	100.62
460.358	84.62
460.578	91.62
460.798	87.62
461.018	91.62
461.238	83.62
461.458	81.62
461.678	88.62
461.898	82.62
462.118	75.62
462.338	88.62
462.558	88.62
462.777	88.62
462.997	99.62
463.217	68.62
463.437	91.62
463.657	82.62
463.876	99.62
464.096	84.62
464.316	90.62
464.536	100.62
464.755	81.62
464.975	100.62
465.195	156.62
465.414	150.62
465.634	104.62
465.854	82.62
466.073	89.62
466.293	78.62
466.512	86.62
466.732	89.62
466.951	85.62
467.171	85.62
467.391	93.62
467.61	94.62
467.829	87.62
468.049	84.62
468.268	80.62
468.488	95.62
468.707	91.62
468.927	92.62
469.146	88.62
469.365	89.62
469.585	90.62
469.804	96.62
470.023	98.62
470.243	91.62
470.462	95.62
470.681	99.62
470.901	73.62
471.12	73.62
471.339	95.62
471.558	87.62
471.777	75.62
471.997	97.62
472.216	97.62
472.435	91.62
472.654	86.62
472.873	93.62
473.092	88.62
473.311	88.62
473.53	68.62
473.749	89.62
473.968	98.62
474.187	111.62
474.406	99.62
474.625	90.62
474.844	95.62
475.063	98.62
475.282	81.62
475.501	97.62
475.72	102.62
475.939	76.62
476.158	93.62
476.377	83.62
476.596	107.62
476.814	103.62
477.033	105.62
477.252	97.62
477.471	81.62
477.69	102.62
477.908	86.62
478.127	88.62
478.346	98.62
478.564	106.62
478.783	92.62
479.002	107.62
479.22	85.62
479.439	100.62
479.658	110.62
479.876	85.62
480.095	96.62
480.313	95.62
480.532	94.62
480.751	89.62
480.969	84.62
481.188	80.62
481.406	102.62
481.624	85.62
481.843	96.62
482.061	90.62
482.28	83.62
482.498	83.62
482.717	102.62
482.935	106.62
483.153	72.62
483.372	82.62
483.59	84.62
483.808	84.62
484.027	93.62
484.245	99.62
484.463	85.62
484.681	102.62
484.9	101.62
485.118	83.62
485.336	96.62
485.554	102.62
485.772	87.62
485.99	105.62
486.209	108.62
486.427	91.62
486.645	116.62
486.863	103.62
487.081	105.62
487.299	92.62
487.517	98.62
487.735	91.62
487.953	88.62
488.171	97.62
488.389	104.62
488.607	98.62
488.825	93.62
489.043	92.62
489.261	94.62
489.479	105.62
489.696	86.62
489.914	93.62
490.132	90.62
490.35	95.62
490.568	94.62
490.786	91.62
491.003	88.62
491.221	81.62
491.439	83.62
491.657	98.62
491.874	92.62
492.092	88.62
492.31	98.62
492.527	86.62
492.745	91.62
492.963	99.62
493.18	88.62
493.398	100.62
493.615	93.62
493.833	88.62
494.05	83.62
494.268	93.62
494.485	94.62
494.703	88.62
494.92	84.62
495.138	85.62
495.355	87.62
495.573	98.62
495.79	93.62
496.008	95.62
496.225	92.62
496.442	82.62
496.66	95.62
496.877	93.62
497.094	77.62
497.312	78.62
497.529	89.62
497.746	88.62
497.963	86.62
498.181	81.62
498.398	88.62
498.615	119.62
498.832	95.62
499.049	92.62
499.267	91.62
499.484	106.62
499.701	104.62
499.918	95.62
500.135	84.62
500.352	86.62
500.569	73.62
500.786	88.62
501.003	87.62
501.22	104.62
501.437	91.62
501.654	100.62
501.871	88.62
502.088	78.62
502.305	105.62
502.522	108.62
502.739	101.62
502.956	97.62
503.172	97.62
503.389	97.62
503.606	104.62
503.823	114.62
504.04	101.62
504.256	93.62
504.473	88.62
504.69	88.62
504.907	82.62
505.123	86.62
505.34	89.62
505.557	75.62
505.773	86.62
505.99	87.62
506.207	92.62
506.423	89.62
506.64	88.62
506.856	91.62
507.073	84.62
507.289	85.62
507.506	93.62
507.722	105.62
507.939	98.62
508.155	87.62
508.372	89.62
508.588	99.62
508.805	93.62
509.021	103.62
509.238	106.62
509.454	92.62
509.67	92.62
509.887	111.62
510.103	116.62
510.319	194.62
510.536	677.62
510.752	2033.62
510.968	575.62
511.184	142.62
511.401	105.62
511.617	88.62
511.833	98.62
512.049	88.62
512.265	101.62
512.481	88.62
512.698	91.62
512.914	95.62
513.13	75.62
513.346	96.62
513.562	102.62
513.778	85.62
513.994	99.62
514.21	88.62
514.426	120.62
514.642	127.62
514.858	115.62
515.074	151.62
515.29	410.62
515.506	1293.62
