Data from Uncirc_1996_H10_HRD10591_00029.txt Node
Date: Wed Jan 03 11:32:08 EST 2024
User: Yrep
Spectrometer: HR+D1059
Trigger mode: 1
Integration Time (sec): 1.000000E-1
Scans to average: 1
Electric dark correction enabled: true
Nonlinearity correction enabled: false
Boxcar width: 0
XAxis mode: Wavelengths
Number of Pixels in Spectrum: 2048
>>>>>Begin Spectral Data<<<<<
223.165	-25.62
223.4	-25.62
223.635	-25.62
223.869	-18.62
224.104	-26.62
224.338	-7.62
224.573	-14.62
224.808	-5.62
225.042	-15.62
225.277	4.38
225.511	-15.62
225.746	8.38
225.98	-0.62
226.215	10.38
226.449	28.38
226.683	16.38
226.918	25.38
227.152	37.38
227.387	37.38
227.621	43.38
227.856	38.38
228.09	33.38
228.324	52.38
228.559	45.38
228.793	44.38
229.027	47.38
229.262	59.38
229.496	75.38
229.73	63.38
229.964	78.38
230.199	73.38
230.433	64.38
230.667	71.38
230.901	78.38
231.136	69.38
231.37	83.38
231.604	80.38
231.838	74.38
232.072	85.38
232.306	72.38
232.541	77.38
232.775	71.38
233.009	76.38
233.243	71.38
233.477	91.38
233.711	81.38
233.945	73.38
234.179	83.38
234.413	69.38
234.647	88.38
234.881	79.38
235.115	75.38
235.349	71.38
235.583	81.38
235.817	70.38
236.051	60.38
236.285	72.38
236.519	89.38
236.753	82.38
236.987	81.38
237.221	81.38
237.455	72.38
237.689	96.38
237.922	65.38
238.156	67.38
238.39	61.38
238.624	67.38
238.858	72.38
239.091	72.38
239.325	78.38
239.559	65.38
239.793	55.38
240.027	76.38
240.26	68.38
240.494	72.38
240.728	84.38
240.961	67.38
241.195	84.38
241.429	85.38
241.662	72.38
241.896	76.38
242.13	73.38
242.363	84.38
242.597	79.38
242.83	91.38
243.064	75.38
243.298	84.38
243.531	62.38
243.765	74.38
243.998	75.38
244.232	74.38
244.465	77.38
244.699	70.38
244.932	67.38
245.166	73.38
245.399	71.38
245.633	79.38
245.866	72.38
246.099	79.38
246.333	69.38
246.566	81.38
246.8	71.38
247.033	83.38
247.266	70.38
247.5	74.38
247.733	76.38
247.966	70.38
248.2	79.38
248.433	60.38
248.666	71.38
248.899	87.38
249.133	92.38
249.366	86.38
249.599	70.38
249.832	79.38
250.066	76.38
250.299	86.38
250.532	83.38
250.765	62.38
250.998	67.38
251.231	75.38
251.465	73.38
251.698	84.38
251.931	70.38
252.164	80.38
252.397	61.38
252.63	75.38
252.863	92.38
253.096	74.38
253.329	85.38
253.562	77.38
253.795	88.38
254.028	71.38
254.261	77.38
254.494	88.38
254.727	81.38
254.96	80.38
255.193	78.38
255.426	77.38
255.659	75.38
255.892	73.38
256.124	73.38
256.357	76.38
256.59	75.38
256.823	92.38
257.056	93.38
257.289	88.38
257.521	75.38
257.754	63.38
257.987	71.38
258.22	78.38
258.452	73.38
258.685	85.38
258.918	95.38
259.151	92.38
259.383	84.38
259.616	79.38
259.849	79.38
260.081	84.38
260.314	75.38
260.547	86.38
260.779	85.38
261.012	81.38
261.244	84.38
261.477	84.38
261.71	83.38
261.942	86.38
262.175	102.38
262.407	71.38
262.64	83.38
262.872	64.38
263.105	75.38
263.337	80.38
263.57	83.38
263.802	84.38
264.035	72.38
264.267	80.38
264.499	83.38
264.732	79.38
264.964	91.38
265.197	88.38
265.429	73.38
265.661	81.38
265.894	81.38
266.126	80.38
266.358	85.38
266.591	81.38
266.823	87.38
267.055	92.38
267.287	91.38
267.52	71.38
267.752	88.38
267.984	94.38
268.216	76.38
268.448	87.38
268.681	79.38
268.913	76.38
269.145	89.38
269.377	78.38
269.609	77.38
269.841	100.38
270.073	92.38
270.306	87.38
270.538	79.38
270.77	82.38
271.002	75.38
271.234	91.38
271.466	83.38
271.698	90.38
271.93	88.38
272.162	87.38
272.394	82.38
272.626	98.38
272.858	89.38
273.09	74.38
273.322	84.38
273.553	87.38
273.785	75.38
274.017	76.38
274.249	84.38
274.481	72.38
274.713	74.38
274.945	85.38
275.176	72.38
275.408	91.38
275.64	90.38
275.872	73.38
276.104	77.38
276.335	92.38
276.567	79.38
276.799	86.38
277.031	82.38
277.262	89.38
277.494	74.38
277.726	90.38
277.957	75.38
278.189	90.38
278.421	88.38
278.652	75.38
278.884	85.38
279.115	88.38
279.347	83.38
279.579	88.38
279.81	79.38
280.042	76.38
280.273	89.38
280.505	78.38
280.736	77.38
280.968	86.38
281.199	87.38
281.431	81.38
281.662	83.38
281.894	91.38
282.125	101.38
282.356	99.38
282.588	111.38
282.819	100.38
283.051	86.38
283.282	75.38
283.513	83.38
283.745	83.38
283.976	83.38
284.207	86.38
284.439	81.38
284.67	73.38
284.901	79.38
285.132	80.38
285.364	92.38
285.595	80.38
285.826	81.38
286.057	95.38
286.288	73.38
286.52	76.38
286.751	78.38
286.982	94.38
287.213	89.38
287.444	88.38
287.675	79.38
287.906	83.38
288.138	91.38
288.369	92.38
288.6	89.38
288.831	75.38
289.062	78.38
289.293	86.38
289.524	83.38
289.755	89.38
289.986	80.38
290.217	68.38
290.448	71.38
290.679	65.38
290.91	105.38
291.141	83.38
291.371	90.38
291.602	83.38
291.833	77.38
292.064	85.38
292.295	111.38
292.526	94.38
292.757	91.38
292.987	84.38
293.218	81.38
293.449	90.38
293.68	93.38
293.91	92.38
294.141	89.38
294.372	82.38
294.603	84.38
294.833	84.38
295.064	86.38
295.295	80.38
295.525	78.38
295.756	89.38
295.987	98.38
296.217	126.38
296.448	122.38
296.679	92.38
296.909	93.38
297.14	89.38
297.37	85.38
297.601	87.38
297.831	77.38
298.062	88.38
298.292	85.38
298.523	87.38
298.753	85.38
298.984	83.38
299.214	76.38
299.445	85.38
299.675	95.38
299.905	98.38
300.136	100.38
300.366	88.38
300.597	88.38
300.827	82.38
301.057	89.38
301.288	101.38
301.518	81.38
301.748	85.38
301.979	93.38
302.209	82.38
302.439	95.38
302.669	73.38
302.9	92.38
303.13	78.38
303.36	88.38
303.59	104.38
303.82	91.38
304.051	73.38
304.281	82.38
304.511	87.38
304.741	71.38
304.971	84.38
305.201	83.38
305.431	90.38
305.661	84.38
305.891	93.38
306.121	95.38
306.352	81.38
306.582	79.38
306.812	92.38
307.042	95.38
307.272	80.38
307.502	83.38
307.731	91.38
307.961	85.38
308.191	95.38
308.421	85.38
308.651	95.38
308.881	72.38
309.111	94.38
309.341	83.38
309.571	97.38
309.8	94.38
310.03	106.38
310.26	98.38
310.49	97.38
310.72	103.38
310.949	97.38
311.179	86.38
311.409	94.38
311.639	87.38
311.868	86.38
312.098	85.38
312.328	88.38
312.557	92.38
312.787	90.38
313.017	83.38
313.246	99.38
313.476	89.38
313.706	85.38
313.935	87.38
314.165	95.38
314.394	89.38
314.624	79.38
314.853	88.38
315.083	80.38
315.312	81.38
315.542	96.38
315.771	94.38
316.001	84.38
316.23	81.38
316.46	75.38
316.689	93.38
316.919	88.38
317.148	96.38
317.377	81.38
317.607	92.38
317.836	99.38
318.065	96.38
318.295	85.38
318.524	85.38
318.753	77.38
318.983	97.38
319.212	92.38
319.441	93.38
319.67	99.38
319.9	79.38
320.129	98.38
320.358	97.38
320.587	103.38
320.816	96.38
321.046	94.38
321.275	101.38
321.504	94.38
321.733	89.38
321.962	85.38
322.191	95.38
322.42	90.38
322.649	97.38
322.878	101.38
323.108	98.38
323.337	126.38
323.566	126.38
323.795	134.38
324.024	176.38
324.253	325.38
324.482	741.38
324.71	1520.38
324.939	1943.38
325.168	715.38
325.397	220.38
325.626	136.38
325.855	117.38
326.084	120.38
326.313	124.38
326.542	141.38
326.77	213.38
326.999	431.38
327.228	865.38
327.457	1543.38
327.686	1255.38
327.914	356.38
328.143	211.38
328.372	154.38
328.6	109.38
328.829	117.38
329.058	121.38
329.287	115.38
329.515	108.38
329.744	94.38
329.972	89.38
330.201	86.38
330.43	97.38
330.658	111.38
330.887	134.38
331.115	108.38
331.344	98.38
331.572	89.38
331.801	112.38
332.03	101.38
332.258	94.38
332.486	94.38
332.715	94.38
332.943	77.38
333.172	92.38
333.4	107.38
333.629	97.38
333.857	116.38
334.085	84.38
334.314	84.38
334.542	86.38
334.771	91.38
334.999	92.38
335.227	103.38
335.455	84.38
335.684	96.38
335.912	104.38
336.14	91.38
336.369	97.38
336.597	92.38
336.825	64.38
337.053	100.38
337.281	89.38
337.51	94.38
337.738	103.38
337.966	91.38
338.194	95.38
338.422	112.38
338.65	101.38
338.878	75.38
339.106	86.38
339.334	76.38
339.562	83.38
339.79	96.38
340.018	89.38
340.246	80.38
340.474	93.38
340.702	93.38
340.93	82.38
341.158	96.38
341.386	97.38
341.614	93.38
341.842	93.38
342.07	73.38
342.298	68.38
342.526	85.38
342.754	94.38
342.981	93.38
343.209	84.38
343.437	108.38
343.665	103.38
343.893	87.38
344.12	92.38
344.348	95.38
344.576	78.38
344.804	97.38
345.031	96.38
345.259	94.38
345.487	100.38
345.714	107.38
345.942	85.38
346.17	86.38
346.397	85.38
346.625	88.38
346.853	80.38
347.08	91.38
347.308	93.38
347.535	82.38
347.763	93.38
347.99	79.38
348.218	105.38
348.445	92.38
348.673	94.38
348.9	105.38
349.128	87.38
349.355	81.38
349.583	84.38
349.81	93.38
350.037	89.38
350.265	94.38
350.492	95.38
350.72	77.38
350.947	89.38
351.174	111.38
351.402	108.38
351.629	92.38
351.856	91.38
352.083	103.38
352.311	107.38
352.538	103.38
352.765	112.38
352.992	121.38
353.22	114.38
353.447	95.38
353.674	80.38
353.901	94.38
354.128	88.38
354.355	85.38
354.583	101.38
354.81	87.38
355.037	94.38
355.264	95.38
355.491	86.38
355.718	83.38
355.945	90.38
356.172	98.38
356.399	90.38
356.626	89.38
356.853	93.38
357.08	77.38
357.307	79.38
357.534	88.38
357.761	82.38
357.988	89.38
358.215	95.38
358.441	87.38
358.668	84.38
358.895	86.38
359.122	80.38
359.349	85.38
359.576	88.38
359.802	90.38
360.029	103.38
360.256	93.38
360.483	92.38
360.709	78.38
360.936	96.38
361.163	90.38
361.39	97.38
361.616	80.38
361.843	85.38
362.07	97.38
362.296	83.38
362.523	78.38
362.749	98.38
362.976	85.38
363.203	100.38
363.429	96.38
363.656	77.38
363.882	76.38
364.109	86.38
364.335	96.38
364.562	75.38
364.788	76.38
365.015	76.38
365.241	76.38
365.468	108.38
365.694	96.38
365.92	91.38
366.147	87.38
366.373	89.38
366.599	88.38
366.826	99.38
367.052	81.38
367.278	83.38
367.505	87.38
367.731	91.38
367.957	103.38
368.184	83.38
368.41	93.38
368.636	102.38
368.862	104.38
369.089	92.38
369.315	96.38
369.541	89.38
369.767	95.38
369.993	87.38
370.219	79.38
370.445	73.38
370.672	79.38
370.898	79.38
371.124	86.38
371.35	90.38
371.576	91.38
371.802	94.38
372.028	83.38
372.254	93.38
372.48	90.38
372.706	85.38
372.932	71.38
373.158	83.38
373.384	94.38
373.61	98.38
373.835	96.38
374.061	87.38
374.287	91.38
374.513	98.38
374.739	83.38
374.965	76.38
375.191	75.38
375.416	97.38
375.642	89.38
375.868	96.38
376.094	88.38
376.319	85.38
376.545	96.38
376.771	84.38
376.997	96.38
377.222	93.38
377.448	94.38
377.674	84.38
377.899	80.38
378.125	85.38
378.35	92.38
378.576	95.38
378.802	86.38
379.027	77.38
379.253	74.38
379.478	102.38
379.704	93.38
379.929	87.38
380.155	96.38
380.38	69.38
380.606	79.38
380.831	92.38
381.057	106.38
381.282	94.38
381.507	85.38
381.733	83.38
381.958	96.38
382.184	104.38
382.409	90.38
382.634	102.38
382.86	104.38
383.085	92.38
383.31	85.38
383.535	106.38
383.761	88.38
383.986	111.38
384.211	79.38
384.436	100.38
384.662	93.38
384.887	101.38
385.112	88.38
385.337	114.38
385.562	94.38
385.787	106.38
386.013	107.38
386.238	101.38
386.463	102.38
386.688	96.38
386.913	99.38
387.138	107.38
387.363	103.38
387.588	91.38
387.813	94.38
388.038	94.38
388.263	121.38
388.488	105.38
388.713	94.38
388.938	97.38
389.163	93.38
389.387	86.38
389.612	87.38
389.837	90.38
390.062	87.38
390.287	95.38
390.512	95.38
390.736	94.38
390.961	82.38
391.186	101.38
391.411	83.38
391.636	90.38
391.86	81.38
392.085	80.38
392.31	89.38
392.534	73.38
392.759	87.38
392.984	93.38
393.208	79.38
393.433	95.38
393.658	100.38
393.882	88.38
394.107	95.38
394.331	81.38
394.556	91.38
394.78	80.38
395.005	85.38
395.229	96.38
395.454	92.38
395.678	83.38
395.903	70.38
396.127	78.38
396.352	94.38
396.576	77.38
396.801	99.38
397.025	83.38
397.249	76.38
397.474	91.38
397.698	95.38
397.922	82.38
398.147	78.38
398.371	81.38
398.595	96.38
398.82	83.38
399.044	85.38
399.268	70.38
399.492	75.38
399.717	81.38
399.941	87.38
400.165	81.38
400.389	86.38
400.613	88.38
400.837	81.38
401.062	88.38
401.286	83.38
401.51	89.38
401.734	82.38
401.958	93.38
402.182	93.38
402.406	140.38
402.63	102.38
402.854	86.38
403.078	75.38
403.302	95.38
403.526	77.38
403.75	71.38
403.974	83.38
404.198	77.38
404.422	86.38
404.645	96.38
404.869	89.38
405.093	78.38
405.317	92.38
405.541	99.38
405.765	101.38
405.988	98.38
406.212	140.38
406.436	187.38
406.66	131.38
406.883	105.38
407.107	87.38
407.331	108.38
407.555	95.38
407.778	91.38
408.002	87.38
408.226	89.38
408.449	86.38
408.673	102.38
408.896	84.38
409.12	107.38
409.344	93.38
409.567	84.38
409.791	70.38
410.014	96.38
410.238	88.38
410.461	77.38
410.685	80.38
410.908	94.38
411.132	104.38
411.355	93.38
411.578	103.38
411.802	77.38
412.025	92.38
412.249	79.38
412.472	81.38
412.695	90.38
412.919	88.38
413.142	79.38
413.365	82.38
413.589	75.38
413.812	75.38
414.035	100.38
414.258	85.38
414.482	86.38
414.705	95.38
414.928	93.38
415.151	83.38
415.374	93.38
415.597	82.38
415.821	92.38
416.044	95.38
416.267	95.38
416.49	81.38
416.713	85.38
416.936	103.38
417.159	97.38
417.382	79.38
417.605	97.38
417.828	86.38
418.051	79.38
418.274	83.38
418.497	80.38
418.72	80.38
418.943	83.38
419.166	93.38
419.389	94.38
419.611	86.38
419.834	96.38
420.057	77.38
420.28	75.38
420.503	77.38
420.726	78.38
420.948	94.38
421.171	90.38
421.394	87.38
421.617	95.38
421.839	72.38
422.062	84.38
422.285	89.38
422.507	101.38
422.73	100.38
422.953	92.38
423.175	106.38
423.398	96.38
423.621	84.38
423.843	84.38
424.066	65.38
424.288	80.38
424.511	95.38
424.733	83.38
424.956	101.38
425.178	93.38
425.401	102.38
425.623	107.38
425.846	79.38
426.068	97.38
426.291	100.38
426.513	87.38
426.735	103.38
426.958	86.38
427.18	88.38
427.402	120.38
427.625	143.38
427.847	123.38
428.069	98.38
428.292	102.38
428.514	103.38
428.736	89.38
428.958	76.38
429.181	73.38
429.403	69.38
429.625	73.38
429.847	83.38
430.069	96.38
430.292	90.38
430.514	78.38
430.736	73.38
430.958	85.38
431.18	74.38
431.402	103.38
431.624	85.38
431.846	75.38
432.068	89.38
432.29	83.38
432.512	88.38
432.734	67.38
432.956	91.38
433.178	95.38
433.4	89.38
433.622	78.38
433.844	88.38
434.066	86.38
434.287	89.38
434.509	102.38
434.731	99.38
434.953	98.38
435.175	91.38
435.397	84.38
435.618	99.38
435.84	96.38
436.062	110.38
436.284	116.38
436.505	101.38
436.727	93.38
436.949	93.38
437.17	69.38
437.392	80.38
437.614	87.38
437.835	105.38
438.057	106.38
438.278	86.38
438.5	102.38
438.721	125.38
438.943	93.38
439.165	85.38
439.386	81.38
439.608	97.38
439.829	99.38
440.05	109.38
440.272	133.38
440.493	94.38
440.715	87.38
440.936	84.38
441.158	91.38
441.379	89.38
441.6	87.38
441.822	78.38
442.043	86.38
442.264	86.38
442.486	88.38
442.707	99.38
442.928	98.38
443.149	122.38
443.371	119.38
443.592	92.38
443.813	101.38
444.034	101.38
444.255	94.38
444.476	97.38
444.698	88.38
444.919	84.38
445.14	133.38
445.361	127.38
445.582	105.38
445.803	122.38
446.024	114.38
446.245	123.38
446.466	108.38
446.687	74.38
446.908	79.38
447.129	91.38
447.35	80.38
447.571	85.38
447.792	91.38
448.013	84.38
448.234	94.38
448.455	101.38
448.675	110.38
448.896	108.38
449.117	87.38
449.338	98.38
449.559	134.38
449.779	136.38
450	94.38
450.221	75.38
450.442	88.38
450.662	93.38
450.883	104.38
451.104	102.38
451.324	102.38
451.545	91.38
451.766	85.38
451.986	90.38
452.207	88.38
452.428	91.38
452.648	93.38
452.869	93.38
453.089	88.38
453.31	116.38
453.53	87.38
453.751	99.38
453.971	103.38
454.192	90.38
454.412	91.38
454.633	83.38
454.853	78.38
455.073	78.38
455.294	96.38
455.514	108.38
455.734	86.38
455.955	73.38
456.175	81.38
456.395	89.38
456.616	68.38
456.836	92.38
457.056	82.38
457.276	87.38
457.497	79.38
457.717	72.38
457.937	76.38
458.157	79.38
458.377	67.38
458.598	94.38
458.818	121.38
459.038	132.38
459.258	105.38
459.478	84.38
459.698	77.38
459.918	79.38
460.138	82.38
460.358	71.38
460.578	75.38
460.798	84.38
461.018	79.38
461.238	78.38
461.458	90.38
461.678	84.38
461.898	76.38
462.118	91.38
462.338	78.38
462.558	71.38
462.777	86.38
462.997	78.38
463.217	71.38
463.437	101.38
463.657	94.38
463.876	79.38
464.096	73.38
464.316	69.38
464.536	83.38
464.755	103.38
464.975	96.38
465.195	162.38
465.414	134.38
465.634	95.38
465.854	59.38
466.073	93.38
466.293	94.38
466.512	91.38
466.732	80.38
466.951	71.38
467.171	71.38
467.391	94.38
467.61	105.38
467.829	65.38
468.049	86.38
468.268	81.38
468.488	75.38
468.707	93.38
468.927	80.38
469.146	77.38
469.365	96.38
469.585	97.38
469.804	100.38
470.023	96.38
470.243	91.38
470.462	101.38
470.681	91.38
470.901	78.38
471.12	91.38
471.339	83.38
471.558	74.38
471.777	76.38
471.997	93.38
472.216	89.38
472.435	88.38
472.654	92.38
472.873	78.38
473.092	72.38
473.311	84.38
473.53	81.38
473.749	85.38
473.968	87.38
474.187	111.38
474.406	92.38
474.625	68.38
474.844	88.38
475.063	90.38
475.282	96.38
475.501	91.38
475.72	94.38
475.939	83.38
476.158	85.38
476.377	77.38
476.596	84.38
476.814	88.38
477.033	81.38
477.252	86.38
477.471	97.38
477.69	91.38
477.908	82.38
478.127	97.38
478.346	97.38
478.564	86.38
478.783	97.38
479.002	101.38
479.22	96.38
479.439	94.38
479.658	96.38
479.876	90.38
480.095	85.38
480.313	83.38
480.532	91.38
480.751	84.38
480.969	77.38
481.188	93.38
481.406	89.38
481.624	83.38
481.843	105.38
482.061	85.38
482.28	89.38
482.498	92.38
482.717	87.38
482.935	105.38
483.153	80.38
483.372	77.38
483.59	74.38
483.808	81.38
484.027	104.38
484.245	89.38
484.463	95.38
484.681	91.38
484.9	75.38
485.118	89.38
485.336	87.38
485.554	93.38
485.772	107.38
485.99	101.38
486.209	102.38
486.427	107.38
486.645	112.38
486.863	96.38
487.081	83.38
487.299	102.38
487.517	88.38
487.735	109.38
487.953	95.38
488.171	94.38
488.389	97.38
488.607	94.38
488.825	76.38
489.043	69.38
489.261	76.38
489.479	89.38
489.696	93.38
489.914	87.38
490.132	79.38
490.35	95.38
490.568	78.38
490.786	85.38
491.003	96.38
491.221	101.38
491.439	85.38
491.657	93.38
491.874	89.38
492.092	94.38
492.31	86.38
492.527	99.38
492.745	89.38
492.963	78.38
493.18	87.38
493.398	92.38
493.615	82.38
493.833	95.38
494.05	86.38
494.268	77.38
494.485	76.38
494.703	94.38
494.92	83.38
495.138	81.38
495.355	86.38
495.573	102.38
495.79	88.38
496.008	92.38
496.225	82.38
496.442	87.38
496.66	83.38
496.877	80.38
497.094	99.38
497.312	92.38
497.529	84.38
497.746	87.38
497.963	79.38
498.181	91.38
498.398	87.38
498.615	104.38
498.832	93.38
499.049	79.38
499.267	76.38
499.484	80.38
499.701	86.38
499.918	84.38
500.135	78.38
500.352	84.38
500.569	92.38
500.786	94.38
501.003	112.38
501.22	84.38
501.437	87.38
501.654	91.38
501.871	114.38
502.088	87.38
502.305	67.38
502.522	85.38
502.739	74.38
502.956	88.38
503.172	104.38
503.389	95.38
503.606	86.38
503.823	72.38
504.04	96.38
504.256	85.38
504.473	92.38
504.69	70.38
504.907	82.38
505.123	87.38
505.34	74.38
505.557	67.38
505.773	81.38
505.99	78.38
506.207	82.38
506.423	93.38
506.64	82.38
506.856	98.38
507.073	97.38
507.289	98.38
507.506	80.38
507.722	106.38
507.939	93.38
508.155	92.38
508.372	73.38
508.588	99.38
508.805	91.38
509.021	96.38
509.238	91.38
509.454	100.38
509.67	112.38
509.887	107.38
510.103	131.38
510.319	180.38
510.536	611.38
510.752	1863.38
510.968	529.38
511.184	134.38
511.401	103.38
511.617	88.38
511.833	94.38
512.049	96.38
512.265	91.38
512.481	101.38
512.698	87.38
512.914	80.38
513.13	103.38
513.346	98.38
513.562	90.38
513.778	90.38
513.994	100.38
514.21	92.38
514.426	112.38
514.642	131.38
514.858	119.38
515.074	149.38
515.29	362.38
515.506	1171.38
515.721	423.38
515.937	123.38
516.153	105.38
516.369	105.38
516.585	73.38
516.801	85.38
517.016	90.38
