Data from Uncirc_1996_H10_HRD10591_00018.txt Node
Date: Wed Jan 03 11:32:06 EST 2024
User: Yrep
Spectrometer: HR+D1059
Trigger mode: 1
Integration Time (sec): 1.000000E-1
Scans to average: 1
Electric dark correction enabled: true
Nonlinearity correction enabled: false
Boxcar width: 0
XAxis mode: Wavelengths
Number of Pixels in Spectrum: 2048
>>>>>Begin Spectral Data<<<<<
223.165	-24
223.4	-24
223.635	-24
223.869	-14
224.104	-31
224.338	-10
224.573	-8
224.808	-10
225.042	-12
225.277	-1
225.511	-8
225.746	4
225.98	11
226.215	20
226.449	3
226.683	16
226.918	40
227.152	24
227.387	40
227.621	32
227.856	49
228.09	42
228.324	51
228.559	68
228.793	64
229.027	55
229.262	61
229.496	71
229.73	84
229.964	93
230.199	71
230.433	75
230.667	78
230.901	78
231.136	79
231.37	87
231.604	95
231.838	82
232.072	93
232.306	70
232.541	82
232.775	90
233.009	81
233.243	83
233.477	75
233.711	81
233.945	89
234.179	91
234.413	97
234.647	78
234.881	86
235.115	86
235.349	67
235.583	81
235.817	83
236.051	83
236.285	98
236.519	80
236.753	86
236.987	83
237.221	83
237.455	82
237.689	98
237.922	67
238.156	81
238.39	87
238.624	82
238.858	84
239.091	87
239.325	80
239.559	61
239.793	75
240.027	83
240.26	77
240.494	72
240.728	76
240.961	64
241.195	98
241.429	70
241.662	86
241.896	86
242.13	75
242.363	78
242.597	75
242.83	95
243.064	64
243.298	74
243.531	62
243.765	75
243.998	65
244.232	100
244.465	83
244.699	87
244.932	75
245.166	87
245.399	74
245.633	70
245.866	87
246.099	90
246.333	85
246.566	74
246.8	73
247.033	79
247.266	89
247.5	81
247.733	83
247.966	75
248.2	71
248.433	90
248.666	84
248.899	94
249.133	87
249.366	106
249.599	95
249.832	78
250.066	86
250.299	78
250.532	73
250.765	66
250.998	73
251.231	80
251.465	89
251.698	80
251.931	85
252.164	80
252.397	86
252.63	76
252.863	84
253.096	82
253.329	86
253.562	91
253.795	87
254.028	95
254.261	88
254.494	90
254.727	84
254.96	87
255.193	67
255.426	93
255.659	74
255.892	93
256.124	82
256.357	83
256.59	92
256.823	81
257.056	85
257.289	89
257.521	78
257.754	85
257.987	88
258.22	79
258.452	79
258.685	79
258.918	88
259.151	70
259.383	89
259.616	75
259.849	67
260.081	87
260.314	75
260.547	91
260.779	88
261.012	74
261.244	78
261.477	93
261.71	103
261.942	108
262.175	109
262.407	81
262.64	83
262.872	92
263.105	85
263.337	66
263.57	76
263.802	90
264.035	80
264.267	83
264.499	73
264.732	87
264.964	86
265.197	70
265.429	66
265.661	80
265.894	81
266.126	94
266.358	98
266.591	83
266.823	79
267.055	93
267.287	86
267.52	74
267.752	78
267.984	88
268.216	92
268.448	77
268.681	89
268.913	80
269.145	101
269.377	75
269.609	86
269.841	78
270.073	79
270.306	91
270.538	85
270.77	94
271.002	87
271.234	89
271.466	75
271.698	74
271.93	82
272.162	76
272.394	75
272.626	95
272.858	83
273.09	95
273.322	94
273.553	86
273.785	76
274.017	82
274.249	88
274.481	78
274.713	80
274.945	99
275.176	87
275.408	81
275.64	90
275.872	83
276.104	86
276.335	90
276.567	92
276.799	114
277.031	103
277.262	84
277.494	98
277.726	95
277.957	85
278.189	74
278.421	88
278.652	83
278.884	97
279.115	81
279.347	82
279.579	90
279.81	79
280.042	69
280.273	82
280.505	72
280.736	96
280.968	81
281.199	72
281.431	92
281.662	89
281.894	85
282.125	95
282.356	103
282.588	121
282.819	105
283.051	96
283.282	86
283.513	91
283.745	83
283.976	100
284.207	94
284.439	92
284.67	80
284.901	85
285.132	107
285.364	82
285.595	88
285.826	100
286.057	89
286.288	87
286.52	89
286.751	84
286.982	94
287.213	89
287.444	86
287.675	74
287.906	95
288.138	80
288.369	74
288.6	93
288.831	92
289.062	79
289.293	88
289.524	92
289.755	78
289.986	80
290.217	83
290.448	87
290.679	78
290.91	94
291.141	90
291.371	80
291.602	90
291.833	91
292.064	102
292.295	95
292.526	94
292.757	82
292.987	99
293.218	98
293.449	81
293.68	83
293.91	83
294.141	86
294.372	89
294.603	92
294.833	106
295.064	88
295.295	88
295.525	90
295.756	100
295.987	90
296.217	109
296.448	112
296.679	93
296.909	93
297.14	100
297.37	95
297.601	87
297.831	78
298.062	84
298.292	91
298.523	83
298.753	90
298.984	86
299.214	88
299.445	91
299.675	82
299.905	97
300.136	80
300.366	86
300.597	89
300.827	98
301.057	94
301.288	99
301.518	93
301.748	74
301.979	98
302.209	91
302.439	86
302.669	94
302.9	91
303.13	88
303.36	86
303.59	93
303.82	105
304.051	91
304.281	86
304.511	97
304.741	87
304.971	74
305.201	91
305.431	80
305.661	81
305.891	83
306.121	80
306.352	83
306.582	107
306.812	84
307.042	90
307.272	93
307.502	93
307.731	85
307.961	91
308.191	93
308.421	97
308.651	93
308.881	77
309.111	98
309.341	92
309.571	96
309.8	95
310.03	95
310.26	98
310.49	95
310.72	96
310.949	101
311.179	99
311.409	97
311.639	99
311.868	103
312.098	106
312.328	99
312.557	111
312.787	100
313.017	106
313.246	88
313.476	91
313.706	86
313.935	102
314.165	92
314.394	97
314.624	90
314.853	90
315.083	79
315.312	97
315.542	83
315.771	84
316.001	80
316.23	79
316.46	88
316.689	92
316.919	100
317.148	92
317.377	95
317.607	98
317.836	82
318.065	82
318.295	90
318.524	76
318.753	97
318.983	107
319.212	91
319.441	99
319.67	101
319.9	94
320.129	62
320.358	96
320.587	88
320.816	95
321.046	97
321.275	90
321.504	90
321.733	96
321.962	103
322.191	93
322.42	103
322.649	102
322.878	124
323.108	114
323.337	116
323.566	140
323.795	148
324.024	199
324.253	394
324.482	823
324.71	1664
324.939	2194
325.168	804
325.397	242
325.626	149
325.855	136
326.084	129
326.313	112
326.542	150
326.77	216
326.999	452
327.228	948
327.457	1702
327.686	1350
327.914	378
328.143	216
328.372	169
328.6	133
328.829	116
329.058	114
329.287	113
329.515	97
329.744	96
329.972	98
330.201	84
330.43	115
330.658	121
330.887	131
331.115	117
331.344	104
331.572	93
331.801	106
332.03	104
332.258	101
332.486	100
332.715	104
332.943	102
333.172	105
333.4	92
333.629	98
333.857	89
334.085	92
334.314	110
334.542	94
334.771	96
334.999	112
335.227	83
335.455	93
335.684	91
335.912	89
336.14	98
336.369	78
336.597	102
336.825	91
337.053	86
337.281	103
337.51	78
337.738	97
337.966	104
338.194	126
338.422	128
338.65	114
338.878	97
339.106	97
339.334	89
339.562	77
339.79	93
340.018	96
340.246	99
340.474	91
340.702	98
340.93	80
341.158	90
341.386	104
341.614	92
341.842	100
342.07	89
342.298	89
342.526	101
342.754	94
342.981	86
343.209	97
343.437	95
343.665	77
343.893	87
344.12	104
344.348	81
344.576	91
344.804	85
345.031	100
345.259	90
345.487	97
345.714	90
345.942	99
346.17	99
346.397	94
346.625	90
346.853	88
347.08	101
347.308	102
347.535	89
347.763	104
347.99	92
348.218	88
348.445	93
348.673	87
348.9	100
349.128	99
349.355	85
349.583	78
349.81	78
350.037	78
350.265	106
350.492	98
350.72	111
350.947	100
351.174	95
351.402	103
351.629	102
351.856	100
352.083	106
352.311	103
352.538	113
352.765	113
352.992	135
353.22	110
353.447	105
353.674	99
353.901	115
354.128	90
354.355	99
354.583	95
354.81	84
355.037	95
355.264	99
355.491	99
355.718	107
355.945	97
356.172	107
356.399	89
356.626	109
356.853	103
357.08	99
357.307	100
357.534	87
357.761	86
357.988	98
358.215	97
358.441	87
358.668	92
358.895	92
359.122	91
359.349	86
359.576	81
359.802	104
360.029	104
360.256	103
360.483	103
360.709	75
360.936	84
361.163	85
361.39	82
361.616	91
361.843	93
362.07	83
362.296	109
362.523	89
362.749	97
362.976	79
363.203	89
363.429	78
363.656	74
363.882	82
364.109	95
364.335	94
364.562	93
364.788	94
365.015	95
365.241	86
365.468	99
365.694	92
365.92	91
366.147	97
366.373	81
366.599	82
366.826	81
367.052	84
367.278	81
367.505	83
367.731	90
367.957	94
368.184	88
368.41	95
368.636	100
368.862	116
369.089	108
369.315	91
369.541	96
369.767	93
369.993	91
370.219	91
370.445	91
370.672	87
370.898	82
371.124	67
371.35	85
371.576	105
371.802	78
372.028	80
372.254	97
372.48	78
372.706	74
372.932	88
373.158	80
373.384	96
373.61	100
373.835	99
374.061	92
374.287	82
374.513	84
374.739	98
374.965	97
375.191	89
375.416	81
375.642	85
375.868	95
376.094	92
376.319	91
376.545	89
376.771	89
376.997	104
377.222	86
377.448	82
377.674	79
377.899	71
378.125	87
378.35	96
378.576	91
378.802	80
379.027	82
379.253	90
379.478	90
379.704	86
379.929	91
380.155	99
380.38	105
380.606	93
380.831	74
381.057	90
381.282	98
381.507	99
381.733	109
381.958	98
382.184	86
382.409	84
382.634	114
382.86	92
383.085	105
383.31	100
383.535	108
383.761	91
383.986	89
384.211	101
384.436	93
384.662	108
384.887	98
385.112	94
385.337	103
385.562	98
385.787	96
386.013	104
386.238	112
386.463	102
386.688	103
386.913	99
387.138	107
387.363	98
387.588	97
387.813	105
388.038	104
388.263	116
388.488	105
388.713	99
388.938	95
389.163	93
389.387	99
389.612	91
389.837	91
390.062	113
390.287	89
390.512	89
390.736	107
390.961	98
391.186	97
391.411	100
391.636	90
391.86	80
392.085	96
392.31	84
392.534	78
392.759	90
392.984	96
393.208	99
393.433	98
393.658	106
393.882	87
394.107	86
394.331	85
394.556	82
394.78	80
395.005	90
395.229	79
395.454	91
395.678	104
395.903	91
396.127	87
396.352	95
396.576	98
396.801	97
397.025	98
397.249	91
397.474	89
397.698	82
397.922	94
398.147	89
398.371	90
398.595	90
398.82	94
399.044	84
399.268	85
399.492	88
399.717	80
399.941	84
400.165	90
400.389	91
400.613	91
400.837	86
401.062	83
401.286	81
401.51	83
401.734	91
401.958	100
402.182	137
402.406	149
402.63	107
402.854	70
403.078	83
403.302	86
403.526	92
403.75	86
403.974	102
404.198	90
404.422	94
404.645	92
404.869	92
405.093	99
405.317	96
405.541	74
405.765	101
405.988	100
406.212	163
406.436	203
406.66	134
406.883	74
407.107	81
407.331	98
407.555	100
407.778	87
408.002	98
408.226	89
408.449	92
408.673	88
408.896	91
409.12	84
409.344	86
409.567	88
409.791	92
410.014	92
410.238	98
410.461	88
410.685	105
410.908	86
411.132	99
411.355	98
411.578	87
411.802	90
412.025	94
412.249	86
412.472	96
412.695	99
412.919	86
413.142	101
413.365	87
413.589	91
413.812	81
414.035	91
414.258	102
414.482	99
414.705	82
414.928	92
415.151	98
415.374	100
415.597	93
415.821	84
416.044	89
416.267	90
416.49	91
416.713	103
416.936	100
417.159	88
417.382	96
417.605	102
417.828	97
418.051	78
418.274	86
418.497	86
418.72	99
418.943	96
419.166	74
419.389	75
419.611	81
419.834	87
420.057	82
420.28	84
420.503	81
420.726	100
420.948	91
421.171	96
421.394	87
421.617	94
421.839	93
422.062	88
422.285	101
422.507	114
422.73	108
422.953	92
423.175	90
423.398	89
423.621	83
423.843	92
424.066	90
424.288	89
424.511	92
424.733	80
424.956	114
425.178	95
425.401	100
425.623	99
425.846	100
426.068	84
426.291	98
426.513	87
426.735	83
426.958	100
427.18	112
427.402	131
427.625	156
427.847	117
428.069	108
428.292	82
428.514	91
428.736	81
428.958	92
429.181	78
429.403	101
429.625	111
429.847	87
430.069	108
430.292	80
430.514	96
430.736	82
430.958	79
431.18	87
431.402	87
431.624	95
431.846	88
432.068	85
432.29	84
432.512	85
432.734	85
432.956	97
433.178	109
433.4	98
433.622	105
433.844	92
434.066	92
434.287	93
434.509	87
434.731	81
434.953	82
435.175	93
435.397	74
435.618	97
435.84	104
436.062	134
436.284	114
436.505	104
436.727	90
436.949	88
437.17	82
437.392	97
437.614	100
437.835	102
438.057	111
438.278	115
438.5	103
438.721	129
438.943	110
439.165	75
439.386	97
439.608	88
439.829	108
440.05	118
440.272	148
440.493	99
440.715	86
440.936	90
441.158	98
441.379	87
441.6	99
441.822	89
442.043	91
442.264	102
442.486	104
442.707	77
442.928	114
443.149	131
443.371	131
443.592	106
443.813	103
444.034	98
444.255	99
444.476	74
444.698	84
444.919	90
445.14	126
445.361	128
445.582	131
445.803	131
446.024	136
446.245	137
446.466	113
446.687	104
446.908	94
447.129	104
447.35	92
447.571	81
447.792	95
448.013	98
448.234	98
448.455	102
448.675	121
448.896	117
449.117	105
449.338	93
449.559	127
449.779	129
450	99
450.221	100
450.442	88
450.662	105
450.883	105
451.104	114
451.324	82
451.545	81
451.766	81
451.986	91
452.207	93
452.428	101
452.648	101
452.869	126
453.089	102
453.31	98
453.53	95
453.751	90
453.971	103
454.192	94
454.412	98
454.633	82
454.853	86
455.073	91
455.294	79
455.514	102
455.734	107
455.955	77
456.175	88
456.395	100
456.616	102
456.836	84
457.056	94
457.276	79
457.497	87
457.717	78
457.937	91
458.157	76
458.377	89
458.598	110
458.818	150
459.038	150
459.258	126
459.478	103
459.698	99
459.918	97
460.138	97
460.358	91
460.578	88
460.798	98
461.018	102
461.238	75
461.458	93
461.678	82
461.898	93
462.118	98
462.338	88
462.558	81
462.777	89
462.997	93
463.217	87
463.437	76
463.657	86
463.876	91
464.096	103
464.316	89
464.536	103
464.755	86
464.975	108
465.195	147
465.414	148
465.634	97
465.854	90
466.073	82
466.293	80
466.512	89
466.732	92
466.951	94
467.171	97
467.391	84
467.61	95
467.829	70
468.049	95
468.268	106
468.488	72
468.707	86
468.927	82
469.146	83
469.365	95
469.585	93
469.804	91
470.023	95
470.243	91
470.462	104
470.681	116
470.901	77
471.12	95
471.339	82
471.558	82
471.777	90
471.997	96
472.216	96
472.435	85
472.654	95
472.873	96
473.092	89
473.311	88
473.53	81
473.749	94
473.968	96
474.187	117
474.406	109
474.625	97
474.844	99
475.063	94
475.282	86
475.501	81
475.72	82
475.939	91
476.158	90
476.377	84
476.596	99
476.814	85
477.033	80
477.252	89
477.471	82
477.69	98
477.908	99
478.127	89
478.346	83
478.564	96
478.783	107
479.002	105
479.22	100
479.439	88
479.658	97
479.876	96
480.095	92
480.313	77
480.532	98
480.751	98
480.969	95
481.188	93
481.406	88
481.624	90
481.843	87
482.061	86
482.28	92
482.498	96
482.717	97
482.935	76
483.153	86
483.372	107
483.59	103
483.808	91
484.027	82
484.245	94
484.463	81
484.681	102
484.9	90
485.118	89
485.336	92
485.554	87
485.772	103
485.99	111
486.209	108
486.427	96
486.645	115
486.863	105
487.081	98
487.299	89
487.517	92
487.735	91
487.953	88
488.171	107
488.389	105
488.607	95
488.825	95
489.043	84
489.261	76
489.479	82
489.696	104
489.914	96
490.132	94
490.35	88
490.568	82
490.786	81
491.003	97
491.221	96
491.439	93
491.657	81
491.874	93
492.092	97
492.31	85
492.527	82
492.745	82
492.963	89
493.18	84
493.398	97
493.615	98
493.833	89
494.05	98
494.268	96
494.485	94
494.703	105
494.92	88
495.138	81
495.355	86
495.573	88
495.79	91
496.008	86
496.225	97
496.442	103
496.66	104
496.877	82
497.094	95
497.312	88
497.529	82
497.746	90
497.963	108
498.181	104
498.398	99
498.615	111
498.832	110
499.049	87
499.267	101
499.484	98
499.701	85
499.918	91
500.135	98
500.352	94
500.569	97
500.786	95
501.003	95
501.22	76
501.437	107
501.654	91
501.871	94
502.088	100
502.305	108
502.522	91
502.739	82
502.956	72
503.172	85
503.389	104
503.606	102
503.823	101
504.04	94
504.256	85
504.473	93
504.69	90
504.907	92
505.123	94
505.34	94
505.557	96
505.773	106
505.99	92
506.207	86
506.423	86
506.64	86
506.856	85
507.073	94
507.289	97
507.506	98
507.722	98
507.939	103
508.155	98
508.372	96
508.588	95
508.805	87
509.021	94
509.238	114
509.454	106
509.67	113
509.887	112
510.103	114
510.319	204
510.536	634
510.752	1975
510.968	560
511.184	139
511.401	114
511.617	98
511.833	107
512.049	91
512.265	94
512.481	92
512.698	96
512.914	84
513.13	90
513.346	101
513.562	116
513.778	100
513.994	98
514.21	111
514.426	111
514.642	119
514.858	112
515.074	147
515.29	406
515.506	1287
515.721	478
515.937	158
516.153	115
516.369	98
516.585	97
516.801	80
517.016	96
517.232	90
517.448	99
517.664	91
517.879	96
518.095	87
518.311	90
518.527	87
518.742	92
518.958	85
519.173	97
519.389	82
519.605	106
519.82	80
520.036	100
520.251	110
520.467	107
520.682	93
520.898	115
521.113	139
521.329	129
521.544	189
521.76	489
521.975	2034
522.19	1242
522.406	271
522.621	127
522.836	114
523.052	114
523.267	79
523.482	97
523.698	97
523.913	119
524.128	107
524.343	97
524.559	86
524.774	82
524.989	107
525.204	110
525.419	113
525.634	84
525.849	89
526.064	108
526.28	97
526.495	107
526.71	85
526.925	104
527.14	89
527.355	74
527.57	98
527.785	81
527.999	91
528.214	91
528.429	108
528.644	94
528.859	109
529.074	95
529.289	116
529.503	172
529.718	95
529.933	96
530.148	99
530.363	100
530.577	94
530.792	96
531.007	75
531.221	100
531.436	98
531.651	87
531.865	94
532.08	100
532.295	100
532.509	90
532.724	92
532.938	92
533.153	106
533.367	89
533.582	98
533.796	95
534.011	98
534.225	86
534.44	92
534.654	81
534.868	80
535.083	66
535.297	90
535.511	104
535.726	102
535.94	94
536.154	96
536.369	87
536.583	111
536.797	103
537.011	92
537.225	96
537.44	87
537.654	75
537.868	85
538.082	74
538.296	96
538.51	78
538.724	80
538.938	89
539.153	80
539.367	118
539.581	98
539.795	99
540.009	84
540.222	94
540.436	80
540.65	86
540.864	70
541.078	81
541.292	90
541.506	97
541.72	88
541.934	103
542.147	93
542.361	96
542.575	76
542.789	99
543.002	97
543.216	89
543.43	90
543.644	95
543.857	110
544.071	96
544.285	94
544.498	99
544.712	99
544.925	86
545.139	82
545.352	84
545.566	91
545.779	82
545.993	94
546.206	93
546.42	86
546.633	89
546.847	105
547.06	99
547.274	97
547.487	92
547.7	100
547.914	89
548.127	86
548.34	85
548.554	80
548.767	96
548.98	81
549.193	83
549.407	77
549.62	74
549.833	80
550.046	93
550.259	84
550.473	87
550.686	85
550.899	84
551.112	86
551.325	75
551.538	83
551.751	105
551.964	90
552.177	83
552.39	91
552.603	110
552.816	99
553.029	88
553.242	80
553.455	91
553.667	97
553.88	98
554.093	100
554.306	86
554.519	93
554.732	82
554.944	104
555.157	88
555.37	87
555.583	91
555.795	91
556.008	87
556.221	91
556.433	103
556.646	99
556.859	83
557.071	96
557.284	74
557.496	90
557.709	75
557.921	108
558.134	100
558.346	92
558.559	103
558.771	81
558.984	93
559.196	95
559.409	90
559.621	90
559.833	89
560.046	110
560.258	101
560.47	84
560.683	92
560.895	89
561.107	76
561.32	96
561.532	89
561.744	68
561.956	96
562.168	106
562.381	91
562.593	87
562.805	91
563.017	98
563.229	82
563.441	84
563.653	86
563.865	105
564.077	95
564.289	85
564.501	89
564.713	99
564.925	85
565.137	108
565.349	96
565.561	96
565.773	85
565.985	100
566.197	84
566.408	71
566.62	86
566.832	94
567.044	83
567.255	87
567.467	90
567.679	83
567.891	97
568.102	95
568.314	91
568.526	92
568.737	84
568.949	89
569.161	88
569.372	95
569.584	93
569.795	96
570.007	102
570.218	211
570.43	119
570.641	88
570.853	93
571.064	75
571.276	92
571.487	92
571.698	71
571.91	84
572.121	83
572.333	86
572.544	72
572.755	88
572.966	101
573.178	74
573.389	95
573.6	96
573.811	82
574.023	79
574.234	100
574.445	112
574.656	78
574.867	96
575.078	102
575.289	86
575.501	91
575.712	83
575.923	75
576.134	88
576.345	97
576.556	90
576.767	93
576.978	90
577.188	95
577.399	74
577.61	90
577.821	104
578.032	125
578.243	243
578.454	670
578.665	200
578.875	104
579.086	78
579.297	96
579.508	94
579.718	94
579.929	92
580.14	84
580.35	91
580.561	89
580.772	98
580.982	98
581.193	95
581.403	79
581.614	91
581.825	93
582.035	95
582.246	96
582.456	93
582.667	87
582.877	93
583.087	72
583.298	91
583.508	91
583.719	90
583.929	86
584.139	92
584.35	90
