Data from Uncirc_1996_H10_HRD10591_00059.txt Node
Date: Wed Jan 03 11:32:14 EST 2024
User: Yrep
Spectrometer: HR+D1059
Trigger mode: 1
Integration Time (sec): 1.000000E-1
Scans to average: 1
Electric dark correction enabled: true
Nonlinearity correction enabled: false
Boxcar width: 0
XAxis mode: Wavelengths
Number of Pixels in Spectrum: 2048
>>>>>Begin Spectral Data<<<<<
223.165	-18.69
223.4	-18.69
223.635	-18.69
223.869	-20.69
224.104	-9.69
224.338	-22.69
224.573	-20.69
224.808	-25.69
225.042	-3.69
225.277	-3.69
225.511	1.31
225.746	13.31
225.98	15.31
226.215	7.31
226.449	11.31
226.683	23.31
226.918	23.31
227.152	30.31
227.387	26.31
227.621	28.31
227.856	32.31
228.09	59.31
228.324	49.31
228.559	70.31
228.793	52.31
229.027	69.31
229.262	53.31
229.496	65.31
229.73	62.31
229.964	71.31
230.199	58.31
230.433	77.31
230.667	81.31
230.901	74.31
231.136	65.31
231.37	60.31
231.604	73.31
231.838	81.31
232.072	70.31
232.306	74.31
232.541	76.31
232.775	98.31
233.009	86.31
233.243	73.31
233.477	74.31
233.711	65.31
233.945	67.31
234.179	89.31
234.413	61.31
234.647	65.31
234.881	75.31
235.115	79.31
235.349	76.31
235.583	75.31
235.817	87.31
236.051	56.31
236.285	86.31
236.519	68.31
236.753	82.31
236.987	82.31
237.221	81.31
237.455	71.31
237.689	74.31
237.922	71.31
238.156	69.31
238.39	74.31
238.624	84.31
238.858	82.31
239.091	82.31
239.325	79.31
239.559	84.31
239.793	82.31
240.027	72.31
240.26	64.31
240.494	71.31
240.728	91.31
240.961	60.31
241.195	60.31
241.429	75.31
241.662	81.31
241.896	78.31
242.13	72.31
242.363	58.31
242.597	71.31
242.83	78.31
243.064	86.31
243.298	76.31
243.531	82.31
243.765	61.31
243.998	76.31
244.232	77.31
244.465	81.31
244.699	69.31
244.932	73.31
245.166	68.31
245.399	74.31
245.633	65.31
245.866	72.31
246.099	75.31
246.333	73.31
246.566	70.31
246.8	79.31
247.033	78.31
247.266	74.31
247.5	65.31
247.733	79.31
247.966	87.31
248.2	83.31
248.433	82.31
248.666	77.31
248.899	67.31
249.133	75.31
249.366	82.31
249.599	91.31
249.832	85.31
250.066	95.31
250.299	68.31
250.532	80.31
250.765	83.31
250.998	87.31
251.231	70.31
251.465	68.31
251.698	65.31
251.931	62.31
252.164	77.31
252.397	78.31
252.63	78.31
252.863	95.31
253.096	65.31
253.329	78.31
253.562	74.31
253.795	77.31
254.028	81.31
254.261	67.31
254.494	83.31
254.727	85.31
254.96	88.31
255.193	70.31
255.426	63.31
255.659	68.31
255.892	81.31
256.124	66.31
256.357	79.31
256.59	93.31
256.823	70.31
257.056	77.31
257.289	76.31
257.521	85.31
257.754	89.31
257.987	82.31
258.22	69.31
258.452	67.31
258.685	82.31
258.918	74.31
259.151	75.31
259.383	69.31
259.616	62.31
259.849	86.31
260.081	81.31
260.314	82.31
260.547	83.31
260.779	73.31
261.012	72.31
261.244	94.31
261.477	79.31
261.71	82.31
261.942	110.31
262.175	109.31
262.407	67.31
262.64	79.31
262.872	81.31
263.105	78.31
263.337	89.31
263.57	80.31
263.802	82.31
264.035	83.31
264.267	65.31
264.499	78.31
264.732	79.31
264.964	77.31
265.197	76.31
265.429	70.31
265.661	69.31
265.894	85.31
266.126	68.31
266.358	73.31
266.591	85.31
266.823	72.31
267.055	83.31
267.287	75.31
267.52	97.31
267.752	89.31
267.984	74.31
268.216	76.31
268.448	73.31
268.681	78.31
268.913	74.31
269.145	85.31
269.377	83.31
269.609	91.31
269.841	65.31
270.073	61.31
270.306	68.31
270.538	89.31
270.77	76.31
271.002	86.31
271.234	91.31
271.466	87.31
271.698	89.31
271.93	85.31
272.162	78.31
272.394	67.31
272.626	86.31
272.858	80.31
273.09	81.31
273.322	79.31
273.553	102.31
273.785	75.31
274.017	71.31
274.249	84.31
274.481	67.31
274.713	84.31
274.945	76.31
275.176	74.31
275.408	95.31
275.64	82.31
275.872	80.31
276.104	87.31
276.335	66.31
276.567	103.31
276.799	99.31
277.031	83.31
277.262	83.31
277.494	82.31
277.726	74.31
277.957	86.31
278.189	82.31
278.421	74.31
278.652	71.31
278.884	92.31
279.115	71.31
279.347	90.31
279.579	81.31
279.81	86.31
280.042	67.31
280.273	81.31
280.505	71.31
280.736	85.31
280.968	84.31
281.199	90.31
281.431	76.31
281.662	73.31
281.894	85.31
282.125	105.31
282.356	112.31
282.588	121.31
282.819	94.31
283.051	75.31
283.282	82.31
283.513	85.31
283.745	77.31
283.976	80.31
284.207	81.31
284.439	84.31
284.67	87.31
284.901	75.31
285.132	81.31
285.364	70.31
285.595	85.31
285.826	77.31
286.057	76.31
286.288	89.31
286.52	89.31
286.751	87.31
286.982	65.31
287.213	83.31
287.444	91.31
287.675	87.31
287.906	75.31
288.138	72.31
288.369	74.31
288.6	87.31
288.831	82.31
289.062	85.31
289.293	81.31
289.524	83.31
289.755	79.31
289.986	86.31
290.217	73.31
290.448	76.31
290.679	76.31
290.91	70.31
291.141	91.31
291.371	86.31
291.602	82.31
291.833	76.31
292.064	83.31
292.295	88.31
292.526	90.31
292.757	95.31
292.987	98.31
293.218	81.31
293.449	86.31
293.68	85.31
293.91	79.31
294.141	73.31
294.372	78.31
294.603	79.31
294.833	85.31
295.064	86.31
295.295	95.31
295.525	84.31
295.756	73.31
295.987	104.31
296.217	137.31
296.448	113.31
296.679	90.31
296.909	88.31
297.14	81.31
297.37	95.31
297.601	81.31
297.831	92.31
298.062	79.31
298.292	83.31
298.523	86.31
298.753	69.31
298.984	88.31
299.214	94.31
299.445	86.31
299.675	93.31
299.905	78.31
300.136	89.31
300.366	92.31
300.597	86.31
300.827	79.31
301.057	90.31
301.288	99.31
301.518	98.31
301.748	78.31
301.979	94.31
302.209	75.31
302.439	79.31
302.669	80.31
302.9	70.31
303.13	87.31
303.36	88.31
303.59	99.31
303.82	94.31
304.051	87.31
304.281	87.31
304.511	79.31
304.741	92.31
304.971	80.31
305.201	73.31
305.431	78.31
305.661	79.31
305.891	77.31
306.121	92.31
306.352	94.31
306.582	97.31
306.812	98.31
307.042	89.31
307.272	85.31
307.502	70.31
307.731	81.31
307.961	81.31
308.191	81.31
308.421	83.31
308.651	86.31
308.881	73.31
309.111	73.31
309.341	88.31
309.571	92.31
309.8	91.31
310.03	92.31
310.26	98.31
310.49	94.31
310.72	87.31
310.949	102.31
311.179	92.31
311.409	92.31
311.639	93.31
311.868	85.31
312.098	100.31
312.328	91.31
312.557	85.31
312.787	111.31
313.017	90.31
313.246	77.31
313.476	83.31
313.706	91.31
313.935	90.31
314.165	101.31
314.394	89.31
314.624	99.31
314.853	90.31
315.083	86.31
315.312	84.31
315.542	76.31
315.771	81.31
316.001	96.31
316.23	79.31
316.46	71.31
316.689	83.31
316.919	93.31
317.148	103.31
317.377	99.31
317.607	87.31
317.836	89.31
318.065	74.31
318.295	82.31
318.524	76.31
318.753	79.31
318.983	75.31
319.212	84.31
319.441	110.31
319.67	89.31
319.9	89.31
320.129	94.31
320.358	88.31
320.587	88.31
320.816	84.31
321.046	75.31
321.275	90.31
321.504	91.31
321.733	91.31
321.962	86.31
322.191	92.31
322.42	90.31
322.649	104.31
322.878	102.31
323.108	101.31
323.337	122.31
323.566	122.31
323.795	160.31
324.024	190.31
324.253	346.31
324.482	769.31
324.71	1605.31
324.939	2141.31
325.168	790.31
325.397	229.31
325.626	135.31
325.855	126.31
326.084	115.31
326.313	118.31
326.542	147.31
326.77	221.31
326.999	431.31
327.228	927.31
327.457	1684.31
327.686	1292.31
327.914	357.31
328.143	181.31
328.372	139.31
328.6	120.31
328.829	116.31
329.058	114.31
329.287	132.31
329.515	93.31
329.744	89.31
329.972	106.31
330.201	100.31
330.43	101.31
330.658	114.31
330.887	122.31
331.115	121.31
331.344	99.31
331.572	105.31
331.801	104.31
332.03	102.31
332.258	89.31
332.486	70.31
332.715	77.31
332.943	96.31
333.172	82.31
333.4	86.31
333.629	108.31
333.857	107.31
334.085	94.31
334.314	97.31
334.542	92.31
334.771	86.31
334.999	82.31
335.227	90.31
335.455	98.31
335.684	106.31
335.912	109.31
336.14	89.31
336.369	98.31
336.597	87.31
336.825	91.31
337.053	95.31
337.281	82.31
337.51	84.31
337.738	80.31
337.966	90.31
338.194	99.31
338.422	108.31
338.65	103.31
338.878	92.31
339.106	84.31
339.334	87.31
339.562	97.31
339.79	84.31
340.018	95.31
340.246	86.31
340.474	77.31
340.702	86.31
340.93	78.31
341.158	90.31
341.386	93.31
341.614	86.31
341.842	93.31
342.07	89.31
342.298	89.31
342.526	93.31
342.754	83.31
342.981	79.31
343.209	72.31
343.437	95.31
343.665	84.31
343.893	93.31
344.12	85.31
344.348	84.31
344.576	83.31
344.804	89.31
345.031	99.31
345.259	104.31
345.487	95.31
345.714	87.31
345.942	94.31
346.17	94.31
346.397	92.31
346.625	79.31
346.853	86.31
347.08	85.31
347.308	89.31
347.535	87.31
347.763	103.31
347.99	81.31
348.218	95.31
348.445	93.31
348.673	85.31
348.9	94.31
349.128	103.31
349.355	88.31
349.583	95.31
349.81	93.31
350.037	89.31
350.265	93.31
350.492	79.31
350.72	89.31
350.947	94.31
351.174	104.31
351.402	92.31
351.629	110.31
351.856	91.31
352.083	98.31
352.311	84.31
352.538	92.31
352.765	99.31
352.992	102.31
353.22	96.31
353.447	100.31
353.674	86.31
353.901	86.31
354.128	95.31
354.355	98.31
354.583	105.31
354.81	93.31
355.037	88.31
355.264	101.31
355.491	86.31
355.718	98.31
355.945	99.31
356.172	92.31
356.399	98.31
356.626	94.31
356.853	108.31
357.08	82.31
357.307	92.31
357.534	82.31
357.761	99.31
357.988	87.31
358.215	97.31
358.441	95.31
358.668	83.31
358.895	87.31
359.122	81.31
359.349	86.31
359.576	90.31
359.802	98.31
360.029	118.31
360.256	106.31
360.483	81.31
360.709	100.31
360.936	107.31
361.163	99.31
361.39	89.31
361.616	83.31
361.843	77.31
362.07	91.31
362.296	95.31
362.523	91.31
362.749	89.31
362.976	77.31
363.203	89.31
363.429	90.31
363.656	88.31
363.882	85.31
364.109	94.31
364.335	80.31
364.562	91.31
364.788	76.31
365.015	87.31
365.241	95.31
365.468	106.31
365.694	101.31
365.92	91.31
366.147	101.31
366.373	91.31
366.599	84.31
366.826	74.31
367.052	83.31
367.278	84.31
367.505	94.31
367.731	92.31
367.957	100.31
368.184	85.31
368.41	76.31
368.636	88.31
368.862	113.31
369.089	90.31
369.315	89.31
369.541	94.31
369.767	85.31
369.993	80.31
370.219	98.31
370.445	91.31
370.672	86.31
370.898	106.31
371.124	89.31
371.35	78.31
371.576	85.31
371.802	86.31
372.028	93.31
372.254	93.31
372.48	79.31
372.706	79.31
372.932	79.31
373.158	71.31
373.384	85.31
373.61	102.31
373.835	86.31
374.061	81.31
374.287	86.31
374.513	76.31
374.739	73.31
374.965	67.31
375.191	100.31
375.416	87.31
375.642	93.31
375.868	88.31
376.094	87.31
376.319	73.31
376.545	82.31
376.771	77.31
376.997	81.31
377.222	84.31
377.448	88.31
377.674	83.31
377.899	87.31
378.125	79.31
378.35	94.31
378.576	77.31
378.802	76.31
379.027	92.31
379.253	83.31
379.478	76.31
379.704	89.31
379.929	86.31
380.155	92.31
380.38	94.31
380.606	89.31
380.831	74.31
381.057	77.31
381.282	83.31
381.507	93.31
381.733	74.31
381.958	80.31
382.184	88.31
382.409	103.31
382.634	93.31
382.86	88.31
383.085	96.31
383.31	93.31
383.535	95.31
383.761	94.31
383.986	81.31
384.211	92.31
384.436	84.31
384.662	82.31
384.887	80.31
385.112	95.31
385.337	89.31
385.562	110.31
385.787	109.31
386.013	92.31
386.238	98.31
386.463	88.31
386.688	104.31
386.913	92.31
387.138	107.31
387.363	92.31
387.588	94.31
387.813	105.31
388.038	101.31
388.263	105.31
388.488	99.31
388.713	91.31
388.938	87.31
389.163	78.31
389.387	101.31
389.612	81.31
389.837	74.31
390.062	70.31
390.287	81.31
390.512	79.31
390.736	92.31
390.961	80.31
391.186	77.31
391.411	90.31
391.636	86.31
391.86	78.31
392.085	81.31
392.31	76.31
392.534	91.31
392.759	85.31
392.984	88.31
393.208	78.31
393.433	100.31
393.658	85.31
393.882	73.31
394.107	90.31
394.331	78.31
394.556	92.31
394.78	99.31
395.005	92.31
395.229	91.31
395.454	86.31
395.678	99.31
395.903	80.31
396.127	79.31
396.352	88.31
396.576	98.31
396.801	88.31
397.025	81.31
397.249	87.31
397.474	72.31
397.698	85.31
397.922	92.31
398.147	77.31
398.371	83.31
398.595	72.31
398.82	90.31
399.044	92.31
399.268	81.31
399.492	83.31
399.717	87.31
399.941	85.31
400.165	82.31
400.389	90.31
400.613	95.31
400.837	84.31
401.062	83.31
401.286	91.31
401.51	75.31
401.734	93.31
401.958	79.31
402.182	123.31
402.406	132.31
402.63	116.31
402.854	91.31
403.078	93.31
403.302	74.31
403.526	71.31
403.75	91.31
403.974	85.31
404.198	94.31
404.422	79.31
404.645	81.31
404.869	94.31
405.093	69.31
405.317	88.31
405.541	95.31
405.765	86.31
405.988	101.31
406.212	153.31
406.436	209.31
406.66	133.31
406.883	85.31
407.107	95.31
407.331	83.31
407.555	71.31
407.778	92.31
408.002	78.31
408.226	89.31
408.449	78.31
408.673	75.31
408.896	83.31
409.12	97.31
409.344	76.31
409.567	97.31
409.791	94.31
410.014	93.31
410.238	104.31
410.461	86.31
410.685	87.31
410.908	94.31
411.132	108.31
411.355	90.31
411.578	82.31
411.802	92.31
412.025	76.31
412.249	79.31
412.472	85.31
412.695	88.31
412.919	71.31
413.142	75.31
413.365	95.31
413.589	87.31
413.812	74.31
414.035	86.31
414.258	89.31
414.482	89.31
414.705	88.31
414.928	86.31
415.151	79.31
415.374	77.31
415.597	72.31
415.821	83.31
416.044	84.31
416.267	77.31
416.49	75.31
416.713	72.31
416.936	67.31
417.159	78.31
417.382	85.31
417.605	78.31
417.828	85.31
418.051	93.31
418.274	71.31
418.497	90.31
418.72	85.31
418.943	76.31
419.166	91.31
419.389	81.31
419.611	90.31
419.834	70.31
420.057	79.31
420.28	76.31
420.503	82.31
420.726	77.31
420.948	74.31
421.171	74.31
421.394	84.31
421.617	75.31
421.839	93.31
422.062	97.31
422.285	91.31
422.507	83.31
422.73	90.31
422.953	81.31
423.175	92.31
423.398	87.31
423.621	91.31
423.843	85.31
424.066	87.31
424.288	78.31
424.511	77.31
424.733	90.31
424.956	95.31
425.178	96.31
425.401	95.31
425.623	107.31
425.846	85.31
426.068	101.31
426.291	99.31
426.513	81.31
426.735	74.31
426.958	101.31
427.18	104.31
427.402	133.31
427.625	154.31
427.847	121.31
428.069	94.31
428.292	79.31
428.514	86.31
428.736	80.31
428.958	77.31
429.181	75.31
429.403	79.31
429.625	94.31
429.847	83.31
430.069	96.31
430.292	99.31
430.514	78.31
430.736	83.31
430.958	83.31
431.18	83.31
431.402	82.31
431.624	96.31
431.846	90.31
432.068	94.31
432.29	72.31
432.512	78.31
432.734	75.31
432.956	75.31
433.178	91.31
433.4	94.31
433.622	77.31
433.844	98.31
434.066	83.31
434.287	77.31
434.509	84.31
434.731	83.31
434.953	69.31
435.175	73.31
435.397	84.31
435.618	87.31
435.84	105.31
436.062	113.31
436.284	115.31
436.505	87.31
436.727	93.31
436.949	82.31
437.17	90.31
437.392	90.31
437.614	95.31
437.835	94.31
438.057	105.31
438.278	112.31
438.5	104.31
438.721	110.31
438.943	94.31
439.165	74.31
439.386	70.31
439.608	86.31
439.829	83.31
440.05	111.31
440.272	138.31
440.493	98.31
440.715	86.31
440.936	74.31
441.158	85.31
441.379	87.31
441.6	93.31
441.822	78.31
442.043	87.31
442.264	99.31
442.486	95.31
442.707	92.31
442.928	93.31
443.149	103.31
443.371	121.31
443.592	101.31
443.813	109.31
444.034	96.31
444.255	92.31
444.476	94.31
444.698	70.31
444.919	72.31
445.14	125.31
445.361	123.31
445.582	107.31
445.803	114.31
446.024	120.31
446.245	117.31
446.466	116.31
446.687	94.31
446.908	87.31
447.129	95.31
447.35	102.31
447.571	91.31
447.792	80.31
448.013	85.31
448.234	81.31
448.455	87.31
448.675	108.31
448.896	111.31
449.117	101.31
449.338	102.31
449.559	117.31
449.779	122.31
450	82.31
450.221	91.31
450.442	79.31
450.662	86.31
450.883	105.31
451.104	100.31
451.324	93.31
451.545	80.31
451.766	93.31
451.986	63.31
452.207	70.31
452.428	78.31
452.648	92.31
452.869	100.31
453.089	107.31
453.31	107.31
453.53	95.31
453.751	81.31
453.971	98.31
454.192	101.31
454.412	85.31
454.633	65.31
454.853	76.31
455.073	73.31
455.294	75.31
455.514	89.31
455.734	87.31
455.955	79.31
456.175	72.31
456.395	85.31
456.616	74.31
456.836	67.31
457.056	82.31
457.276	71.31
457.497	83.31
457.717	84.31
457.937	82.31
458.157	69.31
458.377	82.31
458.598	95.31
458.818	135.31
459.038	148.31
459.258	108.31
459.478	95.31
459.698	74.31
459.918	85.31
460.138	80.31
460.358	66.31
460.578	83.31
460.798	94.31
461.018	76.31
461.238	79.31
461.458	70.31
461.678	67.31
461.898	91.31
462.118	78.31
462.338	75.31
462.558	69.31
462.777	91.31
462.997	75.31
463.217	78.31
463.437	99.31
463.657	86.31
463.876	76.31
464.096	78.31
464.316	92.31
464.536	90.31
464.755	93.31
464.975	96.31
465.195	145.31
465.414	129.31
465.634	95.31
465.854	81.31
466.073	84.31
466.293	68.31
466.512	81.31
466.732	86.31
466.951	73.31
467.171	97.31
467.391	97.31
467.61	84.31
467.829	82.31
468.049	82.31
468.268	82.31
468.488	72.31
468.707	88.31
468.927	90.31
469.146	73.31
469.365	74.31
469.585	77.31
469.804	75.31
470.023	92.31
470.243	88.31
470.462	77.31
470.681	95.31
470.901	89.31
471.12	98.31
471.339	81.31
471.558	82.31
471.777	93.31
471.997	86.31
472.216	71.31
472.435	77.31
472.654	81.31
472.873	90.31
473.092	75.31
473.311	70.31
473.53	69.31
473.749	75.31
473.968	99.31
474.187	104.31
474.406	94.31
474.625	87.31
474.844	85.31
475.063	78.31
475.282	73.31
475.501	78.31
475.72	101.31
475.939	83.31
476.158	80.31
476.377	73.31
476.596	88.31
476.814	88.31
477.033	78.31
477.252	83.31
477.471	78.31
477.69	85.31
477.908	76.31
478.127	77.31
478.346	79.31
478.564	73.31
478.783	95.31
479.002	72.31
479.22	86.31
479.439	88.31
479.658	89.31
479.876	99.31
480.095	82.31
480.313	61.31
480.532	87.31
480.751	69.31
480.969	77.31
481.188	81.31
481.406	87.31
481.624	90.31
481.843	83.31
482.061	77.31
482.28	84.31
482.498	77.31
482.717	95.31
482.935	76.31
483.153	71.31
483.372	78.31
483.59	86.31
483.808	85.31
484.027	79.31
484.245	84.31
484.463	88.31
484.681	87.31
484.9	91.31
485.118	96.31
485.336	92.31
485.554	89.31
485.772	98.31
485.99	93.31
486.209	113.31
486.427	100.31
486.645	101.31
486.863	100.31
487.081	83.31
487.299	99.31
487.517	85.31
487.735	92.31
487.953	94.31
488.171	82.31
488.389	85.31
488.607	95.31
488.825	89.31
489.043	84.31
489.261	96.31
489.479	85.31
489.696	90.31
489.914	81.31
490.132	81.31
490.35	79.31
490.568	78.31
490.786	89.31
491.003	108.31
491.221	75.31
491.439	82.31
491.657	85.31
491.874	78.31
492.092	85.31
492.31	70.31
492.527	85.31
492.745	72.31
492.963	94.31
493.18	70.31
493.398	87.31
493.615	84.31
493.833	85.31
494.05	81.31
494.268	81.31
494.485	94.31
494.703	68.31
494.92	78.31
495.138	86.31
495.355	89.31
495.573	86.31
495.79	88.31
496.008	95.31
496.225	88.31
496.442	90.31
496.66	92.31
496.877	78.31
497.094	91.31
497.312	92.31
497.529	84.31
497.746	88.31
497.963	93.31
498.181	98.31
498.398	91.31
498.615	96.31
498.832	102.31
499.049	83.31
499.267	79.31
499.484	79.31
499.701	81.31
499.918	77.31
500.135	85.31
500.352	86.31
500.569	72.31
500.786	77.31
501.003	94.31
501.22	82.31
501.437	80.31
501.654	77.31
501.871	99.31
502.088	69.31
502.305	87.31
502.522	98.31
502.739	98.31
502.956	88.31
503.172	89.31
503.389	97.31
503.606	86.31
503.823	97.31
504.04	92.31
504.256	94.31
504.473	86.31
504.69	85.31
504.907	94.31
505.123	85.31
505.34	76.31
505.557	93.31
505.773	87.31
505.99	89.31
506.207	86.31
506.423	93.31
506.64	91.31
506.856	90.31
507.073	84.31
507.289	99.31
507.506	87.31
507.722	100.31
507.939	90.31
508.155	101.31
508.372	83.31
508.588	90.31
508.805	92.31
509.021	89.31
509.238	84.31
509.454	114.31
509.67	103.31
509.887	111.31
510.103	139.31
510.319	200.31
510.536	652.31
510.752	2077.31
510.968	579.31
511.184	139.31
511.401	103.31
511.617	94.31
511.833	90.31
512.049	90.31
512.265	83.31
512.481	92.31
512.698	84.31
512.914	86.31
513.13	94.31
513.346	95.31
513.562	73.31
513.778	89.31
513.994	73.31
514.21	84.31
514.426	106.31
514.642	116.31
514.858	116.31
515.074	154.31
515.29	398.31
515.506	1329.31
515.721	465.31
515.937	130.31
516.153	101.31
516.369	87.31
516.585	83.31
516.801	106.31
517.016	90.31
517.232	79.31
517.448	84.31
517.664	93.31
