Data from Uncirc_1996_H10_HRD10591_00035.txt Node
Date: Wed Jan 03 11:32:09 EST 2024
User: Yrep
Spectrometer: HR+D1059
Trigger mode: 1
Integration Time (sec): 1.000000E-1
Scans to average: 1
Electric dark correction enabled: true
Nonlinearity correction enabled: false
Boxcar width: 0
XAxis mode: Wavelengths
Number of Pixels in Spectrum: 2048
>>>>>Begin Spectral Data<<<<<
223.165	-18
223.4	-18
223.635	-18
223.869	-17
224.104	-31
224.338	-18
224.573	-21
224.808	-8
225.042	-15
225.277	-9
225.511	-2
225.746	19
225.98	6
226.215	-3
226.449	24
226.683	22
226.918	31
227.152	40
227.387	40
227.621	30
227.856	40
228.09	40
228.324	65
228.559	63
228.793	146
229.027	458
229.262	518
229.496	594
229.73	803
229.964	816
230.199	530
230.433	480
230.667	479
230.901	465
231.136	441
231.37	466
231.604	454
231.838	449
232.072	454
232.306	466
232.541	462
232.775	459
233.009	481
233.243	487
233.477	475
233.711	495
233.945	499
234.179	527
234.413	504
234.647	524
234.881	524
235.115	524
235.349	557
235.583	565
235.817	599
236.051	642
236.285	621
236.519	628
236.753	702
236.987	918
237.221	1384
237.455	1481
237.689	895
237.922	732
238.156	705
238.39	653
238.624	634
238.858	630
239.091	650
239.325	659
239.559	670
239.793	695
240.027	761
240.26	878
240.494	962
240.728	984
240.961	952
241.195	850
241.429	796
241.662	790
241.896	770
242.13	760
242.363	758
242.597	801
242.83	819
243.064	844
243.298	844
243.531	815
243.765	804
243.998	868
244.232	843
244.465	898
244.699	903
244.932	889
245.166	874
245.399	907
245.633	882
245.866	931
246.099	922
246.333	919
246.566	956
246.8	954
247.033	1034
247.266	1026
247.5	1110
247.733	1160
247.966	1134
248.2	1143
248.433	1158
248.666	1239
248.899	1356
249.133	1440
249.366	1441
249.599	1308
249.832	1260
250.066	1198
250.299	1234
250.532	1315
250.765	1492
250.998	1709
251.231	1651
251.465	1463
251.698	1430
251.931	1384
252.164	1380
252.397	1422
252.63	1466
252.863	1508
253.096	1674
253.329	1742
253.562	1640
253.795	1542
254.028	1590
254.261	1626
254.494	1805
254.727	2134
254.96	2228
255.193	1981
255.426	1762
255.659	1622
255.892	1595
256.124	1520
256.357	1491
256.59	1567
256.823	1482
257.056	1499
257.289	1505
257.521	1550
257.754	1553
257.987	1529
258.22	1504
258.452	1513
258.685	1539
258.918	1612
259.151	1672
259.383	1713
259.616	1729
259.849	1772
260.081	1912
260.314	2072
260.547	2039
260.779	1875
261.012	1761
261.244	1736
261.477	1707
261.71	1690
261.942	1763
262.175	1785
262.407	1712
262.64	1675
262.872	1662
263.105	1680
263.337	1643
263.57	1677
263.802	1650
264.035	1696
264.267	1667
264.499	1626
264.732	1690
264.964	1744
265.197	1720
265.429	1694
265.661	1703
265.894	1756
266.126	1753
266.358	1768
266.591	1803
266.823	1874
267.055	1838
267.287	1871
267.52	1839
267.752	1905
267.984	1914
268.216	1908
268.448	1935
268.681	2040
268.913	2127
269.145	2328
269.377	2411
269.609	2282
269.841	2307
270.073	2387
270.306	2718
270.538	2856
270.77	2720
271.002	2520
271.234	2479
271.466	2638
271.698	2770
271.93	2772
272.162	2761
272.394	2676
272.626	2523
272.858	2346
273.09	2336
273.322	2259
273.553	2278
273.785	2284
274.017	2223
274.249	2217
274.481	2251
274.713	2321
274.945	2310
275.176	2273
275.408	2280
275.64	2272
275.872	2248
276.104	2322
276.335	2301
276.567	2362
276.799	2543
277.031	2807
277.262	2922
277.494	2758
277.726	2645
277.957	2514
278.189	2443
278.421	2421
278.652	2399
278.884	2374
279.115	2372
279.347	2382
279.579	2406
279.81	2433
280.042	2384
280.273	2398
280.505	2414
280.736	2393
280.968	2407
281.199	2438
281.431	2452
281.662	2478
281.894	2464
282.125	2557
282.356	2711
282.588	2850
282.819	2657
283.051	2558
283.282	2564
283.513	2622
283.745	2618
283.976	2632
284.207	2709
284.439	2694
284.67	2612
284.901	2604
285.132	2618
285.364	2636
285.595	2600
285.826	2643
286.057	2662
286.288	2705
286.52	2713
286.751	2683
286.982	2716
287.213	2728
287.444	2776
287.675	2786
287.906	2945
288.138	2970
288.369	2921
288.6	2935
288.831	2873
289.062	2866
289.293	2863
289.524	2823
289.755	2854
289.986	2803
290.217	2788
290.448	2825
290.679	2833
290.91	2846
291.141	2829
291.371	2813
291.602	2881
291.833	2759
292.064	2825
292.295	2862
292.526	2834
292.757	2843
292.987	2835
293.218	2876
293.449	2853
293.68	2868
293.91	2847
294.141	2862
294.372	2889
294.603	2905
294.833	2898
295.064	2892
295.295	2931
295.525	2905
295.756	2946
295.987	3048
296.217	3163
296.448	3142
296.679	2984
296.909	2969
297.14	3030
297.37	3072
297.601	3058
297.831	3142
298.062	3102
298.292	3045
298.523	3123
298.753	3185
298.984	3067
299.214	3162
299.445	3092
299.675	3115
299.905	3211
300.136	3152
300.366	3118
300.597	3233
300.827	3292
301.057	3350
301.288	3416
301.518	3363
301.748	3336
301.979	3426
302.209	3414
302.439	3409
302.669	3333
302.9	3346
303.13	3341
303.36	3410
303.59	3386
303.82	3431
304.051	3400
304.281	3368
304.511	3272
304.741	3295
304.971	3263
305.201	3260
305.431	3283
305.661	3348
305.891	3239
306.121	3300
306.352	3338
306.582	3314
306.812	3195
307.042	3282
307.272	3277
307.502	3307
307.731	3287
307.961	3338
308.191	3341
308.421	3263
308.651	3366
308.881	3318
309.111	3354
309.341	3383
309.571	3457
309.8	3496
310.03	3628
310.26	3591
310.49	3595
310.72	3722
310.949	3810
311.179	3734
311.409	3672
311.639	3663
311.868	3665
312.098	3693
312.328	3787
312.557	3888
312.787	4001
313.017	3868
313.246	3853
313.476	3739
313.706	3798
313.935	3873
314.165	3942
314.394	3955
314.624	3912
314.853	3856
315.083	3810
315.312	3726
315.542	3762
315.771	3743
316.001	3711
316.23	3728
316.46	3668
316.689	3723
316.919	3774
317.148	3798
317.377	3770
317.607	3754
317.836	3757
318.065	3649
318.295	3690
318.524	3706
318.753	3667
318.983	3724
319.212	3697
319.441	3787
319.67	3805
319.9	3706
320.129	3697
320.358	3754
320.587	3770
320.816	3795
321.046	3884
321.275	3802
321.504	3852
321.733	3849
321.962	3963
322.191	3995
322.42	4125
322.649	4176
322.878	4284
323.108	4275
323.337	4566
323.566	4647
323.795	4962
324.024	5473
324.253	7190
324.482	10599
324.71	15007
324.939	15620
325.168	12778
325.397	6479
325.626	5178
325.855	4848
326.084	4759
326.313	4782
326.542	4931
326.77	5423
326.999	6784
327.228	10054
327.457	14195
327.686	13483
327.914	7249
328.143	5809
328.372	5365
328.6	5160
328.829	5171
329.058	5315
329.287	5217
329.515	4914
329.744	4751
329.972	4754
330.201	4868
330.43	5012
330.658	5362
330.887	5601
331.115	5246
331.344	4968
331.572	4907
331.801	5009
332.03	5002
332.258	4998
332.486	4953
332.715	5093
332.943	5185
333.172	5334
333.4	5497
333.629	5563
333.857	5598
334.085	5528
334.314	5360
334.542	5353
334.771	5386
334.999	5247
335.227	5185
335.455	5140
335.684	4981
335.912	4993
336.14	4933
336.369	4950
336.597	5005
336.825	4963
337.053	4869
337.281	4767
337.51	4711
337.738	4787
337.966	4768
338.194	4793
338.422	4680
338.65	4556
338.878	4556
339.106	4522
339.334	4455
339.562	4522
339.79	4386
340.018	4444
340.246	4432
340.474	4457
340.702	4455
340.93	4442
341.158	4392
341.386	4434
341.614	4465
341.842	4377
342.07	4351
342.298	4306
342.526	4346
342.754	4348
342.981	4333
343.209	4479
343.437	4682
343.665	4960
343.893	5228
344.12	5191
344.348	4988
344.576	4866
344.804	4728
345.031	4666
345.259	4610
345.487	4475
345.714	4382
345.942	4261
346.17	4251
346.397	4301
346.625	4203
346.853	4205
347.08	4239
347.308	4270
347.535	4387
347.763	4354
347.99	4250
348.218	4311
348.445	4376
348.673	4277
348.9	4219
349.128	4134
349.355	4008
349.583	4145
349.81	4085
350.037	4076
350.265	4097
350.492	4094
350.72	4062
350.947	4154
351.174	4254
351.402	4253
351.629	4169
351.856	4188
352.083	4241
352.311	4206
352.538	4279
352.765	4313
352.992	4192
353.22	4129
353.447	4083
353.674	4081
353.901	4010
354.128	4042
354.355	4011
354.583	3994
354.81	4031
355.037	4030
355.264	3995
355.491	4024
355.718	4011
355.945	3905
356.172	3992
356.399	3965
356.626	4038
356.853	3996
357.08	3982
357.307	3974
357.534	3949
357.761	4034
357.988	4016
358.215	3975
358.441	4048
358.668	4080
358.895	4081
359.122	4066
359.349	4225
359.576	4289
359.802	4514
360.029	4589
360.256	4547
360.483	4392
360.709	4271
360.936	4221
361.163	4276
361.39	4310
361.616	4348
361.843	4226
362.07	4227
362.296	4124
362.523	4183
362.749	4203
362.976	4137
363.203	4085
363.429	4066
363.656	4131
363.882	4103
364.109	4028
364.335	4041
364.562	4043
364.788	4114
365.015	4122
365.241	4081
365.468	4086
365.694	4174
365.92	4158
366.147	4123
366.373	4081
366.599	4071
366.826	4090
367.052	3977
367.278	4068
367.505	4116
367.731	4138
367.957	4066
368.184	4151
368.41	4210
368.636	4280
368.862	4239
369.089	4189
369.315	4152
369.541	4226
369.767	4272
369.993	4183
370.219	4278
370.445	4255
370.672	4273
370.898	4249
371.124	4297
371.35	4362
371.576	4356
371.802	4287
372.028	4306
372.254	4327
372.48	4377
372.706	4474
372.932	4560
373.158	4406
373.384	4381
373.61	4358
373.835	4302
374.061	4406
374.287	4489
374.513	4550
374.739	4660
374.965	4774
375.191	4776
375.416	4696
375.642	4558
375.868	4546
376.094	4419
376.319	4440
376.545	4488
376.771	4377
376.997	4381
377.222	4315
377.448	4300
377.674	4335
377.899	4314
378.125	4293
378.35	4253
378.576	4294
378.802	4325
379.027	4269
379.253	4323
379.478	4248
379.704	4362
379.929	4399
380.155	4318
380.38	4400
380.606	4368
380.831	4347
381.057	4352
381.282	4376
381.507	4345
381.733	4474
381.958	4459
382.184	4591
382.409	4561
382.634	4592
382.86	4594
383.085	4686
383.31	4720
383.535	4791
383.761	4775
383.986	4870
384.211	5010
384.436	5040
384.662	5182
384.887	5214
385.112	5179
385.337	5255
385.562	5289
385.787	5269
386.013	5327
386.238	5379
386.463	5367
386.688	5334
386.913	5207
387.138	5218
387.363	5210
387.588	5110
387.813	5244
388.038	5118
388.263	5140
388.488	5275
388.713	5253
388.938	5210
389.163	5142
389.387	5216
389.612	5064
389.837	5095
390.062	5096
390.287	5114
390.512	5118
390.736	5231
390.961	5264
391.186	5339
391.411	5458
391.636	5637
391.86	5887
392.085	5879
392.31	5718
392.534	5601
392.759	5528
392.984	5459
393.208	5444
393.433	5481
393.658	5454
393.882	5468
394.107	5492
394.331	5501
394.556	5438
394.78	5535
395.005	5634
395.229	5602
395.454	5690
395.678	5915
395.903	5911
396.127	5902
396.352	5737
396.576	5537
396.801	5426
397.025	5568
397.249	5712
397.474	5825
397.698	5913
397.922	6030
398.147	6145
398.371	6194
398.595	6329
398.82	6604
399.044	7227
399.268	8026
399.492	9089
399.717	9731
399.941	9369
400.165	8883
400.389	8119
400.613	7368
400.837	6902
401.062	6710
401.286	6563
401.51	6648
401.734	6530
401.958	6692
402.182	6726
402.406	6892
402.63	6911
402.854	6960
403.078	7204
403.302	7325
403.526	7365
403.75	7393
403.974	7488
404.198	7424
404.422	7585
404.645	7456
404.869	7327
405.093	7514
405.317	7492
405.541	7587
405.765	7319
405.988	7183
406.212	7423
406.436	7572
406.66	7830
406.883	7762
407.107	8381
407.331	8948
407.555	9421
407.778	9035
408.002	8298
408.226	7987
408.449	7842
408.673	7673
408.896	7867
409.12	8119
409.344	7515
409.567	7279
409.791	7258
410.014	7114
410.238	7074
410.461	6956
410.685	7126
410.908	7136
411.132	7464
411.355	7376
411.578	7053
411.802	6766
412.025	6756
412.249	6854
412.472	6778
412.695	6657
412.919	6521
413.142	6486
413.365	6492
413.589	6535
413.812	6377
414.035	6354
414.258	6445
414.482	6477
414.705	6548
414.928	6454
415.151	6460
415.374	6419
415.597	6318
415.821	6352
416.044	6403
416.267	6260
416.49	6265
416.713	6193
416.936	6378
417.159	6360
417.382	6418
417.605	6355
417.828	6568
418.051	6689
418.274	6654
418.497	6470
418.72	6620
418.943	6536
419.166	6916
419.389	7326
419.611	7215
419.834	7010
420.057	6896
420.28	6706
420.503	6435
420.726	6421
420.948	6638
421.171	7141
421.394	7040
421.617	6577
421.839	6582
422.062	6628
422.285	6875
422.507	7561
422.73	8040
422.953	7371
423.175	7057
423.398	7122
423.621	7002
423.843	7398
424.066	7258
424.288	7158
424.511	7441
424.733	7864
424.956	8317
425.178	7783
425.401	7983
425.623	7810
425.846	6874
426.068	6773
426.291	6612
426.513	6568
426.735	6740
426.958	7195
427.18	7911
427.402	9096
427.625	9088
427.847	7630
428.069	6751
428.292	6433
428.514	6114
428.736	6054
428.958	6038
429.181	5819
429.403	5910
429.625	6125
429.847	6326
430.069	7030
430.292	6396
430.514	5924
430.736	5981
430.958	5784
431.18	5684
431.402	5778
431.624	5727
431.846	5785
432.068	5759
432.29	5910
432.512	5830
432.734	5932
432.956	5888
433.178	5916
433.4	5857
433.622	5847
433.844	5831
434.066	5867
434.287	5935
434.509	6176
434.731	6342
434.953	6508
435.175	6696
435.397	6814
435.618	6733
435.84	7082
436.062	7914
436.284	7894
436.505	6717
436.727	6254
436.949	6031
437.17	5890
437.392	5938
437.614	6040
437.835	6426
438.057	7399
438.278	8061
438.5	8069
438.721	8778
438.943	7627
439.165	6431
439.386	6361
439.608	6306
439.829	6403
440.05	6740
440.272	7151
440.493	6564
440.715	6234
440.936	6194
441.158	6180
441.379	6348
441.6	6730
441.822	6951
442.043	7393
442.264	8208
442.486	7797
442.707	7034
442.928	6856
443.149	7118
443.371	7299
443.592	7680
443.813	8722
444.034	8729
444.255	7585
444.476	7468
444.698	7649
444.919	7752
445.14	7479
445.361	7349
445.582	7496
445.803	8100
446.024	8815
446.245	8303
446.466	7521
446.687	6558
446.908	6184
447.129	5918
447.35	5792
447.571	5819
447.792	5611
448.013	5666
448.234	5943
448.455	6637
448.675	7873
448.896	8300
449.117	6877
449.338	7064
449.559	8369
449.779	8572
450	6509
450.221	5903
450.442	5577
450.662	5453
450.883	5586
451.104	5685
451.324	5536
451.545	5388
451.766	5297
451.986	5130
452.207	5107
452.428	5118
452.648	5191
452.869	5156
453.089	5229
453.31	5322
453.53	5123
453.751	5086
453.971	5085
454.192	5277
454.412	5069
454.633	4988
454.853	4911
455.073	4964
455.294	5427
455.514	5928
455.734	5433
455.955	4897
456.175	4803
456.395	4725
456.616	4678
456.836	4670
457.056	4716
457.276	4639
457.497	4768
457.717	4849
457.937	4883
458.157	4870
458.377	5001
458.598	5376
458.818	6040
459.038	6882
459.258	6753
459.478	5952
459.698	5880
459.918	5910
460.138	6095
460.358	6398
460.578	6400
460.798	6386
461.018	6446
461.238	6336
461.458	6347
461.678	6244
461.898	6423
462.118	6450
462.338	6769
462.558	6972
462.777	7352
462.997	7795
463.217	8131
463.437	7982
463.657	7377
463.876	7201
464.096	7340
464.316	7178
464.536	7271
464.755	7019
464.975	6928
465.195	7012
465.414	7095
465.634	6251
465.854	5996
466.073	5656
466.293	5530
466.512	5389
466.732	5294
466.951	5304
467.171	5210
467.391	5355
467.61	5353
467.829	5336
468.049	5187
468.268	5080
468.488	5042
468.707	4992
468.927	4993
469.146	5034
469.365	5102
469.585	5028
469.804	5402
470.023	5463
470.243	5473
470.462	5585
470.681	5620
470.901	5587
471.12	5447
471.339	5420
471.558	5347
471.777	5220
471.997	5135
472.216	5078
472.435	5048
472.654	4970
472.873	4944
473.092	5015
473.311	5065
473.53	5135
473.749	5225
473.968	5759
474.187	6748
474.406	6203
474.625	5363
474.844	5166
475.063	5030
475.282	5031
475.501	5087
475.72	5193
475.939	5223
476.158	5233
476.377	5278
476.596	5212
476.814	5405
477.033	5439
477.252	5504
477.471	5582
477.69	5674
477.908	5772
478.127	5966
478.346	6054
478.564	6166
478.783	6260
479.002	6465
479.22	6384
479.439	6480
479.658	6497
479.876	6661
480.095	6865
480.313	7246
480.532	7103
480.751	6870
480.969	6939
481.188	6713
481.406	6433
481.624	6215
481.843	6170
482.061	6133
482.28	6056
482.498	5909
482.717	5818
482.935	5923
483.153	5941
483.372	5969
483.59	5883
483.808	5931
484.027	5960
484.245	5992
484.463	6053
484.681	6094
484.9	6127
485.118	6203
485.336	6201
485.554	6379
485.772	6331
485.99	6326
486.209	6333
486.427	6473
486.645	6397
486.863	6482
487.081	6484
487.299	6437
487.517	6378
487.735	6333
487.953	6313
488.171	6316
488.389	6372
488.607	6269
488.825	6257
489.043	6437
489.261	6422
489.479	6415
489.696	6471
489.914	6600
490.132	6621
490.35	6696
490.568	6768
490.786	6814
491.003	6854
491.221	6980
491.439	7152
491.657	7101
491.874	7057
492.092	7199
492.31	7250
492.527	7336
492.745	7259
492.963	7367
493.18	7374
493.398	7455
493.615	7678
493.833	7626
494.05	7587
494.268	7568
494.485	7570
494.703	7516
494.92	7584
495.138	7615
495.355	7606
495.573	7681
495.79	7542
496.008	7637
496.225	7616
496.442	7666
496.66	7666
496.877	7708
497.094	7811
497.312	8051
497.529	8199
497.746	8323
497.963	8458
498.181	9006
498.398	9188
498.615	9608
498.832	10079
499.049	10620
499.267	11179
499.484	12046
499.701	12888
499.918	13561
500.135	14411
500.352	14926
500.569	15043
500.786	14868
501.003	14433
501.22	13917
501.437	13095
501.654	12315
501.871	11625
502.088	10787
502.305	10276
502.522	9807
502.739	9475
502.956	9057
503.172	8796
503.389	8442
503.606	8347
503.823	8324
504.04	8206
504.256	8327
504.473	8344
504.69	8457
504.907	8158
505.123	7864
505.34	7482
505.557	7355
505.773	7326
505.99	7192
506.207	7139
506.423	7072
506.64	6958
506.856	6825
507.073	6766
507.289	6817
507.506	6729
507.722	6865
507.939	6896
508.155	6607
508.372	6496
508.588	6453
508.805	6380
509.021	6454
509.238	6692
509.454	6659
509.67	6532
509.887	6427
510.103	6273
510.319	6426
510.536	7587
510.752	10758
510.968	7417
511.184	6146
511.401	6016
511.617	5970
511.833	5906
512.049	5838
512.265	5883
512.481	5922
512.698	5878
512.914	5900
513.13	5930
513.346	5929
513.562	5953
513.778	5904
513.994	6056
514.21	6139
514.426	6274
514.642	6579
514.858	6638
515.074	7096
515.29	8348
515.506	10890
515.721	8015
515.937	6915
516.153	6842
516.369	6705
516.585	6771
516.801	6879
517.016	7076
517.232	7292
517.448	7515
517.664	7646
517.879	7656
518.095	7654
518.311	7478
518.527	7154
518.742	6960
518.958	6816
519.173	6627
519.389	6491
519.605	6273
519.82	6257
520.036	6308
520.251	6493
520.467	6479
520.682	6348
520.898	6419
521.113	6485
521.329	6730
521.544	7352
521.76	9202
521.975	13523
522.19	10537
522.406	6964
522.621	6057
522.836	5807
523.052	5500
523.267	5484
523.482	5336
523.698	5344
523.913	5361
524.128	5283
524.343	5167
524.559	5072
524.774	5036
524.989	5023
525.204	5024
525.419	5086
525.634	4962
525.849	4988
526.064	4975
526.28	4869
526.495	4801
526.71	4778
526.925	4883
527.14	4805
527.355	4760
527.57	4791
527.785	4799
527.999	4725
528.214	4810
528.429	4765
528.644	4808
528.859	4818
529.074	4798
529.289	5017
529.503	5511
529.718	5223
529.933	4970
530.148	4915
530.363	4862
530.577	4813
530.792	4794
531.007	4805
531.221	4780
531.436	4766
531.651	4772
531.865	4721
532.08	4792
532.295	4732
532.509	4651
532.724	4675
532.938	4738
533.153	4785
533.367	4678
533.582	4695
533.796	4704
534.011	4665
534.225	4668
534.44	4586
534.654	4616
534.868	4558
535.083	4637
535.297	4611
535.511	4571
535.726	4622
535.94	4632
536.154	4569
536.369	4540
536.583	4480
536.797	4385
537.011	4382
537.225	4350
537.44	4405
537.654	4355
537.868	4348
538.082	4450
538.296	4385
538.51	4346
538.724	4416
538.938	4338
539.153	4314
539.367	4355
539.581	4338
539.795	4283
540.009	4253
540.222	4281
540.436	4298
540.65	4355
540.864	4379
541.078	4326
541.292	4357
541.506	4205
541.72	4166
541.934	4122
542.147	4095
