Data from Uncirc_1996_H10_HRD10591_00047.txt Node
Date: Wed Jan 03 11:32:11 EST 2024
User: Yrep
Spectrometer: HR+D1059
Trigger mode: 1
Integration Time (sec): 1.000000E-1
Scans to average: 1
Electric dark correction enabled: true
Nonlinearity correction enabled: false
Boxcar width: 0
XAxis mode: Wavelengths
Number of Pixels in Spectrum: 2048
>>>>>Begin Spectral Data<<<<<
223.165	-23.19
223.4	-23.19
223.635	-23.19
223.869	-19.19
224.104	-13.19
224.338	-14.19
224.573	-18.19
224.808	-11.19
225.042	-2.19
225.277	-6.19
225.511	-1.19
225.746	-3.19
225.98	8.81
226.215	10.81
226.449	13.81
226.683	21.81
226.918	21.81
227.152	34.81
227.387	35.81
227.621	32.81
227.856	55.81
228.09	50.81
228.324	51.81
228.559	60.81
228.793	63.81
229.027	57.81
229.262	65.81
229.496	67.81
229.73	84.81
229.964	87.81
230.199	74.81
230.433	84.81
230.667	64.81
230.901	82.81
231.136	64.81
231.37	83.81
231.604	83.81
231.838	84.81
232.072	63.81
232.306	65.81
232.541	84.81
232.775	77.81
233.009	88.81
233.243	98.81
233.477	77.81
233.711	97.81
233.945	79.81
234.179	82.81
234.413	82.81
234.647	72.81
234.881	84.81
235.115	79.81
235.349	81.81
235.583	76.81
235.817	76.81
236.051	77.81
236.285	86.81
236.519	77.81
236.753	73.81
236.987	81.81
237.221	89.81
237.455	92.81
237.689	85.81
237.922	94.81
238.156	85.81
238.39	77.81
238.624	83.81
238.858	82.81
239.091	79.81
239.325	92.81
239.559	97.81
239.793	83.81
240.027	83.81
240.26	81.81
240.494	84.81
240.728	83.81
240.961	69.81
241.195	76.81
241.429	80.81
241.662	76.81
241.896	77.81
242.13	76.81
242.363	74.81
242.597	88.81
242.83	72.81
243.064	69.81
243.298	85.81
243.531	87.81
243.765	72.81
243.998	83.81
244.232	84.81
244.465	93.81
244.699	78.81
244.932	101.81
245.166	94.81
245.399	80.81
245.633	80.81
245.866	62.81
246.099	82.81
246.333	84.81
246.566	68.81
246.8	83.81
247.033	84.81
247.266	84.81
247.5	67.81
247.733	81.81
247.966	104.81
248.2	89.81
248.433	73.81
248.666	78.81
248.899	80.81
249.133	93.81
249.366	89.81
249.599	94.81
249.832	82.81
250.066	71.81
250.299	81.81
250.532	90.81
250.765	81.81
250.998	86.81
251.231	77.81
251.465	89.81
251.698	65.81
251.931	85.81
252.164	77.81
252.397	84.81
252.63	75.81
252.863	69.81
253.096	77.81
253.329	76.81
253.562	96.81
253.795	94.81
254.028	85.81
254.261	78.81
254.494	81.81
254.727	90.81
254.96	79.81
255.193	78.81
255.426	97.81
255.659	78.81
255.892	86.81
256.124	90.81
256.357	82.81
256.59	86.81
256.823	88.81
257.056	92.81
257.289	96.81
257.521	91.81
257.754	78.81
257.987	94.81
258.22	88.81
258.452	81.81
258.685	90.81
258.918	92.81
259.151	85.81
259.383	89.81
259.616	86.81
259.849	86.81
260.081	66.81
260.314	88.81
260.547	84.81
260.779	74.81
261.012	87.81
261.244	84.81
261.477	83.81
261.71	108.81
261.942	109.81
262.175	114.81
262.407	90.81
262.64	83.81
262.872	78.81
263.105	96.81
263.337	74.81
263.57	92.81
263.802	90.81
264.035	89.81
264.267	76.81
264.499	79.81
264.732	89.81
264.964	84.81
265.197	83.81
265.429	87.81
265.661	92.81
265.894	72.81
266.126	75.81
266.358	80.81
266.591	74.81
266.823	97.81
267.055	88.81
267.287	84.81
267.52	83.81
267.752	80.81
267.984	90.81
268.216	85.81
268.448	92.81
268.681	77.81
268.913	86.81
269.145	82.81
269.377	79.81
269.609	86.81
269.841	78.81
270.073	85.81
270.306	80.81
270.538	90.81
270.77	73.81
271.002	91.81
271.234	79.81
271.466	101.81
271.698	88.81
271.93	88.81
272.162	78.81
272.394	107.81
272.626	84.81
272.858	105.81
273.09	82.81
273.322	72.81
273.553	86.81
273.785	84.81
274.017	88.81
274.249	83.81
274.481	84.81
274.713	93.81
274.945	99.81
275.176	99.81
275.408	92.81
275.64	95.81
275.872	86.81
276.104	84.81
276.335	87.81
276.567	107.81
276.799	93.81
277.031	89.81
277.262	89.81
277.494	107.81
277.726	88.81
277.957	102.81
278.189	93.81
278.421	82.81
278.652	89.81
278.884	86.81
279.115	93.81
279.347	93.81
279.579	93.81
279.81	82.81
280.042	85.81
280.273	96.81
280.505	90.81
280.736	94.81
280.968	79.81
281.199	101.81
281.431	91.81
281.662	89.81
281.894	90.81
282.125	98.81
282.356	114.81
282.588	130.81
282.819	113.81
283.051	99.81
283.282	93.81
283.513	96.81
283.745	88.81
283.976	80.81
284.207	94.81
284.439	84.81
284.67	93.81
284.901	75.81
285.132	85.81
285.364	89.81
285.595	78.81
285.826	88.81
286.057	86.81
286.288	86.81
286.52	85.81
286.751	90.81
286.982	83.81
287.213	82.81
287.444	96.81
287.675	92.81
287.906	96.81
288.138	100.81
288.369	87.81
288.6	100.81
288.831	79.81
289.062	105.81
289.293	98.81
289.524	93.81
289.755	84.81
289.986	77.81
290.217	101.81
290.448	98.81
290.679	83.81
290.91	98.81
291.141	98.81
291.371	91.81
291.602	90.81
291.833	87.81
292.064	80.81
292.295	83.81
292.526	84.81
292.757	90.81
292.987	86.81
293.218	88.81
293.449	85.81
293.68	96.81
293.91	85.81
294.141	98.81
294.372	87.81
294.603	91.81
294.833	92.81
295.064	93.81
295.295	91.81
295.525	96.81
295.756	102.81
295.987	104.81
296.217	123.81
296.448	116.81
296.679	98.81
296.909	92.81
297.14	89.81
297.37	79.81
297.601	99.81
297.831	86.81
298.062	81.81
298.292	85.81
298.523	79.81
298.753	93.81
298.984	98.81
299.214	98.81
299.445	90.81
299.675	99.81
299.905	108.81
300.136	84.81
300.366	99.81
300.597	103.81
300.827	95.81
301.057	96.81
301.288	99.81
301.518	99.81
301.748	98.81
301.979	105.81
302.209	88.81
302.439	89.81
302.669	100.81
302.9	82.81
303.13	85.81
303.36	96.81
303.59	98.81
303.82	89.81
304.051	95.81
304.281	96.81
304.511	97.81
304.741	78.81
304.971	88.81
305.201	87.81
305.431	94.81
305.661	92.81
305.891	88.81
306.121	86.81
306.352	100.81
306.582	88.81
306.812	99.81
307.042	96.81
307.272	97.81
307.502	105.81
307.731	92.81
307.961	102.81
308.191	83.81
308.421	94.81
308.651	97.81
308.881	103.81
309.111	91.81
309.341	91.81
309.571	97.81
309.8	97.81
310.03	97.81
310.26	94.81
310.49	92.81
310.72	98.81
310.949	102.81
311.179	91.81
311.409	106.81
311.639	100.81
311.868	104.81
312.098	102.81
312.328	93.81
312.557	100.81
312.787	100.81
313.017	91.81
313.246	91.81
313.476	96.81
313.706	85.81
313.935	80.81
314.165	100.81
314.394	101.81
314.624	95.81
314.853	77.81
315.083	96.81
315.312	93.81
315.542	85.81
315.771	93.81
316.001	93.81
316.23	83.81
316.46	80.81
316.689	90.81
316.919	89.81
317.148	97.81
317.377	95.81
317.607	102.81
317.836	98.81
318.065	72.81
318.295	90.81
318.524	94.81
318.753	84.81
318.983	96.81
319.212	104.81
319.441	102.81
319.67	99.81
319.9	86.81
320.129	92.81
320.358	89.81
320.587	83.81
320.816	99.81
321.046	118.81
321.275	89.81
321.504	105.81
321.733	97.81
321.962	93.81
322.191	98.81
322.42	106.81
322.649	102.81
322.878	120.81
323.108	117.81
323.337	121.81
323.566	133.81
323.795	138.81
324.024	213.81
324.253	352.81
324.482	749.81
324.71	1527.81
324.939	1956.81
325.168	742.81
325.397	231.81
325.626	157.81
325.855	137.81
326.084	122.81
326.313	127.81
326.542	156.81
326.77	212.81
326.999	411.81
327.228	859.81
327.457	1605.81
327.686	1247.81
327.914	365.81
328.143	188.81
328.372	152.81
328.6	124.81
328.829	124.81
329.058	120.81
329.287	109.81
329.515	108.81
329.744	101.81
329.972	99.81
330.201	83.81
330.43	95.81
330.658	108.81
330.887	114.81
331.115	113.81
331.344	112.81
331.572	102.81
331.801	101.81
332.03	99.81
332.258	103.81
332.486	99.81
332.715	93.81
332.943	94.81
333.172	88.81
333.4	97.81
333.629	108.81
333.857	99.81
334.085	112.81
334.314	99.81
334.542	91.81
334.771	92.81
334.999	98.81
335.227	99.81
335.455	91.81
335.684	94.81
335.912	100.81
336.14	100.81
336.369	106.81
336.597	100.81
336.825	109.81
337.053	102.81
337.281	105.81
337.51	98.81
337.738	91.81
337.966	97.81
338.194	106.81
338.422	115.81
338.65	98.81
338.878	96.81
339.106	90.81
339.334	98.81
339.562	96.81
339.79	87.81
340.018	90.81
340.246	90.81
340.474	89.81
340.702	93.81
340.93	98.81
341.158	98.81
341.386	92.81
341.614	91.81
341.842	92.81
342.07	87.81
342.298	95.81
342.526	100.81
342.754	83.81
342.981	83.81
343.209	103.81
343.437	108.81
343.665	92.81
343.893	88.81
344.12	105.81
344.348	97.81
344.576	98.81
344.804	91.81
345.031	97.81
345.259	96.81
345.487	106.81
345.714	93.81
345.942	103.81
346.17	102.81
346.397	88.81
346.625	95.81
346.853	91.81
347.08	93.81
347.308	107.81
347.535	113.81
347.763	113.81
347.99	96.81
348.218	98.81
348.445	106.81
348.673	88.81
348.9	95.81
349.128	103.81
349.355	90.81
349.583	95.81
349.81	92.81
350.037	91.81
350.265	95.81
350.492	95.81
350.72	95.81
350.947	93.81
351.174	110.81
351.402	101.81
351.629	104.81
351.856	101.81
352.083	111.81
352.311	105.81
352.538	81.81
352.765	104.81
352.992	114.81
353.22	109.81
353.447	113.81
353.674	99.81
353.901	101.81
354.128	109.81
354.355	107.81
354.583	105.81
354.81	88.81
355.037	84.81
355.264	105.81
355.491	90.81
355.718	83.81
355.945	96.81
356.172	98.81
356.399	87.81
356.626	94.81
356.853	91.81
357.08	89.81
357.307	90.81
357.534	90.81
357.761	90.81
357.988	95.81
358.215	99.81
358.441	84.81
358.668	91.81
358.895	91.81
359.122	92.81
359.349	104.81
359.576	83.81
359.802	92.81
360.029	109.81
360.256	107.81
360.483	103.81
360.709	106.81
360.936	91.81
361.163	91.81
361.39	89.81
361.616	87.81
361.843	102.81
362.07	94.81
362.296	98.81
362.523	87.81
362.749	90.81
362.976	87.81
363.203	102.81
363.429	89.81
363.656	112.81
363.882	90.81
364.109	92.81
364.335	95.81
364.562	109.81
364.788	86.81
365.015	88.81
365.241	94.81
365.468	98.81
365.694	113.81
365.92	98.81
366.147	84.81
366.373	86.81
366.599	89.81
366.826	96.81
367.052	98.81
367.278	88.81
367.505	90.81
367.731	76.81
367.957	98.81
368.184	83.81
368.41	92.81
368.636	112.81
368.862	112.81
369.089	96.81
369.315	88.81
369.541	98.81
369.767	93.81
369.993	100.81
370.219	85.81
370.445	82.81
370.672	93.81
370.898	84.81
371.124	98.81
371.35	93.81
371.576	101.81
371.802	101.81
372.028	88.81
372.254	96.81
372.48	101.81
372.706	104.81
372.932	90.81
373.158	80.81
373.384	102.81
373.61	83.81
373.835	89.81
374.061	84.81
374.287	98.81
374.513	96.81
374.739	83.81
374.965	82.81
375.191	91.81
375.416	93.81
375.642	97.81
375.868	114.81
376.094	82.81
376.319	98.81
376.545	90.81
376.771	95.81
376.997	97.81
377.222	78.81
377.448	83.81
377.674	96.81
377.899	103.81
378.125	88.81
378.35	91.81
378.576	88.81
378.802	96.81
379.027	101.81
379.253	98.81
379.478	104.81
379.704	90.81
379.929	89.81
380.155	92.81
380.38	101.81
380.606	92.81
380.831	94.81
381.057	105.81
381.282	92.81
381.507	86.81
381.733	98.81
381.958	106.81
382.184	101.81
382.409	109.81
382.634	114.81
382.86	94.81
383.085	105.81
383.31	109.81
383.535	88.81
383.761	87.81
383.986	109.81
384.211	101.81
384.436	98.81
384.662	101.81
384.887	96.81
385.112	107.81
385.337	104.81
385.562	95.81
385.787	98.81
386.013	105.81
386.238	109.81
386.463	116.81
386.688	101.81
386.913	104.81
387.138	109.81
387.363	115.81
387.588	99.81
387.813	107.81
388.038	105.81
388.263	118.81
388.488	96.81
388.713	85.81
388.938	99.81
389.163	110.81
389.387	102.81
389.612	109.81
389.837	91.81
390.062	105.81
390.287	79.81
390.512	100.81
390.736	76.81
390.961	91.81
391.186	96.81
391.411	104.81
391.636	107.81
391.86	75.81
392.085	109.81
392.31	90.81
392.534	94.81
392.759	108.81
392.984	99.81
393.208	103.81
393.433	82.81
393.658	86.81
393.882	87.81
394.107	114.81
394.331	98.81
394.556	81.81
394.78	75.81
395.005	97.81
395.229	77.81
395.454	95.81
395.678	98.81
395.903	97.81
396.127	98.81
396.352	88.81
396.576	88.81
396.801	105.81
397.025	96.81
397.249	92.81
397.474	94.81
397.698	77.81
397.922	84.81
398.147	79.81
398.371	78.81
398.595	77.81
398.82	82.81
399.044	104.81
399.268	74.81
399.492	88.81
399.717	89.81
399.941	95.81
400.165	94.81
400.389	108.81
400.613	94.81
400.837	95.81
401.062	97.81
401.286	83.81
401.51	99.81
401.734	91.81
401.958	95.81
402.182	119.81
402.406	127.81
402.63	100.81
402.854	91.81
403.078	87.81
403.302	92.81
403.526	92.81
403.75	97.81
403.974	93.81
404.198	91.81
404.422	88.81
404.645	92.81
404.869	79.81
405.093	89.81
405.317	107.81
405.541	93.81
405.765	100.81
405.988	101.81
406.212	144.81
406.436	188.81
406.66	143.81
406.883	84.81
407.107	99.81
407.331	99.81
407.555	85.81
407.778	91.81
408.002	85.81
408.226	115.81
408.449	88.81
408.673	90.81
408.896	84.81
409.12	104.81
409.344	86.81
409.567	89.81
409.791	98.81
410.014	91.81
410.238	94.81
410.461	93.81
410.685	98.81
410.908	99.81
411.132	116.81
411.355	87.81
411.578	92.81
411.802	88.81
412.025	82.81
412.249	93.81
412.472	96.81
412.695	85.81
412.919	88.81
413.142	90.81
413.365	93.81
413.589	85.81
413.812	90.81
414.035	96.81
414.258	97.81
414.482	84.81
414.705	89.81
414.928	75.81
415.151	94.81
415.374	98.81
415.597	89.81
415.821	83.81
416.044	82.81
416.267	97.81
416.49	99.81
416.713	99.81
416.936	84.81
417.159	88.81
417.382	91.81
417.605	95.81
417.828	89.81
418.051	90.81
418.274	94.81
418.497	79.81
418.72	84.81
418.943	93.81
419.166	99.81
419.389	89.81
419.611	92.81
419.834	93.81
420.057	79.81
420.28	106.81
420.503	88.81
420.726	84.81
420.948	90.81
421.171	98.81
421.394	83.81
421.617	96.81
421.839	84.81
422.062	90.81
422.285	97.81
422.507	114.81
422.73	108.81
422.953	101.81
423.175	101.81
423.398	77.81
423.621	81.81
423.843	78.81
424.066	92.81
424.288	82.81
424.511	99.81
424.733	94.81
424.956	100.81
425.178	100.81
425.401	113.81
425.623	103.81
425.846	87.81
426.068	91.81
426.291	98.81
426.513	96.81
426.735	94.81
426.958	83.81
427.18	96.81
427.402	122.81
427.625	155.81
427.847	110.81
428.069	88.81
428.292	75.81
428.514	94.81
428.736	82.81
428.958	77.81
429.181	79.81
429.403	77.81
429.625	87.81
429.847	90.81
430.069	104.81
430.292	86.81
430.514	95.81
430.736	84.81
430.958	89.81
431.18	91.81
431.402	92.81
431.624	103.81
431.846	88.81
432.068	93.81
432.29	89.81
432.512	89.81
432.734	101.81
432.956	99.81
433.178	96.81
433.4	110.81
433.622	93.81
433.844	98.81
434.066	106.81
434.287	104.81
434.509	96.81
434.731	97.81
434.953	87.81
435.175	86.81
435.397	102.81
435.618	92.81
435.84	89.81
436.062	128.81
436.284	87.81
436.505	86.81
436.727	93.81
436.949	98.81
437.17	88.81
437.392	85.81
437.614	85.81
437.835	99.81
438.057	122.81
438.278	124.81
438.5	89.81
438.721	132.81
438.943	110.81
439.165	84.81
439.386	89.81
439.608	99.81
439.829	98.81
440.05	107.81
440.272	125.81
440.493	92.81
440.715	80.81
440.936	86.81
441.158	95.81
441.379	89.81
441.6	97.81
441.822	96.81
442.043	97.81
442.264	119.81
442.486	107.81
442.707	102.81
442.928	111.81
443.149	109.81
443.371	122.81
443.592	112.81
443.813	94.81
444.034	116.81
444.255	103.81
444.476	90.81
444.698	92.81
444.919	107.81
445.14	154.81
445.361	122.81
445.582	108.81
445.803	122.81
446.024	141.81
446.245	112.81
446.466	116.81
446.687	83.81
446.908	84.81
447.129	91.81
447.35	92.81
447.571	94.81
447.792	77.81
448.013	102.81
448.234	95.81
448.455	97.81
448.675	105.81
448.896	108.81
449.117	97.81
449.338	103.81
449.559	127.81
449.779	120.81
450	87.81
450.221	97.81
450.442	93.81
450.662	96.81
450.883	109.81
451.104	112.81
451.324	98.81
451.545	87.81
451.766	90.81
451.986	92.81
452.207	85.81
452.428	84.81
452.648	98.81
452.869	113.81
453.089	98.81
453.31	99.81
453.53	101.81
453.751	96.81
453.971	86.81
454.192	112.81
454.412	93.81
454.633	86.81
454.853	78.81
455.073	94.81
455.294	94.81
455.514	96.81
455.734	100.81
455.955	80.81
456.175	84.81
456.395	88.81
456.616	87.81
456.836	78.81
457.056	82.81
457.276	94.81
457.497	86.81
457.717	93.81
457.937	92.81
458.157	85.81
458.377	104.81
458.598	115.81
458.818	131.81
459.038	152.81
459.258	105.81
459.478	82.81
459.698	74.81
459.918	88.81
460.138	77.81
460.358	98.81
460.578	97.81
460.798	85.81
461.018	101.81
461.238	98.81
461.458	84.81
461.678	93.81
461.898	102.81
462.118	83.81
462.338	89.81
462.558	94.81
462.777	102.81
462.997	92.81
463.217	100.81
463.437	97.81
463.657	99.81
463.876	99.81
464.096	93.81
464.316	87.81
464.536	98.81
464.755	92.81
464.975	110.81
465.195	156.81
465.414	152.81
465.634	95.81
465.854	94.81
466.073	79.81
466.293	115.81
466.512	87.81
466.732	88.81
466.951	88.81
467.171	88.81
467.391	88.81
467.61	99.81
467.829	104.81
468.049	74.81
468.268	85.81
468.488	92.81
468.707	96.81
468.927	84.81
469.146	89.81
469.365	86.81
469.585	81.81
469.804	82.81
470.023	94.81
470.243	83.81
470.462	100.81
470.681	104.81
470.901	91.81
471.12	96.81
471.339	91.81
471.558	94.81
471.777	106.81
471.997	109.81
472.216	87.81
472.435	96.81
472.654	89.81
472.873	91.81
473.092	91.81
473.311	97.81
473.53	91.81
473.749	93.81
473.968	81.81
474.187	110.81
474.406	100.81
474.625	88.81
474.844	85.81
475.063	99.81
475.282	86.81
475.501	82.81
475.72	79.81
475.939	92.81
476.158	88.81
476.377	97.81
476.596	94.81
476.814	96.81
477.033	90.81
477.252	94.81
477.471	77.81
477.69	92.81
477.908	82.81
478.127	92.81
478.346	96.81
478.564	84.81
478.783	104.81
479.002	102.81
479.22	89.81
479.439	100.81
479.658	93.81
479.876	97.81
480.095	87.81
480.313	88.81
480.532	92.81
480.751	81.81
480.969	93.81
481.188	86.81
481.406	97.81
481.624	94.81
481.843	98.81
482.061	101.81
482.28	88.81
482.498	97.81
482.717	96.81
482.935	90.81
483.153	97.81
483.372	86.81
483.59	86.81
483.808	91.81
484.027	100.81
484.245	89.81
484.463	93.81
484.681	98.81
484.9	90.81
485.118	81.81
485.336	96.81
485.554	92.81
485.772	100.81
485.99	104.81
486.209	120.81
486.427	111.81
486.645	106.81
486.863	96.81
487.081	98.81
487.299	105.81
487.517	104.81
487.735	112.81
487.953	90.81
488.171	102.81
488.389	95.81
488.607	102.81
488.825	89.81
489.043	97.81
489.261	88.81
489.479	105.81
489.696	91.81
489.914	93.81
490.132	83.81
490.35	71.81
490.568	84.81
490.786	96.81
491.003	81.81
491.221	80.81
491.439	85.81
491.657	83.81
491.874	105.81
492.092	101.81
492.31	93.81
492.527	96.81
492.745	101.81
492.963	94.81
493.18	100.81
493.398	86.81
493.615	108.81
493.833	88.81
494.05	86.81
494.268	83.81
494.485	85.81
494.703	105.81
494.92	106.81
495.138	95.81
495.355	95.81
495.573	92.81
495.79	81.81
496.008	96.81
496.225	93.81
496.442	93.81
496.66	101.81
496.877	104.81
497.094	94.81
497.312	95.81
497.529	84.81
497.746	89.81
497.963	90.81
498.181	90.81
498.398	85.81
498.615	102.81
498.832	104.81
499.049	82.81
499.267	88.81
499.484	94.81
499.701	94.81
499.918	95.81
500.135	86.81
500.352	88.81
500.569	85.81
500.786	97.81
501.003	86.81
501.22	101.81
501.437	87.81
501.654	98.81
501.871	100.81
502.088	70.81
502.305	91.81
502.522	93.81
502.739	107.81
502.956	85.81
503.172	92.81
503.389	108.81
503.606	90.81
503.823	95.81
504.04	101.81
504.256	85.81
504.473	86.81
504.69	79.81
504.907	101.81
505.123	93.81
505.34	88.81
505.557	93.81
505.773	102.81
505.99	91.81
506.207	72.81
506.423	85.81
506.64	83.81
506.856	79.81
507.073	83.81
507.289	87.81
507.506	102.81
507.722	127.81
507.939	105.81
508.155	94.81
508.372	104.81
508.588	87.81
508.805	81.81
509.021	100.81
509.238	99.81
509.454	94.81
509.67	116.81
509.887	115.81
510.103	118.81
510.319	212.81
510.536	643.81
510.752	1910.81
510.968	543.81
511.184	131.81
511.401	108.81
511.617	98.81
511.833	92.81
512.049	93.81
512.265	88.81
512.481	111.81
512.698	104.81
512.914	94.81
513.13	89.81
513.346	101.81
513.562	94.81
513.778	93.81
513.994	109.81
514.21	110.81
514.426	105.81
514.642	130.81
514.858	123.81
515.074	157.81
515.29	382.81
