Data from Uncirc_1996_H10_HRD10591_00053.txt Node
Date: Wed Jan 03 11:32:13 EST 2024
User: Yrep
Spectrometer: HR+D1059
Trigger mode: 1
Integration Time (sec): 1.000000E-1
Scans to average: 1
Electric dark correction enabled: true
Nonlinearity correction enabled: false
Boxcar width: 0
XAxis mode: Wavelengths
Number of Pixels in Spectrum: 2048
>>>>>Begin Spectral Data<<<<<
223.165	-6.75
223.4	-6.75
223.635	-6.75
223.869	-14.75
224.104	-12.75
224.338	-17.75
224.573	-5.75
224.808	-22.75
225.042	-19.75
225.277	-14.75
225.511	2.25
225.746	-8.75
225.98	-0.75
226.215	17.25
226.449	19.25
226.683	18.25
226.918	34.25
227.152	33.25
227.387	45.25
227.621	27.25
227.856	56.25
228.09	27.25
228.324	37.25
228.559	73.25
228.793	64.25
229.027	64.25
229.262	62.25
229.496	67.25
229.73	77.25
229.964	71.25
230.199	62.25
230.433	73.25
230.667	73.25
230.901	75.25
231.136	72.25
231.37	73.25
231.604	74.25
231.838	76.25
232.072	89.25
232.306	86.25
232.541	88.25
232.775	87.25
233.009	92.25
233.243	78.25
233.477	82.25
233.711	82.25
233.945	71.25
234.179	90.25
234.413	81.25
234.647	78.25
234.881	85.25
235.115	89.25
235.349	79.25
235.583	82.25
235.817	89.25
236.051	66.25
236.285	58.25
236.519	89.25
236.753	86.25
236.987	84.25
237.221	76.25
237.455	79.25
237.689	76.25
237.922	73.25
238.156	77.25
238.39	71.25
238.624	74.25
238.858	82.25
239.091	73.25
239.325	83.25
239.559	88.25
239.793	68.25
240.027	78.25
240.26	78.25
240.494	80.25
240.728	79.25
240.961	78.25
241.195	78.25
241.429	86.25
241.662	73.25
241.896	53.25
242.13	84.25
242.363	74.25
242.597	70.25
242.83	84.25
243.064	59.25
243.298	79.25
243.531	79.25
243.765	82.25
243.998	80.25
244.232	73.25
244.465	81.25
244.699	88.25
244.932	64.25
245.166	78.25
245.399	83.25
245.633	83.25
245.866	80.25
246.099	78.25
246.333	80.25
246.566	65.25
246.8	76.25
247.033	78.25
247.266	69.25
247.5	76.25
247.733	77.25
247.966	73.25
248.2	78.25
248.433	73.25
248.666	85.25
248.899	73.25
249.133	89.25
249.366	102.25
249.599	90.25
249.832	79.25
250.066	87.25
250.299	88.25
250.532	82.25
250.765	94.25
250.998	79.25
251.231	78.25
251.465	74.25
251.698	77.25
251.931	76.25
252.164	85.25
252.397	75.25
252.63	79.25
252.863	88.25
253.096	87.25
253.329	73.25
253.562	74.25
253.795	77.25
254.028	74.25
254.261	64.25
254.494	74.25
254.727	75.25
254.96	74.25
255.193	72.25
255.426	74.25
255.659	80.25
255.892	82.25
256.124	69.25
256.357	75.25
256.59	69.25
256.823	78.25
257.056	99.25
257.289	83.25
257.521	95.25
257.754	70.25
257.987	76.25
258.22	70.25
258.452	79.25
258.685	91.25
258.918	96.25
259.151	84.25
259.383	81.25
259.616	75.25
259.849	97.25
260.081	73.25
260.314	73.25
260.547	78.25
260.779	87.25
261.012	89.25
261.244	87.25
261.477	93.25
261.71	106.25
261.942	108.25
262.175	106.25
262.407	84.25
262.64	89.25
262.872	80.25
263.105	81.25
263.337	86.25
263.57	77.25
263.802	75.25
264.035	82.25
264.267	80.25
264.499	78.25
264.732	96.25
264.964	77.25
265.197	92.25
265.429	86.25
265.661	87.25
265.894	75.25
266.126	87.25
266.358	73.25
266.591	91.25
266.823	82.25
267.055	83.25
267.287	81.25
267.52	82.25
267.752	61.25
267.984	82.25
268.216	82.25
268.448	77.25
268.681	90.25
268.913	90.25
269.145	82.25
269.377	90.25
269.609	81.25
269.841	88.25
270.073	94.25
270.306	82.25
270.538	70.25
270.77	87.25
271.002	81.25
271.234	95.25
271.466	85.25
271.698	95.25
271.93	83.25
272.162	71.25
272.394	80.25
272.626	82.25
272.858	89.25
273.09	75.25
273.322	90.25
273.553	92.25
273.785	89.25
274.017	80.25
274.249	85.25
274.481	73.25
274.713	83.25
274.945	74.25
275.176	79.25
275.408	87.25
275.64	76.25
275.872	81.25
276.104	83.25
276.335	85.25
276.567	101.25
276.799	95.25
277.031	100.25
277.262	75.25
277.494	85.25
277.726	77.25
277.957	96.25
278.189	87.25
278.421	77.25
278.652	73.25
278.884	105.25
279.115	74.25
279.347	97.25
279.579	89.25
279.81	96.25
280.042	97.25
280.273	99.25
280.505	75.25
280.736	83.25
280.968	80.25
281.199	93.25
281.431	79.25
281.662	88.25
281.894	85.25
282.125	86.25
282.356	101.25
282.588	103.25
282.819	105.25
283.051	87.25
283.282	76.25
283.513	83.25
283.745	92.25
283.976	76.25
284.207	83.25
284.439	73.25
284.67	68.25
284.901	86.25
285.132	74.25
285.364	80.25
285.595	92.25
285.826	89.25
286.057	85.25
286.288	77.25
286.52	77.25
286.751	81.25
286.982	87.25
287.213	95.25
287.444	90.25
287.675	81.25
287.906	93.25
288.138	73.25
288.369	75.25
288.6	88.25
288.831	96.25
289.062	80.25
289.293	93.25
289.524	74.25
289.755	94.25
289.986	85.25
290.217	82.25
290.448	91.25
290.679	73.25
290.91	79.25
291.141	94.25
291.371	96.25
291.602	79.25
291.833	76.25
292.064	80.25
292.295	90.25
292.526	74.25
292.757	80.25
292.987	92.25
293.218	94.25
293.449	85.25
293.68	79.25
293.91	85.25
294.141	89.25
294.372	75.25
294.603	91.25
294.833	84.25
295.064	81.25
295.295	88.25
295.525	94.25
295.756	106.25
295.987	102.25
296.217	127.25
296.448	109.25
296.679	88.25
296.909	92.25
297.14	81.25
297.37	83.25
297.601	75.25
297.831	93.25
298.062	107.25
298.292	99.25
298.523	93.25
298.753	89.25
298.984	91.25
299.214	89.25
299.445	99.25
299.675	101.25
299.905	103.25
300.136	88.25
300.366	88.25
300.597	83.25
300.827	97.25
301.057	89.25
301.288	99.25
301.518	104.25
301.748	92.25
301.979	107.25
302.209	96.25
302.439	94.25
302.669	96.25
302.9	99.25
303.13	75.25
303.36	96.25
303.59	96.25
303.82	107.25
304.051	89.25
304.281	92.25
304.511	87.25
304.741	88.25
304.971	78.25
305.201	87.25
305.431	85.25
305.661	87.25
305.891	87.25
306.121	89.25
306.352	102.25
306.582	85.25
306.812	87.25
307.042	87.25
307.272	109.25
307.502	92.25
307.731	90.25
307.961	94.25
308.191	89.25
308.421	93.25
308.651	98.25
308.881	85.25
309.111	95.25
309.341	93.25
309.571	86.25
309.8	91.25
310.03	93.25
310.26	85.25
310.49	111.25
310.72	112.25
310.949	95.25
311.179	87.25
311.409	79.25
311.639	101.25
311.868	93.25
312.098	97.25
312.328	90.25
312.557	89.25
312.787	79.25
313.017	93.25
313.246	90.25
313.476	88.25
313.706	98.25
313.935	99.25
314.165	102.25
314.394	91.25
314.624	87.25
314.853	89.25
315.083	98.25
315.312	85.25
315.542	90.25
315.771	97.25
316.001	85.25
316.23	94.25
316.46	97.25
316.689	92.25
316.919	76.25
317.148	98.25
317.377	83.25
317.607	85.25
317.836	85.25
318.065	97.25
318.295	96.25
318.524	81.25
318.753	82.25
318.983	99.25
319.212	90.25
319.441	108.25
319.67	102.25
319.9	89.25
320.129	93.25
320.358	89.25
320.587	96.25
320.816	82.25
321.046	99.25
321.275	105.25
321.504	92.25
321.733	86.25
321.962	99.25
322.191	79.25
322.42	98.25
322.649	87.25
322.878	113.25
323.108	118.25
323.337	120.25
323.566	136.25
323.795	147.25
324.024	183.25
324.253	322.25
324.482	694.25
324.71	1486.25
324.939	1960.25
325.168	723.25
325.397	234.25
325.626	137.25
325.855	129.25
326.084	129.25
326.313	128.25
326.542	145.25
326.77	202.25
326.999	411.25
327.228	837.25
327.457	1507.25
327.686	1187.25
327.914	337.25
328.143	184.25
328.372	137.25
328.6	117.25
328.829	110.25
329.058	124.25
329.287	120.25
329.515	119.25
329.744	98.25
329.972	92.25
330.201	109.25
330.43	99.25
330.658	108.25
330.887	125.25
331.115	110.25
331.344	80.25
331.572	102.25
331.801	97.25
332.03	103.25
332.258	78.25
332.486	78.25
332.715	86.25
332.943	75.25
333.172	83.25
333.4	84.25
333.629	97.25
333.857	98.25
334.085	109.25
334.314	97.25
334.542	86.25
334.771	106.25
334.999	91.25
335.227	92.25
335.455	75.25
335.684	93.25
335.912	96.25
336.14	86.25
336.369	83.25
336.597	89.25
336.825	104.25
337.053	90.25
337.281	96.25
337.51	85.25
337.738	80.25
337.966	97.25
338.194	92.25
338.422	116.25
338.65	110.25
338.878	87.25
339.106	85.25
339.334	97.25
339.562	93.25
339.79	94.25
340.018	79.25
340.246	87.25
340.474	106.25
340.702	93.25
340.93	81.25
341.158	98.25
341.386	96.25
341.614	101.25
341.842	86.25
342.07	88.25
342.298	103.25
342.526	86.25
342.754	79.25
342.981	89.25
343.209	93.25
343.437	96.25
343.665	91.25
343.893	99.25
344.12	101.25
344.348	97.25
344.576	86.25
344.804	71.25
345.031	75.25
345.259	88.25
345.487	78.25
345.714	91.25
345.942	93.25
346.17	82.25
346.397	92.25
346.625	106.25
346.853	101.25
347.08	104.25
347.308	94.25
347.535	90.25
347.763	81.25
347.99	96.25
348.218	97.25
348.445	95.25
348.673	91.25
348.9	78.25
349.128	89.25
349.355	97.25
349.583	87.25
349.81	93.25
350.037	89.25
350.265	85.25
350.492	73.25
350.72	93.25
350.947	84.25
351.174	106.25
351.402	105.25
351.629	96.25
351.856	106.25
352.083	103.25
352.311	104.25
352.538	93.25
352.765	109.25
352.992	112.25
353.22	110.25
353.447	115.25
353.674	96.25
353.901	90.25
354.128	91.25
354.355	88.25
354.583	92.25
354.81	95.25
355.037	108.25
355.264	86.25
355.491	88.25
355.718	89.25
355.945	93.25
356.172	110.25
356.399	98.25
356.626	96.25
356.853	93.25
357.08	93.25
357.307	97.25
357.534	92.25
357.761	96.25
357.988	107.25
358.215	92.25
358.441	101.25
358.668	85.25
358.895	101.25
359.122	90.25
359.349	94.25
359.576	81.25
359.802	103.25
360.029	102.25
360.256	105.25
360.483	92.25
360.709	96.25
360.936	86.25
361.163	102.25
361.39	100.25
361.616	91.25
361.843	92.25
362.07	95.25
362.296	83.25
362.523	66.25
362.749	79.25
362.976	73.25
363.203	87.25
363.429	89.25
363.656	80.25
363.882	86.25
364.109	85.25
364.335	69.25
364.562	77.25
364.788	89.25
365.015	97.25
365.241	98.25
365.468	104.25
365.694	103.25
365.92	100.25
366.147	82.25
366.373	79.25
366.599	91.25
366.826	89.25
367.052	87.25
367.278	83.25
367.505	94.25
367.731	87.25
367.957	94.25
368.184	99.25
368.41	87.25
368.636	104.25
368.862	107.25
369.089	98.25
369.315	91.25
369.541	103.25
369.767	73.25
369.993	86.25
370.219	103.25
370.445	87.25
370.672	83.25
370.898	78.25
371.124	93.25
371.35	92.25
371.576	90.25
371.802	83.25
372.028	99.25
372.254	87.25
372.48	99.25
372.706	88.25
372.932	87.25
373.158	94.25
373.384	99.25
373.61	90.25
373.835	80.25
374.061	92.25
374.287	91.25
374.513	96.25
374.739	90.25
374.965	81.25
375.191	79.25
375.416	91.25
375.642	93.25
375.868	97.25
376.094	96.25
376.319	94.25
376.545	82.25
376.771	86.25
376.997	89.25
377.222	85.25
377.448	79.25
377.674	86.25
377.899	97.25
378.125	91.25
378.35	86.25
378.576	88.25
378.802	87.25
379.027	93.25
379.253	94.25
379.478	98.25
379.704	91.25
379.929	85.25
380.155	88.25
380.38	97.25
380.606	82.25
380.831	72.25
381.057	99.25
381.282	99.25
381.507	88.25
381.733	91.25
381.958	105.25
382.184	100.25
382.409	91.25
382.634	91.25
382.86	96.25
383.085	92.25
383.31	98.25
383.535	109.25
383.761	94.25
383.986	88.25
384.211	90.25
384.436	93.25
384.662	93.25
384.887	95.25
385.112	75.25
385.337	83.25
385.562	95.25
385.787	121.25
386.013	104.25
386.238	104.25
386.463	105.25
386.688	96.25
386.913	103.25
387.138	113.25
387.363	92.25
387.588	93.25
387.813	103.25
388.038	105.25
388.263	93.25
388.488	110.25
388.713	89.25
388.938	91.25
389.163	107.25
389.387	105.25
389.612	109.25
389.837	95.25
390.062	96.25
390.287	77.25
390.512	103.25
390.736	87.25
390.961	95.25
391.186	92.25
391.411	97.25
391.636	72.25
391.86	81.25
392.085	90.25
392.31	84.25
392.534	71.25
392.759	76.25
392.984	90.25
393.208	85.25
393.433	82.25
393.658	90.25
393.882	70.25
394.107	77.25
394.331	83.25
394.556	82.25
394.78	98.25
395.005	92.25
395.229	86.25
395.454	93.25
395.678	87.25
395.903	81.25
396.127	98.25
396.352	85.25
396.576	76.25
396.801	85.25
397.025	83.25
397.249	82.25
397.474	77.25
397.698	78.25
397.922	90.25
398.147	76.25
398.371	88.25
398.595	98.25
398.82	83.25
399.044	81.25
399.268	94.25
399.492	78.25
399.717	86.25
399.941	93.25
400.165	99.25
400.389	95.25
400.613	96.25
400.837	96.25
401.062	89.25
401.286	85.25
401.51	87.25
401.734	84.25
401.958	84.25
402.182	126.25
402.406	143.25
402.63	106.25
402.854	91.25
403.078	83.25
403.302	74.25
403.526	91.25
403.75	95.25
403.974	73.25
404.198	86.25
404.422	86.25
404.645	88.25
404.869	98.25
405.093	91.25
405.317	101.25
405.541	90.25
405.765	84.25
405.988	104.25
406.212	146.25
406.436	194.25
406.66	128.25
406.883	82.25
407.107	95.25
407.331	97.25
407.555	104.25
407.778	91.25
408.002	87.25
408.226	97.25
408.449	93.25
408.673	95.25
408.896	86.25
409.12	103.25
409.344	88.25
409.567	78.25
409.791	83.25
410.014	93.25
410.238	89.25
410.461	94.25
410.685	88.25
410.908	92.25
411.132	103.25
411.355	98.25
411.578	86.25
411.802	79.25
412.025	77.25
412.249	74.25
412.472	99.25
412.695	83.25
412.919	93.25
413.142	84.25
413.365	79.25
413.589	83.25
413.812	86.25
414.035	89.25
414.258	94.25
414.482	101.25
414.705	89.25
414.928	74.25
415.151	105.25
415.374	95.25
415.597	77.25
415.821	96.25
416.044	77.25
416.267	86.25
416.49	86.25
416.713	108.25
416.936	104.25
417.159	82.25
417.382	80.25
417.605	80.25
417.828	89.25
418.051	91.25
418.274	107.25
418.497	81.25
418.72	77.25
418.943	79.25
419.166	100.25
419.389	68.25
419.611	71.25
419.834	94.25
420.057	94.25
420.28	86.25
420.503	89.25
420.726	88.25
420.948	83.25
421.171	105.25
421.394	95.25
421.617	86.25
421.839	93.25
422.062	85.25
422.285	100.25
422.507	95.25
422.73	109.25
422.953	85.25
423.175	85.25
423.398	86.25
423.621	84.25
423.843	94.25
424.066	76.25
424.288	73.25
424.511	79.25
424.733	91.25
424.956	118.25
425.178	91.25
425.401	105.25
425.623	100.25
425.846	95.25
426.068	93.25
426.291	90.25
426.513	96.25
426.735	85.25
426.958	84.25
427.18	109.25
427.402	125.25
427.625	155.25
427.847	123.25
428.069	99.25
428.292	81.25
428.514	96.25
428.736	87.25
428.958	91.25
429.181	76.25
429.403	86.25
429.625	88.25
429.847	87.25
430.069	75.25
430.292	88.25
430.514	89.25
430.736	90.25
430.958	86.25
431.18	85.25
431.402	76.25
431.624	96.25
431.846	90.25
432.068	86.25
432.29	83.25
432.512	99.25
432.734	103.25
432.956	83.25
433.178	87.25
433.4	94.25
433.622	76.25
433.844	91.25
434.066	88.25
434.287	85.25
434.509	78.25
434.731	80.25
434.953	74.25
435.175	80.25
435.397	87.25
435.618	94.25
435.84	113.25
436.062	117.25
436.284	117.25
436.505	105.25
436.727	101.25
436.949	103.25
437.17	85.25
437.392	85.25
437.614	79.25
437.835	87.25
438.057	98.25
438.278	103.25
438.5	109.25
438.721	130.25
438.943	102.25
439.165	82.25
439.386	85.25
439.608	91.25
439.829	94.25
440.05	111.25
440.272	129.25
440.493	91.25
440.715	90.25
440.936	95.25
441.158	86.25
441.379	73.25
441.6	87.25
441.822	90.25
442.043	83.25
442.264	104.25
442.486	95.25
442.707	88.25
442.928	83.25
443.149	108.25
443.371	110.25
443.592	105.25
443.813	114.25
444.034	97.25
444.255	95.25
444.476	93.25
444.698	85.25
444.919	87.25
445.14	124.25
445.361	109.25
445.582	102.25
445.803	124.25
446.024	129.25
446.245	118.25
446.466	107.25
446.687	85.25
446.908	81.25
447.129	98.25
447.35	73.25
447.571	90.25
447.792	91.25
448.013	99.25
448.234	96.25
448.455	100.25
448.675	107.25
448.896	109.25
449.117	93.25
449.338	111.25
449.559	127.25
449.779	129.25
450	83.25
450.221	97.25
450.442	88.25
450.662	90.25
450.883	102.25
451.104	104.25
451.324	84.25
451.545	113.25
451.766	81.25
451.986	77.25
452.207	69.25
452.428	88.25
452.648	70.25
452.869	97.25
453.089	111.25
453.31	105.25
453.53	96.25
453.751	98.25
453.971	92.25
454.192	105.25
454.412	90.25
454.633	89.25
454.853	77.25
455.073	89.25
455.294	90.25
455.514	98.25
455.734	105.25
455.955	94.25
456.175	78.25
456.395	100.25
456.616	76.25
456.836	100.25
457.056	80.25
457.276	82.25
457.497	91.25
457.717	97.25
457.937	88.25
458.157	87.25
458.377	92.25
458.598	101.25
458.818	137.25
459.038	136.25
459.258	137.25
459.478	94.25
459.698	87.25
459.918	79.25
460.138	82.25
460.358	88.25
460.578	84.25
460.798	76.25
461.018	87.25
461.238	96.25
461.458	85.25
461.678	87.25
461.898	74.25
462.118	89.25
462.338	103.25
462.558	97.25
462.777	99.25
462.997	86.25
463.217	82.25
463.437	81.25
463.657	83.25
463.876	86.25
464.096	86.25
464.316	88.25
464.536	104.25
464.755	98.25
464.975	105.25
465.195	147.25
465.414	134.25
465.634	95.25
465.854	80.25
466.073	75.25
466.293	90.25
466.512	95.25
466.732	87.25
466.951	95.25
467.171	92.25
467.391	85.25
467.61	88.25
467.829	88.25
468.049	90.25
468.268	85.25
468.488	89.25
468.707	81.25
468.927	75.25
469.146	81.25
469.365	78.25
469.585	103.25
469.804	82.25
470.023	80.25
470.243	73.25
470.462	97.25
470.681	113.25
470.901	96.25
471.12	88.25
471.339	84.25
471.558	80.25
471.777	89.25
471.997	69.25
472.216	78.25
472.435	67.25
472.654	90.25
472.873	87.25
473.092	93.25
473.311	82.25
473.53	102.25
473.749	90.25
473.968	100.25
474.187	96.25
474.406	101.25
474.625	102.25
474.844	70.25
475.063	102.25
475.282	77.25
475.501	82.25
475.72	93.25
475.939	91.25
476.158	97.25
476.377	99.25
476.596	89.25
476.814	84.25
477.033	104.25
477.252	85.25
477.471	85.25
477.69	101.25
477.908	90.25
478.127	82.25
478.346	74.25
478.564	93.25
478.783	94.25
479.002	85.25
479.22	82.25
479.439	90.25
479.658	86.25
479.876	88.25
480.095	81.25
480.313	85.25
480.532	95.25
480.751	89.25
480.969	87.25
481.188	83.25
481.406	103.25
481.624	88.25
481.843	86.25
482.061	95.25
482.28	76.25
482.498	83.25
482.717	96.25
482.935	85.25
483.153	83.25
483.372	87.25
483.59	83.25
483.808	79.25
484.027	76.25
484.245	88.25
484.463	91.25
484.681	92.25
484.9	89.25
485.118	83.25
485.336	96.25
485.554	98.25
485.772	87.25
485.99	103.25
486.209	104.25
486.427	108.25
486.645	105.25
486.863	103.25
487.081	99.25
487.299	78.25
487.517	70.25
487.735	76.25
487.953	84.25
488.171	101.25
488.389	95.25
488.607	96.25
488.825	95.25
489.043	83.25
489.261	101.25
489.479	94.25
489.696	102.25
489.914	84.25
490.132	90.25
490.35	99.25
490.568	89.25
490.786	79.25
491.003	77.25
491.221	82.25
491.439	102.25
491.657	88.25
491.874	86.25
492.092	96.25
492.31	87.25
492.527	80.25
492.745	62.25
492.963	85.25
493.18	84.25
493.398	97.25
493.615	97.25
493.833	101.25
494.05	83.25
494.268	81.25
494.485	92.25
494.703	92.25
494.92	89.25
495.138	86.25
495.355	83.25
495.573	89.25
495.79	99.25
496.008	99.25
496.225	82.25
496.442	82.25
496.66	82.25
496.877	91.25
497.094	97.25
497.312	94.25
497.529	95.25
497.746	86.25
497.963	75.25
498.181	93.25
498.398	99.25
498.615	97.25
498.832	95.25
499.049	97.25
499.267	90.25
499.484	82.25
499.701	88.25
499.918	81.25
500.135	86.25
500.352	100.25
500.569	83.25
500.786	82.25
501.003	97.25
501.22	90.25
501.437	85.25
501.654	96.25
501.871	102.25
502.088	66.25
502.305	88.25
502.522	81.25
502.739	88.25
502.956	99.25
503.172	90.25
503.389	87.25
503.606	109.25
503.823	91.25
504.04	83.25
504.256	83.25
504.473	82.25
504.69	73.25
504.907	89.25
505.123	99.25
505.34	84.25
505.557	90.25
505.773	84.25
505.99	89.25
506.207	88.25
506.423	90.25
506.64	90.25
506.856	92.25
507.073	89.25
507.289	79.25
507.506	107.25
507.722	104.25
507.939	104.25
508.155	95.25
508.372	86.25
508.588	100.25
508.805	89.25
509.021	89.25
509.238	85.25
509.454	85.25
509.67	83.25
509.887	95.25
510.103	116.25
510.319	174.25
510.536	597.25
510.752	1799.25
510.968	535.25
511.184	151.25
511.401	102.25
511.617	94.25
511.833	89.25
512.049	93.25
512.265	97.25
512.481	89.25
512.698	98.25
512.914	99.25
513.13	94.25
513.346	89.25
513.562	97.25
513.778	90.25
513.994	86.25
514.21	88.25
514.426	113.25
514.642	132.25
514.858	112.25
515.074	145.25
515.29	334.25
515.506	1123.25
515.721	431.25
515.937	145.25
516.153	110.25
516.369	92.25
516.585	103.25
