Data from 15780_3_HRD10591_00013.txt Node
Date: Mon Jan 19 14:20:04 EST 2026
User: Yrep
Spectrometer: HR+D1059
Trigger mode: 1
Integration Time (sec): 1.000000E-1
Scans to average: 1
Electric dark correction enabled: true
Nonlinearity correction enabled: false
Boxcar width: 0
XAxis mode: Wavelengths
Number of Pixels in Spectrum: 2048
>>>>>Begin Spectral Data<<<<<
223.165	-27.38
223.4	-27.38
223.635	-27.38
223.869	-8.38
224.104	-26.38
224.338	-20.38
224.573	-4.38
224.808	-23.38
225.042	-13.38
225.277	-3.38
225.511	0.62
225.746	3.62
225.98	4.62
226.215	11.62
226.449	20.62
226.683	32.62
226.918	22.62
227.152	30.62
227.387	47.62
227.621	44.62
227.856	44.62
228.09	47.62
228.324	56.62
228.559	59.62
228.793	71.62
229.027	62.62
229.262	61.62
229.496	73.62
229.73	74.62
229.964	75.62
230.199	74.62
230.433	78.62
230.667	85.62
230.901	67.62
231.136	82.62
231.37	71.62
231.604	62.62
231.838	88.62
232.072	76.62
232.306	71.62
232.541	72.62
232.775	78.62
233.009	75.62
233.243	78.62
233.477	88.62
233.711	92.62
233.945	88.62
234.179	79.62
234.413	79.62
234.647	82.62
234.881	66.62
235.115	84.62
235.349	93.62
235.583	81.62
235.817	78.62
236.051	81.62
236.285	75.62
236.519	68.62
236.753	70.62
236.987	68.62
237.221	80.62
237.455	82.62
237.689	87.62
237.922	73.62
238.156	80.62
238.39	74.62
238.624	65.62
238.858	75.62
239.091	73.62
239.325	78.62
239.559	90.62
239.793	77.62
240.027	82.62
240.26	72.62
240.494	78.62
240.728	61.62
240.961	74.62
241.195	87.62
241.429	65.62
241.662	58.62
241.896	73.62
242.13	91.62
242.363	72.62
242.597	72.62
242.83	73.62
243.064	66.62
243.298	78.62
243.531	83.62
243.765	74.62
243.998	88.62
244.232	80.62
244.465	77.62
244.699	75.62
244.932	80.62
245.166	86.62
245.399	94.62
245.633	86.62
245.866	86.62
246.099	73.62
246.333	75.62
246.566	82.62
246.8	90.62
247.033	81.62
247.266	82.62
247.5	88.62
247.733	68.62
247.966	64.62
248.2	70.62
248.433	73.62
248.666	76.62
248.899	66.62
249.133	76.62
249.366	72.62
249.599	76.62
249.832	72.62
250.066	71.62
250.299	74.62
250.532	64.62
250.765	70.62
250.998	84.62
251.231	86.62
251.465	68.62
251.698	75.62
251.931	79.62
252.164	82.62
252.397	80.62
252.63	79.62
252.863	86.62
253.096	80.62
253.329	81.62
253.562	90.62
253.795	79.62
254.028	73.62
254.261	72.62
254.494	78.62
254.727	72.62
254.96	82.62
255.193	77.62
255.426	66.62
255.659	71.62
255.892	80.62
256.124	90.62
256.357	84.62
256.59	83.62
256.823	83.62
257.056	69.62
257.289	85.62
257.521	87.62
257.754	63.62
257.987	75.62
258.22	86.62
258.452	79.62
258.685	77.62
258.918	80.62
259.151	89.62
259.383	82.62
259.616	75.62
259.849	78.62
260.081	66.62
260.314	94.62
260.547	75.62
260.779	66.62
261.012	93.62
261.244	86.62
261.477	75.62
261.71	85.62
261.942	91.62
262.175	73.62
262.407	74.62
262.64	79.62
262.872	76.62
263.105	91.62
263.337	93.62
263.57	95.62
263.802	88.62
264.035	74.62
264.267	66.62
264.499	82.62
264.732	64.62
264.964	86.62
265.197	74.62
265.429	79.62
265.661	75.62
265.894	69.62
266.126	69.62
266.358	91.62
266.591	73.62
266.823	84.62
267.055	84.62
267.287	84.62
267.52	88.62
267.752	91.62
267.984	75.62
268.216	83.62
268.448	79.62
268.681	84.62
268.913	74.62
269.145	86.62
269.377	84.62
269.609	67.62
269.841	78.62
270.073	69.62
270.306	77.62
270.538	82.62
270.77	78.62
271.002	87.62
271.234	69.62
271.466	70.62
271.698	70.62
271.93	78.62
272.162	89.62
272.394	71.62
272.626	73.62
272.858	85.62
273.09	86.62
273.322	76.62
273.553	78.62
273.785	73.62
274.017	84.62
274.249	86.62
274.481	78.62
274.713	80.62
274.945	78.62
275.176	66.62
275.408	79.62
275.64	74.62
275.872	80.62
276.104	84.62
276.335	102.62
276.567	80.62
276.799	86.62
277.031	88.62
277.262	74.62
277.494	65.62
277.726	71.62
277.957	84.62
278.189	75.62
278.421	74.62
278.652	74.62
278.884	87.62
279.115	82.62
279.347	68.62
279.579	71.62
279.81	91.62
280.042	66.62
280.273	69.62
280.505	94.62
280.736	89.62
280.968	84.62
281.199	95.62
281.431	67.62
281.662	85.62
281.894	76.62
282.125	71.62
282.356	81.62
282.588	92.62
282.819	79.62
283.051	81.62
283.282	83.62
283.513	89.62
283.745	94.62
283.976	73.62
284.207	86.62
284.439	74.62
284.67	88.62
284.901	75.62
285.132	74.62
285.364	84.62
285.595	91.62
285.826	88.62
286.057	84.62
286.288	67.62
286.52	76.62
286.751	81.62
286.982	88.62
287.213	94.62
287.444	91.62
287.675	70.62
287.906	88.62
288.138	82.62
288.369	73.62
288.6	76.62
288.831	87.62
289.062	84.62
289.293	98.62
289.524	80.62
289.755	68.62
289.986	81.62
290.217	90.62
290.448	87.62
290.679	90.62
290.91	78.62
291.141	80.62
291.371	96.62
291.602	84.62
291.833	83.62
292.064	66.62
292.295	85.62
292.526	82.62
292.757	80.62
292.987	89.62
293.218	88.62
293.449	78.62
293.68	73.62
293.91	72.62
294.141	89.62
294.372	80.62
294.603	75.62
294.833	94.62
295.064	84.62
295.295	86.62
295.525	75.62
295.756	82.62
295.987	88.62
296.217	83.62
296.448	86.62
296.679	78.62
296.909	81.62
297.14	89.62
297.37	91.62
297.601	82.62
297.831	90.62
298.062	87.62
298.292	77.62
298.523	87.62
298.753	89.62
298.984	82.62
299.214	82.62
299.445	81.62
299.675	86.62
299.905	81.62
300.136	77.62
300.366	87.62
300.597	90.62
300.827	102.62
301.057	86.62
301.288	89.62
301.518	82.62
301.748	68.62
301.979	106.62
302.209	93.62
302.439	87.62
302.669	89.62
302.9	85.62
303.13	86.62
303.36	76.62
303.59	86.62
303.82	85.62
304.051	83.62
304.281	96.62
304.511	89.62
304.741	87.62
304.971	83.62
305.201	72.62
305.431	87.62
305.661	90.62
305.891	91.62
306.121	89.62
306.352	84.62
306.582	92.62
306.812	86.62
307.042	83.62
307.272	73.62
307.502	65.62
307.731	72.62
307.961	78.62
308.191	82.62
308.421	85.62
308.651	87.62
308.881	83.62
309.111	80.62
309.341	90.62
309.571	77.62
309.8	91.62
310.03	88.62
310.26	82.62
310.49	74.62
310.72	86.62
310.949	90.62
311.179	84.62
311.409	81.62
311.639	97.62
311.868	95.62
312.098	93.62
312.328	93.62
312.557	101.62
312.787	100.62
313.017	85.62
313.246	83.62
313.476	81.62
313.706	93.62
313.935	79.62
314.165	91.62
314.394	92.62
314.624	103.62
314.853	70.62
315.083	75.62
315.312	75.62
315.542	79.62
315.771	87.62
316.001	92.62
316.23	94.62
316.46	82.62
316.689	90.62
316.919	80.62
317.148	79.62
317.377	101.62
317.607	74.62
317.836	75.62
318.065	88.62
318.295	95.62
318.524	88.62
318.753	89.62
318.983	77.62
319.212	81.62
319.441	94.62
319.67	103.62
319.9	75.62
320.129	69.62
320.358	84.62
320.587	80.62
320.816	91.62
321.046	77.62
321.275	78.62
321.504	73.62
321.733	81.62
321.962	84.62
322.191	85.62
322.42	75.62
322.649	88.62
322.878	83.62
323.108	92.62
323.337	72.62
323.566	76.62
323.795	84.62
324.024	84.62
324.253	88.62
324.482	88.62
324.71	90.62
324.939	99.62
325.168	88.62
325.397	82.62
325.626	79.62
325.855	73.62
326.084	73.62
326.313	88.62
326.542	93.62
326.77	77.62
326.999	91.62
327.228	89.62
327.457	79.62
327.686	70.62
327.914	84.62
328.143	104.62
328.372	99.62
328.6	88.62
328.829	82.62
329.058	78.62
329.287	85.62
329.515	71.62
329.744	72.62
329.972	91.62
330.201	81.62
330.43	96.62
330.658	87.62
330.887	104.62
331.115	72.62
331.344	69.62
331.572	85.62
331.801	77.62
332.03	95.62
332.258	94.62
332.486	77.62
332.715	88.62
332.943	79.62
333.172	88.62
333.4	78.62
333.629	86.62
333.857	76.62
334.085	90.62
334.314	89.62
334.542	97.62
334.771	96.62
334.999	99.62
335.227	91.62
335.455	78.62
335.684	87.62
335.912	82.62
336.14	96.62
336.369	82.62
336.597	94.62
336.825	83.62
337.053	70.62
337.281	86.62
337.51	76.62
337.738	90.62
337.966	76.62
338.194	67.62
338.422	79.62
338.65	66.62
338.878	84.62
339.106	88.62
339.334	94.62
339.562	86.62
339.79	77.62
340.018	84.62
340.246	96.62
340.474	95.62
340.702	84.62
340.93	72.62
341.158	80.62
341.386	70.62
341.614	76.62
341.842	74.62
342.07	81.62
342.298	94.62
342.526	75.62
342.754	79.62
342.981	96.62
343.209	70.62
343.437	96.62
343.665	95.62
343.893	76.62
344.12	82.62
344.348	107.62
344.576	83.62
344.804	73.62
345.031	82.62
345.259	82.62
345.487	80.62
345.714	82.62
345.942	73.62
346.17	86.62
346.397	84.62
346.625	82.62
346.853	75.62
347.08	80.62
347.308	92.62
347.535	74.62
347.763	88.62
347.99	87.62
348.218	106.62
348.445	71.62
348.673	77.62
348.9	86.62
349.128	85.62
349.355	82.62
349.583	90.62
349.81	75.62
350.037	87.62
350.265	90.62
350.492	83.62
350.72	89.62
350.947	81.62
351.174	98.62
351.402	93.62
351.629	96.62
351.856	75.62
352.083	80.62
352.311	83.62
352.538	77.62
352.765	82.62
352.992	99.62
353.22	90.62
353.447	71.62
353.674	91.62
353.901	79.62
354.128	78.62
354.355	85.62
354.583	90.62
354.81	103.62
355.037	89.62
355.264	74.62
355.491	80.62
355.718	88.62
355.945	86.62
356.172	80.62
356.399	90.62
356.626	84.62
356.853	91.62
357.08	79.62
357.307	82.62
357.534	91.62
357.761	84.62
357.988	91.62
358.215	93.62
358.441	95.62
358.668	90.62
358.895	82.62
359.122	91.62
359.349	81.62
359.576	70.62
359.802	85.62
360.029	79.62
360.256	83.62
360.483	89.62
360.709	99.62
360.936	88.62
361.163	82.62
361.39	95.62
361.616	90.62
361.843	88.62
362.07	81.62
362.296	83.62
362.523	98.62
362.749	84.62
362.976	87.62
363.203	116.62
363.429	96.62
363.656	96.62
363.882	95.62
364.109	93.62
364.335	97.62
364.562	107.62
364.788	85.62
365.015	107.62
365.241	94.62
365.468	88.62
365.694	76.62
365.92	82.62
366.147	84.62
366.373	96.62
366.599	82.62
366.826	65.62
367.052	85.62
367.278	77.62
367.505	85.62
367.731	97.62
367.957	79.62
368.184	76.62
368.41	77.62
368.636	74.62
368.862	77.62
369.089	67.62
369.315	68.62
369.541	87.62
369.767	82.62
369.993	78.62
370.219	88.62
370.445	73.62
370.672	84.62
370.898	88.62
371.124	72.62
371.35	74.62
371.576	91.62
371.802	82.62
372.028	88.62
372.254	89.62
372.48	90.62
372.706	80.62
372.932	83.62
373.158	82.62
373.384	84.62
373.61	87.62
373.835	95.62
374.061	91.62
374.287	92.62
374.513	99.62
374.739	97.62
374.965	96.62
375.191	94.62
375.416	92.62
375.642	97.62
375.868	92.62
376.094	83.62
376.319	80.62
376.545	82.62
376.771	82.62
376.997	88.62
377.222	82.62
377.448	72.62
377.674	75.62
377.899	87.62
378.125	91.62
378.35	86.62
378.576	84.62
378.802	91.62
379.027	86.62
379.253	83.62
379.478	86.62
379.704	95.62
379.929	84.62
380.155	73.62
380.38	65.62
380.606	85.62
380.831	85.62
381.057	96.62
381.282	86.62
381.507	95.62
381.733	99.62
381.958	82.62
382.184	101.62
382.409	91.62
382.634	77.62
382.86	93.62
383.085	94.62
383.31	81.62
383.535	72.62
383.761	84.62
383.986	97.62
384.211	89.62
384.436	108.62
384.662	93.62
384.887	90.62
385.112	93.62
385.337	83.62
385.562	78.62
385.787	91.62
386.013	100.62
386.238	106.62
386.463	82.62
386.688	92.62
386.913	78.62
387.138	97.62
387.363	96.62
387.588	89.62
387.813	94.62
388.038	87.62
388.263	78.62
388.488	96.62
388.713	93.62
388.938	94.62
389.163	90.62
389.387	84.62
389.612	86.62
389.837	101.62
390.062	84.62
390.287	87.62
390.512	95.62
390.736	72.62
390.961	91.62
391.186	78.62
391.411	81.62
391.636	77.62
391.86	79.62
392.085	95.62
392.31	90.62
392.534	86.62
392.759	90.62
392.984	117.62
393.208	172.62
393.433	221.62
393.658	165.62
393.882	118.62
394.107	100.62
394.331	97.62
394.556	102.62
394.78	105.62
395.005	85.62
395.229	96.62
395.454	93.62
395.678	91.62
395.903	99.62
396.127	122.62
396.352	128.62
396.576	118.62
396.801	159.62
397.025	182.62
397.249	112.62
397.474	96.62
397.698	89.62
397.922	91.62
398.147	82.62
398.371	90.62
398.595	96.62
398.82	86.62
399.044	75.62
399.268	92.62
399.492	91.62
399.717	94.62
399.941	70.62
400.165	91.62
400.389	74.62
400.613	71.62
400.837	77.62
401.062	84.62
401.286	88.62
401.51	90.62
401.734	86.62
401.958	90.62
402.182	70.62
402.406	88.62
402.63	85.62
402.854	82.62
403.078	96.62
403.302	84.62
403.526	79.62
403.75	66.62
403.974	78.62
404.198	75.62
404.422	76.62
404.645	91.62
404.869	94.62
405.093	92.62
405.317	97.62
405.541	88.62
405.765	95.62
405.988	82.62
406.212	89.62
406.436	95.62
406.66	82.62
406.883	97.62
407.107	91.62
407.331	104.62
407.555	97.62
407.778	88.62
408.002	91.62
408.226	69.62
408.449	78.62
408.673	89.62
408.896	85.62
409.12	102.62
409.344	79.62
409.567	83.62
409.791	82.62
410.014	89.62
410.238	80.62
410.461	80.62
410.685	90.62
410.908	73.62
411.132	95.62
411.355	86.62
411.578	83.62
411.802	83.62
412.025	86.62
412.249	69.62
412.472	81.62
412.695	85.62
412.919	92.62
413.142	82.62
413.365	70.62
413.589	72.62
413.812	73.62
414.035	84.62
414.258	76.62
414.482	58.62
414.705	85.62
414.928	79.62
415.151	83.62
415.374	87.62
415.597	79.62
415.821	87.62
416.044	85.62
416.267	84.62
416.49	94.62
416.713	71.62
416.936	90.62
417.159	82.62
417.382	85.62
417.605	70.62
417.828	82.62
418.051	80.62
418.274	104.62
418.497	86.62
418.72	90.62
418.943	88.62
419.166	91.62
419.389	83.62
419.611	91.62
419.834	79.62
420.057	89.62
420.28	94.62
420.503	98.62
420.726	84.62
420.948	72.62
421.171	84.62
421.394	86.62
421.617	95.62
421.839	104.62
422.062	95.62
422.285	116.62
422.507	186.62
422.73	271.62
422.953	243.62
423.175	154.62
423.398	97.62
423.621	90.62
423.843	97.62
424.066	81.62
424.288	90.62
424.511	88.62
424.733	78.62
424.956	69.62
425.178	84.62
425.401	85.62
425.623	84.62
425.846	77.62
426.068	82.62
426.291	82.62
426.513	83.62
426.735	89.62
426.958	73.62
427.18	82.62
427.402	89.62
427.625	91.62
427.847	85.62
428.069	86.62
428.292	107.62
428.514	118.62
428.736	88.62
428.958	102.62
429.181	103.62
429.403	89.62
429.625	91.62
429.847	105.62
430.069	116.62
430.292	115.62
430.514	129.62
430.736	101.62
430.958	102.62
431.18	80.62
431.402	86.62
431.624	75.62
431.846	103.62
432.068	106.62
432.29	92.62
432.512	91.62
432.734	85.62
432.956	79.62
433.178	95.62
433.4	81.62
433.622	79.62
433.844	76.62
434.066	86.62
434.287	65.62
434.509	67.62
434.731	81.62
434.953	83.62
435.175	78.62
435.397	86.62
435.618	85.62
435.84	78.62
436.062	68.62
436.284	74.62
436.505	90.62
436.727	90.62
436.949	79.62
437.17	94.62
437.392	75.62
437.614	85.62
437.835	89.62
438.057	81.62
438.278	94.62
438.5	90.62
438.721	87.62
438.943	84.62
439.165	79.62
439.386	72.62
439.608	87.62
439.829	89.62
440.05	83.62
440.272	99.62
440.493	77.62
440.715	82.62
440.936	82.62
441.158	82.62
441.379	88.62
441.6	85.62
441.822	78.62
442.043	95.62
442.264	92.62
442.486	83.62
442.707	106.62
442.928	101.62
443.149	93.62
443.371	112.62
443.592	146.62
443.813	127.62
444.034	86.62
444.255	98.62
444.476	92.62
444.698	92.62
444.919	96.62
445.14	169.62
445.361	142.62
445.582	177.62
445.803	152.62
446.024	100.62
446.245	89.62
446.466	84.62
446.687	69.62
446.908	86.62
447.129	76.62
447.35	94.62
447.571	80.62
447.792	80.62
448.013	79.62
448.234	79.62
448.455	88.62
448.675	76.62
448.896	90.62
449.117	89.62
449.338	84.62
449.559	87.62
449.779	82.62
450	80.62
450.221	94.62
450.442	80.62
450.662	80.62
450.883	79.62
451.104	90.62
451.324	81.62
451.545	79.62
451.766	74.62
451.986	70.62
452.207	91.62
452.428	82.62
452.648	87.62
452.869	98.62
453.089	96.62
453.31	80.62
453.53	81.62
453.751	73.62
453.971	84.62
454.192	89.62
454.412	95.62
454.633	89.62
454.853	89.62
455.073	87.62
455.294	90.62
455.514	80.62
455.734	83.62
455.955	88.62
456.175	67.62
456.395	85.62
456.616	75.62
456.836	97.62
457.056	78.62
457.276	84.62
457.497	87.62
457.717	84.62
457.937	94.62
458.157	82.62
458.377	95.62
458.598	95.62
458.818	112.62
459.038	88.62
459.258	74.62
459.478	83.62
459.698	90.62
459.918	89.62
460.138	92.62
460.358	95.62
460.578	86.62
460.798	100.62
461.018	84.62
461.238	88.62
461.458	68.62
461.678	80.62
461.898	89.62
462.118	72.62
462.338	83.62
462.558	81.62
462.777	86.62
462.997	69.62
463.217	86.62
463.437	83.62
463.657	72.62
463.876	74.62
464.096	83.62
464.316	82.62
464.536	79.62
464.755	98.62
464.975	74.62
465.195	82.62
465.414	82.62
465.634	82.62
465.854	89.62
466.073	82.62
466.293	76.62
466.512	89.62
466.732	89.62
466.951	75.62
467.171	83.62
467.391	86.62
467.61	80.62
467.829	96.62
468.049	104.62
468.268	97.62
468.488	91.62
468.707	90.62
468.927	80.62
469.146	86.62
469.365	84.62
469.585	94.62
469.804	72.62
470.023	71.62
470.243	88.62
470.462	75.62
470.681	89.62
470.901	91.62
471.12	86.62
471.339	74.62
471.558	82.62
471.777	89.62
471.997	84.62
472.216	75.62
472.435	79.62
472.654	91.62
472.873	79.62
473.092	87.62
473.311	73.62
473.53	89.62
473.749	88.62
473.968	81.62
474.187	87.62
474.406	82.62
474.625	76.62
474.844	86.62
475.063	82.62
475.282	95.62
475.501	87.62
475.72	85.62
475.939	81.62
476.158	86.62
476.377	89.62
476.596	83.62
476.814	79.62
477.033	78.62
477.252	78.62
477.471	71.62
477.69	74.62
477.908	70.62
478.127	87.62
478.346	77.62
478.564	87.62
478.783	83.62
479.002	83.62
479.22	97.62
479.439	77.62
479.658	90.62
479.876	86.62
480.095	82.62
480.313	96.62
480.532	76.62
480.751	93.62
480.969	90.62
481.188	94.62
481.406	88.62
481.624	76.62
481.843	82.62
482.061	84.62
482.28	82.62
482.498	83.62
482.717	78.62
482.935	64.62
483.153	74.62
483.372	75.62
483.59	78.62
483.808	86.62
484.027	71.62
484.245	92.62
484.463	71.62
484.681	86.62
484.9	84.62
485.118	86.62
485.336	99.62
485.554	71.62
485.772	88.62
485.99	86.62
486.209	81.62
486.427	85.62
486.645	93.62
486.863	88.62
487.081	77.62
487.299	88.62
487.517	94.62
487.735	82.62
487.953	110.62
488.171	99.62
488.389	80.62
488.607	67.62
488.825	80.62
489.043	100.62
489.261	98.62
489.479	104.62
489.696	94.62
489.914	84.62
490.132	93.62
490.35	86.62
490.568	79.62
490.786	87.62
491.003	60.62
491.221	94.62
491.439	90.62
491.657	83.62
491.874	76.62
492.092	96.62
492.31	77.62
492.527	86.62
492.745	76.62
492.963	90.62
493.18	89.62
493.398	86.62
493.615	98.62
493.833	78.62
494.05	74.62
494.268	90.62
494.485	80.62
494.703	89.62
494.92	75.62
495.138	87.62
495.355	86.62
495.573	92.62
495.79	82.62
496.008	72.62
496.225	76.62
496.442	95.62
496.66	83.62
496.877	82.62
497.094	94.62
497.312	94.62
497.529	92.62
497.746	107.62
497.963	92.62
498.181	100.62
498.398	99.62
498.615	80.62
498.832	76.62
499.049	87.62
499.267	95.62
499.484	84.62
499.701	91.62
499.918	80.62
500.135	83.62
500.352	83.62
500.569	83.62
500.786	95.62
501.003	90.62
501.22	81.62
501.437	83.62
501.654	100.62
501.871	87.62
502.088	75.62
502.305	107.62
502.522	87.62
502.739	77.62
502.956	79.62
503.172	87.62
503.389	78.62
503.606	87.62
503.823	93.62
504.04	98.62
504.256	109.62
504.473	102.62
504.69	88.62
504.907	74.62
505.123	82.62
505.34	76.62
505.557	84.62
505.773	85.62
505.99	93.62
506.207	88.62
506.423	92.62
506.64	83.62
506.856	82.62
507.073	84.62
507.289	81.62
507.506	90.62
507.722	73.62
507.939	80.62
508.155	99.62
508.372	82.62
508.588	79.62
508.805	85.62
509.021	97.62
509.238	86.62
509.454	95.62
509.67	84.62
509.887	85.62
510.103	94.62
510.319	76.62
510.536	80.62
510.752	88.62
510.968	94.62
511.184	102.62
511.401	87.62
511.617	85.62
511.833	80.62
512.049	85.62
512.265	76.62
512.481	88.62
512.698	89.62
512.914	76.62
513.13	89.62
513.346	81.62
513.562	87.62
513.778	87.62
513.994	77.62
514.21	83.62
514.426	95.62
514.642	72.62
514.858	86.62
515.074	81.62
515.29	90.62
515.506	96.62
515.721	84.62
515.937	87.62
516.153	91.62
516.369	99.62
516.585	79.62
516.801	80.62
517.016	74.62
517.232	74.62
517.448	90.62
517.664	85.62
517.879	87.62
518.095	88.62
518.311	86.62
518.527	95.62
518.742	99.62
518.958	107.62
519.173	111.62
