Data from 15780_3_HRD10591_00015.txt Node
Date: Mon Jan 19 14:20:05 EST 2026
User: Yrep
Spectrometer: HR+D1059
Trigger mode: 1
Integration Time (sec): 1.000000E-1
Scans to average: 1
Electric dark correction enabled: true
Nonlinearity correction enabled: false
Boxcar width: 0
XAxis mode: Wavelengths
Number of Pixels in Spectrum: 2048
>>>>>Begin Spectral Data<<<<<
223.165	-7.69
223.4	-7.69
223.635	-7.69
223.869	-19.69
224.104	-17.69
224.338	-5.69
224.573	-7.69
224.808	-19.69
225.042	-1.69
225.277	-4.69
225.511	-8.69
225.746	-2.69
225.98	6.31
226.215	8.31
226.449	16.31
226.683	9.31
226.918	24.31
227.152	31.31
227.387	21.31
227.621	38.31
227.856	42.31
228.09	48.31
228.324	56.31
228.559	63.31
228.793	51.31
229.027	64.31
229.262	66.31
229.496	72.31
229.73	72.31
229.964	79.31
230.199	58.31
230.433	66.31
230.667	80.31
230.901	87.31
231.136	86.31
231.37	82.31
231.604	74.31
231.838	77.31
232.072	86.31
232.306	74.31
232.541	84.31
232.775	76.31
233.009	88.31
233.243	86.31
233.477	80.31
233.711	87.31
233.945	67.31
234.179	86.31
234.413	88.31
234.647	84.31
234.881	74.31
235.115	80.31
235.349	84.31
235.583	65.31
235.817	80.31
236.051	80.31
236.285	85.31
236.519	77.31
236.753	76.31
236.987	56.31
237.221	71.31
237.455	74.31
237.689	81.31
237.922	82.31
238.156	74.31
238.39	74.31
238.624	77.31
238.858	76.31
239.091	70.31
239.325	67.31
239.559	70.31
239.793	69.31
240.027	76.31
240.26	77.31
240.494	63.31
240.728	69.31
240.961	63.31
241.195	77.31
241.429	78.31
241.662	65.31
241.896	77.31
242.13	91.31
242.363	72.31
242.597	77.31
242.83	74.31
243.064	81.31
243.298	82.31
243.531	83.31
243.765	70.31
243.998	86.31
244.232	80.31
244.465	100.31
244.699	94.31
244.932	79.31
245.166	74.31
245.399	80.31
245.633	82.31
245.866	85.31
246.099	68.31
246.333	77.31
246.566	66.31
246.8	91.31
247.033	72.31
247.266	86.31
247.5	94.31
247.733	94.31
247.966	81.31
248.2	73.31
248.433	76.31
248.666	81.31
248.899	82.31
249.133	73.31
249.366	74.31
249.599	67.31
249.832	74.31
250.066	68.31
250.299	79.31
250.532	69.31
250.765	73.31
250.998	77.31
251.231	81.31
251.465	86.31
251.698	97.31
251.931	87.31
252.164	78.31
252.397	78.31
252.63	79.31
252.863	80.31
253.096	74.31
253.329	82.31
253.562	78.31
253.795	72.31
254.028	76.31
254.261	81.31
254.494	81.31
254.727	83.31
254.96	80.31
255.193	76.31
255.426	83.31
255.659	67.31
255.892	84.31
256.124	77.31
256.357	74.31
256.59	64.31
256.823	70.31
257.056	74.31
257.289	87.31
257.521	70.31
257.754	70.31
257.987	71.31
258.22	81.31
258.452	81.31
258.685	79.31
258.918	76.31
259.151	70.31
259.383	88.31
259.616	67.31
259.849	80.31
260.081	102.31
260.314	80.31
260.547	66.31
260.779	78.31
261.012	74.31
261.244	86.31
261.477	90.31
261.71	82.31
261.942	76.31
262.175	82.31
262.407	82.31
262.64	83.31
262.872	89.31
263.105	87.31
263.337	69.31
263.57	66.31
263.802	76.31
264.035	79.31
264.267	86.31
264.499	80.31
264.732	83.31
264.964	84.31
265.197	75.31
265.429	86.31
265.661	84.31
265.894	74.31
266.126	80.31
266.358	71.31
266.591	74.31
266.823	78.31
267.055	76.31
267.287	83.31
267.52	86.31
267.752	71.31
267.984	87.31
268.216	72.31
268.448	82.31
268.681	75.31
268.913	72.31
269.145	67.31
269.377	85.31
269.609	90.31
269.841	81.31
270.073	71.31
270.306	88.31
270.538	73.31
270.77	64.31
271.002	84.31
271.234	92.31
271.466	83.31
271.698	91.31
271.93	91.31
272.162	90.31
272.394	81.31
272.626	75.31
272.858	74.31
273.09	70.31
273.322	77.31
273.553	76.31
273.785	89.31
274.017	76.31
274.249	74.31
274.481	82.31
274.713	90.31
274.945	72.31
275.176	71.31
275.408	81.31
275.64	88.31
275.872	83.31
276.104	71.31
276.335	89.31
276.567	80.31
276.799	83.31
277.031	80.31
277.262	92.31
277.494	77.31
277.726	89.31
277.957	86.31
278.189	77.31
278.421	76.31
278.652	76.31
278.884	76.31
279.115	84.31
279.347	76.31
279.579	87.31
279.81	94.31
280.042	96.31
280.273	83.31
280.505	83.31
280.736	87.31
280.968	86.31
281.199	84.31
281.431	94.31
281.662	82.31
281.894	79.31
282.125	87.31
282.356	83.31
282.588	78.31
282.819	76.31
283.051	94.31
283.282	88.31
283.513	85.31
283.745	80.31
283.976	77.31
284.207	76.31
284.439	79.31
284.67	95.31
284.901	82.31
285.132	97.31
285.364	83.31
285.595	89.31
285.826	88.31
286.057	81.31
286.288	86.31
286.52	73.31
286.751	85.31
286.982	88.31
287.213	79.31
287.444	71.31
287.675	82.31
287.906	76.31
288.138	84.31
288.369	84.31
288.6	84.31
288.831	86.31
289.062	92.31
289.293	85.31
289.524	94.31
289.755	83.31
289.986	66.31
290.217	83.31
290.448	90.31
290.679	81.31
290.91	82.31
291.141	89.31
291.371	75.31
291.602	76.31
291.833	85.31
292.064	84.31
292.295	87.31
292.526	92.31
292.757	74.31
292.987	89.31
293.218	81.31
293.449	76.31
293.68	94.31
293.91	92.31
294.141	100.31
294.372	96.31
294.603	83.31
294.833	97.31
295.064	98.31
295.295	98.31
295.525	98.31
295.756	79.31
295.987	86.31
296.217	82.31
296.448	81.31
296.679	74.31
296.909	89.31
297.14	82.31
297.37	83.31
297.601	70.31
297.831	94.31
298.062	81.31
298.292	73.31
298.523	97.31
298.753	77.31
298.984	84.31
299.214	106.31
299.445	94.31
299.675	88.31
299.905	91.31
300.136	90.31
300.366	89.31
300.597	93.31
300.827	86.31
301.057	75.31
301.288	82.31
301.518	90.31
301.748	81.31
301.979	104.31
302.209	84.31
302.439	82.31
302.669	83.31
302.9	86.31
303.13	98.31
303.36	91.31
303.59	103.31
303.82	91.31
304.051	97.31
304.281	80.31
304.511	93.31
304.741	88.31
304.971	71.31
305.201	75.31
305.431	88.31
305.661	75.31
305.891	82.31
306.121	70.31
306.352	80.31
306.582	76.31
306.812	87.31
307.042	86.31
307.272	88.31
307.502	97.31
307.731	96.31
307.961	104.31
308.191	91.31
308.421	103.31
308.651	83.31
308.881	82.31
309.111	114.31
309.341	107.31
309.571	105.31
309.8	87.31
310.03	86.31
310.26	96.31
310.49	91.31
310.72	72.31
310.949	83.31
311.179	96.31
311.409	82.31
311.639	88.31
311.868	96.31
312.098	79.31
312.328	78.31
312.557	102.31
312.787	94.31
313.017	83.31
313.246	76.31
313.476	103.31
313.706	74.31
313.935	73.31
314.165	79.31
314.394	80.31
314.624	88.31
314.853	86.31
315.083	95.31
315.312	93.31
315.542	76.31
315.771	81.31
316.001	79.31
316.23	94.31
316.46	86.31
316.689	91.31
316.919	90.31
317.148	80.31
317.377	87.31
317.607	94.31
317.836	83.31
318.065	96.31
318.295	95.31
318.524	83.31
318.753	83.31
318.983	84.31
319.212	88.31
319.441	82.31
319.67	86.31
319.9	94.31
320.129	97.31
320.358	92.31
320.587	102.31
320.816	90.31
321.046	99.31
321.275	83.31
321.504	89.31
321.733	87.31
321.962	79.31
322.191	74.31
322.42	76.31
322.649	98.31
322.878	94.31
323.108	84.31
323.337	75.31
323.566	95.31
323.795	80.31
324.024	88.31
324.253	83.31
324.482	90.31
324.71	84.31
324.939	96.31
325.168	88.31
325.397	86.31
325.626	68.31
325.855	84.31
326.084	96.31
326.313	92.31
326.542	85.31
326.77	98.31
326.999	98.31
327.228	78.31
327.457	92.31
327.686	99.31
327.914	89.31
328.143	95.31
328.372	88.31
328.6	94.31
328.829	92.31
329.058	92.31
329.287	94.31
329.515	91.31
329.744	91.31
329.972	93.31
330.201	96.31
330.43	95.31
330.658	77.31
330.887	91.31
331.115	85.31
331.344	82.31
331.572	95.31
331.801	76.31
332.03	83.31
332.258	78.31
332.486	77.31
332.715	85.31
332.943	88.31
333.172	85.31
333.4	84.31
333.629	94.31
333.857	85.31
334.085	100.31
334.314	95.31
334.542	102.31
334.771	89.31
334.999	91.31
335.227	95.31
335.455	95.31
335.684	95.31
335.912	75.31
336.14	102.31
336.369	95.31
336.597	95.31
336.825	86.31
337.053	91.31
337.281	88.31
337.51	88.31
337.738	67.31
337.966	90.31
338.194	84.31
338.422	85.31
338.65	96.31
338.878	94.31
339.106	86.31
339.334	91.31
339.562	79.31
339.79	71.31
340.018	80.31
340.246	86.31
340.474	56.31
340.702	80.31
340.93	84.31
341.158	89.31
341.386	77.31
341.614	74.31
341.842	91.31
342.07	93.31
342.298	86.31
342.526	90.31
342.754	73.31
342.981	72.31
343.209	77.31
343.437	90.31
343.665	95.31
343.893	88.31
344.12	82.31
344.348	92.31
344.576	87.31
344.804	90.31
345.031	82.31
345.259	68.31
345.487	74.31
345.714	92.31
345.942	104.31
346.17	86.31
346.397	90.31
346.625	89.31
346.853	90.31
347.08	87.31
347.308	102.31
347.535	83.31
347.763	84.31
347.99	85.31
348.218	74.31
348.445	84.31
348.673	95.31
348.9	82.31
349.128	99.31
349.355	84.31
349.583	71.31
349.81	92.31
350.037	77.31
350.265	86.31
350.492	83.31
350.72	78.31
350.947	84.31
351.174	89.31
351.402	86.31
351.629	93.31
351.856	82.31
352.083	80.31
352.311	79.31
352.538	83.31
352.765	100.31
352.992	92.31
353.22	95.31
353.447	77.31
353.674	89.31
353.901	95.31
354.128	94.31
354.355	91.31
354.583	89.31
354.81	86.31
355.037	82.31
355.264	97.31
355.491	90.31
355.718	89.31
355.945	82.31
356.172	83.31
356.399	79.31
356.626	97.31
356.853	88.31
357.08	84.31
357.307	111.31
357.534	83.31
357.761	102.31
357.988	108.31
358.215	116.31
358.441	86.31
358.668	99.31
358.895	84.31
359.122	86.31
359.349	101.31
359.576	92.31
359.802	92.31
360.029	98.31
360.256	102.31
360.483	91.31
360.709	92.31
360.936	100.31
361.163	85.31
361.39	92.31
361.616	73.31
361.843	89.31
362.07	107.31
362.296	108.31
362.523	101.31
362.749	91.31
362.976	94.31
363.203	129.31
363.429	109.31
363.656	92.31
363.882	99.31
364.109	102.31
364.335	123.31
364.562	152.31
364.788	97.31
365.015	95.31
365.241	92.31
365.468	85.31
365.694	90.31
365.92	80.31
366.147	86.31
366.373	93.31
366.599	78.31
366.826	83.31
367.052	61.31
367.278	81.31
367.505	90.31
367.731	82.31
367.957	113.31
368.184	90.31
368.41	94.31
368.636	88.31
368.862	100.31
369.089	76.31
369.315	100.31
369.541	87.31
369.767	96.31
369.993	98.31
370.219	98.31
370.445	95.31
370.672	92.31
370.898	93.31
371.124	94.31
371.35	82.31
371.576	84.31
371.802	86.31
372.028	84.31
372.254	89.31
372.48	83.31
372.706	98.31
372.932	98.31
373.158	93.31
373.384	104.31
373.61	131.31
373.835	112.31
374.061	94.31
374.287	108.31
374.513	118.31
374.739	107.31
374.965	111.31
375.191	102.31
375.416	96.31
375.642	91.31
375.868	100.31
376.094	106.31
376.319	100.31
376.545	98.31
376.771	100.31
376.997	81.31
377.222	83.31
377.448	91.31
377.674	86.31
377.899	83.31
378.125	82.31
378.35	76.31
378.576	83.31
378.802	93.31
379.027	96.31
379.253	87.31
379.478	88.31
379.704	80.31
379.929	79.31
380.155	90.31
380.38	87.31
380.606	82.31
380.831	89.31
381.057	111.31
381.282	92.31
381.507	105.31
381.733	84.31
381.958	126.31
382.184	110.31
382.409	97.31
382.634	114.31
382.86	122.31
383.085	113.31
383.31	91.31
383.535	111.31
383.761	99.31
383.986	114.31
384.211	104.31
384.436	88.31
384.662	84.31
384.887	84.31
385.112	87.31
385.337	92.31
385.562	99.31
385.787	106.31
386.013	110.31
386.238	94.31
386.463	92.31
386.688	106.31
386.913	88.31
387.138	94.31
387.363	102.31
387.588	100.31
387.813	110.31
388.038	117.31
388.263	103.31
388.488	102.31
388.713	102.31
388.938	104.31
389.163	89.31
389.387	85.31
389.612	89.31
389.837	91.31
390.062	97.31
390.287	78.31
390.512	106.31
390.736	89.31
390.961	99.31
391.186	80.31
391.411	95.31
391.636	89.31
391.86	98.31
392.085	101.31
392.31	102.31
392.534	97.31
392.759	118.31
392.984	166.31
393.208	295.31
393.433	409.31
393.658	310.31
393.882	147.31
394.107	116.31
394.331	137.31
394.556	139.31
394.78	119.31
395.005	98.31
395.229	105.31
395.454	100.31
395.678	109.31
395.903	132.31
396.127	162.31
396.352	162.31
396.576	182.31
396.801	273.31
397.025	330.31
397.249	168.31
397.474	126.31
397.698	106.31
397.922	103.31
398.147	96.31
398.371	85.31
398.595	89.31
398.82	81.31
399.044	80.31
399.268	90.31
399.492	88.31
399.717	96.31
399.941	90.31
400.165	91.31
400.389	78.31
400.613	94.31
400.837	103.31
401.062	86.31
401.286	93.31
401.51	81.31
401.734	92.31
401.958	100.31
402.182	72.31
402.406	81.31
402.63	88.31
402.854	103.31
403.078	86.31
403.302	83.31
403.526	94.31
403.75	89.31
403.974	78.31
404.198	86.31
404.422	94.31
404.645	112.31
404.869	94.31
405.093	99.31
405.317	90.31
405.541	88.31
405.765	86.31
405.988	78.31
406.212	80.31
406.436	91.31
406.66	96.31
406.883	80.31
407.107	81.31
407.331	91.31
407.555	89.31
407.778	117.31
408.002	135.31
408.226	93.31
408.449	86.31
408.673	84.31
408.896	76.31
409.12	81.31
409.344	102.31
409.567	101.31
409.791	111.31
410.014	100.31
410.238	91.31
410.461	59.31
410.685	75.31
410.908	86.31
411.132	100.31
411.355	87.31
411.578	93.31
411.802	86.31
412.025	88.31
412.249	70.31
412.472	99.31
412.695	68.31
412.919	88.31
413.142	94.31
413.365	83.31
413.589	96.31
413.812	86.31
414.035	80.31
414.258	79.31
414.482	91.31
414.705	83.31
414.928	87.31
415.151	100.31
415.374	94.31
415.597	73.31
415.821	100.31
416.044	72.31
416.267	82.31
416.49	94.31
416.713	68.31
416.936	102.31
417.159	84.31
417.382	83.31
417.605	85.31
417.828	68.31
418.051	100.31
418.274	96.31
418.497	85.31
418.72	89.31
418.943	75.31
419.166	94.31
419.389	94.31
419.611	85.31
419.834	85.31
420.057	95.31
420.28	98.31
420.503	81.31
420.726	87.31
420.948	98.31
421.171	98.31
421.394	128.31
421.617	131.31
421.839	128.31
422.062	132.31
422.285	168.31
422.507	309.31
422.73	502.31
422.953	450.31
423.175	214.31
423.398	120.31
423.621	105.31
423.843	106.31
424.066	107.31
424.288	114.31
424.511	99.31
424.733	93.31
424.956	76.31
425.178	84.31
425.401	96.31
425.623	101.31
425.846	81.31
426.068	95.31
426.291	103.31
426.513	85.31
426.735	83.31
426.958	84.31
427.18	101.31
427.402	102.31
427.625	95.31
427.847	101.31
428.069	115.31
428.292	122.31
428.514	146.31
428.736	117.31
428.958	118.31
429.181	145.31
429.403	95.31
429.625	125.31
429.847	117.31
430.069	178.31
430.292	195.31
430.514	187.31
430.736	143.31
430.958	172.31
431.18	104.31
431.402	89.31
431.624	97.31
431.846	135.31
432.068	156.31
432.29	98.31
432.512	96.31
432.734	95.31
432.956	81.31
433.178	86.31
433.4	79.31
433.622	94.31
433.844	92.31
434.066	86.31
434.287	95.31
434.509	98.31
434.731	80.31
434.953	84.31
435.175	90.31
435.397	88.31
435.618	89.31
435.84	86.31
436.062	83.31
436.284	100.31
436.505	76.31
436.727	84.31
436.949	92.31
437.17	88.31
437.392	77.31
437.614	96.31
437.835	70.31
438.057	86.31
438.278	88.31
438.5	113.31
438.721	98.31
438.943	92.31
439.165	88.31
439.386	82.31
439.608	84.31
439.829	75.31
440.05	95.31
440.272	80.31
440.493	84.31
440.715	96.31
440.936	93.31
441.158	94.31
441.379	88.31
441.6	89.31
441.822	88.31
442.043	99.31
442.264	98.31
442.486	137.31
442.707	177.31
442.928	126.31
443.149	115.31
443.371	152.31
443.592	282.31
443.813	242.31
444.034	129.31
444.255	103.31
444.476	96.31
444.698	96.31
444.919	101.31
445.14	184.31
445.361	226.31
445.582	305.31
445.803	261.31
446.024	132.31
446.245	106.31
446.466	76.31
446.687	87.31
446.908	85.31
447.129	84.31
447.35	85.31
447.571	90.31
447.792	90.31
448.013	75.31
448.234	86.31
448.455	71.31
448.675	85.31
448.896	92.31
449.117	90.31
449.338	81.31
449.559	77.31
449.779	80.31
450	97.31
450.221	88.31
450.442	77.31
450.662	77.31
450.883	69.31
451.104	95.31
451.324	96.31
451.545	91.31
451.766	96.31
451.986	84.31
452.207	93.31
452.428	84.31
452.648	93.31
452.869	88.31
453.089	98.31
453.31	102.31
453.53	112.31
453.751	87.31
453.971	86.31
454.192	95.31
454.412	101.31
454.633	73.31
454.853	87.31
455.073	96.31
455.294	87.31
455.514	101.31
455.734	92.31
455.955	75.31
456.175	87.31
456.395	92.31
456.616	89.31
456.836	85.31
457.056	80.31
457.276	77.31
457.497	84.31
457.717	95.31
457.937	103.31
458.157	135.31
458.377	138.31
458.598	112.31
458.818	129.31
459.038	104.31
459.258	82.31
459.478	73.31
459.698	91.31
459.918	90.31
460.138	75.31
460.358	100.31
460.578	110.31
460.798	145.31
461.018	135.31
461.238	89.31
461.458	95.31
461.678	81.31
461.898	86.31
462.118	88.31
462.338	87.31
462.558	83.31
462.777	74.31
462.997	91.31
463.217	79.31
463.437	75.31
463.657	79.31
463.876	97.31
464.096	99.31
464.316	97.31
464.536	88.31
464.755	99.31
464.975	83.31
465.195	91.31
465.414	72.31
465.634	91.31
465.854	82.31
466.073	72.31
466.293	86.31
466.512	79.31
466.732	93.31
466.951	82.31
467.171	90.31
467.391	87.31
467.61	86.31
467.829	98.31
468.049	74.31
468.268	86.31
468.488	68.31
468.707	80.31
468.927	89.31
469.146	101.31
469.365	81.31
469.585	83.31
469.804	110.31
470.023	91.31
470.243	92.31
470.462	87.31
470.681	107.31
470.901	98.31
471.12	98.31
471.339	75.31
471.558	80.31
471.777	88.31
471.997	111.31
472.216	82.31
472.435	94.31
472.654	93.31
472.873	94.31
473.092	95.31
473.311	84.31
473.53	77.31
473.749	80.31
473.968	97.31
474.187	89.31
474.406	89.31
474.625	75.31
474.844	90.31
475.063	91.31
475.282	82.31
475.501	101.31
475.72	85.31
475.939	82.31
476.158	90.31
476.377	96.31
476.596	81.31
476.814	98.31
477.033	72.31
477.252	88.31
477.471	74.31
477.69	98.31
477.908	75.31
478.127	104.31
478.346	85.31
478.564	86.31
478.783	94.31
479.002	96.31
479.22	83.31
479.439	88.31
479.658	82.31
479.876	93.31
480.095	86.31
480.313	96.31
480.532	92.31
480.751	94.31
480.969	85.31
481.188	85.31
481.406	100.31
481.624	88.31
481.843	87.31
482.061	89.31
482.28	82.31
482.498	91.31
482.717	83.31
482.935	77.31
483.153	106.31
483.372	91.31
483.59	84.31
483.808	97.31
484.027	86.31
484.245	99.31
484.463	99.31
484.681	106.31
484.9	79.31
485.118	82.31
485.336	80.31
485.554	88.31
485.772	90.31
485.99	78.31
486.209	90.31
486.427	87.31
486.645	96.31
486.863	84.31
487.081	75.31
487.299	99.31
487.517	95.31
487.735	119.31
487.953	194.31
488.171	148.31
488.389	98.31
488.607	87.31
488.825	82.31
489.043	99.31
489.261	102.31
489.479	94.31
489.696	89.31
489.914	90.31
490.132	102.31
490.35	95.31
490.568	85.31
490.786	96.31
491.003	82.31
491.221	94.31
491.439	89.31
491.657	116.31
491.874	84.31
492.092	104.31
492.31	106.31
492.527	89.31
492.745	94.31
492.963	82.31
493.18	90.31
493.398	92.31
493.615	96.31
493.833	105.31
494.05	84.31
494.268	97.31
494.485	90.31
494.703	85.31
494.92	94.31
495.138	96.31
495.355	85.31
495.573	102.31
495.79	85.31
496.008	110.31
496.225	90.31
496.442	98.31
496.66	105.31
496.877	85.31
497.094	86.31
497.312	89.31
497.529	88.31
497.746	93.31
497.963	108.31
498.181	100.31
498.398	115.31
498.615	103.31
498.832	99.31
499.049	95.31
499.267	98.31
499.484	95.31
499.701	114.31
499.918	94.31
500.135	101.31
500.352	88.31
500.569	90.31
500.786	106.31
501.003	96.31
501.22	84.31
501.437	91.31
501.654	103.31
501.871	103.31
502.088	83.31
502.305	97.31
502.522	88.31
502.739	109.31
502.956	85.31
503.172	92.31
503.389	91.31
503.606	102.31
503.823	105.31
504.04	100.31
504.256	135.31
504.473	140.31
504.69	100.31
504.907	95.31
505.123	97.31
505.34	92.31
505.557	89.31
505.773	90.31
505.99	85.31
506.207	99.31
506.423	84.31
506.64	84.31
506.856	68.31
507.073	76.31
507.289	82.31
507.506	91.31
507.722	92.31
507.939	95.31
508.155	91.31
508.372	88.31
508.588	106.31
508.805	85.31
509.021	83.31
509.238	99.31
509.454	79.31
509.67	79.31
509.887	104.31
510.103	76.31
510.319	90.31
510.536	88.31
510.752	84.31
510.968	90.31
511.184	88.31
511.401	81.31
511.617	100.31
511.833	91.31
512.049	85.31
512.265	91.31
512.481	94.31
512.698	93.31
512.914	80.31
513.13	96.31
513.346	104.31
513.562	97.31
513.778	87.31
513.994	95.31
514.21	82.31
514.426	75.31
514.642	83.31
514.858	82.31
515.074	86.31
515.29	108.31
515.506	86.31
515.721	81.31
515.937	79.31
516.153	91.31
516.369	79.31
516.585	89.31
516.801	84.31
517.016	110.31
517.232	96.31
