Data from 15780_3_HRD10591_00045.txt Node
Date: Mon Jan 19 14:20:20 EST 2026
User: Yrep
Spectrometer: HR+D1059
Trigger mode: 1
Integration Time (sec): 1.000000E-1
Scans to average: 1
Electric dark correction enabled: true
Nonlinearity correction enabled: false
Boxcar width: 0
XAxis mode: Wavelengths
Number of Pixels in Spectrum: 2048
>>>>>Begin Spectral Data<<<<<
223.165	-15.19
223.4	-15.19
223.635	-15.19
223.869	-7.19
224.104	-29.19
224.338	-11.19
224.573	-11.19
224.808	-18.19
225.042	-12.19
225.277	-11.19
225.511	4.81
225.746	14.81
225.98	19.81
226.215	-3.19
226.449	7.81
226.683	20.81
226.918	20.81
227.152	29.81
227.387	39.81
227.621	32.81
227.856	31.81
228.09	34.81
228.324	53.81
228.559	60.81
228.793	60.81
229.027	63.81
229.262	68.81
229.496	69.81
229.73	58.81
229.964	61.81
230.199	62.81
230.433	63.81
230.667	83.81
230.901	78.81
231.136	88.81
231.37	64.81
231.604	76.81
231.838	84.81
232.072	69.81
232.306	81.81
232.541	81.81
232.775	78.81
233.009	78.81
233.243	66.81
233.477	74.81
233.711	90.81
233.945	87.81
234.179	83.81
234.413	74.81
234.647	82.81
234.881	75.81
235.115	72.81
235.349	72.81
235.583	82.81
235.817	85.81
236.051	73.81
236.285	72.81
236.519	68.81
236.753	88.81
236.987	71.81
237.221	64.81
237.455	73.81
237.689	75.81
237.922	80.81
238.156	92.81
238.39	70.81
238.624	84.81
238.858	79.81
239.091	69.81
239.325	71.81
239.559	65.81
239.793	69.81
240.027	76.81
240.26	56.81
240.494	89.81
240.728	63.81
240.961	70.81
241.195	77.81
241.429	58.81
241.662	81.81
241.896	68.81
242.13	66.81
242.363	81.81
242.597	71.81
242.83	71.81
243.064	61.81
243.298	67.81
243.531	65.81
243.765	74.81
243.998	70.81
244.232	82.81
244.465	80.81
244.699	75.81
244.932	58.81
245.166	82.81
245.399	76.81
245.633	63.81
245.866	88.81
246.099	73.81
246.333	88.81
246.566	61.81
246.8	86.81
247.033	78.81
247.266	71.81
247.5	69.81
247.733	62.81
247.966	75.81
248.2	73.81
248.433	72.81
248.666	66.81
248.899	81.81
249.133	71.81
249.366	83.81
249.599	69.81
249.832	85.81
250.066	66.81
250.299	80.81
250.532	74.81
250.765	81.81
250.998	95.81
251.231	68.81
251.465	83.81
251.698	86.81
251.931	70.81
252.164	70.81
252.397	85.81
252.63	85.81
252.863	68.81
253.096	78.81
253.329	68.81
253.562	71.81
253.795	76.81
254.028	66.81
254.261	63.81
254.494	84.81
254.727	84.81
254.96	86.81
255.193	92.81
255.426	77.81
255.659	74.81
255.892	80.81
256.124	70.81
256.357	66.81
256.59	81.81
256.823	78.81
257.056	74.81
257.289	71.81
257.521	72.81
257.754	74.81
257.987	86.81
258.22	83.81
258.452	66.81
258.685	83.81
258.918	82.81
259.151	86.81
259.383	76.81
259.616	76.81
259.849	78.81
260.081	71.81
260.314	82.81
260.547	84.81
260.779	89.81
261.012	65.81
261.244	81.81
261.477	68.81
261.71	82.81
261.942	66.81
262.175	84.81
262.407	74.81
262.64	60.81
262.872	85.81
263.105	79.81
263.337	92.81
263.57	88.81
263.802	80.81
264.035	88.81
264.267	72.81
264.499	60.81
264.732	92.81
264.964	85.81
265.197	84.81
265.429	77.81
265.661	70.81
265.894	71.81
266.126	86.81
266.358	82.81
266.591	75.81
266.823	92.81
267.055	86.81
267.287	78.81
267.52	80.81
267.752	73.81
267.984	73.81
268.216	102.81
268.448	89.81
268.681	82.81
268.913	81.81
269.145	71.81
269.377	87.81
269.609	82.81
269.841	82.81
270.073	82.81
270.306	93.81
270.538	85.81
270.77	77.81
271.002	80.81
271.234	70.81
271.466	87.81
271.698	94.81
271.93	81.81
272.162	80.81
272.394	86.81
272.626	80.81
272.858	92.81
273.09	76.81
273.322	82.81
273.553	73.81
273.785	79.81
274.017	88.81
274.249	97.81
274.481	84.81
274.713	83.81
274.945	83.81
275.176	87.81
275.408	94.81
275.64	90.81
275.872	75.81
276.104	84.81
276.335	88.81
276.567	78.81
276.799	74.81
277.031	76.81
277.262	90.81
277.494	93.81
277.726	87.81
277.957	77.81
278.189	102.81
278.421	94.81
278.652	85.81
278.884	68.81
279.115	75.81
279.347	66.81
279.579	86.81
279.81	91.81
280.042	74.81
280.273	94.81
280.505	80.81
280.736	90.81
280.968	90.81
281.199	79.81
281.431	80.81
281.662	87.81
281.894	73.81
282.125	81.81
282.356	82.81
282.588	100.81
282.819	76.81
283.051	87.81
283.282	78.81
283.513	86.81
283.745	79.81
283.976	72.81
284.207	66.81
284.439	77.81
284.67	89.81
284.901	72.81
285.132	84.81
285.364	92.81
285.595	97.81
285.826	80.81
286.057	88.81
286.288	80.81
286.52	76.81
286.751	69.81
286.982	89.81
287.213	79.81
287.444	80.81
287.675	77.81
287.906	88.81
288.138	87.81
288.369	86.81
288.6	68.81
288.831	74.81
289.062	99.81
289.293	94.81
289.524	65.81
289.755	76.81
289.986	63.81
290.217	80.81
290.448	84.81
290.679	80.81
290.91	80.81
291.141	90.81
291.371	84.81
291.602	80.81
291.833	88.81
292.064	83.81
292.295	76.81
292.526	88.81
292.757	74.81
292.987	81.81
293.218	89.81
293.449	91.81
293.68	88.81
293.91	90.81
294.141	91.81
294.372	82.81
294.603	82.81
294.833	77.81
295.064	87.81
295.295	78.81
295.525	66.81
295.756	92.81
295.987	76.81
296.217	83.81
296.448	84.81
296.679	85.81
296.909	93.81
297.14	92.81
297.37	81.81
297.601	75.81
297.831	67.81
298.062	85.81
298.292	75.81
298.523	79.81
298.753	82.81
298.984	80.81
299.214	88.81
299.445	86.81
299.675	75.81
299.905	85.81
300.136	94.81
300.366	95.81
300.597	79.81
300.827	92.81
301.057	86.81
301.288	86.81
301.518	81.81
301.748	78.81
301.979	112.81
302.209	80.81
302.439	98.81
302.669	76.81
302.9	70.81
303.13	88.81
303.36	82.81
303.59	78.81
303.82	88.81
304.051	84.81
304.281	84.81
304.511	84.81
304.741	72.81
304.971	65.81
305.201	84.81
305.431	72.81
305.661	87.81
305.891	72.81
306.121	89.81
306.352	75.81
306.582	92.81
306.812	90.81
307.042	78.81
307.272	70.81
307.502	81.81
307.731	78.81
307.961	82.81
308.191	96.81
308.421	101.81
308.651	93.81
308.881	90.81
309.111	110.81
309.341	102.81
309.571	105.81
309.8	89.81
310.03	85.81
310.26	87.81
310.49	86.81
310.72	80.81
310.949	88.81
311.179	71.81
311.409	86.81
311.639	82.81
311.868	72.81
312.098	81.81
312.328	73.81
312.557	89.81
312.787	106.81
313.017	82.81
313.246	70.81
313.476	74.81
313.706	76.81
313.935	84.81
314.165	92.81
314.394	86.81
314.624	83.81
314.853	81.81
315.083	88.81
315.312	77.81
315.542	72.81
315.771	92.81
316.001	87.81
316.23	94.81
316.46	93.81
316.689	92.81
316.919	90.81
317.148	72.81
317.377	78.81
317.607	84.81
317.836	92.81
318.065	114.81
318.295	104.81
318.524	84.81
318.753	81.81
318.983	88.81
319.212	100.81
319.441	84.81
319.67	90.81
319.9	83.81
320.129	81.81
320.358	85.81
320.587	86.81
320.816	98.81
321.046	88.81
321.275	83.81
321.504	78.81
321.733	92.81
321.962	72.81
322.191	88.81
322.42	85.81
322.649	80.81
322.878	80.81
323.108	80.81
323.337	75.81
323.566	96.81
323.795	77.81
324.024	77.81
324.253	78.81
324.482	90.81
324.71	89.81
324.939	88.81
325.168	77.81
325.397	80.81
325.626	75.81
325.855	69.81
326.084	67.81
326.313	85.81
326.542	80.81
326.77	84.81
326.999	85.81
327.228	90.81
327.457	72.81
327.686	82.81
327.914	84.81
328.143	86.81
328.372	89.81
328.6	93.81
328.829	77.81
329.058	85.81
329.287	80.81
329.515	77.81
329.744	87.81
329.972	90.81
330.201	71.81
330.43	71.81
330.658	82.81
330.887	94.81
331.115	75.81
331.344	90.81
331.572	93.81
331.801	79.81
332.03	80.81
332.258	78.81
332.486	76.81
332.715	88.81
332.943	71.81
333.172	85.81
333.4	80.81
333.629	89.81
333.857	79.81
334.085	96.81
334.314	70.81
334.542	81.81
334.771	94.81
334.999	96.81
335.227	91.81
335.455	94.81
335.684	101.81
335.912	92.81
336.14	105.81
336.369	96.81
336.597	74.81
336.825	92.81
337.053	84.81
337.281	87.81
337.51	85.81
337.738	81.81
337.966	81.81
338.194	84.81
338.422	80.81
338.65	97.81
338.878	81.81
339.106	88.81
339.334	78.81
339.562	81.81
339.79	84.81
340.018	85.81
340.246	78.81
340.474	78.81
340.702	84.81
340.93	84.81
341.158	81.81
341.386	72.81
341.614	81.81
341.842	80.81
342.07	72.81
342.298	76.81
342.526	75.81
342.754	81.81
342.981	88.81
343.209	78.81
343.437	93.81
343.665	73.81
343.893	80.81
344.12	90.81
344.348	95.81
344.576	86.81
344.804	99.81
345.031	86.81
345.259	83.81
345.487	74.81
345.714	78.81
345.942	84.81
346.17	85.81
346.397	74.81
346.625	88.81
346.853	82.81
347.08	82.81
347.308	96.81
347.535	93.81
347.763	84.81
347.99	86.81
348.218	71.81
348.445	76.81
348.673	79.81
348.9	80.81
349.128	84.81
349.355	82.81
349.583	74.81
349.81	78.81
350.037	90.81
350.265	86.81
350.492	68.81
350.72	64.81
350.947	92.81
351.174	68.81
351.402	86.81
351.629	92.81
351.856	81.81
352.083	76.81
352.311	85.81
352.538	86.81
352.765	78.81
352.992	93.81
353.22	80.81
353.447	84.81
353.674	78.81
353.901	80.81
354.128	69.81
354.355	81.81
354.583	84.81
354.81	73.81
355.037	72.81
355.264	84.81
355.491	75.81
355.718	80.81
355.945	90.81
356.172	85.81
356.399	86.81
356.626	92.81
356.853	90.81
357.08	98.81
357.307	82.81
357.534	74.81
357.761	76.81
357.988	95.81
358.215	110.81
358.441	92.81
358.668	100.81
358.895	87.81
359.122	81.81
359.349	80.81
359.576	63.81
359.802	72.81
360.029	77.81
360.256	71.81
360.483	88.81
360.709	92.81
360.936	86.81
361.163	96.81
361.39	83.81
361.616	86.81
361.843	80.81
362.07	89.81
362.296	93.81
362.523	98.81
362.749	93.81
362.976	102.81
363.203	112.81
363.429	88.81
363.656	94.81
363.882	83.81
364.109	106.81
364.335	132.81
364.562	135.81
364.788	113.81
365.015	87.81
365.241	88.81
365.468	96.81
365.694	75.81
365.92	75.81
366.147	84.81
366.373	70.81
366.599	80.81
366.826	88.81
367.052	95.81
367.278	77.81
367.505	75.81
367.731	97.81
367.957	83.81
368.184	89.81
368.41	87.81
368.636	94.81
368.862	76.81
369.089	69.81
369.315	79.81
369.541	80.81
369.767	92.81
369.993	77.81
370.219	93.81
370.445	92.81
370.672	103.81
370.898	94.81
371.124	80.81
371.35	73.81
371.576	79.81
371.802	90.81
372.028	86.81
372.254	101.81
372.48	90.81
372.706	97.81
372.932	86.81
373.158	92.81
373.384	100.81
373.61	124.81
373.835	116.81
374.061	102.81
374.287	92.81
374.513	104.81
374.739	109.81
374.965	105.81
375.191	98.81
375.416	97.81
375.642	94.81
375.868	95.81
376.094	92.81
376.319	81.81
376.545	88.81
376.771	74.81
376.997	88.81
377.222	72.81
377.448	86.81
377.674	92.81
377.899	88.81
378.125	83.81
378.35	76.81
378.576	84.81
378.802	78.81
379.027	77.81
379.253	80.81
379.478	74.81
379.704	72.81
379.929	83.81
380.155	89.81
380.38	83.81
380.606	84.81
380.831	90.81
381.057	97.81
381.282	88.81
381.507	90.81
381.733	92.81
381.958	93.81
382.184	102.81
382.409	105.81
382.634	113.81
382.86	93.81
383.085	92.81
383.31	100.81
383.535	109.81
383.761	86.81
383.986	88.81
384.211	92.81
384.436	103.81
384.662	85.81
384.887	84.81
385.112	94.81
385.337	91.81
385.562	96.81
385.787	103.81
386.013	106.81
386.238	101.81
386.463	83.81
386.688	94.81
386.913	95.81
387.138	108.81
387.363	103.81
387.588	96.81
387.813	97.81
388.038	111.81
388.263	90.81
388.488	93.81
388.713	90.81
388.938	80.81
389.163	94.81
389.387	68.81
389.612	81.81
389.837	96.81
390.062	76.81
390.287	86.81
390.512	85.81
390.736	88.81
390.961	94.81
391.186	82.81
391.411	81.81
391.636	82.81
391.86	102.81
392.085	105.81
392.31	101.81
392.534	124.81
392.759	138.81
392.984	228.81
393.208	452.81
393.433	705.81
393.658	506.81
393.882	190.81
394.107	140.81
394.331	124.81
394.556	146.81
394.78	119.81
395.005	114.81
395.229	97.81
395.454	100.81
395.678	101.81
395.903	137.81
396.127	174.81
396.352	224.81
396.576	273.81
396.801	450.81
397.025	535.81
397.249	276.81
397.474	141.81
397.698	108.81
397.922	90.81
398.147	102.81
398.371	98.81
398.595	92.81
398.82	83.81
399.044	100.81
399.268	87.81
399.492	93.81
399.717	92.81
399.941	89.81
400.165	96.81
400.389	86.81
400.613	73.81
400.837	74.81
401.062	81.81
401.286	85.81
401.51	89.81
401.734	82.81
401.958	80.81
402.182	78.81
402.406	78.81
402.63	74.81
402.854	95.81
403.078	89.81
403.302	97.81
403.526	76.81
403.75	85.81
403.974	89.81
404.198	97.81
404.422	144.81
404.645	154.81
404.869	125.81
405.093	96.81
405.317	89.81
405.541	76.81
405.765	88.81
405.988	81.81
406.212	86.81
406.436	60.81
406.66	93.81
406.883	70.81
407.107	103.81
407.331	95.81
407.555	102.81
407.778	126.81
408.002	132.81
408.226	93.81
408.449	92.81
408.673	97.81
408.896	72.81
409.12	84.81
409.344	88.81
409.567	91.81
409.791	96.81
410.014	99.81
410.238	98.81
410.461	85.81
410.685	94.81
410.908	64.81
411.132	92.81
411.355	89.81
411.578	82.81
411.802	81.81
412.025	83.81
412.249	76.81
412.472	85.81
412.695	86.81
412.919	82.81
413.142	82.81
413.365	98.81
413.589	83.81
413.812	80.81
414.035	76.81
414.258	77.81
414.482	88.81
414.705	88.81
414.928	84.81
415.151	89.81
415.374	87.81
415.597	89.81
415.821	94.81
416.044	94.81
416.267	84.81
416.49	95.81
416.713	93.81
416.936	85.81
417.159	94.81
417.382	72.81
417.605	80.81
417.828	70.81
418.051	88.81
418.274	67.81
418.497	75.81
418.72	75.81
418.943	81.81
419.166	87.81
419.389	87.81
419.611	99.81
419.834	76.81
420.057	74.81
420.28	70.81
420.503	80.81
420.726	98.81
420.948	108.81
421.171	92.81
421.394	116.81
421.617	149.81
421.839	128.81
422.062	119.81
422.285	183.81
422.507	350.81
422.73	626.81
422.953	541.81
423.175	231.81
423.398	119.81
423.621	100.81
423.843	101.81
424.066	84.81
424.288	89.81
424.511	84.81
424.733	88.81
424.956	76.81
425.178	82.81
425.401	89.81
425.623	78.81
425.846	78.81
426.068	77.81
426.291	92.81
426.513	90.81
426.735	87.81
426.958	88.81
427.18	75.81
427.402	94.81
427.625	102.81
427.847	85.81
428.069	104.81
428.292	166.81
428.514	190.81
428.736	134.81
428.958	160.81
429.181	173.81
429.403	108.81
429.625	87.81
429.847	149.81
430.069	208.81
430.292	245.81
430.514	236.81
430.736	176.81
430.958	186.81
431.18	103.81
431.402	99.81
431.624	120.81
431.846	143.81
432.068	180.81
432.29	116.81
432.512	83.81
432.734	95.81
432.956	72.81
433.178	74.81
433.4	84.81
433.622	85.81
433.844	96.81
434.066	80.81
434.287	80.81
434.509	92.81
434.731	93.81
434.953	65.81
435.175	85.81
435.397	84.81
435.618	88.81
435.84	98.81
436.062	90.81
436.284	88.81
436.505	77.81
436.727	83.81
436.949	73.81
437.17	84.81
437.392	97.81
437.614	87.81
437.835	89.81
438.057	89.81
438.278	88.81
438.5	84.81
438.721	103.81
438.943	84.81
439.165	82.81
439.386	83.81
439.608	76.81
439.829	96.81
440.05	80.81
440.272	103.81
440.493	90.81
440.715	81.81
440.936	78.81
441.158	74.81
441.379	72.81
441.6	85.81
441.822	75.81
442.043	75.81
442.264	90.81
442.486	153.81
442.707	209.81
442.928	137.81
443.149	122.81
443.371	194.81
443.592	324.81
443.813	274.81
444.034	133.81
444.255	102.81
444.476	100.81
444.698	83.81
444.919	94.81
445.14	204.81
445.361	254.81
445.582	391.81
445.803	340.81
446.024	138.81
446.245	88.81
446.466	80.81
446.687	79.81
446.908	78.81
447.129	87.81
447.35	83.81
447.571	78.81
447.792	83.81
448.013	90.81
448.234	85.81
448.455	74.81
448.675	79.81
448.896	60.81
449.117	85.81
449.338	74.81
449.559	90.81
449.779	78.81
450	75.81
450.221	99.81
450.442	73.81
450.662	96.81
450.883	71.81
451.104	90.81
451.324	75.81
451.545	72.81
451.766	82.81
451.986	85.81
452.207	88.81
452.428	68.81
452.648	100.81
452.869	93.81
453.089	94.81
453.31	79.81
453.53	73.81
453.751	85.81
453.971	92.81
454.192	75.81
454.412	74.81
454.633	90.81
454.853	72.81
455.073	88.81
455.294	75.81
455.514	88.81
455.734	86.81
455.955	83.81
456.175	92.81
456.395	81.81
456.616	66.81
456.836	94.81
457.056	82.81
457.276	78.81
457.497	85.81
457.717	88.81
457.937	116.81
458.157	116.81
458.377	129.81
458.598	117.81
458.818	130.81
459.038	97.81
459.258	80.81
459.478	80.81
459.698	84.81
459.918	94.81
460.138	92.81
460.358	85.81
460.578	103.81
460.798	135.81
461.018	125.81
461.238	94.81
461.458	81.81
461.678	92.81
461.898	84.81
462.118	96.81
462.338	85.81
462.558	89.81
462.777	80.81
462.997	79.81
463.217	66.81
463.437	69.81
463.657	58.81
463.876	90.81
464.096	79.81
464.316	68.81
464.536	76.81
464.755	82.81
464.975	76.81
465.195	78.81
465.414	85.81
465.634	87.81
465.854	83.81
466.073	80.81
466.293	80.81
466.512	86.81
466.732	88.81
466.951	84.81
467.171	62.81
467.391	95.81
467.61	90.81
467.829	83.81
468.049	78.81
468.268	84.81
468.488	89.81
468.707	100.81
468.927	76.81
469.146	76.81
469.365	82.81
469.585	71.81
469.804	75.81
470.023	85.81
470.243	84.81
470.462	86.81
470.681	74.81
470.901	81.81
471.12	82.81
471.339	78.81
471.558	73.81
471.777	76.81
471.997	78.81
472.216	89.81
472.435	78.81
472.654	80.81
472.873	70.81
473.092	104.81
473.311	96.81
473.53	80.81
473.749	80.81
473.968	87.81
474.187	88.81
474.406	69.81
474.625	84.81
474.844	91.81
475.063	62.81
475.282	79.81
475.501	70.81
475.72	93.81
475.939	90.81
476.158	75.81
476.377	78.81
476.596	85.81
476.814	84.81
477.033	85.81
477.252	103.81
477.471	81.81
477.69	80.81
477.908	79.81
478.127	96.81
478.346	82.81
478.564	82.81
478.783	78.81
479.002	72.81
479.22	82.81
479.439	89.81
479.658	84.81
479.876	90.81
480.095	74.81
480.313	81.81
480.532	84.81
480.751	92.81
480.969	84.81
481.188	100.81
481.406	85.81
481.624	89.81
481.843	84.81
482.061	71.81
482.28	90.81
482.498	83.81
482.717	93.81
482.935	93.81
483.153	89.81
483.372	87.81
483.59	79.81
483.808	86.81
484.027	85.81
484.245	92.81
484.463	83.81
484.681	77.81
484.9	93.81
485.118	92.81
485.336	78.81
485.554	76.81
485.772	81.81
485.99	84.81
486.209	92.81
486.427	77.81
486.645	89.81
486.863	83.81
487.081	81.81
487.299	82.81
487.517	88.81
487.735	112.81
487.953	169.81
488.171	140.81
488.389	93.81
488.607	95.81
488.825	71.81
489.043	80.81
489.261	87.81
489.479	97.81
489.696	96.81
489.914	89.81
490.132	86.81
490.35	101.81
490.568	88.81
490.786	83.81
491.003	85.81
491.221	70.81
491.439	94.81
491.657	74.81
491.874	96.81
492.092	84.81
492.31	105.81
492.527	84.81
492.745	86.81
492.963	93.81
493.18	70.81
493.398	81.81
493.615	94.81
493.833	76.81
494.05	89.81
494.268	85.81
494.485	90.81
494.703	84.81
494.92	84.81
495.138	85.81
495.355	90.81
495.573	94.81
495.79	81.81
496.008	104.81
496.225	78.81
496.442	77.81
496.66	92.81
496.877	83.81
497.094	89.81
497.312	85.81
497.529	90.81
497.746	90.81
497.963	98.81
498.181	107.81
498.398	108.81
498.615	92.81
498.832	98.81
499.049	85.81
499.267	92.81
499.484	93.81
499.701	86.81
499.918	92.81
500.135	109.81
500.352	73.81
500.569	86.81
500.786	86.81
501.003	106.81
501.22	91.81
501.437	97.81
501.654	97.81
501.871	82.81
502.088	85.81
502.305	83.81
502.522	77.81
502.739	72.81
502.956	62.81
503.172	80.81
503.389	86.81
503.606	84.81
503.823	95.81
504.04	82.81
504.256	128.81
504.473	147.81
504.69	110.81
504.907	95.81
505.123	77.81
505.34	92.81
505.557	78.81
505.773	93.81
505.99	94.81
506.207	84.81
506.423	80.81
506.64	87.81
506.856	90.81
507.073	95.81
507.289	92.81
507.506	90.81
507.722	88.81
507.939	79.81
508.155	84.81
508.372	82.81
508.588	78.81
508.805	75.81
509.021	80.81
509.238	92.81
509.454	73.81
509.67	73.81
509.887	85.81
510.103	83.81
510.319	90.81
510.536	90.81
510.752	100.81
510.968	92.81
511.184	79.81
511.401	79.81
511.617	77.81
511.833	93.81
512.049	83.81
512.265	87.81
512.481	77.81
512.698	90.81
512.914	74.81
513.13	81.81
513.346	87.81
513.562	93.81
513.778	94.81
513.994	84.81
514.21	77.81
514.426	91.81
514.642	93.81
514.858	103.81
515.074	81.81
515.29	72.81
515.506	98.81
515.721	80.81
515.937	92.81
516.153	88.81
516.369	80.81
516.585	100.81
516.801	95.81
517.016	89.81
517.232	81.81
517.448	101.81
517.664	90.81
517.879	95.81
518.095	98.81
