Data from 15780_3_HRD10591_00040.txt Node
Date: Mon Jan 19 14:20:18 EST 2026
User: Yrep
Spectrometer: HR+D1059
Trigger mode: 1
Integration Time (sec): 1.000000E-1
Scans to average: 1
Electric dark correction enabled: true
Nonlinearity correction enabled: false
Boxcar width: 0
XAxis mode: Wavelengths
Number of Pixels in Spectrum: 2048
>>>>>Begin Spectral Data<<<<<
223.165	-16.12
223.4	-16.12
223.635	-16.12
223.869	-13.12
224.104	-19.12
224.338	-20.12
224.573	-13.12
224.808	-24.12
225.042	-1.12
225.277	-17.12
225.511	6.88
225.746	-4.12
225.98	0.88
226.215	19.88
226.449	14.88
226.683	31.88
226.918	23.88
227.152	29.88
227.387	39.88
227.621	39.88
227.856	46.88
228.09	42.88
228.324	54.88
228.559	54.88
228.793	48.88
229.027	51.88
229.262	59.88
229.496	60.88
229.73	83.88
229.964	75.88
230.199	68.88
230.433	72.88
230.667	84.88
230.901	64.88
231.136	89.88
231.37	73.88
231.604	75.88
231.838	73.88
232.072	81.88
232.306	85.88
232.541	73.88
232.775	70.88
233.009	90.88
233.243	79.88
233.477	71.88
233.711	77.88
233.945	64.88
234.179	75.88
234.413	79.88
234.647	75.88
234.881	79.88
235.115	85.88
235.349	69.88
235.583	72.88
235.817	72.88
236.051	90.88
236.285	90.88
236.519	72.88
236.753	72.88
236.987	82.88
237.221	70.88
237.455	84.88
237.689	69.88
237.922	73.88
238.156	68.88
238.39	62.88
238.624	76.88
238.858	69.88
239.091	59.88
239.325	81.88
239.559	74.88
239.793	81.88
240.027	77.88
240.26	81.88
240.494	78.88
240.728	78.88
240.961	65.88
241.195	91.88
241.429	81.88
241.662	80.88
241.896	60.88
242.13	64.88
242.363	81.88
242.597	73.88
242.83	87.88
243.064	71.88
243.298	55.88
243.531	76.88
243.765	70.88
243.998	63.88
244.232	81.88
244.465	63.88
244.699	75.88
244.932	73.88
245.166	72.88
245.399	85.88
245.633	75.88
245.866	78.88
246.099	73.88
246.333	73.88
246.566	78.88
246.8	60.88
247.033	75.88
247.266	72.88
247.5	75.88
247.733	67.88
247.966	73.88
248.2	67.88
248.433	80.88
248.666	68.88
248.899	77.88
249.133	70.88
249.366	84.88
249.599	70.88
249.832	78.88
250.066	85.88
250.299	80.88
250.532	68.88
250.765	87.88
250.998	69.88
251.231	77.88
251.465	75.88
251.698	76.88
251.931	77.88
252.164	84.88
252.397	75.88
252.63	88.88
252.863	84.88
253.096	81.88
253.329	79.88
253.562	85.88
253.795	88.88
254.028	85.88
254.261	79.88
254.494	89.88
254.727	83.88
254.96	76.88
255.193	66.88
255.426	90.88
255.659	72.88
255.892	81.88
256.124	85.88
256.357	78.88
256.59	78.88
256.823	88.88
257.056	75.88
257.289	84.88
257.521	71.88
257.754	71.88
257.987	76.88
258.22	87.88
258.452	80.88
258.685	84.88
258.918	88.88
259.151	75.88
259.383	92.88
259.616	75.88
259.849	76.88
260.081	73.88
260.314	79.88
260.547	83.88
260.779	71.88
261.012	83.88
261.244	76.88
261.477	65.88
261.71	85.88
261.942	79.88
262.175	83.88
262.407	85.88
262.64	65.88
262.872	77.88
263.105	77.88
263.337	73.88
263.57	68.88
263.802	77.88
264.035	85.88
264.267	92.88
264.499	81.88
264.732	91.88
264.964	87.88
265.197	79.88
265.429	80.88
265.661	69.88
265.894	73.88
266.126	76.88
266.358	77.88
266.591	81.88
266.823	77.88
267.055	92.88
267.287	86.88
267.52	67.88
267.752	73.88
267.984	70.88
268.216	77.88
268.448	85.88
268.681	75.88
268.913	79.88
269.145	83.88
269.377	81.88
269.609	98.88
269.841	79.88
270.073	98.88
270.306	77.88
270.538	86.88
270.77	92.88
271.002	76.88
271.234	83.88
271.466	79.88
271.698	78.88
271.93	82.88
272.162	76.88
272.394	87.88
272.626	85.88
272.858	95.88
273.09	83.88
273.322	75.88
273.553	85.88
273.785	83.88
274.017	88.88
274.249	85.88
274.481	96.88
274.713	87.88
274.945	69.88
275.176	63.88
275.408	96.88
275.64	84.88
275.872	83.88
276.104	88.88
276.335	83.88
276.567	73.88
276.799	78.88
277.031	81.88
277.262	61.88
277.494	85.88
277.726	79.88
277.957	85.88
278.189	96.88
278.421	92.88
278.652	76.88
278.884	78.88
279.115	90.88
279.347	86.88
279.579	78.88
279.81	89.88
280.042	81.88
280.273	90.88
280.505	89.88
280.736	83.88
280.968	85.88
281.199	95.88
281.431	95.88
281.662	84.88
281.894	88.88
282.125	94.88
282.356	91.88
282.588	82.88
282.819	83.88
283.051	84.88
283.282	95.88
283.513	73.88
283.745	91.88
283.976	76.88
284.207	73.88
284.439	87.88
284.67	74.88
284.901	89.88
285.132	79.88
285.364	80.88
285.595	77.88
285.826	93.88
286.057	92.88
286.288	86.88
286.52	83.88
286.751	88.88
286.982	85.88
287.213	82.88
287.444	86.88
287.675	84.88
287.906	90.88
288.138	88.88
288.369	93.88
288.6	84.88
288.831	77.88
289.062	99.88
289.293	89.88
289.524	71.88
289.755	79.88
289.986	80.88
290.217	87.88
290.448	92.88
290.679	90.88
290.91	108.88
291.141	90.88
291.371	85.88
291.602	92.88
291.833	71.88
292.064	81.88
292.295	76.88
292.526	85.88
292.757	75.88
292.987	75.88
293.218	83.88
293.449	88.88
293.68	84.88
293.91	76.88
294.141	92.88
294.372	81.88
294.603	82.88
294.833	76.88
295.064	87.88
295.295	87.88
295.525	72.88
295.756	85.88
295.987	80.88
296.217	63.88
296.448	85.88
296.679	84.88
296.909	78.88
297.14	87.88
297.37	79.88
297.601	74.88
297.831	71.88
298.062	87.88
298.292	88.88
298.523	80.88
298.753	83.88
298.984	82.88
299.214	93.88
299.445	73.88
299.675	72.88
299.905	96.88
300.136	85.88
300.366	76.88
300.597	105.88
300.827	95.88
301.057	78.88
301.288	82.88
301.518	85.88
301.748	85.88
301.979	81.88
302.209	83.88
302.439	91.88
302.669	93.88
302.9	86.88
303.13	89.88
303.36	72.88
303.59	81.88
303.82	98.88
304.051	80.88
304.281	100.88
304.511	91.88
304.741	98.88
304.971	74.88
305.201	78.88
305.431	75.88
305.661	98.88
305.891	90.88
306.121	74.88
306.352	89.88
306.582	83.88
306.812	80.88
307.042	92.88
307.272	78.88
307.502	89.88
307.731	82.88
307.961	90.88
308.191	82.88
308.421	86.88
308.651	98.88
308.881	79.88
309.111	96.88
309.341	83.88
309.571	84.88
309.8	80.88
310.03	82.88
310.26	71.88
310.49	77.88
310.72	84.88
310.949	87.88
311.179	77.88
311.409	82.88
311.639	87.88
311.868	78.88
312.098	75.88
312.328	99.88
312.557	81.88
312.787	71.88
313.017	82.88
313.246	79.88
313.476	80.88
313.706	74.88
313.935	83.88
314.165	72.88
314.394	93.88
314.624	83.88
314.853	95.88
315.083	73.88
315.312	98.88
315.542	84.88
315.771	87.88
316.001	100.88
316.23	83.88
316.46	81.88
316.689	95.88
316.919	101.88
317.148	77.88
317.377	85.88
317.607	75.88
317.836	87.88
318.065	89.88
318.295	90.88
318.524	100.88
318.753	95.88
318.983	79.88
319.212	106.88
319.441	87.88
319.67	90.88
319.9	80.88
320.129	85.88
320.358	74.88
320.587	76.88
320.816	73.88
321.046	96.88
321.275	91.88
321.504	95.88
321.733	71.88
321.962	100.88
322.191	91.88
322.42	80.88
322.649	86.88
322.878	93.88
323.108	90.88
323.337	87.88
323.566	79.88
323.795	74.88
324.024	94.88
324.253	88.88
324.482	84.88
324.71	64.88
324.939	81.88
325.168	82.88
325.397	75.88
325.626	76.88
325.855	80.88
326.084	72.88
326.313	86.88
326.542	75.88
326.77	77.88
326.999	77.88
327.228	68.88
327.457	93.88
327.686	92.88
327.914	89.88
328.143	77.88
328.372	89.88
328.6	105.88
328.829	80.88
329.058	83.88
329.287	85.88
329.515	98.88
329.744	85.88
329.972	77.88
330.201	84.88
330.43	84.88
330.658	92.88
330.887	88.88
331.115	89.88
331.344	92.88
331.572	83.88
331.801	91.88
332.03	72.88
332.258	75.88
332.486	91.88
332.715	74.88
332.943	81.88
333.172	101.88
333.4	83.88
333.629	75.88
333.857	79.88
334.085	103.88
334.314	88.88
334.542	97.88
334.771	80.88
334.999	103.88
335.227	95.88
335.455	93.88
335.684	89.88
335.912	101.88
336.14	91.88
336.369	84.88
336.597	91.88
336.825	74.88
337.053	102.88
337.281	74.88
337.51	108.88
337.738	86.88
337.966	87.88
338.194	92.88
338.422	83.88
338.65	87.88
338.878	91.88
339.106	86.88
339.334	87.88
339.562	86.88
339.79	87.88
340.018	97.88
340.246	83.88
340.474	85.88
340.702	90.88
340.93	84.88
341.158	80.88
341.386	91.88
341.614	73.88
341.842	73.88
342.07	78.88
342.298	82.88
342.526	97.88
342.754	87.88
342.981	83.88
343.209	83.88
343.437	95.88
343.665	82.88
343.893	101.88
344.12	86.88
344.348	85.88
344.576	93.88
344.804	93.88
345.031	83.88
345.259	80.88
345.487	83.88
345.714	88.88
345.942	81.88
346.17	77.88
346.397	87.88
346.625	88.88
346.853	75.88
347.08	82.88
347.308	85.88
347.535	78.88
347.763	82.88
347.99	83.88
348.218	94.88
348.445	84.88
348.673	87.88
348.9	81.88
349.128	90.88
349.355	92.88
349.583	92.88
349.81	63.88
350.037	77.88
350.265	79.88
350.492	90.88
350.72	86.88
350.947	82.88
351.174	86.88
351.402	83.88
351.629	80.88
351.856	74.88
352.083	72.88
352.311	96.88
352.538	87.88
352.765	83.88
352.992	76.88
353.22	91.88
353.447	87.88
353.674	78.88
353.901	78.88
354.128	92.88
354.355	91.88
354.583	89.88
354.81	80.88
355.037	88.88
355.264	79.88
355.491	92.88
355.718	99.88
355.945	92.88
356.172	84.88
356.399	81.88
356.626	81.88
356.853	96.88
357.08	92.88
357.307	91.88
357.534	86.88
357.761	91.88
357.988	93.88
358.215	89.88
358.441	89.88
358.668	91.88
358.895	89.88
359.122	101.88
359.349	84.88
359.576	88.88
359.802	80.88
360.029	87.88
360.256	69.88
360.483	87.88
360.709	89.88
360.936	90.88
361.163	85.88
361.39	86.88
361.616	85.88
361.843	84.88
362.07	86.88
362.296	95.88
362.523	90.88
362.749	84.88
362.976	103.88
363.203	93.88
363.429	97.88
363.656	81.88
363.882	85.88
364.109	89.88
364.335	94.88
364.562	109.88
364.788	99.88
365.015	99.88
365.241	92.88
365.468	90.88
365.694	88.88
365.92	93.88
366.147	77.88
366.373	83.88
366.599	82.88
366.826	83.88
367.052	91.88
367.278	83.88
367.505	81.88
367.731	88.88
367.957	74.88
368.184	74.88
368.41	88.88
368.636	72.88
368.862	92.88
369.089	79.88
369.315	75.88
369.541	74.88
369.767	87.88
369.993	78.88
370.219	89.88
370.445	77.88
370.672	76.88
370.898	90.88
371.124	85.88
371.35	98.88
371.576	77.88
371.802	86.88
372.028	99.88
372.254	90.88
372.48	94.88
372.706	78.88
372.932	88.88
373.158	90.88
373.384	103.88
373.61	97.88
373.835	99.88
374.061	99.88
374.287	83.88
374.513	88.88
374.739	99.88
374.965	81.88
375.191	90.88
375.416	80.88
375.642	98.88
375.868	105.88
376.094	87.88
376.319	89.88
376.545	77.88
376.771	83.88
376.997	101.88
377.222	83.88
377.448	81.88
377.674	78.88
377.899	80.88
378.125	75.88
378.35	90.88
378.576	76.88
378.802	72.88
379.027	89.88
379.253	76.88
379.478	58.88
379.704	85.88
379.929	82.88
380.155	89.88
380.38	79.88
380.606	87.88
380.831	71.88
381.057	88.88
381.282	85.88
381.507	80.88
381.733	95.88
381.958	94.88
382.184	85.88
382.409	99.88
382.634	93.88
382.86	74.88
383.085	103.88
383.31	83.88
383.535	98.88
383.761	82.88
383.986	95.88
384.211	96.88
384.436	111.88
384.662	95.88
384.887	72.88
385.112	93.88
385.337	81.88
385.562	90.88
385.787	80.88
386.013	89.88
386.238	84.88
386.463	104.88
386.688	85.88
386.913	92.88
387.138	85.88
387.363	90.88
387.588	75.88
387.813	93.88
388.038	87.88
388.263	97.88
388.488	84.88
388.713	83.88
388.938	80.88
389.163	91.88
389.387	78.88
389.612	87.88
389.837	90.88
390.062	87.88
390.287	87.88
390.512	106.88
390.736	87.88
390.961	89.88
391.186	77.88
391.411	91.88
391.636	84.88
391.86	79.88
392.085	95.88
392.31	84.88
392.534	86.88
392.759	88.88
392.984	152.88
393.208	252.88
393.433	345.88
393.658	271.88
393.882	127.88
394.107	96.88
394.331	114.88
394.556	115.88
394.78	106.88
395.005	88.88
395.229	77.88
395.454	84.88
395.678	77.88
395.903	97.88
396.127	125.88
396.352	141.88
396.576	163.88
396.801	251.88
397.025	287.88
397.249	141.88
397.474	99.88
397.698	83.88
397.922	88.88
398.147	89.88
398.371	84.88
398.595	103.88
398.82	98.88
399.044	83.88
399.268	83.88
399.492	67.88
399.717	96.88
399.941	87.88
400.165	79.88
400.389	97.88
400.613	77.88
400.837	79.88
401.062	88.88
401.286	89.88
401.51	77.88
401.734	77.88
401.958	88.88
402.182	75.88
402.406	87.88
402.63	93.88
402.854	79.88
403.078	91.88
403.302	86.88
403.526	80.88
403.75	101.88
403.974	67.88
404.198	94.88
404.422	122.88
404.645	138.88
404.869	111.88
405.093	85.88
405.317	87.88
405.541	90.88
405.765	80.88
405.988	98.88
406.212	91.88
406.436	86.88
406.66	88.88
406.883	89.88
407.107	69.88
407.331	79.88
407.555	87.88
407.778	93.88
408.002	106.88
408.226	73.88
408.449	82.88
408.673	91.88
408.896	75.88
409.12	98.88
409.344	86.88
409.567	84.88
409.791	72.88
410.014	85.88
410.238	77.88
410.461	77.88
410.685	85.88
410.908	92.88
411.132	100.88
411.355	90.88
411.578	69.88
411.802	80.88
412.025	87.88
412.249	82.88
412.472	76.88
412.695	87.88
412.919	78.88
413.142	88.88
413.365	81.88
413.589	82.88
413.812	91.88
414.035	82.88
414.258	59.88
414.482	78.88
414.705	80.88
414.928	86.88
415.151	83.88
415.374	80.88
415.597	92.88
415.821	77.88
416.044	73.88
416.267	90.88
416.49	88.88
416.713	88.88
416.936	83.88
417.159	87.88
417.382	80.88
417.605	68.88
417.828	84.88
418.051	82.88
418.274	90.88
418.497	83.88
418.72	91.88
418.943	86.88
419.166	93.88
419.389	76.88
419.611	75.88
419.834	83.88
420.057	82.88
420.28	83.88
420.503	83.88
420.726	77.88
420.948	78.88
421.171	83.88
421.394	104.88
421.617	113.88
421.839	104.88
422.062	95.88
422.285	156.88
422.507	255.88
422.73	385.88
422.953	345.88
423.175	148.88
423.398	105.88
423.621	101.88
423.843	95.88
424.066	87.88
424.288	99.88
424.511	80.88
424.733	80.88
424.956	82.88
425.178	99.88
425.401	84.88
425.623	84.88
425.846	90.88
426.068	90.88
426.291	88.88
426.513	73.88
426.735	81.88
426.958	84.88
427.18	95.88
427.402	94.88
427.625	83.88
427.847	93.88
428.069	85.88
428.292	109.88
428.514	127.88
428.736	106.88
428.958	105.88
429.181	105.88
429.403	98.88
429.625	82.88
429.847	98.88
430.069	123.88
430.292	177.88
430.514	143.88
430.736	114.88
430.958	131.88
431.18	88.88
431.402	80.88
431.624	89.88
431.846	125.88
432.068	117.88
432.29	87.88
432.512	80.88
432.734	83.88
432.956	92.88
433.178	89.88
433.4	86.88
433.622	82.88
433.844	87.88
434.066	96.88
434.287	72.88
434.509	88.88
434.731	81.88
434.953	68.88
435.175	65.88
435.397	82.88
435.618	80.88
435.84	83.88
436.062	90.88
436.284	90.88
436.505	92.88
436.727	85.88
436.949	83.88
437.17	84.88
437.392	83.88
437.614	73.88
437.835	83.88
438.057	78.88
438.278	76.88
438.5	84.88
438.721	83.88
438.943	83.88
439.165	93.88
439.386	78.88
439.608	76.88
439.829	64.88
440.05	85.88
440.272	84.88
440.493	102.88
440.715	81.88
440.936	85.88
441.158	79.88
441.379	94.88
441.6	85.88
441.822	83.88
442.043	104.88
442.264	93.88
442.486	101.88
442.707	130.88
442.928	119.88
443.149	89.88
443.371	120.88
443.592	208.88
443.813	180.88
444.034	96.88
444.255	91.88
444.476	81.88
444.698	80.88
444.919	84.88
445.14	169.88
445.361	186.88
445.582	235.88
445.803	195.88
446.024	98.88
446.245	89.88
446.466	81.88
446.687	69.88
446.908	71.88
447.129	89.88
447.35	91.88
447.571	80.88
447.792	86.88
448.013	78.88
448.234	77.88
448.455	69.88
448.675	85.88
448.896	84.88
449.117	89.88
449.338	91.88
449.559	87.88
449.779	81.88
450	87.88
450.221	89.88
450.442	76.88
450.662	91.88
450.883	75.88
451.104	89.88
451.324	73.88
451.545	85.88
451.766	83.88
451.986	76.88
452.207	81.88
452.428	71.88
452.648	87.88
452.869	78.88
453.089	87.88
453.31	91.88
453.53	95.88
453.751	77.88
453.971	76.88
454.192	86.88
454.412	75.88
454.633	83.88
454.853	86.88
455.073	88.88
455.294	83.88
455.514	85.88
455.734	88.88
455.955	86.88
456.175	82.88
456.395	63.88
456.616	81.88
456.836	72.88
457.056	63.88
457.276	87.88
457.497	81.88
457.717	83.88
457.937	84.88
458.157	90.88
458.377	93.88
458.598	91.88
458.818	90.88
459.038	88.88
459.258	97.88
459.478	87.88
459.698	76.88
459.918	77.88
460.138	83.88
460.358	93.88
460.578	87.88
460.798	101.88
461.018	105.88
461.238	83.88
461.458	99.88
461.678	76.88
461.898	97.88
462.118	100.88
462.338	87.88
462.558	81.88
462.777	71.88
462.997	85.88
463.217	83.88
463.437	77.88
463.657	90.88
463.876	107.88
464.096	87.88
464.316	82.88
464.536	82.88
464.755	75.88
464.975	70.88
465.195	90.88
465.414	77.88
465.634	93.88
465.854	83.88
466.073	82.88
466.293	85.88
466.512	85.88
466.732	82.88
466.951	78.88
467.171	89.88
467.391	97.88
467.61	85.88
467.829	85.88
468.049	88.88
468.268	117.88
468.488	79.88
468.707	83.88
468.927	94.88
469.146	82.88
469.365	77.88
469.585	86.88
469.804	78.88
470.023	82.88
470.243	84.88
470.462	78.88
470.681	77.88
470.901	82.88
471.12	79.88
471.339	91.88
471.558	108.88
471.777	75.88
471.997	65.88
472.216	75.88
472.435	77.88
472.654	73.88
472.873	91.88
473.092	82.88
473.311	83.88
473.53	78.88
473.749	97.88
473.968	93.88
474.187	70.88
474.406	93.88
474.625	78.88
474.844	101.88
475.063	84.88
475.282	88.88
475.501	66.88
475.72	78.88
475.939	91.88
476.158	89.88
476.377	106.88
476.596	67.88
476.814	71.88
477.033	89.88
477.252	76.88
477.471	91.88
477.69	97.88
477.908	89.88
478.127	67.88
478.346	99.88
478.564	80.88
478.783	78.88
479.002	90.88
479.22	78.88
479.439	95.88
479.658	78.88
479.876	79.88
480.095	87.88
480.313	78.88
480.532	71.88
480.751	84.88
480.969	83.88
481.188	84.88
481.406	89.88
481.624	80.88
481.843	86.88
482.061	92.88
482.28	89.88
482.498	71.88
482.717	78.88
482.935	91.88
483.153	107.88
483.372	90.88
483.59	78.88
483.808	73.88
484.027	84.88
484.245	95.88
484.463	89.88
484.681	85.88
484.9	85.88
485.118	85.88
485.336	79.88
485.554	81.88
485.772	91.88
485.99	99.88
486.209	86.88
486.427	67.88
486.645	74.88
486.863	89.88
487.081	82.88
487.299	95.88
487.517	88.88
487.735	96.88
487.953	127.88
488.171	102.88
488.389	89.88
488.607	88.88
488.825	96.88
489.043	77.88
489.261	90.88
489.479	74.88
489.696	77.88
489.914	85.88
490.132	87.88
490.35	84.88
490.568	77.88
490.786	87.88
491.003	103.88
491.221	86.88
491.439	95.88
491.657	93.88
491.874	83.88
492.092	77.88
492.31	83.88
492.527	101.88
492.745	84.88
492.963	90.88
493.18	95.88
493.398	84.88
493.615	99.88
493.833	93.88
494.05	74.88
494.268	71.88
494.485	90.88
494.703	74.88
494.92	83.88
495.138	88.88
495.355	89.88
495.573	90.88
495.79	85.88
496.008	84.88
496.225	91.88
496.442	86.88
496.66	90.88
496.877	64.88
497.094	85.88
497.312	90.88
497.529	93.88
497.746	83.88
497.963	66.88
498.181	84.88
498.398	91.88
498.615	99.88
498.832	86.88
499.049	104.88
499.267	84.88
499.484	88.88
499.701	84.88
499.918	93.88
500.135	95.88
500.352	84.88
500.569	91.88
500.786	89.88
501.003	86.88
501.22	99.88
501.437	87.88
501.654	91.88
501.871	88.88
502.088	87.88
502.305	76.88
502.522	79.88
502.739	85.88
502.956	98.88
503.172	73.88
503.389	85.88
503.606	76.88
503.823	90.88
504.04	86.88
504.256	100.88
504.473	106.88
504.69	88.88
504.907	85.88
505.123	79.88
505.34	92.88
505.557	82.88
505.773	92.88
505.99	80.88
506.207	78.88
506.423	86.88
506.64	96.88
506.856	86.88
507.073	94.88
507.289	95.88
507.506	80.88
507.722	97.88
507.939	85.88
508.155	77.88
508.372	71.88
508.588	87.88
508.805	83.88
509.021	84.88
509.238	89.88
509.454	87.88
509.67	77.88
509.887	73.88
510.103	88.88
510.319	96.88
510.536	88.88
510.752	87.88
510.968	84.88
511.184	76.88
511.401	86.88
511.617	83.88
511.833	79.88
512.049	78.88
512.265	80.88
512.481	86.88
512.698	76.88
512.914	76.88
513.13	65.88
513.346	77.88
513.562	79.88
513.778	77.88
513.994	94.88
514.21	78.88
514.426	85.88
514.642	90.88
514.858	79.88
515.074	95.88
515.29	89.88
515.506	73.88
515.721	91.88
515.937	77.88
516.153	90.88
516.369	85.88
516.585	70.88
516.801	85.88
517.016	75.88
517.232	85.88
517.448	86.88
517.664	91.88
517.879	90.88
518.095	86.88
518.311	91.88
518.527	100.88
518.742	98.88
518.958	107.88
