Data from 15780_3_HRD10591_00021.txt Node
Date: Mon Jan 19 14:20:08 EST 2026
User: Yrep
Spectrometer: HR+D1059
Trigger mode: 1
Integration Time (sec): 1.000000E-1
Scans to average: 1
Electric dark correction enabled: true
Nonlinearity correction enabled: false
Boxcar width: 0
XAxis mode: Wavelengths
Number of Pixels in Spectrum: 2048
>>>>>Begin Spectral Data<<<<<
223.165	-16.69
223.4	-16.69
223.635	-16.69
223.869	-24.69
224.104	-5.69
224.338	-11.69
224.573	-33.69
224.808	-11.69
225.042	-12.69
225.277	-1.69
225.511	16.31
225.746	3.31
225.98	7.31
226.215	7.31
226.449	9.31
226.683	16.31
226.918	35.31
227.152	23.31
227.387	30.31
227.621	52.31
227.856	62.31
228.09	44.31
228.324	61.31
228.559	66.31
228.793	70.31
229.027	67.31
229.262	71.31
229.496	72.31
229.73	64.31
229.964	64.31
230.199	84.31
230.433	62.31
230.667	77.31
230.901	79.31
231.136	93.31
231.37	72.31
231.604	68.31
231.838	77.31
232.072	79.31
232.306	87.31
232.541	82.31
232.775	104.31
233.009	86.31
233.243	87.31
233.477	74.31
233.711	89.31
233.945	84.31
234.179	77.31
234.413	86.31
234.647	89.31
234.881	76.31
235.115	77.31
235.349	86.31
235.583	86.31
235.817	67.31
236.051	66.31
236.285	73.31
236.519	68.31
236.753	86.31
236.987	83.31
237.221	80.31
237.455	75.31
237.689	75.31
237.922	76.31
238.156	70.31
238.39	77.31
238.624	58.31
238.858	86.31
239.091	87.31
239.325	82.31
239.559	100.31
239.793	86.31
240.027	83.31
240.26	92.31
240.494	95.31
240.728	74.31
240.961	71.31
241.195	80.31
241.429	80.31
241.662	83.31
241.896	74.31
242.13	76.31
242.363	80.31
242.597	90.31
242.83	68.31
243.064	85.31
243.298	79.31
243.531	81.31
243.765	86.31
243.998	81.31
244.232	69.31
244.465	85.31
244.699	75.31
244.932	74.31
245.166	78.31
245.399	76.31
245.633	83.31
245.866	86.31
246.099	82.31
246.333	70.31
246.566	87.31
246.8	77.31
247.033	86.31
247.266	79.31
247.5	80.31
247.733	81.31
247.966	85.31
248.2	96.31
248.433	87.31
248.666	75.31
248.899	78.31
249.133	81.31
249.366	82.31
249.599	75.31
249.832	72.31
250.066	96.31
250.299	79.31
250.532	77.31
250.765	65.31
250.998	64.31
251.231	74.31
251.465	91.31
251.698	75.31
251.931	98.31
252.164	78.31
252.397	77.31
252.63	70.31
252.863	86.31
253.096	69.31
253.329	75.31
253.562	74.31
253.795	80.31
254.028	93.31
254.261	85.31
254.494	83.31
254.727	92.31
254.96	91.31
255.193	99.31
255.426	96.31
255.659	84.31
255.892	78.31
256.124	90.31
256.357	86.31
256.59	79.31
256.823	79.31
257.056	91.31
257.289	81.31
257.521	78.31
257.754	75.31
257.987	78.31
258.22	76.31
258.452	82.31
258.685	79.31
258.918	89.31
259.151	87.31
259.383	67.31
259.616	79.31
259.849	88.31
260.081	81.31
260.314	77.31
260.547	77.31
260.779	97.31
261.012	77.31
261.244	84.31
261.477	94.31
261.71	83.31
261.942	86.31
262.175	86.31
262.407	75.31
262.64	72.31
262.872	83.31
263.105	83.31
263.337	85.31
263.57	86.31
263.802	68.31
264.035	95.31
264.267	90.31
264.499	85.31
264.732	81.31
264.964	82.31
265.197	76.31
265.429	94.31
265.661	98.31
265.894	86.31
266.126	90.31
266.358	71.31
266.591	87.31
266.823	94.31
267.055	90.31
267.287	80.31
267.52	84.31
267.752	94.31
267.984	89.31
268.216	89.31
268.448	88.31
268.681	87.31
268.913	88.31
269.145	78.31
269.377	68.31
269.609	80.31
269.841	94.31
270.073	77.31
270.306	79.31
270.538	61.31
270.77	76.31
271.002	87.31
271.234	87.31
271.466	96.31
271.698	83.31
271.93	79.31
272.162	86.31
272.394	91.31
272.626	76.31
272.858	78.31
273.09	92.31
273.322	78.31
273.553	84.31
273.785	92.31
274.017	92.31
274.249	78.31
274.481	83.31
274.713	83.31
274.945	87.31
275.176	84.31
275.408	84.31
275.64	102.31
275.872	99.31
276.104	85.31
276.335	80.31
276.567	84.31
276.799	74.31
277.031	84.31
277.262	84.31
277.494	98.31
277.726	94.31
277.957	92.31
278.189	83.31
278.421	86.31
278.652	81.31
278.884	92.31
279.115	90.31
279.347	79.31
279.579	96.31
279.81	87.31
280.042	95.31
280.273	94.31
280.505	89.31
280.736	87.31
280.968	79.31
281.199	69.31
281.431	83.31
281.662	84.31
281.894	85.31
282.125	94.31
282.356	87.31
282.588	89.31
282.819	94.31
283.051	81.31
283.282	94.31
283.513	98.31
283.745	78.31
283.976	96.31
284.207	81.31
284.439	94.31
284.67	86.31
284.901	88.31
285.132	94.31
285.364	102.31
285.595	100.31
285.826	91.31
286.057	94.31
286.288	98.31
286.52	85.31
286.751	80.31
286.982	90.31
287.213	78.31
287.444	94.31
287.675	81.31
287.906	96.31
288.138	92.31
288.369	88.31
288.6	87.31
288.831	88.31
289.062	85.31
289.293	99.31
289.524	90.31
289.755	83.31
289.986	87.31
290.217	88.31
290.448	94.31
290.679	99.31
290.91	102.31
291.141	87.31
291.371	80.31
291.602	83.31
291.833	93.31
292.064	86.31
292.295	86.31
292.526	101.31
292.757	93.31
292.987	81.31
293.218	92.31
293.449	83.31
293.68	87.31
293.91	99.31
294.141	98.31
294.372	100.31
294.603	70.31
294.833	98.31
295.064	79.31
295.295	105.31
295.525	83.31
295.756	77.31
295.987	82.31
296.217	98.31
296.448	99.31
296.679	88.31
296.909	100.31
297.14	102.31
297.37	98.31
297.601	83.31
297.831	98.31
298.062	74.31
298.292	91.31
298.523	101.31
298.753	90.31
298.984	92.31
299.214	86.31
299.445	86.31
299.675	93.31
299.905	90.31
300.136	96.31
300.366	87.31
300.597	95.31
300.827	95.31
301.057	90.31
301.288	97.31
301.518	95.31
301.748	82.31
301.979	114.31
302.209	85.31
302.439	101.31
302.669	83.31
302.9	86.31
303.13	82.31
303.36	88.31
303.59	87.31
303.82	112.31
304.051	93.31
304.281	88.31
304.511	107.31
304.741	82.31
304.971	109.31
305.201	92.31
305.431	98.31
305.661	98.31
305.891	87.31
306.121	92.31
306.352	100.31
306.582	105.31
306.812	79.31
307.042	80.31
307.272	82.31
307.502	79.31
307.731	98.31
307.961	95.31
308.191	102.31
308.421	93.31
308.651	93.31
308.881	94.31
309.111	104.31
309.341	105.31
309.571	109.31
309.8	102.31
310.03	76.31
310.26	98.31
310.49	86.31
310.72	91.31
310.949	74.31
311.179	88.31
311.409	87.31
311.639	82.31
311.868	81.31
312.098	90.31
312.328	76.31
312.557	99.31
312.787	92.31
313.017	86.31
313.246	81.31
313.476	91.31
313.706	91.31
313.935	104.31
314.165	91.31
314.394	79.31
314.624	82.31
314.853	100.31
315.083	86.31
315.312	85.31
315.542	95.31
315.771	112.31
316.001	110.31
316.23	110.31
316.46	89.31
316.689	94.31
316.919	105.31
317.148	96.31
317.377	89.31
317.607	95.31
317.836	113.31
318.065	112.31
318.295	121.31
318.524	80.31
318.753	80.31
318.983	92.31
319.212	90.31
319.441	92.31
319.67	84.31
319.9	86.31
320.129	87.31
320.358	98.31
320.587	90.31
320.816	85.31
321.046	91.31
321.275	89.31
321.504	80.31
321.733	104.31
321.962	91.31
322.191	99.31
322.42	98.31
322.649	99.31
322.878	99.31
323.108	90.31
323.337	87.31
323.566	99.31
323.795	87.31
324.024	84.31
324.253	90.31
324.482	80.31
324.71	88.31
324.939	93.31
325.168	99.31
325.397	70.31
325.626	80.31
325.855	87.31
326.084	90.31
326.313	89.31
326.542	80.31
326.77	104.31
326.999	98.31
327.228	92.31
327.457	98.31
327.686	88.31
327.914	70.31
328.143	85.31
328.372	65.31
328.6	107.31
328.829	98.31
329.058	87.31
329.287	88.31
329.515	83.31
329.744	92.31
329.972	75.31
330.201	96.31
330.43	95.31
330.658	105.31
330.887	87.31
331.115	90.31
331.344	95.31
331.572	100.31
331.801	83.31
332.03	84.31
332.258	77.31
332.486	88.31
332.715	79.31
332.943	91.31
333.172	85.31
333.4	93.31
333.629	93.31
333.857	105.31
334.085	89.31
334.314	94.31
334.542	91.31
334.771	94.31
334.999	101.31
335.227	96.31
335.455	92.31
335.684	100.31
335.912	102.31
336.14	106.31
336.369	118.31
336.597	108.31
336.825	92.31
337.053	104.31
337.281	104.31
337.51	96.31
337.738	86.31
337.966	93.31
338.194	76.31
338.422	94.31
338.65	99.31
338.878	102.31
339.106	92.31
339.334	108.31
339.562	100.31
339.79	87.31
340.018	92.31
340.246	88.31
340.474	89.31
340.702	95.31
340.93	101.31
341.158	88.31
341.386	99.31
341.614	91.31
341.842	80.31
342.07	86.31
342.298	91.31
342.526	85.31
342.754	88.31
342.981	84.31
343.209	99.31
343.437	116.31
343.665	101.31
343.893	102.31
344.12	95.31
344.348	90.31
344.576	93.31
344.804	92.31
345.031	86.31
345.259	104.31
345.487	78.31
345.714	95.31
345.942	77.31
346.17	75.31
346.397	98.31
346.625	96.31
346.853	88.31
347.08	84.31
347.308	95.31
347.535	92.31
347.763	90.31
347.99	92.31
348.218	80.31
348.445	90.31
348.673	93.31
348.9	99.31
349.128	102.31
349.355	106.31
349.583	101.31
349.81	103.31
350.037	84.31
350.265	93.31
350.492	79.31
350.72	93.31
350.947	88.31
351.174	101.31
351.402	95.31
351.629	96.31
351.856	88.31
352.083	85.31
352.311	87.31
352.538	86.31
352.765	89.31
352.992	96.31
353.22	89.31
353.447	100.31
353.674	98.31
353.901	92.31
354.128	91.31
354.355	101.31
354.583	93.31
354.81	78.31
355.037	106.31
355.264	95.31
355.491	99.31
355.718	105.31
355.945	106.31
356.172	96.31
356.399	92.31
356.626	80.31
356.853	122.31
357.08	101.31
357.307	93.31
357.534	85.31
357.761	105.31
357.988	94.31
358.215	109.31
358.441	111.31
358.668	104.31
358.895	87.31
359.122	96.31
359.349	90.31
359.576	92.31
359.802	93.31
360.029	90.31
360.256	98.31
360.483	101.31
360.709	90.31
360.936	99.31
361.163	114.31
361.39	90.31
361.616	102.31
361.843	102.31
362.07	108.31
362.296	120.31
362.523	109.31
362.749	110.31
362.976	119.31
363.203	166.31
363.429	107.31
363.656	116.31
363.882	108.31
364.109	135.31
364.335	134.31
364.562	156.31
364.788	134.31
365.015	113.31
365.241	90.31
365.468	107.31
365.694	93.31
365.92	81.31
366.147	85.31
366.373	94.31
366.599	94.31
366.826	96.31
367.052	90.31
367.278	98.31
367.505	96.31
367.731	112.31
367.957	87.31
368.184	89.31
368.41	98.31
368.636	89.31
368.862	90.31
369.089	92.31
369.315	93.31
369.541	76.31
369.767	92.31
369.993	90.31
370.219	85.31
370.445	101.31
370.672	106.31
370.898	100.31
371.124	115.31
371.35	98.31
371.576	82.31
371.802	101.31
372.028	106.31
372.254	109.31
372.48	92.31
372.706	100.31
372.932	100.31
373.158	100.31
373.384	125.31
373.61	136.31
373.835	141.31
374.061	111.31
374.287	125.31
374.513	118.31
374.739	123.31
374.965	135.31
375.191	119.31
375.416	110.31
375.642	100.31
375.868	118.31
376.094	98.31
376.319	97.31
376.545	115.31
376.771	118.31
376.997	103.31
377.222	90.31
377.448	103.31
377.674	105.31
377.899	92.31
378.125	101.31
378.35	109.31
378.576	109.31
378.802	91.31
379.027	83.31
379.253	91.31
379.478	89.31
379.704	92.31
379.929	108.31
380.155	90.31
380.38	110.31
380.606	95.31
380.831	93.31
381.057	96.31
381.282	100.31
381.507	95.31
381.733	122.31
381.958	123.31
382.184	120.31
382.409	123.31
382.634	121.31
382.86	119.31
383.085	120.31
383.31	125.31
383.535	112.31
383.761	110.31
383.986	129.31
384.211	119.31
384.436	90.31
384.662	106.31
384.887	105.31
385.112	107.31
385.337	104.31
385.562	109.31
385.787	108.31
386.013	130.31
386.238	124.31
386.463	108.31
386.688	139.31
386.913	116.31
387.138	127.31
387.363	103.31
387.588	114.31
387.813	114.31
388.038	118.31
388.263	127.31
388.488	124.31
388.713	110.31
388.938	101.31
389.163	81.31
389.387	99.31
389.612	90.31
389.837	111.31
390.062	107.31
390.287	107.31
390.512	102.31
390.736	110.31
390.961	94.31
391.186	94.31
391.411	96.31
391.636	87.31
391.86	107.31
392.085	103.31
392.31	111.31
392.534	119.31
392.759	150.31
392.984	232.31
393.208	406.31
393.433	615.31
393.658	453.31
393.882	198.31
394.107	138.31
394.331	150.31
394.556	183.31
394.78	132.31
395.005	120.31
395.229	120.31
395.454	115.31
395.678	107.31
395.903	164.31
396.127	179.31
396.352	214.31
396.576	256.31
396.801	416.31
397.025	476.31
397.249	259.31
397.474	163.31
397.698	105.31
397.922	103.31
398.147	98.31
398.371	88.31
398.595	91.31
398.82	89.31
399.044	101.31
399.268	110.31
399.492	102.31
399.717	98.31
399.941	112.31
400.165	88.31
400.389	86.31
400.613	104.31
400.837	91.31
401.062	94.31
401.286	85.31
401.51	102.31
401.734	99.31
401.958	96.31
402.182	86.31
402.406	91.31
402.63	87.31
402.854	109.31
403.078	103.31
403.302	103.31
403.526	104.31
403.75	94.31
403.974	92.31
404.198	101.31
404.422	116.31
404.645	117.31
404.869	108.31
405.093	98.31
405.317	88.31
405.541	103.31
405.765	80.31
405.988	86.31
406.212	100.31
406.436	103.31
406.66	86.31
406.883	72.31
407.107	99.31
407.331	104.31
407.555	122.31
407.778	134.31
408.002	136.31
408.226	112.31
408.449	84.31
408.673	107.31
408.896	91.31
409.12	110.31
409.344	99.31
409.567	107.31
409.791	104.31
410.014	123.31
410.238	113.31
410.461	113.31
410.685	92.31
410.908	90.31
411.132	99.31
411.355	103.31
411.578	89.31
411.802	98.31
412.025	92.31
412.249	87.31
412.472	81.31
412.695	95.31
412.919	84.31
413.142	94.31
413.365	100.31
413.589	96.31
413.812	90.31
414.035	93.31
414.258	78.31
414.482	91.31
414.705	88.31
414.928	99.31
415.151	91.31
415.374	98.31
415.597	89.31
415.821	92.31
416.044	88.31
416.267	87.31
416.49	92.31
416.713	82.31
416.936	87.31
417.159	70.31
417.382	84.31
417.605	86.31
417.828	93.31
418.051	96.31
418.274	80.31
418.497	77.31
418.72	93.31
418.943	94.31
419.166	99.31
419.389	104.31
419.611	95.31
419.834	87.31
420.057	90.31
420.28	97.31
420.503	103.31
420.726	102.31
420.948	109.31
421.171	109.31
421.394	129.31
421.617	164.31
421.839	146.31
422.062	146.31
422.285	206.31
422.507	370.31
422.73	562.31
422.953	522.31
423.175	252.31
423.398	159.31
423.621	122.31
423.843	115.31
424.066	108.31
424.288	95.31
424.511	112.31
424.733	108.31
424.956	103.31
425.178	99.31
425.401	98.31
425.623	90.31
425.846	102.31
426.068	93.31
426.291	102.31
426.513	98.31
426.735	101.31
426.958	101.31
427.18	111.31
427.402	124.31
427.625	91.31
427.847	95.31
428.069	111.31
428.292	160.31
428.514	183.31
428.736	134.31
428.958	146.31
429.181	152.31
429.403	102.31
429.625	118.31
429.847	153.31
430.069	207.31
430.292	235.31
430.514	206.31
430.736	169.31
430.958	173.31
431.18	118.31
431.402	90.31
431.624	99.31
431.846	140.31
432.068	159.31
432.29	119.31
432.512	116.31
432.734	109.31
432.956	110.31
433.178	93.31
433.4	94.31
433.622	83.31
433.844	84.31
434.066	93.31
434.287	91.31
434.509	81.31
434.731	88.31
434.953	78.31
435.175	99.31
435.397	110.31
435.618	105.31
435.84	112.31
436.062	109.31
436.284	93.31
436.505	93.31
436.727	87.31
436.949	81.31
437.17	84.31
437.392	99.31
437.614	86.31
437.835	99.31
438.057	106.31
438.278	89.31
438.5	111.31
438.721	102.31
438.943	91.31
439.165	92.31
439.386	84.31
439.608	89.31
439.829	77.31
440.05	91.31
440.272	86.31
440.493	95.31
440.715	92.31
440.936	99.31
441.158	91.31
441.379	96.31
441.6	101.31
441.822	99.31
442.043	99.31
442.264	112.31
442.486	165.31
442.707	201.31
442.928	143.31
443.149	132.31
443.371	196.31
443.592	319.31
443.813	286.31
444.034	130.31
444.255	90.31
444.476	108.31
444.698	94.31
444.919	101.31
445.14	193.31
445.361	237.31
445.582	383.31
445.803	336.31
446.024	132.31
446.245	98.31
446.466	92.31
446.687	89.31
446.908	97.31
447.129	92.31
447.35	99.31
447.571	87.31
447.792	91.31
448.013	87.31
448.234	94.31
448.455	90.31
448.675	82.31
448.896	83.31
449.117	93.31
449.338	87.31
449.559	104.31
449.779	91.31
450	88.31
450.221	79.31
450.442	95.31
450.662	95.31
450.883	98.31
451.104	107.31
451.324	88.31
451.545	104.31
451.766	91.31
451.986	90.31
452.207	109.31
452.428	82.31
452.648	103.31
452.869	126.31
453.089	106.31
453.31	92.31
453.53	121.31
453.751	109.31
453.971	78.31
454.192	94.31
454.412	85.31
454.633	88.31
454.853	88.31
455.073	87.31
455.294	79.31
455.514	99.31
455.734	87.31
455.955	90.31
456.175	92.31
456.395	89.31
456.616	87.31
456.836	84.31
457.056	92.31
457.276	87.31
457.497	105.31
457.717	102.31
457.937	122.31
458.157	146.31
458.377	141.31
458.598	133.31
458.818	164.31
459.038	103.31
459.258	96.31
459.478	80.31
459.698	96.31
459.918	87.31
460.138	86.31
460.358	96.31
460.578	110.31
460.798	163.31
461.018	143.31
461.238	90.31
461.458	85.31
461.678	82.31
461.898	84.31
462.118	103.31
462.338	91.31
462.558	83.31
462.777	80.31
462.997	94.31
463.217	92.31
463.437	96.31
463.657	84.31
463.876	71.31
464.096	77.31
464.316	78.31
464.536	79.31
464.755	90.31
464.975	88.31
465.195	84.31
465.414	98.31
465.634	110.31
465.854	91.31
466.073	87.31
466.293	98.31
466.512	88.31
466.732	83.31
466.951	95.31
467.171	94.31
467.391	78.31
467.61	102.31
467.829	95.31
468.049	97.31
468.268	86.31
468.488	110.31
468.707	107.31
468.927	88.31
469.146	90.31
469.365	92.31
469.585	83.31
469.804	98.31
470.023	81.31
470.243	86.31
470.462	102.31
470.681	93.31
470.901	96.31
471.12	82.31
471.339	94.31
471.558	92.31
471.777	89.31
471.997	98.31
472.216	80.31
472.435	106.31
472.654	99.31
472.873	103.31
473.092	93.31
473.311	88.31
473.53	91.31
473.749	97.31
473.968	99.31
474.187	98.31
474.406	87.31
474.625	91.31
474.844	71.31
475.063	89.31
475.282	104.31
475.501	94.31
475.72	98.31
475.939	90.31
476.158	87.31
476.377	87.31
476.596	87.31
476.814	85.31
477.033	94.31
477.252	84.31
477.471	105.31
477.69	90.31
477.908	93.31
478.127	109.31
478.346	96.31
478.564	90.31
478.783	71.31
479.002	84.31
479.22	88.31
479.439	93.31
479.658	104.31
479.876	93.31
480.095	85.31
480.313	104.31
480.532	96.31
480.751	99.31
480.969	94.31
481.188	88.31
481.406	90.31
481.624	106.31
481.843	98.31
482.061	88.31
482.28	88.31
482.498	95.31
482.717	96.31
482.935	98.31
483.153	98.31
483.372	107.31
483.59	92.31
483.808	107.31
484.027	103.31
484.245	94.31
484.463	106.31
484.681	115.31
484.9	109.31
485.118	106.31
485.336	99.31
485.554	96.31
485.772	88.31
485.99	87.31
486.209	98.31
486.427	93.31
486.645	86.31
486.863	101.31
487.081	96.31
487.299	115.31
487.517	122.31
487.735	143.31
487.953	226.31
488.171	194.31
488.389	113.31
488.607	108.31
488.825	84.31
489.043	94.31
489.261	95.31
489.479	110.31
489.696	96.31
489.914	99.31
490.132	110.31
490.35	86.31
490.568	112.31
490.786	93.31
491.003	98.31
491.221	111.31
491.439	84.31
491.657	102.31
491.874	89.31
492.092	118.31
492.31	109.31
492.527	101.31
492.745	109.31
492.963	99.31
493.18	98.31
493.398	100.31
493.615	97.31
493.833	102.31
494.05	88.31
494.268	92.31
494.485	89.31
494.703	85.31
494.92	88.31
495.138	84.31
495.355	91.31
495.573	114.31
495.79	94.31
496.008	111.31
496.225	93.31
496.442	103.31
496.66	106.31
496.877	84.31
497.094	84.31
497.312	87.31
497.529	98.31
497.746	94.31
497.963	102.31
498.181	119.31
498.398	140.31
498.615	117.31
498.832	86.31
499.049	94.31
499.267	125.31
499.484	89.31
499.701	92.31
499.918	105.31
500.135	114.31
500.352	98.31
500.569	108.31
500.786	102.31
501.003	102.31
501.22	104.31
501.437	108.31
501.654	97.31
501.871	89.31
502.088	101.31
502.305	96.31
502.522	105.31
502.739	88.31
502.956	112.31
503.172	105.31
503.389	107.31
503.606	101.31
503.823	107.31
504.04	124.31
504.256	177.31
504.473	164.31
504.69	109.31
504.907	107.31
505.123	77.31
505.34	99.31
505.557	104.31
505.773	87.31
505.99	95.31
506.207	97.31
506.423	116.31
506.64	102.31
506.856	102.31
507.073	93.31
507.289	71.31
507.506	101.31
507.722	89.31
507.939	91.31
508.155	102.31
508.372	108.31
508.588	98.31
508.805	83.31
509.021	107.31
509.238	95.31
509.454	96.31
509.67	91.31
509.887	102.31
510.103	84.31
510.319	95.31
510.536	103.31
510.752	102.31
510.968	76.31
511.184	99.31
511.401	105.31
511.617	115.31
511.833	98.31
512.049	90.31
512.265	95.31
512.481	105.31
512.698	101.31
512.914	84.31
513.13	95.31
513.346	92.31
513.562	101.31
513.778	82.31
513.994	86.31
514.21	86.31
514.426	103.31
514.642	102.31
