Data from 15780_3_HRD10591_00027.txt Node
Date: Mon Jan 19 14:20:11 EST 2026
User: Yrep
Spectrometer: HR+D1059
Trigger mode: 1
Integration Time (sec): 1.000000E-1
Scans to average: 1
Electric dark correction enabled: true
Nonlinearity correction enabled: false
Boxcar width: 0
XAxis mode: Wavelengths
Number of Pixels in Spectrum: 2048
>>>>>Begin Spectral Data<<<<<
223.165	-14.44
223.4	-14.44
223.635	-14.44
223.869	-18.44
224.104	-25.44
224.338	-11.44
224.573	-11.44
224.808	1.56
225.042	1.56
225.277	-0.44
225.511	-6.44
225.746	1.56
225.98	0.56
226.215	6.56
226.449	16.56
226.683	1.56
226.918	29.56
227.152	28.56
227.387	34.56
227.621	36.56
227.856	33.56
228.09	51.56
228.324	51.56
228.559	62.56
228.793	61.56
229.027	60.56
229.262	71.56
229.496	73.56
229.73	70.56
229.964	78.56
230.199	83.56
230.433	81.56
230.667	81.56
230.901	77.56
231.136	79.56
231.37	78.56
231.604	78.56
231.838	82.56
232.072	69.56
232.306	76.56
232.541	72.56
232.775	87.56
233.009	82.56
233.243	71.56
233.477	83.56
233.711	71.56
233.945	84.56
234.179	62.56
234.413	70.56
234.647	75.56
234.881	76.56
235.115	81.56
235.349	75.56
235.583	90.56
235.817	76.56
236.051	77.56
236.285	81.56
236.519	70.56
236.753	80.56
236.987	82.56
237.221	66.56
237.455	83.56
237.689	87.56
237.922	67.56
238.156	94.56
238.39	66.56
238.624	78.56
238.858	78.56
239.091	76.56
239.325	79.56
239.559	79.56
239.793	71.56
240.027	85.56
240.26	69.56
240.494	76.56
240.728	69.56
240.961	74.56
241.195	95.56
241.429	77.56
241.662	82.56
241.896	75.56
242.13	89.56
242.363	76.56
242.597	82.56
242.83	68.56
243.064	66.56
243.298	83.56
243.531	82.56
243.765	78.56
243.998	80.56
244.232	84.56
244.465	87.56
244.699	81.56
244.932	74.56
245.166	70.56
245.399	80.56
245.633	78.56
245.866	79.56
246.099	74.56
246.333	98.56
246.566	77.56
246.8	72.56
247.033	84.56
247.266	75.56
247.5	82.56
247.733	77.56
247.966	70.56
248.2	83.56
248.433	77.56
248.666	90.56
248.899	85.56
249.133	75.56
249.366	76.56
249.599	77.56
249.832	86.56
250.066	87.56
250.299	78.56
250.532	76.56
250.765	81.56
250.998	81.56
251.231	77.56
251.465	93.56
251.698	76.56
251.931	70.56
252.164	73.56
252.397	73.56
252.63	76.56
252.863	65.56
253.096	79.56
253.329	86.56
253.562	69.56
253.795	80.56
254.028	88.56
254.261	89.56
254.494	84.56
254.727	81.56
254.96	83.56
255.193	86.56
255.426	88.56
255.659	64.56
255.892	76.56
256.124	70.56
256.357	93.56
256.59	83.56
256.823	79.56
257.056	91.56
257.289	79.56
257.521	85.56
257.754	85.56
257.987	92.56
258.22	77.56
258.452	75.56
258.685	78.56
258.918	78.56
259.151	89.56
259.383	94.56
259.616	80.56
259.849	67.56
260.081	77.56
260.314	85.56
260.547	95.56
260.779	94.56
261.012	92.56
261.244	86.56
261.477	94.56
261.71	71.56
261.942	84.56
262.175	85.56
262.407	73.56
262.64	82.56
262.872	76.56
263.105	69.56
263.337	88.56
263.57	99.56
263.802	82.56
264.035	79.56
264.267	72.56
264.499	89.56
264.732	100.56
264.964	85.56
265.197	81.56
265.429	99.56
265.661	68.56
265.894	72.56
266.126	81.56
266.358	78.56
266.591	84.56
266.823	84.56
267.055	76.56
267.287	80.56
267.52	90.56
267.752	91.56
267.984	85.56
268.216	70.56
268.448	89.56
268.681	82.56
268.913	98.56
269.145	78.56
269.377	85.56
269.609	84.56
269.841	92.56
270.073	71.56
270.306	73.56
270.538	77.56
270.77	64.56
271.002	75.56
271.234	92.56
271.466	84.56
271.698	85.56
271.93	92.56
272.162	82.56
272.394	84.56
272.626	66.56
272.858	80.56
273.09	70.56
273.322	94.56
273.553	72.56
273.785	84.56
274.017	81.56
274.249	91.56
274.481	89.56
274.713	84.56
274.945	80.56
275.176	82.56
275.408	87.56
275.64	86.56
275.872	78.56
276.104	97.56
276.335	84.56
276.567	87.56
276.799	75.56
277.031	75.56
277.262	98.56
277.494	95.56
277.726	80.56
277.957	90.56
278.189	81.56
278.421	88.56
278.652	80.56
278.884	95.56
279.115	87.56
279.347	78.56
279.579	86.56
279.81	89.56
280.042	76.56
280.273	88.56
280.505	85.56
280.736	76.56
280.968	94.56
281.199	75.56
281.431	80.56
281.662	82.56
281.894	64.56
282.125	81.56
282.356	96.56
282.588	84.56
282.819	83.56
283.051	79.56
283.282	78.56
283.513	84.56
283.745	92.56
283.976	75.56
284.207	85.56
284.439	76.56
284.67	93.56
284.901	98.56
285.132	90.56
285.364	73.56
285.595	89.56
285.826	89.56
286.057	84.56
286.288	64.56
286.52	87.56
286.751	93.56
286.982	81.56
287.213	84.56
287.444	83.56
287.675	88.56
287.906	75.56
288.138	65.56
288.369	98.56
288.6	95.56
288.831	89.56
289.062	93.56
289.293	83.56
289.524	97.56
289.755	89.56
289.986	86.56
290.217	88.56
290.448	87.56
290.679	77.56
290.91	92.56
291.141	84.56
291.371	92.56
291.602	87.56
291.833	84.56
292.064	93.56
292.295	84.56
292.526	85.56
292.757	76.56
292.987	78.56
293.218	91.56
293.449	82.56
293.68	88.56
293.91	89.56
294.141	85.56
294.372	92.56
294.603	96.56
294.833	82.56
295.064	84.56
295.295	86.56
295.525	82.56
295.756	91.56
295.987	78.56
296.217	79.56
296.448	77.56
296.679	101.56
296.909	95.56
297.14	86.56
297.37	86.56
297.601	81.56
297.831	66.56
298.062	93.56
298.292	98.56
298.523	82.56
298.753	89.56
298.984	93.56
299.214	84.56
299.445	95.56
299.675	97.56
299.905	78.56
300.136	77.56
300.366	73.56
300.597	84.56
300.827	86.56
301.057	89.56
301.288	77.56
301.518	87.56
301.748	84.56
301.979	93.56
302.209	86.56
302.439	89.56
302.669	93.56
302.9	78.56
303.13	96.56
303.36	82.56
303.59	92.56
303.82	85.56
304.051	78.56
304.281	96.56
304.511	86.56
304.741	92.56
304.971	101.56
305.201	79.56
305.431	78.56
305.661	87.56
305.891	89.56
306.121	103.56
306.352	82.56
306.582	83.56
306.812	99.56
307.042	85.56
307.272	94.56
307.502	97.56
307.731	77.56
307.961	81.56
308.191	89.56
308.421	101.56
308.651	88.56
308.881	91.56
309.111	91.56
309.341	99.56
309.571	89.56
309.8	83.56
310.03	93.56
310.26	81.56
310.49	89.56
310.72	88.56
310.949	83.56
311.179	92.56
311.409	82.56
311.639	81.56
311.868	78.56
312.098	71.56
312.328	87.56
312.557	84.56
312.787	86.56
313.017	92.56
313.246	84.56
313.476	83.56
313.706	94.56
313.935	84.56
314.165	90.56
314.394	74.56
314.624	78.56
314.853	79.56
315.083	72.56
315.312	88.56
315.542	86.56
315.771	89.56
316.001	84.56
316.23	88.56
316.46	94.56
316.689	91.56
316.919	93.56
317.148	78.56
317.377	81.56
317.607	100.56
317.836	88.56
318.065	94.56
318.295	85.56
318.524	85.56
318.753	77.56
318.983	70.56
319.212	95.56
319.441	97.56
319.67	93.56
319.9	97.56
320.129	96.56
320.358	88.56
320.587	87.56
320.816	85.56
321.046	83.56
321.275	84.56
321.504	82.56
321.733	78.56
321.962	99.56
322.191	92.56
322.42	93.56
322.649	87.56
322.878	88.56
323.108	84.56
323.337	89.56
323.566	63.56
323.795	76.56
324.024	92.56
324.253	98.56
324.482	92.56
324.71	72.56
324.939	75.56
325.168	68.56
325.397	83.56
325.626	83.56
325.855	79.56
326.084	86.56
326.313	105.56
326.542	86.56
326.77	91.56
326.999	78.56
327.228	98.56
327.457	78.56
327.686	87.56
327.914	74.56
328.143	83.56
328.372	86.56
328.6	85.56
328.829	95.56
329.058	95.56
329.287	82.56
329.515	96.56
329.744	84.56
329.972	91.56
330.201	93.56
330.43	90.56
330.658	91.56
330.887	87.56
331.115	84.56
331.344	97.56
331.572	82.56
331.801	81.56
332.03	96.56
332.258	82.56
332.486	87.56
332.715	85.56
332.943	88.56
333.172	86.56
333.4	91.56
333.629	88.56
333.857	81.56
334.085	76.56
334.314	86.56
334.542	82.56
334.771	89.56
334.999	108.56
335.227	92.56
335.455	89.56
335.684	90.56
335.912	85.56
336.14	89.56
336.369	97.56
336.597	85.56
336.825	89.56
337.053	73.56
337.281	88.56
337.51	88.56
337.738	99.56
337.966	69.56
338.194	99.56
338.422	96.56
338.65	96.56
338.878	87.56
339.106	74.56
339.334	78.56
339.562	85.56
339.79	78.56
340.018	72.56
340.246	83.56
340.474	94.56
340.702	79.56
340.93	85.56
341.158	77.56
341.386	78.56
341.614	77.56
341.842	79.56
342.07	90.56
342.298	86.56
342.526	85.56
342.754	84.56
342.981	78.56
343.209	98.56
343.437	100.56
343.665	85.56
343.893	90.56
344.12	98.56
344.348	79.56
344.576	82.56
344.804	90.56
345.031	90.56
345.259	74.56
345.487	97.56
345.714	82.56
345.942	88.56
346.17	81.56
346.397	88.56
346.625	91.56
346.853	84.56
347.08	96.56
347.308	77.56
347.535	87.56
347.763	98.56
347.99	81.56
348.218	80.56
348.445	82.56
348.673	92.56
348.9	90.56
349.128	96.56
349.355	89.56
349.583	86.56
349.81	92.56
350.037	75.56
350.265	87.56
350.492	98.56
350.72	84.56
350.947	76.56
351.174	89.56
351.402	70.56
351.629	86.56
351.856	89.56
352.083	71.56
352.311	70.56
352.538	86.56
352.765	93.56
352.992	98.56
353.22	100.56
353.447	90.56
353.674	96.56
353.901	82.56
354.128	87.56
354.355	74.56
354.583	88.56
354.81	86.56
355.037	89.56
355.264	84.56
355.491	76.56
355.718	81.56
355.945	84.56
356.172	72.56
356.399	78.56
356.626	78.56
356.853	96.56
357.08	84.56
357.307	94.56
357.534	89.56
357.761	83.56
357.988	99.56
358.215	88.56
358.441	85.56
358.668	80.56
358.895	78.56
359.122	87.56
359.349	91.56
359.576	90.56
359.802	82.56
360.029	101.56
360.256	78.56
360.483	76.56
360.709	90.56
360.936	86.56
361.163	87.56
361.39	74.56
361.616	91.56
361.843	96.56
362.07	91.56
362.296	93.56
362.523	94.56
362.749	88.56
362.976	88.56
363.203	99.56
363.429	99.56
363.656	90.56
363.882	77.56
364.109	92.56
364.335	87.56
364.562	93.56
364.788	93.56
365.015	79.56
365.241	88.56
365.468	91.56
365.694	96.56
365.92	89.56
366.147	85.56
366.373	75.56
366.599	88.56
366.826	85.56
367.052	73.56
367.278	84.56
367.505	82.56
367.731	98.56
367.957	90.56
368.184	91.56
368.41	87.56
368.636	86.56
368.862	66.56
369.089	78.56
369.315	83.56
369.541	79.56
369.767	74.56
369.993	82.56
370.219	89.56
370.445	84.56
370.672	88.56
370.898	79.56
371.124	84.56
371.35	95.56
371.576	95.56
371.802	81.56
372.028	98.56
372.254	89.56
372.48	84.56
372.706	81.56
372.932	78.56
373.158	79.56
373.384	86.56
373.61	100.56
373.835	92.56
374.061	103.56
374.287	85.56
374.513	93.56
374.739	96.56
374.965	84.56
375.191	76.56
375.416	93.56
375.642	90.56
375.868	77.56
376.094	80.56
376.319	78.56
376.545	102.56
376.771	87.56
376.997	96.56
377.222	69.56
377.448	78.56
377.674	82.56
377.899	86.56
378.125	87.56
378.35	92.56
378.576	87.56
378.802	76.56
379.027	75.56
379.253	90.56
379.478	88.56
379.704	101.56
379.929	88.56
380.155	78.56
380.38	84.56
380.606	80.56
380.831	79.56
381.057	97.56
381.282	84.56
381.507	86.56
381.733	102.56
381.958	93.56
382.184	110.56
382.409	103.56
382.634	86.56
382.86	104.56
383.085	88.56
383.31	89.56
383.535	91.56
383.761	94.56
383.986	88.56
384.211	116.56
384.436	74.56
384.662	78.56
384.887	82.56
385.112	93.56
385.337	94.56
385.562	95.56
385.787	91.56
386.013	86.56
386.238	85.56
386.463	80.56
386.688	103.56
386.913	97.56
387.138	98.56
387.363	76.56
387.588	70.56
387.813	79.56
388.038	96.56
388.263	87.56
388.488	91.56
388.713	105.56
388.938	88.56
389.163	83.56
389.387	98.56
389.612	73.56
389.837	82.56
390.062	86.56
390.287	83.56
390.512	84.56
390.736	89.56
390.961	79.56
391.186	79.56
391.411	65.56
391.636	82.56
391.86	75.56
392.085	90.56
392.31	89.56
392.534	93.56
392.759	91.56
392.984	130.56
393.208	165.56
393.433	206.56
393.658	167.56
393.882	102.56
394.107	91.56
394.331	104.56
394.556	106.56
394.78	92.56
395.005	86.56
395.229	92.56
395.454	87.56
395.678	95.56
395.903	108.56
396.127	132.56
396.352	120.56
396.576	119.56
396.801	183.56
397.025	178.56
397.249	113.56
397.474	103.56
397.698	84.56
397.922	78.56
398.147	73.56
398.371	76.56
398.595	78.56
398.82	86.56
399.044	97.56
399.268	85.56
399.492	77.56
399.717	90.56
399.941	77.56
400.165	81.56
400.389	73.56
400.613	89.56
400.837	86.56
401.062	79.56
401.286	96.56
401.51	100.56
401.734	81.56
401.958	88.56
402.182	76.56
402.406	69.56
402.63	83.56
402.854	68.56
403.078	76.56
403.302	74.56
403.526	82.56
403.75	74.56
403.974	82.56
404.198	77.56
404.422	87.56
404.645	91.56
404.869	88.56
405.093	101.56
405.317	77.56
405.541	83.56
405.765	86.56
405.988	87.56
406.212	78.56
406.436	78.56
406.66	93.56
406.883	98.56
407.107	99.56
407.331	94.56
407.555	78.56
407.778	90.56
408.002	96.56
408.226	83.56
408.449	85.56
408.673	90.56
408.896	77.56
409.12	74.56
409.344	81.56
409.567	102.56
409.791	88.56
410.014	91.56
410.238	88.56
410.461	82.56
410.685	85.56
410.908	86.56
411.132	92.56
411.355	87.56
411.578	92.56
411.802	84.56
412.025	61.56
412.249	71.56
412.472	83.56
412.695	98.56
412.919	73.56
413.142	92.56
413.365	81.56
413.589	89.56
413.812	89.56
414.035	91.56
414.258	78.56
414.482	84.56
414.705	82.56
414.928	92.56
415.151	84.56
415.374	73.56
415.597	80.56
415.821	68.56
416.044	78.56
416.267	80.56
416.49	84.56
416.713	75.56
416.936	96.56
417.159	79.56
417.382	73.56
417.605	73.56
417.828	96.56
418.051	81.56
418.274	67.56
418.497	78.56
418.72	66.56
418.943	94.56
419.166	82.56
419.389	66.56
419.611	80.56
419.834	82.56
420.057	80.56
420.28	77.56
420.503	76.56
420.726	86.56
420.948	92.56
421.171	105.56
421.394	99.56
421.617	103.56
421.839	97.56
422.062	100.56
422.285	108.56
422.507	176.56
422.73	231.56
422.953	224.56
423.175	128.56
423.398	92.56
423.621	94.56
423.843	87.56
424.066	93.56
424.288	82.56
424.511	79.56
424.733	81.56
424.956	92.56
425.178	74.56
425.401	84.56
425.623	87.56
425.846	85.56
426.068	73.56
426.291	88.56
426.513	101.56
426.735	87.56
426.958	84.56
427.18	92.56
427.402	79.56
427.625	81.56
427.847	88.56
428.069	106.56
428.292	89.56
428.514	97.56
428.736	108.56
428.958	99.56
429.181	84.56
429.403	78.56
429.625	96.56
429.847	92.56
430.069	122.56
430.292	123.56
430.514	121.56
430.736	105.56
430.958	101.56
431.18	87.56
431.402	88.56
431.624	86.56
431.846	100.56
432.068	108.56
432.29	102.56
432.512	84.56
432.734	95.56
432.956	84.56
433.178	94.56
433.4	74.56
433.622	85.56
433.844	85.56
434.066	83.56
434.287	89.56
434.509	73.56
434.731	79.56
434.953	90.56
435.175	80.56
435.397	83.56
435.618	79.56
435.84	89.56
436.062	96.56
436.284	74.56
436.505	80.56
436.727	90.56
436.949	87.56
437.17	67.56
437.392	86.56
437.614	101.56
437.835	82.56
438.057	88.56
438.278	82.56
438.5	94.56
438.721	78.56
438.943	91.56
439.165	88.56
439.386	94.56
439.608	94.56
439.829	91.56
440.05	87.56
440.272	85.56
440.493	97.56
440.715	84.56
440.936	74.56
441.158	75.56
441.379	91.56
441.6	76.56
441.822	88.56
442.043	92.56
442.264	81.56
442.486	114.56
442.707	101.56
442.928	88.56
443.149	93.56
443.371	118.56
443.592	138.56
443.813	148.56
444.034	101.56
444.255	86.56
444.476	97.56
444.698	85.56
444.919	79.56
445.14	152.56
445.361	138.56
445.582	174.56
445.803	153.56
446.024	98.56
446.245	90.56
446.466	91.56
446.687	78.56
446.908	106.56
447.129	70.56
447.35	90.56
447.571	85.56
447.792	73.56
448.013	82.56
448.234	67.56
448.455	89.56
448.675	84.56
448.896	88.56
449.117	86.56
449.338	88.56
449.559	75.56
449.779	83.56
450	80.56
450.221	85.56
450.442	101.56
450.662	86.56
450.883	83.56
451.104	91.56
451.324	85.56
451.545	78.56
451.766	69.56
451.986	75.56
452.207	100.56
452.428	85.56
452.648	77.56
452.869	93.56
453.089	87.56
453.31	89.56
453.53	76.56
453.751	81.56
453.971	84.56
454.192	97.56
454.412	100.56
454.633	99.56
454.853	85.56
455.073	78.56
455.294	94.56
455.514	82.56
455.734	79.56
455.955	90.56
456.175	88.56
456.395	68.56
456.616	84.56
456.836	83.56
457.056	82.56
457.276	64.56
457.497	75.56
457.717	92.56
457.937	96.56
458.157	87.56
458.377	100.56
458.598	90.56
458.818	98.56
459.038	89.56
459.258	89.56
459.478	90.56
459.698	65.56
459.918	88.56
460.138	66.56
460.358	73.56
460.578	88.56
460.798	95.56
461.018	97.56
461.238	84.56
461.458	101.56
461.678	75.56
461.898	88.56
462.118	88.56
462.338	87.56
462.558	97.56
462.777	74.56
462.997	80.56
463.217	86.56
463.437	74.56
463.657	90.56
463.876	69.56
464.096	86.56
464.316	86.56
464.536	82.56
464.755	86.56
464.975	88.56
465.195	87.56
465.414	78.56
465.634	81.56
465.854	85.56
466.073	84.56
466.293	93.56
466.512	80.56
466.732	85.56
466.951	85.56
467.171	87.56
467.391	91.56
467.61	86.56
467.829	88.56
468.049	90.56
468.268	97.56
468.488	78.56
468.707	90.56
468.927	81.56
469.146	78.56
469.365	90.56
469.585	91.56
469.804	78.56
470.023	72.56
470.243	71.56
470.462	90.56
470.681	81.56
470.901	87.56
471.12	73.56
471.339	86.56
471.558	75.56
471.777	100.56
471.997	86.56
472.216	91.56
472.435	88.56
472.654	96.56
472.873	95.56
473.092	72.56
473.311	94.56
473.53	94.56
473.749	101.56
473.968	102.56
474.187	75.56
474.406	89.56
474.625	83.56
474.844	96.56
475.063	84.56
475.282	60.56
475.501	81.56
475.72	92.56
475.939	90.56
476.158	91.56
476.377	90.56
476.596	84.56
476.814	81.56
477.033	78.56
477.252	70.56
477.471	75.56
477.69	90.56
477.908	97.56
478.127	105.56
478.346	87.56
478.564	82.56
478.783	84.56
479.002	91.56
479.22	73.56
479.439	99.56
479.658	82.56
479.876	95.56
480.095	75.56
480.313	80.56
480.532	92.56
480.751	83.56
480.969	71.56
481.188	81.56
481.406	78.56
481.624	96.56
481.843	82.56
482.061	82.56
482.28	83.56
482.498	83.56
482.717	74.56
482.935	75.56
483.153	80.56
483.372	83.56
483.59	83.56
483.808	90.56
484.027	80.56
484.245	81.56
484.463	86.56
484.681	98.56
484.9	76.56
485.118	98.56
485.336	92.56
485.554	82.56
485.772	90.56
485.99	88.56
486.209	88.56
486.427	77.56
486.645	77.56
486.863	80.56
487.081	84.56
487.299	77.56
487.517	96.56
487.735	96.56
487.953	121.56
488.171	114.56
488.389	103.56
488.607	90.56
488.825	82.56
489.043	82.56
489.261	85.56
489.479	94.56
489.696	80.56
489.914	75.56
490.132	79.56
490.35	86.56
490.568	91.56
490.786	70.56
491.003	77.56
491.221	86.56
491.439	86.56
491.657	87.56
491.874	86.56
492.092	96.56
492.31	94.56
492.527	84.56
492.745	90.56
492.963	89.56
493.18	85.56
493.398	73.56
493.615	92.56
493.833	96.56
494.05	86.56
494.268	79.56
494.485	84.56
494.703	81.56
494.92	68.56
495.138	77.56
495.355	84.56
495.573	80.56
495.79	93.56
496.008	88.56
496.225	77.56
496.442	82.56
496.66	90.56
496.877	99.56
497.094	88.56
497.312	70.56
497.529	98.56
497.746	94.56
497.963	77.56
498.181	86.56
498.398	103.56
498.615	72.56
498.832	80.56
499.049	82.56
499.267	98.56
499.484	83.56
499.701	81.56
499.918	99.56
500.135	90.56
500.352	68.56
500.569	72.56
500.786	86.56
501.003	95.56
501.22	70.56
501.437	89.56
501.654	91.56
501.871	82.56
502.088	80.56
502.305	86.56
502.522	88.56
502.739	91.56
502.956	74.56
503.172	94.56
503.389	89.56
503.606	85.56
503.823	78.56
504.04	85.56
504.256	101.56
504.473	86.56
504.69	86.56
504.907	97.56
505.123	89.56
505.34	85.56
505.557	92.56
505.773	99.56
505.99	92.56
506.207	87.56
506.423	84.56
506.64	75.56
506.856	90.56
507.073	88.56
507.289	89.56
507.506	85.56
507.722	86.56
507.939	96.56
508.155	72.56
508.372	88.56
508.588	89.56
508.805	89.56
509.021	79.56
509.238	98.56
509.454	93.56
509.67	82.56
509.887	93.56
510.103	96.56
510.319	90.56
510.536	77.56
510.752	84.56
510.968	82.56
511.184	78.56
511.401	86.56
511.617	89.56
511.833	96.56
512.049	88.56
512.265	79.56
512.481	93.56
512.698	83.56
512.914	85.56
513.13	89.56
513.346	60.56
513.562	88.56
513.778	87.56
513.994	92.56
514.21	88.56
514.426	79.56
514.642	81.56
514.858	103.56
515.074	84.56
515.29	80.56
515.506	86.56
515.721	78.56
515.937	95.56
516.153	86.56
516.369	71.56
516.585	82.56
516.801	87.56
517.016	94.56
517.232	83.56
517.448	100.56
517.664	86.56
517.879	90.56
518.095	85.56
518.311	79.56
518.527	98.56
518.742	95.56
518.958	108.56
519.173	125.56
