Data from 15780_3_HRD10591_00024.txt Node
Date: Mon Jan 19 14:20:10 EST 2026
User: Yrep
Spectrometer: HR+D1059
Trigger mode: 1
Integration Time (sec): 1.000000E-1
Scans to average: 1
Electric dark correction enabled: true
Nonlinearity correction enabled: false
Boxcar width: 0
XAxis mode: Wavelengths
Number of Pixels in Spectrum: 2048
>>>>>Begin Spectral Data<<<<<
223.165	-26.5
223.4	-26.5
223.635	-26.5
223.869	-18.5
224.104	-22.5
224.338	-6.5
224.573	-11.5
224.808	-12.5
225.042	0.5
225.277	-12.5
225.511	1.5
225.746	6.5
225.98	10.5
226.215	-2.5
226.449	13.5
226.683	9.5
226.918	27.5
227.152	43.5
227.387	32.5
227.621	40.5
227.856	40.5
228.09	44.5
228.324	46.5
228.559	47.5
228.793	60.5
229.027	62.5
229.262	53.5
229.496	67.5
229.73	67.5
229.964	78.5
230.199	71.5
230.433	66.5
230.667	63.5
230.901	73.5
231.136	80.5
231.37	71.5
231.604	93.5
231.838	92.5
232.072	66.5
232.306	66.5
232.541	81.5
232.775	79.5
233.009	79.5
233.243	90.5
233.477	88.5
233.711	77.5
233.945	77.5
234.179	76.5
234.413	82.5
234.647	84.5
234.881	74.5
235.115	65.5
235.349	60.5
235.583	80.5
235.817	68.5
236.051	77.5
236.285	83.5
236.519	74.5
236.753	70.5
236.987	70.5
237.221	79.5
237.455	75.5
237.689	75.5
237.922	69.5
238.156	80.5
238.39	83.5
238.624	59.5
238.858	69.5
239.091	60.5
239.325	83.5
239.559	66.5
239.793	58.5
240.027	77.5
240.26	75.5
240.494	66.5
240.728	83.5
240.961	89.5
241.195	61.5
241.429	63.5
241.662	83.5
241.896	88.5
242.13	58.5
242.363	80.5
242.597	91.5
242.83	73.5
243.064	72.5
243.298	83.5
243.531	90.5
243.765	88.5
243.998	85.5
244.232	85.5
244.465	90.5
244.699	71.5
244.932	64.5
245.166	75.5
245.399	74.5
245.633	72.5
245.866	79.5
246.099	76.5
246.333	64.5
246.566	84.5
246.8	73.5
247.033	79.5
247.266	80.5
247.5	67.5
247.733	59.5
247.966	67.5
248.2	81.5
248.433	81.5
248.666	80.5
248.899	76.5
249.133	80.5
249.366	91.5
249.599	81.5
249.832	69.5
250.066	79.5
250.299	79.5
250.532	72.5
250.765	89.5
250.998	86.5
251.231	88.5
251.465	73.5
251.698	73.5
251.931	76.5
252.164	87.5
252.397	78.5
252.63	94.5
252.863	82.5
253.096	73.5
253.329	87.5
253.562	89.5
253.795	80.5
254.028	81.5
254.261	71.5
254.494	82.5
254.727	75.5
254.96	82.5
255.193	62.5
255.426	70.5
255.659	85.5
255.892	72.5
256.124	72.5
256.357	79.5
256.59	80.5
256.823	76.5
257.056	88.5
257.289	67.5
257.521	78.5
257.754	74.5
257.987	73.5
258.22	78.5
258.452	88.5
258.685	90.5
258.918	85.5
259.151	92.5
259.383	80.5
259.616	88.5
259.849	76.5
260.081	70.5
260.314	66.5
260.547	75.5
260.779	86.5
261.012	75.5
261.244	94.5
261.477	76.5
261.71	82.5
261.942	81.5
262.175	80.5
262.407	86.5
262.64	69.5
262.872	72.5
263.105	80.5
263.337	94.5
263.57	95.5
263.802	89.5
264.035	85.5
264.267	81.5
264.499	82.5
264.732	77.5
264.964	68.5
265.197	89.5
265.429	87.5
265.661	79.5
265.894	82.5
266.126	80.5
266.358	82.5
266.591	85.5
266.823	85.5
267.055	78.5
267.287	80.5
267.52	82.5
267.752	70.5
267.984	87.5
268.216	82.5
268.448	84.5
268.681	73.5
268.913	82.5
269.145	87.5
269.377	83.5
269.609	82.5
269.841	80.5
270.073	80.5
270.306	74.5
270.538	90.5
270.77	68.5
271.002	82.5
271.234	77.5
271.466	80.5
271.698	85.5
271.93	75.5
272.162	75.5
272.394	83.5
272.626	75.5
272.858	98.5
273.09	94.5
273.322	92.5
273.553	91.5
273.785	74.5
274.017	77.5
274.249	72.5
274.481	82.5
274.713	75.5
274.945	89.5
275.176	75.5
275.408	94.5
275.64	87.5
275.872	86.5
276.104	82.5
276.335	84.5
276.567	84.5
276.799	85.5
277.031	75.5
277.262	88.5
277.494	79.5
277.726	92.5
277.957	86.5
278.189	93.5
278.421	98.5
278.652	82.5
278.884	95.5
279.115	86.5
279.347	94.5
279.579	83.5
279.81	92.5
280.042	94.5
280.273	89.5
280.505	90.5
280.736	95.5
280.968	94.5
281.199	89.5
281.431	77.5
281.662	81.5
281.894	80.5
282.125	85.5
282.356	71.5
282.588	73.5
282.819	81.5
283.051	96.5
283.282	91.5
283.513	82.5
283.745	86.5
283.976	74.5
284.207	87.5
284.439	80.5
284.67	99.5
284.901	80.5
285.132	90.5
285.364	99.5
285.595	71.5
285.826	82.5
286.057	80.5
286.288	82.5
286.52	89.5
286.751	80.5
286.982	77.5
287.213	84.5
287.444	94.5
287.675	78.5
287.906	88.5
288.138	75.5
288.369	86.5
288.6	88.5
288.831	95.5
289.062	73.5
289.293	88.5
289.524	84.5
289.755	75.5
289.986	91.5
290.217	81.5
290.448	82.5
290.679	79.5
290.91	86.5
291.141	84.5
291.371	73.5
291.602	91.5
291.833	87.5
292.064	90.5
292.295	84.5
292.526	62.5
292.757	82.5
292.987	87.5
293.218	82.5
293.449	82.5
293.68	84.5
293.91	79.5
294.141	86.5
294.372	75.5
294.603	81.5
294.833	72.5
295.064	75.5
295.295	84.5
295.525	79.5
295.756	88.5
295.987	87.5
296.217	69.5
296.448	88.5
296.679	88.5
296.909	91.5
297.14	84.5
297.37	80.5
297.601	90.5
297.831	78.5
298.062	90.5
298.292	88.5
298.523	90.5
298.753	88.5
298.984	86.5
299.214	78.5
299.445	83.5
299.675	79.5
299.905	90.5
300.136	77.5
300.366	79.5
300.597	79.5
300.827	81.5
301.057	88.5
301.288	75.5
301.518	72.5
301.748	80.5
301.979	96.5
302.209	81.5
302.439	81.5
302.669	87.5
302.9	80.5
303.13	87.5
303.36	101.5
303.59	92.5
303.82	92.5
304.051	83.5
304.281	87.5
304.511	96.5
304.741	80.5
304.971	90.5
305.201	93.5
305.431	77.5
305.661	90.5
305.891	90.5
306.121	84.5
306.352	90.5
306.582	90.5
306.812	74.5
307.042	84.5
307.272	96.5
307.502	86.5
307.731	80.5
307.961	82.5
308.191	88.5
308.421	99.5
308.651	90.5
308.881	98.5
309.111	101.5
309.341	91.5
309.571	94.5
309.8	100.5
310.03	106.5
310.26	94.5
310.49	91.5
310.72	84.5
310.949	71.5
311.179	78.5
311.409	83.5
311.639	92.5
311.868	87.5
312.098	86.5
312.328	93.5
312.557	94.5
312.787	89.5
313.017	94.5
313.246	90.5
313.476	79.5
313.706	90.5
313.935	83.5
314.165	75.5
314.394	87.5
314.624	96.5
314.853	75.5
315.083	71.5
315.312	84.5
315.542	90.5
315.771	107.5
316.001	102.5
316.23	95.5
316.46	98.5
316.689	86.5
316.919	90.5
317.148	88.5
317.377	80.5
317.607	91.5
317.836	105.5
318.065	115.5
318.295	116.5
318.524	84.5
318.753	89.5
318.983	81.5
319.212	78.5
319.441	92.5
319.67	81.5
319.9	82.5
320.129	76.5
320.358	87.5
320.587	74.5
320.816	91.5
321.046	67.5
321.275	88.5
321.504	80.5
321.733	79.5
321.962	73.5
322.191	90.5
322.42	86.5
322.649	85.5
322.878	103.5
323.108	100.5
323.337	71.5
323.566	94.5
323.795	100.5
324.024	96.5
324.253	89.5
324.482	93.5
324.71	88.5
324.939	99.5
325.168	95.5
325.397	68.5
325.626	82.5
325.855	92.5
326.084	82.5
326.313	81.5
326.542	90.5
326.77	95.5
326.999	88.5
327.228	90.5
327.457	95.5
327.686	88.5
327.914	94.5
328.143	72.5
328.372	89.5
328.6	82.5
328.829	100.5
329.058	103.5
329.287	90.5
329.515	82.5
329.744	88.5
329.972	84.5
330.201	94.5
330.43	96.5
330.658	87.5
330.887	90.5
331.115	78.5
331.344	79.5
331.572	75.5
331.801	81.5
332.03	78.5
332.258	84.5
332.486	88.5
332.715	102.5
332.943	94.5
333.172	79.5
333.4	76.5
333.629	85.5
333.857	83.5
334.085	88.5
334.314	79.5
334.542	109.5
334.771	96.5
334.999	86.5
335.227	98.5
335.455	90.5
335.684	92.5
335.912	92.5
336.14	87.5
336.369	91.5
336.597	90.5
336.825	82.5
337.053	85.5
337.281	93.5
337.51	96.5
337.738	78.5
337.966	86.5
338.194	87.5
338.422	83.5
338.65	105.5
338.878	73.5
339.106	75.5
339.334	102.5
339.562	89.5
339.79	86.5
340.018	91.5
340.246	91.5
340.474	85.5
340.702	81.5
340.93	95.5
341.158	84.5
341.386	84.5
341.614	91.5
341.842	79.5
342.07	89.5
342.298	70.5
342.526	82.5
342.754	70.5
342.981	92.5
343.209	82.5
343.437	90.5
343.665	85.5
343.893	91.5
344.12	79.5
344.348	89.5
344.576	85.5
344.804	86.5
345.031	71.5
345.259	90.5
345.487	95.5
345.714	80.5
345.942	88.5
346.17	101.5
346.397	70.5
346.625	84.5
346.853	82.5
347.08	87.5
347.308	72.5
347.535	76.5
347.763	81.5
347.99	83.5
348.218	88.5
348.445	94.5
348.673	87.5
348.9	83.5
349.128	85.5
349.355	81.5
349.583	91.5
349.81	84.5
350.037	81.5
350.265	80.5
350.492	82.5
350.72	80.5
350.947	65.5
351.174	97.5
351.402	69.5
351.629	79.5
351.856	81.5
352.083	96.5
352.311	82.5
352.538	71.5
352.765	100.5
352.992	77.5
353.22	84.5
353.447	90.5
353.674	98.5
353.901	84.5
354.128	95.5
354.355	83.5
354.583	88.5
354.81	70.5
355.037	93.5
355.264	84.5
355.491	98.5
355.718	92.5
355.945	83.5
356.172	94.5
356.399	74.5
356.626	74.5
356.853	98.5
357.08	98.5
357.307	98.5
357.534	93.5
357.761	103.5
357.988	89.5
358.215	98.5
358.441	104.5
358.668	95.5
358.895	83.5
359.122	86.5
359.349	100.5
359.576	83.5
359.802	84.5
360.029	94.5
360.256	87.5
360.483	92.5
360.709	97.5
360.936	93.5
361.163	83.5
361.39	81.5
361.616	83.5
361.843	76.5
362.07	94.5
362.296	92.5
362.523	97.5
362.749	90.5
362.976	83.5
363.203	117.5
363.429	110.5
363.656	84.5
363.882	90.5
364.109	98.5
364.335	111.5
364.562	132.5
364.788	107.5
365.015	89.5
365.241	104.5
365.468	81.5
365.694	89.5
365.92	96.5
366.147	77.5
366.373	82.5
366.599	89.5
366.826	92.5
367.052	89.5
367.278	88.5
367.505	94.5
367.731	101.5
367.957	91.5
368.184	93.5
368.41	92.5
368.636	96.5
368.862	97.5
369.089	95.5
369.315	81.5
369.541	88.5
369.767	71.5
369.993	80.5
370.219	90.5
370.445	89.5
370.672	99.5
370.898	103.5
371.124	88.5
371.35	79.5
371.576	81.5
371.802	94.5
372.028	94.5
372.254	86.5
372.48	80.5
372.706	88.5
372.932	82.5
373.158	91.5
373.384	90.5
373.61	137.5
373.835	126.5
374.061	99.5
374.287	96.5
374.513	101.5
374.739	94.5
374.965	96.5
375.191	104.5
375.416	91.5
375.642	76.5
375.868	89.5
376.094	99.5
376.319	89.5
376.545	90.5
376.771	86.5
376.997	82.5
377.222	99.5
377.448	82.5
377.674	87.5
377.899	86.5
378.125	86.5
378.35	79.5
378.576	91.5
378.802	82.5
379.027	103.5
379.253	95.5
379.478	92.5
379.704	94.5
379.929	91.5
380.155	86.5
380.38	97.5
380.606	95.5
380.831	81.5
381.057	84.5
381.282	96.5
381.507	83.5
381.733	103.5
381.958	79.5
382.184	107.5
382.409	97.5
382.634	95.5
382.86	107.5
383.085	125.5
383.31	94.5
383.535	100.5
383.761	102.5
383.986	105.5
384.211	99.5
384.436	108.5
384.662	99.5
384.887	88.5
385.112	103.5
385.337	90.5
385.562	114.5
385.787	100.5
386.013	114.5
386.238	107.5
386.463	106.5
386.688	101.5
386.913	93.5
387.138	97.5
387.363	104.5
387.588	102.5
387.813	104.5
388.038	99.5
388.263	101.5
388.488	92.5
388.713	96.5
388.938	79.5
389.163	82.5
389.387	103.5
389.612	96.5
389.837	92.5
390.062	90.5
390.287	105.5
390.512	93.5
390.736	94.5
390.961	83.5
391.186	71.5
391.411	93.5
391.636	85.5
391.86	98.5
392.085	91.5
392.31	94.5
392.534	108.5
392.759	115.5
392.984	170.5
393.208	331.5
393.433	494.5
393.658	386.5
393.882	157.5
394.107	110.5
394.331	128.5
394.556	124.5
394.78	103.5
395.005	90.5
395.229	98.5
395.454	96.5
395.678	95.5
395.903	124.5
396.127	163.5
396.352	172.5
396.576	196.5
396.801	343.5
397.025	370.5
397.249	211.5
397.474	106.5
397.698	94.5
397.922	94.5
398.147	86.5
398.371	86.5
398.595	91.5
398.82	93.5
399.044	90.5
399.268	90.5
399.492	92.5
399.717	87.5
399.941	90.5
400.165	106.5
400.389	85.5
400.613	80.5
400.837	98.5
401.062	80.5
401.286	94.5
401.51	71.5
401.734	92.5
401.958	89.5
402.182	76.5
402.406	90.5
402.63	92.5
402.854	80.5
403.078	85.5
403.302	82.5
403.526	89.5
403.75	96.5
403.974	92.5
404.198	79.5
404.422	88.5
404.645	86.5
404.869	90.5
405.093	92.5
405.317	90.5
405.541	86.5
405.765	96.5
405.988	91.5
406.212	82.5
406.436	90.5
406.66	86.5
406.883	93.5
407.107	90.5
407.331	92.5
407.555	106.5
407.778	131.5
408.002	140.5
408.226	101.5
408.449	98.5
408.673	91.5
408.896	77.5
409.12	82.5
409.344	101.5
409.567	94.5
409.791	96.5
410.014	94.5
410.238	89.5
410.461	89.5
410.685	96.5
410.908	92.5
411.132	96.5
411.355	89.5
411.578	92.5
411.802	77.5
412.025	96.5
412.249	86.5
412.472	83.5
412.695	74.5
412.919	82.5
413.142	84.5
413.365	90.5
413.589	81.5
413.812	84.5
414.035	114.5
414.258	81.5
414.482	82.5
414.705	82.5
414.928	79.5
415.151	101.5
415.374	85.5
415.597	84.5
415.821	99.5
416.044	86.5
416.267	100.5
416.49	85.5
416.713	74.5
416.936	93.5
417.159	90.5
417.382	94.5
417.605	74.5
417.828	88.5
418.051	84.5
418.274	102.5
418.497	96.5
418.72	83.5
418.943	89.5
419.166	91.5
419.389	87.5
419.611	79.5
419.834	91.5
420.057	95.5
420.28	80.5
420.503	99.5
420.726	101.5
420.948	88.5
421.171	90.5
421.394	99.5
421.617	125.5
421.839	129.5
422.062	104.5
422.285	145.5
422.507	230.5
422.73	372.5
422.953	344.5
423.175	153.5
423.398	103.5
423.621	105.5
423.843	92.5
424.066	84.5
424.288	88.5
424.511	88.5
424.733	93.5
424.956	69.5
425.178	94.5
425.401	88.5
425.623	83.5
425.846	98.5
426.068	89.5
426.291	91.5
426.513	89.5
426.735	83.5
426.958	92.5
427.18	96.5
427.402	91.5
427.625	79.5
427.847	98.5
428.069	100.5
428.292	125.5
428.514	133.5
428.736	102.5
428.958	113.5
429.181	131.5
429.403	98.5
429.625	115.5
429.847	120.5
430.069	162.5
430.292	167.5
430.514	167.5
430.736	136.5
430.958	146.5
431.18	115.5
431.402	84.5
431.624	102.5
431.846	117.5
432.068	149.5
432.29	103.5
432.512	95.5
432.734	94.5
432.956	98.5
433.178	87.5
433.4	99.5
433.622	83.5
433.844	95.5
434.066	81.5
434.287	78.5
434.509	90.5
434.731	94.5
434.953	86.5
435.175	96.5
435.397	84.5
435.618	89.5
435.84	82.5
436.062	87.5
436.284	90.5
436.505	85.5
436.727	73.5
436.949	85.5
437.17	89.5
437.392	98.5
437.614	86.5
437.835	88.5
438.057	74.5
438.278	99.5
438.5	100.5
438.721	88.5
438.943	69.5
439.165	80.5
439.386	87.5
439.608	105.5
439.829	94.5
440.05	88.5
440.272	91.5
440.493	84.5
440.715	92.5
440.936	78.5
441.158	81.5
441.379	76.5
441.6	103.5
441.822	65.5
442.043	83.5
442.264	97.5
442.486	120.5
442.707	130.5
442.928	124.5
443.149	99.5
443.371	141.5
443.592	212.5
443.813	190.5
444.034	100.5
444.255	96.5
444.476	83.5
444.698	87.5
444.919	90.5
445.14	158.5
445.361	182.5
445.582	237.5
445.803	235.5
446.024	116.5
446.245	90.5
446.466	87.5
446.687	94.5
446.908	71.5
447.129	80.5
447.35	78.5
447.571	92.5
447.792	72.5
448.013	88.5
448.234	85.5
448.455	78.5
448.675	80.5
448.896	88.5
449.117	91.5
449.338	88.5
449.559	94.5
449.779	84.5
450	95.5
450.221	88.5
450.442	91.5
450.662	93.5
450.883	86.5
451.104	74.5
451.324	86.5
451.545	87.5
451.766	76.5
451.986	77.5
452.207	86.5
452.428	85.5
452.648	88.5
452.869	82.5
453.089	94.5
453.31	73.5
453.53	103.5
453.751	84.5
453.971	82.5
454.192	87.5
454.412	90.5
454.633	88.5
454.853	88.5
455.073	80.5
455.294	89.5
455.514	94.5
455.734	98.5
455.955	88.5
456.175	78.5
456.395	84.5
456.616	69.5
456.836	74.5
457.056	87.5
457.276	80.5
457.497	91.5
457.717	89.5
457.937	121.5
458.157	105.5
458.377	99.5
458.598	117.5
458.818	104.5
459.038	88.5
459.258	82.5
459.478	94.5
459.698	81.5
459.918	89.5
460.138	97.5
460.358	89.5
460.578	89.5
460.798	111.5
461.018	112.5
461.238	92.5
461.458	81.5
461.678	81.5
461.898	101.5
462.118	87.5
462.338	95.5
462.558	96.5
462.777	91.5
462.997	86.5
463.217	92.5
463.437	84.5
463.657	77.5
463.876	88.5
464.096	91.5
464.316	84.5
464.536	82.5
464.755	100.5
464.975	73.5
465.195	95.5
465.414	90.5
465.634	85.5
465.854	74.5
466.073	87.5
466.293	85.5
466.512	81.5
466.732	113.5
466.951	82.5
467.171	80.5
467.391	83.5
467.61	68.5
467.829	91.5
468.049	87.5
468.268	83.5
468.488	90.5
468.707	82.5
468.927	76.5
469.146	96.5
469.365	74.5
469.585	73.5
469.804	74.5
470.023	78.5
470.243	75.5
470.462	91.5
470.681	81.5
470.901	91.5
471.12	86.5
471.339	80.5
471.558	83.5
471.777	77.5
471.997	99.5
472.216	88.5
472.435	93.5
472.654	94.5
472.873	93.5
473.092	96.5
473.311	88.5
473.53	88.5
473.749	79.5
473.968	76.5
474.187	93.5
474.406	92.5
474.625	91.5
474.844	84.5
475.063	87.5
475.282	72.5
475.501	87.5
475.72	82.5
475.939	90.5
476.158	83.5
476.377	93.5
476.596	86.5
476.814	92.5
477.033	85.5
477.252	98.5
477.471	88.5
477.69	76.5
477.908	80.5
478.127	88.5
478.346	91.5
478.564	73.5
478.783	76.5
479.002	81.5
479.22	76.5
479.439	80.5
479.658	77.5
479.876	92.5
480.095	86.5
480.313	85.5
480.532	88.5
480.751	82.5
480.969	83.5
481.188	83.5
481.406	79.5
481.624	95.5
481.843	106.5
482.061	95.5
482.28	99.5
482.498	92.5
482.717	84.5
482.935	96.5
483.153	74.5
483.372	82.5
483.59	104.5
483.808	86.5
484.027	77.5
484.245	91.5
484.463	89.5
484.681	95.5
484.9	86.5
485.118	94.5
485.336	84.5
485.554	91.5
485.772	93.5
485.99	86.5
486.209	91.5
486.427	82.5
486.645	91.5
486.863	98.5
487.081	83.5
487.299	88.5
487.517	98.5
487.735	94.5
487.953	148.5
488.171	123.5
488.389	94.5
488.607	78.5
488.825	90.5
489.043	98.5
489.261	103.5
489.479	94.5
489.696	98.5
489.914	75.5
490.132	102.5
490.35	94.5
490.568	90.5
490.786	83.5
491.003	100.5
491.221	89.5
491.439	98.5
491.657	75.5
491.874	91.5
492.092	104.5
492.31	80.5
492.527	75.5
492.745	84.5
492.963	94.5
493.18	105.5
493.398	95.5
493.615	88.5
493.833	84.5
494.05	78.5
494.268	90.5
494.485	88.5
494.703	80.5
494.92	86.5
495.138	80.5
495.355	76.5
495.573	105.5
495.79	100.5
496.008	95.5
496.225	89.5
496.442	100.5
496.66	91.5
496.877	99.5
497.094	97.5
497.312	87.5
497.529	85.5
497.746	87.5
497.963	75.5
498.181	105.5
498.398	100.5
498.615	89.5
498.832	84.5
499.049	94.5
499.267	83.5
499.484	88.5
499.701	82.5
499.918	94.5
500.135	107.5
500.352	88.5
500.569	95.5
500.786	102.5
501.003	96.5
501.22	87.5
501.437	94.5
501.654	92.5
501.871	99.5
502.088	79.5
502.305	101.5
502.522	82.5
502.739	97.5
502.956	93.5
503.172	90.5
503.389	92.5
503.606	90.5
503.823	82.5
504.04	104.5
504.256	115.5
504.473	124.5
504.69	79.5
504.907	90.5
505.123	91.5
505.34	105.5
505.557	96.5
505.773	94.5
505.99	96.5
506.207	93.5
506.423	81.5
506.64	83.5
506.856	100.5
507.073	95.5
507.289	95.5
507.506	83.5
507.722	99.5
507.939	91.5
508.155	90.5
508.372	87.5
508.588	81.5
508.805	85.5
509.021	76.5
509.238	105.5
509.454	84.5
509.67	85.5
509.887	73.5
510.103	94.5
510.319	85.5
510.536	86.5
510.752	87.5
510.968	92.5
511.184	89.5
511.401	91.5
511.617	92.5
511.833	95.5
512.049	78.5
512.265	94.5
512.481	100.5
512.698	87.5
512.914	91.5
513.13	79.5
513.346	98.5
513.562	82.5
513.778	94.5
513.994	87.5
514.21	92.5
514.426	100.5
514.642	85.5
514.858	81.5
515.074	96.5
515.29	103.5
515.506	90.5
515.721	106.5
515.937	94.5
516.153	95.5
516.369	83.5
516.585	82.5
516.801	67.5
517.016	98.5
517.232	90.5
517.448	116.5
517.664	98.5
517.879	77.5
518.095	82.5
518.311	103.5
518.527	113.5
518.742	107.5
518.958	122.5
519.173	147.5
519.389	89.5
519.605	90.5
519.82	88.5
520.036	94.5
520.251	88.5
520.467	86.5
520.682	87.5
520.898	95.5
521.113	100.5
521.329	92.5
521.544	86.5
521.76	89.5
521.975	104.5
522.19	78.5
522.406	85.5
522.621	86.5
522.836	98.5
523.052	93.5
523.267	97.5
523.482	107.5
523.698	97.5
523.913	77.5
524.128	89.5
524.343	87.5
524.559	84.5
524.774	98.5
524.989	98.5
525.204	76.5
525.419	89.5
525.634	85.5
525.849	101.5
526.064	119.5
526.28	160.5
526.495	251.5
526.71	245.5
526.925	198.5
527.14	236.5
527.355	204.5
527.57	112.5
527.785	92.5
527.999	89.5
528.214	91.5
528.429	90.5
528.644	82.5
528.859	79.5
529.074	91.5
529.289	84.5
529.503	97.5
529.718	108.5
529.933	103.5
530.148	82.5
530.363	86.5
530.577	101.5
530.792	89.5
531.007	88.5
531.221	90.5
531.436	88.5
531.651	80.5
531.865	91.5
532.08	77.5
532.295	97.5
532.509	96.5
532.724	103.5
532.938	101.5
533.153	97.5
533.367	85.5
533.582	91.5
533.796	95.5
534.011	96.5
534.225	96.5
534.44	99.5
534.654	86.5
534.868	99.5
535.083	132.5
535.297	130.5
535.511	106.5
535.726	107.5
535.94	93.5
536.154	108.5
536.369	100.5
536.583	106.5
536.797	95.5
537.011	106.5
537.225	100.5
537.44	106.5
537.654	106.5
