Data from 15780_3_HRD10591_00023.txt Node
Date: Mon Jan 19 14:20:09 EST 2026
User: Yrep
Spectrometer: HR+D1059
Trigger mode: 1
Integration Time (sec): 1.000000E-1
Scans to average: 1
Electric dark correction enabled: true
Nonlinearity correction enabled: false
Boxcar width: 0
XAxis mode: Wavelengths
Number of Pixels in Spectrum: 2048
>>>>>Begin Spectral Data<<<<<
223.165	-28.69
223.4	-28.69
223.635	-28.69
223.869	-23.69
224.104	-26.69
224.338	5.31
224.573	-28.69
224.808	-11.69
225.042	-10.69
225.277	-12.69
225.511	-0.69
225.746	15.31
225.98	15.31
226.215	-8.69
226.449	19.31
226.683	28.31
226.918	31.31
227.152	37.31
227.387	32.31
227.621	25.31
227.856	46.31
228.09	40.31
228.324	40.31
228.559	54.31
228.793	63.31
229.027	55.31
229.262	66.31
229.496	65.31
229.73	80.31
229.964	81.31
230.199	58.31
230.433	68.31
230.667	70.31
230.901	52.31
231.136	74.31
231.37	94.31
231.604	84.31
231.838	87.31
232.072	79.31
232.306	64.31
232.541	89.31
232.775	78.31
233.009	67.31
233.243	101.31
233.477	90.31
233.711	75.31
233.945	90.31
234.179	81.31
234.413	71.31
234.647	86.31
234.881	71.31
235.115	62.31
235.349	75.31
235.583	73.31
235.817	75.31
236.051	75.31
236.285	91.31
236.519	76.31
236.753	82.31
236.987	66.31
237.221	76.31
237.455	76.31
237.689	77.31
237.922	68.31
238.156	79.31
238.39	76.31
238.624	80.31
238.858	58.31
239.091	74.31
239.325	69.31
239.559	77.31
239.793	74.31
240.027	72.31
240.26	70.31
240.494	66.31
240.728	78.31
240.961	73.31
241.195	73.31
241.429	69.31
241.662	63.31
241.896	86.31
242.13	80.31
242.363	82.31
242.597	71.31
242.83	67.31
243.064	98.31
243.298	66.31
243.531	73.31
243.765	69.31
243.998	76.31
244.232	91.31
244.465	76.31
244.699	66.31
244.932	59.31
245.166	84.31
245.399	76.31
245.633	72.31
245.866	84.31
246.099	88.31
246.333	82.31
246.566	91.31
246.8	66.31
247.033	74.31
247.266	88.31
247.5	90.31
247.733	79.31
247.966	93.31
248.2	83.31
248.433	66.31
248.666	86.31
248.899	74.31
249.133	72.31
249.366	81.31
249.599	81.31
249.832	78.31
250.066	75.31
250.299	84.31
250.532	92.31
250.765	92.31
250.998	80.31
251.231	83.31
251.465	77.31
251.698	74.31
251.931	80.31
252.164	74.31
252.397	78.31
252.63	77.31
252.863	74.31
253.096	72.31
253.329	67.31
253.562	64.31
253.795	82.31
254.028	87.31
254.261	87.31
254.494	58.31
254.727	76.31
254.96	73.31
255.193	76.31
255.426	59.31
255.659	71.31
255.892	80.31
256.124	77.31
256.357	65.31
256.59	79.31
256.823	86.31
257.056	74.31
257.289	80.31
257.521	80.31
257.754	71.31
257.987	83.31
258.22	82.31
258.452	80.31
258.685	70.31
258.918	71.31
259.151	83.31
259.383	84.31
259.616	72.31
259.849	70.31
260.081	88.31
260.314	72.31
260.547	83.31
260.779	80.31
261.012	73.31
261.244	77.31
261.477	73.31
261.71	80.31
261.942	73.31
262.175	92.31
262.407	72.31
262.64	79.31
262.872	81.31
263.105	85.31
263.337	82.31
263.57	77.31
263.802	88.31
264.035	83.31
264.267	81.31
264.499	89.31
264.732	78.31
264.964	82.31
265.197	72.31
265.429	79.31
265.661	68.31
265.894	84.31
266.126	82.31
266.358	91.31
266.591	83.31
266.823	80.31
267.055	75.31
267.287	87.31
267.52	73.31
267.752	73.31
267.984	89.31
268.216	80.31
268.448	85.31
268.681	89.31
268.913	85.31
269.145	90.31
269.377	81.31
269.609	71.31
269.841	75.31
270.073	98.31
270.306	80.31
270.538	94.31
270.77	79.31
271.002	90.31
271.234	79.31
271.466	87.31
271.698	75.31
271.93	89.31
272.162	75.31
272.394	90.31
272.626	86.31
272.858	81.31
273.09	80.31
273.322	82.31
273.553	81.31
273.785	67.31
274.017	76.31
274.249	91.31
274.481	75.31
274.713	75.31
274.945	74.31
275.176	72.31
275.408	77.31
275.64	90.31
275.872	98.31
276.104	91.31
276.335	66.31
276.567	74.31
276.799	84.31
277.031	73.31
277.262	79.31
277.494	70.31
277.726	75.31
277.957	73.31
278.189	86.31
278.421	82.31
278.652	96.31
278.884	71.31
279.115	71.31
279.347	85.31
279.579	80.31
279.81	86.31
280.042	92.31
280.273	90.31
280.505	93.31
280.736	67.31
280.968	84.31
281.199	81.31
281.431	83.31
281.662	86.31
281.894	90.31
282.125	71.31
282.356	82.31
282.588	71.31
282.819	97.31
283.051	73.31
283.282	83.31
283.513	88.31
283.745	74.31
283.976	66.31
284.207	68.31
284.439	87.31
284.67	82.31
284.901	91.31
285.132	80.31
285.364	90.31
285.595	87.31
285.826	68.31
286.057	89.31
286.288	64.31
286.52	90.31
286.751	82.31
286.982	86.31
287.213	79.31
287.444	98.31
287.675	81.31
287.906	81.31
288.138	79.31
288.369	86.31
288.6	85.31
288.831	74.31
289.062	74.31
289.293	87.31
289.524	101.31
289.755	91.31
289.986	93.31
290.217	80.31
290.448	98.31
290.679	83.31
290.91	84.31
291.141	87.31
291.371	86.31
291.602	79.31
291.833	87.31
292.064	76.31
292.295	73.31
292.526	85.31
292.757	79.31
292.987	80.31
293.218	91.31
293.449	89.31
293.68	79.31
293.91	83.31
294.141	85.31
294.372	72.31
294.603	83.31
294.833	87.31
295.064	86.31
295.295	76.31
295.525	83.31
295.756	86.31
295.987	62.31
296.217	82.31
296.448	92.31
296.679	94.31
296.909	104.31
297.14	81.31
297.37	74.31
297.601	77.31
297.831	72.31
298.062	93.31
298.292	91.31
298.523	81.31
298.753	86.31
298.984	83.31
299.214	76.31
299.445	83.31
299.675	91.31
299.905	100.31
300.136	81.31
300.366	80.31
300.597	92.31
300.827	84.31
301.057	87.31
301.288	88.31
301.518	86.31
301.748	87.31
301.979	105.31
302.209	89.31
302.439	97.31
302.669	87.31
302.9	81.31
303.13	79.31
303.36	91.31
303.59	85.31
303.82	88.31
304.051	76.31
304.281	82.31
304.511	99.31
304.741	82.31
304.971	76.31
305.201	81.31
305.431	96.31
305.661	84.31
305.891	87.31
306.121	75.31
306.352	86.31
306.582	96.31
306.812	78.31
307.042	81.31
307.272	83.31
307.502	88.31
307.731	83.31
307.961	68.31
308.191	80.31
308.421	88.31
308.651	86.31
308.881	85.31
309.111	87.31
309.341	93.31
309.571	82.31
309.8	77.31
310.03	86.31
310.26	85.31
310.49	82.31
310.72	99.31
310.949	92.31
311.179	81.31
311.409	68.31
311.639	88.31
311.868	88.31
312.098	89.31
312.328	87.31
312.557	83.31
312.787	78.31
313.017	86.31
313.246	85.31
313.476	81.31
313.706	64.31
313.935	80.31
314.165	82.31
314.394	83.31
314.624	77.31
314.853	85.31
315.083	81.31
315.312	83.31
315.542	80.31
315.771	80.31
316.001	67.31
316.23	66.31
316.46	87.31
316.689	84.31
316.919	92.31
317.148	86.31
317.377	98.31
317.607	79.31
317.836	84.31
318.065	100.31
318.295	85.31
318.524	83.31
318.753	72.31
318.983	72.31
319.212	82.31
319.441	80.31
319.67	87.31
319.9	90.31
320.129	84.31
320.358	79.31
320.587	72.31
320.816	91.31
321.046	94.31
321.275	101.31
321.504	77.31
321.733	87.31
321.962	80.31
322.191	85.31
322.42	87.31
322.649	85.31
322.878	83.31
323.108	83.31
323.337	92.31
323.566	73.31
323.795	74.31
324.024	89.31
324.253	93.31
324.482	77.31
324.71	86.31
324.939	94.31
325.168	97.31
325.397	78.31
325.626	75.31
325.855	82.31
326.084	85.31
326.313	90.31
326.542	89.31
326.77	87.31
326.999	91.31
327.228	88.31
327.457	81.31
327.686	84.31
327.914	84.31
328.143	85.31
328.372	85.31
328.6	78.31
328.829	88.31
329.058	74.31
329.287	76.31
329.515	77.31
329.744	75.31
329.972	80.31
330.201	94.31
330.43	76.31
330.658	83.31
330.887	76.31
331.115	81.31
331.344	80.31
331.572	76.31
331.801	87.31
332.03	87.31
332.258	86.31
332.486	80.31
332.715	92.31
332.943	89.31
333.172	99.31
333.4	91.31
333.629	89.31
333.857	87.31
334.085	90.31
334.314	89.31
334.542	92.31
334.771	89.31
334.999	83.31
335.227	82.31
335.455	99.31
335.684	69.31
335.912	91.31
336.14	92.31
336.369	82.31
336.597	73.31
336.825	87.31
337.053	90.31
337.281	89.31
337.51	83.31
337.738	96.31
337.966	91.31
338.194	104.31
338.422	79.31
338.65	92.31
338.878	76.31
339.106	69.31
339.334	81.31
339.562	80.31
339.79	80.31
340.018	92.31
340.246	106.31
340.474	95.31
340.702	82.31
340.93	86.31
341.158	89.31
341.386	88.31
341.614	96.31
341.842	86.31
342.07	85.31
342.298	82.31
342.526	94.31
342.754	99.31
342.981	78.31
343.209	78.31
343.437	80.31
343.665	93.31
343.893	73.31
344.12	93.31
344.348	90.31
344.576	88.31
344.804	80.31
345.031	80.31
345.259	87.31
345.487	80.31
345.714	74.31
345.942	79.31
346.17	76.31
346.397	98.31
346.625	91.31
346.853	87.31
347.08	88.31
347.308	86.31
347.535	86.31
347.763	91.31
347.99	85.31
348.218	80.31
348.445	80.31
348.673	81.31
348.9	74.31
349.128	76.31
349.355	89.31
349.583	86.31
349.81	80.31
350.037	77.31
350.265	82.31
350.492	87.31
350.72	93.31
350.947	88.31
351.174	77.31
351.402	79.31
351.629	73.31
351.856	84.31
352.083	88.31
352.311	102.31
352.538	80.31
352.765	92.31
352.992	80.31
353.22	63.31
353.447	74.31
353.674	76.31
353.901	76.31
354.128	75.31
354.355	82.31
354.583	81.31
354.81	81.31
355.037	81.31
355.264	75.31
355.491	82.31
355.718	89.31
355.945	82.31
356.172	82.31
356.399	86.31
356.626	90.31
356.853	87.31
357.08	88.31
357.307	89.31
357.534	94.31
357.761	91.31
357.988	84.31
358.215	86.31
358.441	85.31
358.668	96.31
358.895	85.31
359.122	90.31
359.349	84.31
359.576	79.31
359.802	88.31
360.029	81.31
360.256	70.31
360.483	83.31
360.709	82.31
360.936	80.31
361.163	69.31
361.39	81.31
361.616	84.31
361.843	81.31
362.07	79.31
362.296	88.31
362.523	88.31
362.749	94.31
362.976	91.31
363.203	89.31
363.429	93.31
363.656	91.31
363.882	82.31
364.109	96.31
364.335	86.31
364.562	88.31
364.788	95.31
365.015	74.31
365.241	90.31
365.468	98.31
365.694	98.31
365.92	86.31
366.147	76.31
366.373	98.31
366.599	74.31
366.826	67.31
367.052	70.31
367.278	76.31
367.505	75.31
367.731	77.31
367.957	82.31
368.184	73.31
368.41	89.31
368.636	85.31
368.862	83.31
369.089	82.31
369.315	88.31
369.541	83.31
369.767	76.31
369.993	76.31
370.219	76.31
370.445	83.31
370.672	90.31
370.898	84.31
371.124	92.31
371.35	67.31
371.576	85.31
371.802	83.31
372.028	87.31
372.254	89.31
372.48	84.31
372.706	86.31
372.932	102.31
373.158	83.31
373.384	95.31
373.61	91.31
373.835	94.31
374.061	90.31
374.287	76.31
374.513	82.31
374.739	82.31
374.965	86.31
375.191	94.31
375.416	86.31
375.642	81.31
375.868	89.31
376.094	74.31
376.319	76.31
376.545	84.31
376.771	87.31
376.997	70.31
377.222	88.31
377.448	74.31
377.674	92.31
377.899	87.31
378.125	87.31
378.35	85.31
378.576	87.31
378.802	82.31
379.027	81.31
379.253	108.31
379.478	83.31
379.704	80.31
379.929	85.31
380.155	85.31
380.38	75.31
380.606	77.31
380.831	86.31
381.057	84.31
381.282	83.31
381.507	89.31
381.733	99.31
381.958	83.31
382.184	87.31
382.409	77.31
382.634	100.31
382.86	93.31
383.085	100.31
383.31	90.31
383.535	86.31
383.761	83.31
383.986	96.31
384.211	76.31
384.436	82.31
384.662	76.31
384.887	85.31
385.112	94.31
385.337	102.31
385.562	88.31
385.787	92.31
386.013	82.31
386.238	92.31
386.463	77.31
386.688	96.31
386.913	96.31
387.138	79.31
387.363	71.31
387.588	81.31
387.813	108.31
388.038	91.31
388.263	93.31
388.488	86.31
388.713	87.31
388.938	80.31
389.163	81.31
389.387	81.31
389.612	91.31
389.837	95.31
390.062	98.31
390.287	79.31
390.512	84.31
390.736	84.31
390.961	82.31
391.186	86.31
391.411	64.31
391.636	76.31
391.86	82.31
392.085	99.31
392.31	85.31
392.534	71.31
392.759	94.31
392.984	122.31
393.208	214.31
393.433	315.31
393.658	222.31
393.882	123.31
394.107	102.31
394.331	96.31
394.556	87.31
394.78	99.31
395.005	94.31
395.229	94.31
395.454	95.31
395.678	83.31
395.903	97.31
396.127	119.31
396.352	136.31
396.576	137.31
396.801	202.31
397.025	248.31
397.249	131.31
397.474	102.31
397.698	90.31
397.922	89.31
398.147	85.31
398.371	75.31
398.595	77.31
398.82	92.31
399.044	91.31
399.268	77.31
399.492	93.31
399.717	97.31
399.941	74.31
400.165	87.31
400.389	100.31
400.613	97.31
400.837	82.31
401.062	77.31
401.286	82.31
401.51	79.31
401.734	77.31
401.958	85.31
402.182	94.31
402.406	84.31
402.63	67.31
402.854	71.31
403.078	73.31
403.302	65.31
403.526	84.31
403.75	83.31
403.974	84.31
404.198	79.31
404.422	92.31
404.645	88.31
404.869	86.31
405.093	71.31
405.317	88.31
405.541	65.31
405.765	90.31
405.988	77.31
406.212	88.31
406.436	80.31
406.66	78.31
406.883	80.31
407.107	83.31
407.331	95.31
407.555	89.31
407.778	107.31
408.002	96.31
408.226	86.31
408.449	71.31
408.673	88.31
408.896	82.31
409.12	63.31
409.344	76.31
409.567	88.31
409.791	83.31
410.014	87.31
410.238	80.31
410.461	99.31
410.685	83.31
410.908	72.31
411.132	95.31
411.355	70.31
411.578	81.31
411.802	84.31
412.025	82.31
412.249	71.31
412.472	87.31
412.695	83.31
412.919	84.31
413.142	71.31
413.365	86.31
413.589	70.31
413.812	90.31
414.035	89.31
414.258	98.31
414.482	88.31
414.705	76.31
414.928	91.31
415.151	75.31
415.374	83.31
415.597	85.31
415.821	65.31
416.044	77.31
416.267	80.31
416.49	84.31
416.713	68.31
416.936	84.31
417.159	86.31
417.382	75.31
417.605	76.31
417.828	95.31
418.051	96.31
418.274	76.31
418.497	84.31
418.72	72.31
418.943	92.31
419.166	90.31
419.389	64.31
419.611	80.31
419.834	77.31
420.057	88.31
420.28	82.31
420.503	91.31
420.726	74.31
420.948	93.31
421.171	91.31
421.394	88.31
421.617	103.31
421.839	106.31
422.062	100.31
422.285	108.31
422.507	180.31
422.73	254.31
422.953	240.31
423.175	131.31
423.398	106.31
423.621	101.31
423.843	85.31
424.066	76.31
424.288	75.31
424.511	91.31
424.733	64.31
424.956	72.31
425.178	82.31
425.401	86.31
425.623	68.31
425.846	76.31
426.068	97.31
426.291	84.31
426.513	81.31
426.735	84.31
426.958	76.31
427.18	93.31
427.402	87.31
427.625	77.31
427.847	92.31
428.069	84.31
428.292	103.31
428.514	104.31
428.736	94.31
428.958	98.31
429.181	100.31
429.403	88.31
429.625	81.31
429.847	98.31
430.069	124.31
430.292	131.31
430.514	137.31
430.736	120.31
430.958	98.31
431.18	86.31
431.402	82.31
431.624	78.31
431.846	107.31
432.068	108.31
432.29	88.31
432.512	99.31
432.734	60.31
432.956	67.31
433.178	78.31
433.4	82.31
433.622	81.31
433.844	81.31
434.066	73.31
434.287	73.31
434.509	94.31
434.731	69.31
434.953	89.31
435.175	88.31
435.397	100.31
435.618	90.31
435.84	95.31
436.062	86.31
436.284	86.31
436.505	85.31
436.727	79.31
436.949	63.31
437.17	70.31
437.392	71.31
437.614	74.31
437.835	85.31
438.057	79.31
438.278	76.31
438.5	101.31
438.721	87.31
438.943	77.31
439.165	92.31
439.386	74.31
439.608	62.31
439.829	84.31
440.05	72.31
440.272	82.31
440.493	82.31
440.715	81.31
440.936	80.31
441.158	84.31
441.379	78.31
441.6	87.31
441.822	89.31
442.043	77.31
442.264	87.31
442.486	105.31
442.707	114.31
442.928	90.31
443.149	94.31
443.371	128.31
443.592	139.31
443.813	121.31
444.034	90.31
444.255	99.31
444.476	86.31
444.698	86.31
444.919	74.31
445.14	149.31
445.361	153.31
445.582	176.31
445.803	145.31
446.024	99.31
446.245	88.31
446.466	96.31
446.687	85.31
446.908	89.31
447.129	91.31
447.35	81.31
447.571	92.31
447.792	93.31
448.013	70.31
448.234	82.31
448.455	80.31
448.675	83.31
448.896	62.31
449.117	89.31
449.338	78.31
449.559	78.31
449.779	77.31
450	83.31
450.221	92.31
450.442	92.31
450.662	90.31
450.883	89.31
451.104	92.31
451.324	85.31
451.545	72.31
451.766	86.31
451.986	82.31
452.207	74.31
452.428	81.31
452.648	89.31
452.869	97.31
453.089	99.31
453.31	90.31
453.53	79.31
453.751	76.31
453.971	93.31
454.192	79.31
454.412	89.31
454.633	65.31
454.853	81.31
455.073	83.31
455.294	69.31
455.514	90.31
455.734	79.31
455.955	82.31
456.175	79.31
456.395	82.31
456.616	72.31
456.836	82.31
457.056	87.31
457.276	76.31
457.497	85.31
457.717	87.31
457.937	86.31
458.157	91.31
458.377	90.31
458.598	91.31
458.818	116.31
459.038	84.31
459.258	88.31
459.478	84.31
459.698	85.31
459.918	76.31
460.138	81.31
460.358	85.31
460.578	91.31
460.798	107.31
461.018	105.31
461.238	92.31
461.458	79.31
461.678	62.31
461.898	74.31
462.118	88.31
462.338	82.31
462.558	82.31
462.777	80.31
462.997	84.31
463.217	83.31
463.437	85.31
463.657	71.31
463.876	76.31
464.096	71.31
464.316	83.31
464.536	86.31
464.755	84.31
464.975	89.31
465.195	88.31
465.414	86.31
465.634	83.31
465.854	73.31
466.073	75.31
466.293	82.31
466.512	78.31
466.732	81.31
466.951	82.31
467.171	71.31
467.391	78.31
467.61	63.31
467.829	102.31
468.049	70.31
468.268	87.31
468.488	89.31
468.707	78.31
468.927	86.31
469.146	99.31
469.365	72.31
469.585	76.31
469.804	87.31
470.023	81.31
470.243	84.31
470.462	81.31
470.681	91.31
470.901	90.31
471.12	73.31
471.339	75.31
471.558	82.31
471.777	92.31
471.997	84.31
472.216	90.31
472.435	88.31
472.654	86.31
472.873	74.31
473.092	72.31
473.311	82.31
473.53	84.31
473.749	85.31
473.968	92.31
474.187	85.31
474.406	82.31
474.625	97.31
474.844	80.31
475.063	91.31
475.282	95.31
475.501	71.31
475.72	83.31
475.939	74.31
476.158	80.31
476.377	75.31
476.596	86.31
476.814	76.31
477.033	86.31
477.252	96.31
477.471	79.31
477.69	98.31
477.908	74.31
478.127	78.31
478.346	87.31
478.564	78.31
478.783	81.31
479.002	90.31
479.22	82.31
479.439	74.31
479.658	69.31
479.876	88.31
480.095	75.31
480.313	79.31
480.532	86.31
480.751	86.31
480.969	87.31
481.188	88.31
481.406	74.31
481.624	96.31
481.843	84.31
482.061	70.31
482.28	86.31
482.498	85.31
482.717	87.31
482.935	81.31
483.153	89.31
483.372	87.31
483.59	91.31
483.808	74.31
484.027	89.31
484.245	100.31
484.463	78.31
484.681	97.31
484.9	86.31
485.118	79.31
485.336	82.31
485.554	86.31
485.772	86.31
485.99	91.31
486.209	79.31
486.427	83.31
486.645	87.31
486.863	90.31
487.081	80.31
487.299	91.31
487.517	91.31
487.735	91.31
487.953	123.31
488.171	100.31
488.389	83.31
488.607	72.31
488.825	68.31
489.043	72.31
489.261	79.31
489.479	92.31
489.696	76.31
489.914	76.31
490.132	78.31
490.35	86.31
490.568	90.31
490.786	93.31
491.003	82.31
491.221	80.31
491.439	77.31
491.657	88.31
491.874	85.31
492.092	82.31
492.31	82.31
492.527	77.31
492.745	84.31
492.963	87.31
493.18	97.31
493.398	89.31
493.615	72.31
493.833	102.31
494.05	87.31
494.268	71.31
494.485	78.31
494.703	88.31
494.92	86.31
495.138	85.31
495.355	82.31
495.573	79.31
495.79	80.31
496.008	94.31
496.225	90.31
496.442	83.31
496.66	87.31
496.877	92.31
497.094	82.31
497.312	90.31
497.529	80.31
497.746	82.31
497.963	79.31
498.181	81.31
498.398	94.31
498.615	88.31
498.832	75.31
499.049	83.31
499.267	82.31
499.484	93.31
499.701	86.31
499.918	76.31
500.135	80.31
500.352	79.31
500.569	78.31
500.786	86.31
501.003	86.31
501.22	87.31
501.437	85.31
501.654	82.31
501.871	82.31
502.088	91.31
502.305	98.31
502.522	90.31
502.739	81.31
502.956	85.31
503.172	87.31
503.389	90.31
503.606	90.31
503.823	88.31
504.04	99.31
504.256	101.31
504.473	93.31
504.69	92.31
504.907	88.31
505.123	80.31
505.34	85.31
505.557	81.31
505.773	78.31
505.99	81.31
506.207	75.31
506.423	85.31
506.64	91.31
506.856	90.31
507.073	86.31
507.289	94.31
507.506	87.31
507.722	84.31
507.939	76.31
508.155	94.31
508.372	86.31
508.588	82.31
508.805	86.31
509.021	79.31
509.238	92.31
509.454	82.31
509.67	88.31
509.887	84.31
510.103	71.31
510.319	90.31
510.536	86.31
510.752	80.31
510.968	87.31
511.184	91.31
511.401	90.31
511.617	89.31
511.833	91.31
512.049	86.31
512.265	81.31
512.481	76.31
512.698	83.31
512.914	102.31
513.13	82.31
513.346	91.31
513.562	94.31
513.778	88.31
513.994	80.31
514.21	68.31
514.426	91.31
514.642	69.31
514.858	88.31
515.074	76.31
515.29	83.31
515.506	84.31
515.721	83.31
515.937	95.31
516.153	89.31
516.369	92.31
516.585	87.31
516.801	94.31
517.016	83.31
517.232	83.31
517.448	98.31
517.664	91.31
517.879	76.31
518.095	95.31
518.311	88.31
518.527	100.31
518.742	94.31
518.958	110.31
519.173	116.31
