Data from 15780_3_HRD10591_00011.txt Node
Date: Mon Jan 19 14:20:03 EST 2026
User: Yrep
Spectrometer: HR+D1059
Trigger mode: 1
Integration Time (sec): 1.000000E-1
Scans to average: 1
Electric dark correction enabled: true
Nonlinearity correction enabled: false
Boxcar width: 0
XAxis mode: Wavelengths
Number of Pixels in Spectrum: 2048
>>>>>Begin Spectral Data<<<<<
223.165	-22
223.4	-22
223.635	-22
223.869	-16
224.104	-26
224.338	-18
224.573	-9
224.808	-17
225.042	-14
225.277	-5
225.511	2
225.746	16
225.98	34
226.215	21
226.449	1
226.683	22
226.918	23
227.152	8
227.387	31
227.621	46
227.856	50
228.09	36
228.324	48
228.559	42
228.793	56
229.027	58
229.262	68
229.496	55
229.73	74
229.964	68
230.199	73
230.433	71
230.667	72
230.901	72
231.136	66
231.37	85
231.604	92
231.838	84
232.072	83
232.306	75
232.541	98
232.775	76
233.009	83
233.243	75
233.477	76
233.711	69
233.945	72
234.179	74
234.413	84
234.647	70
234.881	74
235.115	70
235.349	65
235.583	70
235.817	85
236.051	80
236.285	77
236.519	67
236.753	76
236.987	74
237.221	91
237.455	81
237.689	65
237.922	70
238.156	67
238.39	57
238.624	77
238.858	91
239.091	70
239.325	87
239.559	81
239.793	80
240.027	83
240.26	76
240.494	69
240.728	86
240.961	83
241.195	70
241.429	68
241.662	73
241.896	80
242.13	86
242.363	64
242.597	68
242.83	86
243.064	73
243.298	68
243.531	76
243.765	70
243.998	79
244.232	74
244.465	93
244.699	75
244.932	74
245.166	82
245.399	68
245.633	86
245.866	71
246.099	84
246.333	79
246.566	91
246.8	79
247.033	89
247.266	67
247.5	75
247.733	89
247.966	72
248.2	71
248.433	84
248.666	74
248.899	76
249.133	84
249.366	82
249.599	85
249.832	87
250.066	80
250.299	85
250.532	85
250.765	94
250.998	82
251.231	67
251.465	74
251.698	84
251.931	82
252.164	83
252.397	89
252.63	80
252.863	86
253.096	82
253.329	77
253.562	79
253.795	86
254.028	77
254.261	67
254.494	77
254.727	72
254.96	73
255.193	86
255.426	90
255.659	74
255.892	83
256.124	82
256.357	85
256.59	78
256.823	88
257.056	79
257.289	89
257.521	82
257.754	82
257.987	87
258.22	94
258.452	60
258.685	70
258.918	68
259.151	86
259.383	74
259.616	81
259.849	93
260.081	69
260.314	77
260.547	67
260.779	80
261.012	78
261.244	86
261.477	93
261.71	67
261.942	77
262.175	70
262.407	78
262.64	81
262.872	84
263.105	90
263.337	73
263.57	80
263.802	70
264.035	74
264.267	81
264.499	83
264.732	80
264.964	76
265.197	80
265.429	82
265.661	93
265.894	74
266.126	69
266.358	75
266.591	76
266.823	81
267.055	76
267.287	93
267.52	84
267.752	89
267.984	88
268.216	88
268.448	84
268.681	79
268.913	76
269.145	82
269.377	82
269.609	85
269.841	74
270.073	74
270.306	71
270.538	99
270.77	65
271.002	80
271.234	90
271.466	93
271.698	80
271.93	79
272.162	98
272.394	78
272.626	75
272.858	87
273.09	82
273.322	82
273.553	86
273.785	77
274.017	76
274.249	86
274.481	80
274.713	88
274.945	66
275.176	90
275.408	87
275.64	86
275.872	103
276.104	82
276.335	86
276.567	87
276.799	75
277.031	78
277.262	73
277.494	95
277.726	83
277.957	81
278.189	79
278.421	81
278.652	72
278.884	81
279.115	82
279.347	92
279.579	86
279.81	78
280.042	97
280.273	93
280.505	96
280.736	90
280.968	81
281.199	86
281.431	65
281.662	77
281.894	98
282.125	93
282.356	93
282.588	81
282.819	74
283.051	82
283.282	88
283.513	96
283.745	70
283.976	88
284.207	80
284.439	89
284.67	94
284.901	89
285.132	92
285.364	90
285.595	94
285.826	80
286.057	85
286.288	95
286.52	80
286.751	74
286.982	80
287.213	84
287.444	90
287.675	86
287.906	91
288.138	94
288.369	106
288.6	82
288.831	81
289.062	86
289.293	76
289.524	88
289.755	92
289.986	89
290.217	110
290.448	84
290.679	92
290.91	83
291.141	81
291.371	83
291.602	80
291.833	74
292.064	83
292.295	87
292.526	84
292.757	80
292.987	94
293.218	92
293.449	81
293.68	87
293.91	94
294.141	90
294.372	79
294.603	81
294.833	99
295.064	88
295.295	94
295.525	90
295.756	82
295.987	87
296.217	72
296.448	76
296.679	90
296.909	101
297.14	104
297.37	106
297.601	93
297.831	88
298.062	89
298.292	87
298.523	99
298.753	96
298.984	96
299.214	94
299.445	78
299.675	104
299.905	98
300.136	94
300.366	85
300.597	77
300.827	103
301.057	97
301.288	103
301.518	87
301.748	96
301.979	94
302.209	102
302.439	100
302.669	96
302.9	87
303.13	71
303.36	93
303.59	98
303.82	101
304.051	83
304.281	90
304.511	76
304.741	77
304.971	88
305.201	82
305.431	95
305.661	95
305.891	100
306.121	102
306.352	94
306.582	90
306.812	90
307.042	96
307.272	88
307.502	93
307.731	91
307.961	88
308.191	99
308.421	117
308.651	98
308.881	96
309.111	107
309.341	120
309.571	117
309.8	96
310.03	73
310.26	98
310.49	82
310.72	89
310.949	85
311.179	79
311.409	83
311.639	90
311.868	86
312.098	88
312.328	82
312.557	100
312.787	91
313.017	90
313.246	87
313.476	87
313.706	99
313.935	94
314.165	88
314.394	89
314.624	106
314.853	76
315.083	90
315.312	86
315.542	91
315.771	91
316.001	95
316.23	101
316.46	82
316.689	91
316.919	94
317.148	80
317.377	101
317.607	98
317.836	114
318.065	107
318.295	114
318.524	92
318.753	94
318.983	85
319.212	93
319.441	90
319.67	103
319.9	101
320.129	100
320.358	98
320.587	94
320.816	88
321.046	98
321.275	102
321.504	89
321.733	107
321.962	99
322.191	90
322.42	92
322.649	101
322.878	100
323.108	102
323.337	93
323.566	101
323.795	106
324.024	92
324.253	79
324.482	89
324.71	96
324.939	102
325.168	91
325.397	88
325.626	88
325.855	101
326.084	83
326.313	88
326.542	72
326.77	86
326.999	84
327.228	104
327.457	85
327.686	92
327.914	83
328.143	94
328.372	73
328.6	87
328.829	82
329.058	112
329.287	75
329.515	94
329.744	90
329.972	105
330.201	102
330.43	107
330.658	82
330.887	90
331.115	90
331.344	98
331.572	90
331.801	94
332.03	65
332.258	100
332.486	76
332.715	93
332.943	94
333.172	77
333.4	95
333.629	90
333.857	87
334.085	89
334.314	103
334.542	109
334.771	108
334.999	114
335.227	110
335.455	104
335.684	112
335.912	128
336.14	130
336.369	115
336.597	104
336.825	100
337.053	98
337.281	115
337.51	97
337.738	104
337.966	105
338.194	90
338.422	98
338.65	96
338.878	102
339.106	104
339.334	90
339.562	93
339.79	69
340.018	87
340.246	75
340.474	81
340.702	96
340.93	92
341.158	105
341.386	99
341.614	88
341.842	90
342.07	94
342.298	88
342.526	92
342.754	87
342.981	104
343.209	107
343.437	97
343.665	100
343.893	96
344.12	123
344.348	105
344.576	98
344.804	94
345.031	94
345.259	91
345.487	81
345.714	87
345.942	93
346.17	88
346.397	100
346.625	91
346.853	94
347.08	84
347.308	106
347.535	118
347.763	103
347.99	102
348.218	80
348.445	85
348.673	94
348.9	95
349.128	107
349.355	97
349.583	90
349.81	92
350.037	108
350.265	82
350.492	88
350.72	67
350.947	92
351.174	91
351.402	80
351.629	92
351.856	86
352.083	82
352.311	102
352.538	86
352.765	89
352.992	92
353.22	87
353.447	92
353.674	81
353.901	101
354.128	87
354.355	83
354.583	99
354.81	91
355.037	88
355.264	84
355.491	89
355.718	92
355.945	94
356.172	86
356.399	99
356.626	110
356.853	108
357.08	104
357.307	108
357.534	92
357.761	111
357.988	114
358.215	111
358.441	110
358.668	111
358.895	96
359.122	86
359.349	100
359.576	102
359.802	79
360.029	78
360.256	95
360.483	98
360.709	105
360.936	108
361.163	95
361.39	88
361.616	96
361.843	105
362.07	127
362.296	125
362.523	130
362.749	132
362.976	171
363.203	184
363.429	129
363.656	130
363.882	138
364.109	161
364.335	221
364.562	217
364.788	177
365.015	122
365.241	106
365.468	118
365.694	112
365.92	94
366.147	91
366.373	94
366.599	88
366.826	86
367.052	93
367.278	79
367.505	98
367.731	99
367.957	103
368.184	103
368.41	84
368.636	98
368.862	110
369.089	97
369.315	84
369.541	88
369.767	85
369.993	96
370.219	104
370.445	93
370.672	107
370.898	123
371.124	103
371.35	75
371.576	94
371.802	110
372.028	128
372.254	137
372.48	111
372.706	95
372.932	122
373.158	112
373.384	124
373.61	156
373.835	162
374.061	117
374.287	144
374.513	115
374.739	150
374.965	150
375.191	122
375.416	116
375.642	121
375.868	123
376.094	130
376.319	123
376.545	104
376.771	96
376.997	110
377.222	98
377.448	88
377.674	90
377.899	81
378.125	96
378.35	78
378.576	99
378.802	99
379.027	87
379.253	100
379.478	96
379.704	113
379.929	101
380.155	104
380.38	85
380.606	99
380.831	104
381.057	113
381.282	106
381.507	118
381.733	120
381.958	135
382.184	136
382.409	139
382.634	151
382.86	138
383.085	137
383.31	131
383.535	144
383.761	130
383.986	147
384.211	126
384.436	114
384.662	114
384.887	111
385.112	115
385.337	119
385.562	116
385.787	132
386.013	134
386.238	120
386.463	123
386.688	114
386.913	112
387.138	134
387.363	131
387.588	135
387.813	121
388.038	126
388.263	143
388.488	128
388.713	120
388.938	112
389.163	90
389.387	103
389.612	110
389.837	107
390.062	112
390.287	107
390.512	103
390.736	108
390.961	95
391.186	94
391.411	106
391.636	104
391.86	98
392.085	102
392.31	125
392.534	142
392.759	177
392.984	259
393.208	446
393.433	688
393.658	519
393.882	231
394.107	161
394.331	175
394.556	203
394.78	139
395.005	128
395.229	127
395.454	119
395.678	162
395.903	219
396.127	238
396.352	274
396.576	279
396.801	442
397.025	524
397.249	278
397.474	178
397.698	146
397.922	106
398.147	116
398.371	119
398.595	104
398.82	94
399.044	107
399.268	106
399.492	104
399.717	103
399.941	107
400.165	98
400.389	90
400.613	90
400.837	99
401.062	102
401.286	103
401.51	86
401.734	87
401.958	108
402.182	87
402.406	90
402.63	93
402.854	110
403.078	84
403.302	94
403.526	106
403.75	87
403.974	104
404.198	102
404.422	119
404.645	137
404.869	126
405.093	110
405.317	92
405.541	87
405.765	89
405.988	106
406.212	108
406.436	112
406.66	104
406.883	107
407.107	107
407.331	107
407.555	118
407.778	157
408.002	165
408.226	118
408.449	95
408.673	104
408.896	99
409.12	100
409.344	123
409.567	122
409.791	130
410.014	129
410.238	115
410.461	106
410.685	94
410.908	90
411.132	114
411.355	96
411.578	112
411.802	96
412.025	96
412.249	98
412.472	90
412.695	96
412.919	98
413.142	102
413.365	90
413.589	93
413.812	84
414.035	84
414.258	87
414.482	99
414.705	86
414.928	100
415.151	91
415.374	96
415.597	97
415.821	94
416.044	85
416.267	82
416.49	87
416.713	79
416.936	98
417.159	92
417.382	95
417.605	92
417.828	99
418.051	97
418.274	88
418.497	92
418.72	94
418.943	90
419.166	99
419.389	93
419.611	105
419.834	101
420.057	86
420.28	115
420.503	99
420.726	90
420.948	114
421.171	119
421.394	135
421.617	161
421.839	174
422.062	196
422.285	287
422.507	523
422.73	779
422.953	707
423.175	405
423.398	238
423.621	166
423.843	135
424.066	128
424.288	113
424.511	105
424.733	98
424.956	97
425.178	96
425.401	118
425.623	100
425.846	94
426.068	108
426.291	107
426.513	103
426.735	97
426.958	92
427.18	110
427.402	106
427.625	115
427.847	90
428.069	133
428.292	188
428.514	227
428.736	156
428.958	194
429.181	214
429.403	136
429.625	124
429.847	180
430.069	274
430.292	318
430.514	304
430.736	239
430.958	245
431.18	131
431.402	127
431.624	123
431.846	189
432.068	204
432.29	131
432.512	106
432.734	101
432.956	100
433.178	78
433.4	94
433.622	101
433.844	102
434.066	99
434.287	94
434.509	91
434.731	88
434.953	101
435.175	107
435.397	102
435.618	116
435.84	110
436.062	107
436.284	102
436.505	94
436.727	102
436.949	94
437.17	72
437.392	79
437.614	98
437.835	112
438.057	96
438.278	119
438.5	115
438.721	107
438.943	82
439.165	86
439.386	95
439.608	90
439.829	90
440.05	98
440.272	105
440.493	121
440.715	117
440.936	118
441.158	83
441.379	94
441.6	110
441.822	103
442.043	109
442.264	114
442.486	203
442.707	278
442.928	182
443.149	139
443.371	245
443.592	453
443.813	410
444.034	158
444.255	119
444.476	104
444.698	105
444.919	108
445.14	226
445.361	330
445.582	558
445.803	496
446.024	185
446.245	132
446.466	114
446.687	91
446.908	100
447.129	88
447.35	95
447.571	74
447.792	86
448.013	95
448.234	102
448.455	80
448.675	82
448.896	103
449.117	113
449.338	97
449.559	72
449.779	86
450	84
450.221	92
450.442	93
450.662	75
450.883	90
451.104	84
451.324	94
451.545	87
451.766	79
451.986	100
452.207	99
452.428	94
452.648	120
452.869	135
453.089	126
453.31	126
453.53	147
453.751	138
453.971	97
454.192	101
454.412	89
454.633	77
454.853	101
455.073	98
455.294	114
455.514	122
455.734	103
455.955	103
456.175	74
456.395	94
456.616	80
456.836	82
457.056	102
457.276	93
457.497	87
457.717	99
457.937	155
458.157	176
458.377	184
458.598	180
458.818	194
459.038	121
459.258	100
459.478	84
459.698	90
459.918	74
460.138	94
460.358	98
460.578	105
460.798	200
461.018	178
461.238	96
461.458	94
461.678	92
461.898	93
462.118	90
462.338	100
462.558	101
462.777	91
462.997	89
463.217	95
463.437	82
463.657	84
463.876	88
464.096	96
464.316	82
464.536	80
464.755	98
464.975	92
465.195	91
465.414	86
465.634	80
465.854	93
466.073	62
466.293	87
466.512	105
466.732	69
466.951	103
467.171	105
467.391	88
467.61	102
467.829	82
468.049	87
468.268	96
468.488	108
468.707	93
468.927	90
469.146	83
469.365	91
469.585	92
469.804	98
470.023	92
470.243	89
470.462	83
470.681	102
470.901	95
471.12	98
471.339	88
471.558	82
471.777	80
471.997	96
472.216	97
472.435	83
472.654	94
472.873	97
473.092	88
473.311	76
473.53	93
473.749	91
473.968	90
474.187	91
474.406	89
474.625	96
474.844	93
475.063	94
475.282	92
475.501	94
475.72	86
475.939	82
476.158	92
476.377	98
476.596	77
476.814	86
477.033	86
477.252	76
477.471	99
477.69	98
477.908	94
478.127	106
478.346	91
478.564	88
478.783	83
479.002	77
479.22	98
479.439	95
479.658	86
479.876	92
480.095	98
480.313	102
480.532	87
480.751	94
480.969	101
481.188	102
481.406	110
481.624	112
481.843	90
482.061	98
482.28	104
482.498	100
482.717	90
482.935	91
483.153	87
483.372	104
483.59	104
483.808	90
484.027	88
484.245	102
484.463	104
484.681	114
484.9	107
485.118	105
485.336	112
485.554	110
485.772	91
485.99	83
486.209	108
486.427	94
486.645	114
486.863	98
487.081	137
487.299	118
487.517	135
487.735	160
487.953	323
488.171	248
488.389	126
488.607	107
488.825	92
489.043	103
489.261	105
489.479	91
489.696	102
489.914	110
490.132	110
490.35	94
490.568	96
490.786	96
491.003	99
491.221	92
491.439	111
491.657	98
491.874	107
492.092	113
492.31	106
492.527	87
492.745	99
492.963	93
493.18	105
493.398	116
493.615	134
493.833	101
494.05	110
494.268	88
494.485	94
494.703	89
494.92	96
495.138	85
495.355	110
495.573	91
495.79	90
496.008	118
496.225	112
496.442	119
496.66	107
496.877	108
497.094	124
497.312	103
497.529	94
497.746	99
497.963	116
498.181	149
498.398	176
498.615	122
498.832	105
499.049	114
499.267	160
499.484	121
499.701	103
499.918	128
500.135	139
500.352	123
500.569	110
500.786	128
501.003	138
501.22	108
501.437	127
501.654	156
501.871	114
502.088	105
502.305	120
502.522	117
502.739	117
502.956	107
503.172	104
503.389	103
503.606	112
503.823	136
504.04	164
504.256	228
504.473	227
504.69	122
504.907	110
505.123	106
505.34	96
505.557	96
505.773	103
505.99	105
506.207	98
506.423	101
506.64	106
506.856	94
507.073	84
507.289	95
507.506	94
507.722	80
507.939	91
508.155	84
508.372	100
508.588	104
508.805	102
509.021	104
509.238	95
509.454	96
509.67	96
509.887	75
510.103	75
510.319	115
510.536	99
510.752	90
510.968	90
511.184	92
511.401	90
511.617	111
511.833	102
512.049	92
512.265	108
512.481	104
512.698	98
512.914	91
513.13	97
513.346	101
513.562	112
513.778	89
513.994	97
514.21	106
514.426	92
514.642	99
514.858	102
515.074	104
515.29	107
515.506	105
515.721	98
515.937	98
516.153	100
516.369	110
516.585	103
516.801	118
517.016	123
517.232	114
517.448	146
517.664	132
517.879	102
518.095	115
518.311	119
518.527	161
518.742	155
518.958	267
519.173	314
519.389	158
519.605	118
519.82	110
520.036	95
520.251	98
520.467	105
520.682	92
520.898	108
521.113	135
521.329	122
521.544	97
521.76	107
521.975	95
522.19	98
522.406	114
522.621	112
522.836	111
523.052	107
523.267	106
523.482	101
523.698	101
523.913	119
524.128	104
524.343	107
524.559	95
524.774	98
524.989	100
525.204	106
525.419	105
525.634	103
525.849	126
526.064	174
526.28	430
526.495	658
526.71	682
526.925	405
527.14	555
527.355	510
527.57	156
527.785	115
527.999	114
528.214	105
528.429	110
528.644	107
528.859	96
529.074	102
529.289	105
529.503	106
529.718	96
529.933	116
530.148	124
530.363	97
530.577	110
530.792	96
531.007	119
531.221	114
531.436	116
531.651	108
531.865	105
532.08	100
532.295	118
532.509	99
532.724	99
532.938	130
533.153	114
533.367	114
533.582	106
533.796	114
534.011	111
534.225	119
534.44	122
534.654	129
534.868	150
535.083	293
535.297	257
535.511	126
535.726	111
535.94	104
536.154	137
536.369	127
536.583	116
536.797	113
537.011	120
537.225	107
537.44	110
537.654	125
537.868	126
538.082	124
538.296	134
538.51	109
538.724	112
538.938	120
539.153	125
539.367	116
539.581	119
539.795	124
540.009	106
540.222	124
540.436	107
540.65	115
540.864	114
541.078	122
541.292	120
541.506	129
541.72	110
541.934	117
542.147	123
542.361	121
542.575	110
542.789	120
543.002	101
543.216	132
543.43	111
543.644	118
543.857	137
544.071	116
544.285	112
544.498	120
544.712	114
544.925	135
545.139	110
545.352	126
545.566	132
545.779	144
545.993	123
546.206	136
546.42	145
546.633	149
546.847	163
547.06	186
547.274	194
547.487	233
547.7	253
547.914	261
548.127	260
548.34	301
548.554	256
548.767	289
548.98	274
549.193	278
549.407	274
549.62	282
549.833	324
550.046	354
550.259	371
550.473	348
550.686	400
550.899	443
551.112	455
551.325	518
551.538	574
551.751	481
551.964	464
552.177	448
552.39	473
552.603	462
552.816	460
553.029	467
553.242	468
553.455	455
553.667	496
553.88	540
554.093	546
554.306	515
554.519	539
554.732	530
554.944	527
555.157	495
555.37	453
555.583	474
555.795	431
556.008	393
556.221	377
556.433	375
556.646	370
556.859	323
557.071	297
557.284	289
557.496	288
557.709	266
557.921	269
558.134	268
558.346	389
558.559	326
558.771	289
558.984	608
559.196	766
559.409	395
559.621	593
559.833	439
560.046	566
560.258	477
560.47	475
560.683	224
560.895	172
561.107	163
561.32	153
561.532	159
561.744	159
561.956	144
562.168	143
562.381	150
562.593	156
562.805	143
563.017	144
563.229	127
563.441	140
563.653	126
563.865	122
564.077	124
564.289	131
564.501	120
564.713	116
564.925	114
565.137	120
565.349	136
565.561	118
565.773	122
565.985	122
566.197	124
566.408	134
566.62	135
566.832	126
567.044	118
567.255	124
567.467	116
567.679	112
567.891	133
568.102	120
568.314	123
568.526	126
568.737	148
568.949	144
569.161	163
569.372	125
569.584	132
569.795	130
570.007	123
570.218	135
570.43	145
570.641	110
570.853	121
571.064	128
571.276	123
571.487	117
571.698	130
571.91	134
572.121	134
572.333	130
572.544	127
572.755	116
572.966	126
573.178	127
573.389	140
573.6	118
573.811	117
574.023	114
574.234	121
574.445	120
574.656	120
574.867	120
575.078	107
575.289	112
575.501	85
575.712	107
575.923	131
576.134	107
576.345	124
576.556	122
576.767	121
576.978	112
577.188	108
577.399	100
577.61	102
