Data from 15780_3_HRD10591_00042.txt Node
Date: Mon Jan 19 14:20:19 EST 2026
User: Yrep
Spectrometer: HR+D1059
Trigger mode: 1
Integration Time (sec): 1.000000E-1
Scans to average: 1
Electric dark correction enabled: true
Nonlinearity correction enabled: false
Boxcar width: 0
XAxis mode: Wavelengths
Number of Pixels in Spectrum: 2048
>>>>>Begin Spectral Data<<<<<
223.165	-9
223.4	-9
223.635	-9
223.869	-19
224.104	-19
224.338	-3
224.573	-20
224.808	-9
225.042	-13
225.277	-3
225.511	0
225.746	7
225.98	9
226.215	7
226.449	21
226.683	5
226.918	10
227.152	36
227.387	33
227.621	39
227.856	41
228.09	55
228.324	63
228.559	77
228.793	66
229.027	55
229.262	67
229.496	51
229.73	73
229.964	81
230.199	61
230.433	83
230.667	72
230.901	72
231.136	73
231.37	91
231.604	90
231.838	100
232.072	84
232.306	73
232.541	101
232.775	71
233.009	83
233.243	85
233.477	84
233.711	80
233.945	76
234.179	83
234.413	88
234.647	86
234.881	86
235.115	78
235.349	68
235.583	72
235.817	86
236.051	79
236.285	75
236.519	83
236.753	94
236.987	67
237.221	80
237.455	89
237.689	89
237.922	70
238.156	79
238.39	94
238.624	65
238.858	75
239.091	86
239.325	74
239.559	83
239.793	82
240.027	76
240.26	74
240.494	82
240.728	78
240.961	79
241.195	70
241.429	69
241.662	89
241.896	85
242.13	79
242.363	87
242.597	75
242.83	73
243.064	64
243.298	71
243.531	77
243.765	83
243.998	68
244.232	82
244.465	67
244.699	67
244.932	82
245.166	79
245.399	91
245.633	79
245.866	66
246.099	77
246.333	89
246.566	70
246.8	69
247.033	90
247.266	84
247.5	72
247.733	74
247.966	91
248.2	71
248.433	73
248.666	77
248.899	82
249.133	78
249.366	74
249.599	61
249.832	78
250.066	80
250.299	63
250.532	91
250.765	86
250.998	93
251.231	76
251.465	75
251.698	66
251.931	69
252.164	75
252.397	85
252.63	85
252.863	84
253.096	85
253.329	85
253.562	76
253.795	94
254.028	85
254.261	76
254.494	67
254.727	88
254.96	87
255.193	85
255.426	74
255.659	84
255.892	72
256.124	67
256.357	73
256.59	83
256.823	70
257.056	88
257.289	81
257.521	75
257.754	76
257.987	76
258.22	80
258.452	87
258.685	76
258.918	78
259.151	77
259.383	62
259.616	89
259.849	88
260.081	77
260.314	89
260.547	80
260.779	69
261.012	81
261.244	83
261.477	87
261.71	92
261.942	83
262.175	89
262.407	77
262.64	92
262.872	84
263.105	90
263.337	89
263.57	79
263.802	88
264.035	88
264.267	86
264.499	77
264.732	87
264.964	80
265.197	85
265.429	89
265.661	85
265.894	95
266.126	80
266.358	80
266.591	76
266.823	78
267.055	86
267.287	84
267.52	77
267.752	101
267.984	89
268.216	90
268.448	88
268.681	85
268.913	83
269.145	84
269.377	92
269.609	85
269.841	72
270.073	86
270.306	82
270.538	92
270.77	80
271.002	74
271.234	82
271.466	69
271.698	79
271.93	89
272.162	75
272.394	83
272.626	73
272.858	65
273.09	95
273.322	88
273.553	95
273.785	82
274.017	68
274.249	70
274.481	85
274.713	91
274.945	89
275.176	64
275.408	79
275.64	84
275.872	93
276.104	94
276.335	82
276.567	90
276.799	90
277.031	84
277.262	77
277.494	89
277.726	75
277.957	92
278.189	81
278.421	89
278.652	79
278.884	87
279.115	85
279.347	73
279.579	90
279.81	73
280.042	73
280.273	94
280.505	85
280.736	90
280.968	91
281.199	79
281.431	74
281.662	79
281.894	83
282.125	88
282.356	95
282.588	80
282.819	95
283.051	88
283.282	68
283.513	81
283.745	77
283.976	87
284.207	93
284.439	83
284.67	85
284.901	79
285.132	87
285.364	83
285.595	82
285.826	78
286.057	85
286.288	72
286.52	74
286.751	85
286.982	79
287.213	80
287.444	86
287.675	85
287.906	94
288.138	83
288.369	72
288.6	93
288.831	94
289.062	86
289.293	77
289.524	103
289.755	87
289.986	87
290.217	83
290.448	84
290.679	85
290.91	83
291.141	71
291.371	84
291.602	89
291.833	85
292.064	96
292.295	81
292.526	77
292.757	86
292.987	91
293.218	86
293.449	85
293.68	82
293.91	75
294.141	86
294.372	107
294.603	73
294.833	90
295.064	91
295.295	95
295.525	81
295.756	94
295.987	102
296.217	86
296.448	77
296.679	83
296.909	99
297.14	86
297.37	79
297.601	79
297.831	90
298.062	92
298.292	83
298.523	85
298.753	89
298.984	80
299.214	105
299.445	89
299.675	75
299.905	95
300.136	87
300.366	88
300.597	76
300.827	94
301.057	89
301.288	87
301.518	85
301.748	91
301.979	107
302.209	102
302.439	107
302.669	85
302.9	90
303.13	102
303.36	89
303.59	97
303.82	86
304.051	92
304.281	92
304.511	83
304.741	83
304.971	96
305.201	84
305.431	96
305.661	101
305.891	89
306.121	81
306.352	94
306.582	90
306.812	77
307.042	80
307.272	92
307.502	89
307.731	96
307.961	80
308.191	93
308.421	97
308.651	94
308.881	103
309.111	97
309.341	87
309.571	98
309.8	87
310.03	85
310.26	85
310.49	91
310.72	91
310.949	90
311.179	86
311.409	83
311.639	84
311.868	79
312.098	85
312.328	83
312.557	97
312.787	95
313.017	87
313.246	77
313.476	73
313.706	74
313.935	85
314.165	81
314.394	88
314.624	75
314.853	75
315.083	90
315.312	83
315.542	97
315.771	98
316.001	100
316.23	90
316.46	92
316.689	93
316.919	100
317.148	98
317.377	81
317.607	95
317.836	102
318.065	99
318.295	94
318.524	93
318.753	101
318.983	80
319.212	91
319.441	95
319.67	93
319.9	76
320.129	80
320.358	85
320.587	78
320.816	93
321.046	85
321.275	87
321.504	90
321.733	99
321.962	98
322.191	80
322.42	84
322.649	87
322.878	92
323.108	86
323.337	97
323.566	106
323.795	72
324.024	92
324.253	80
324.482	80
324.71	95
324.939	90
325.168	90
325.397	91
325.626	97
325.855	84
326.084	86
326.313	78
326.542	69
326.77	79
326.999	81
327.228	99
327.457	84
327.686	83
327.914	70
328.143	97
328.372	95
328.6	79
328.829	88
329.058	89
329.287	97
329.515	101
329.744	83
329.972	60
330.201	93
330.43	93
330.658	90
330.887	96
331.115	101
331.344	77
331.572	94
331.801	93
332.03	92
332.258	83
332.486	93
332.715	77
332.943	86
333.172	79
333.4	97
333.629	94
333.857	91
334.085	87
334.314	86
334.542	93
334.771	93
334.999	95
335.227	96
335.455	94
335.684	85
335.912	90
336.14	84
336.369	90
336.597	85
336.825	83
337.053	89
337.281	71
337.51	76
337.738	92
337.966	91
338.194	92
338.422	86
338.65	91
338.878	105
339.106	91
339.334	77
339.562	81
339.79	96
340.018	72
340.246	95
340.474	91
340.702	87
340.93	93
341.158	86
341.386	88
341.614	94
341.842	89
342.07	67
342.298	79
342.526	86
342.754	91
342.981	72
343.209	88
343.437	105
343.665	92
343.893	93
344.12	82
344.348	91
344.576	69
344.804	93
345.031	82
345.259	83
345.487	102
345.714	85
345.942	91
346.17	82
346.397	72
346.625	76
346.853	76
347.08	89
347.308	90
347.535	87
347.763	97
347.99	83
348.218	76
348.445	85
348.673	72
348.9	87
349.128	89
349.355	86
349.583	95
349.81	80
350.037	100
350.265	86
350.492	98
350.72	84
350.947	92
351.174	88
351.402	98
351.629	92
351.856	84
352.083	89
352.311	84
352.538	89
352.765	89
352.992	85
353.22	84
353.447	84
353.674	87
353.901	89
354.128	88
354.355	91
354.583	79
354.81	89
355.037	83
355.264	85
355.491	82
355.718	77
355.945	79
356.172	92
356.399	103
356.626	98
356.853	89
357.08	65
357.307	92
357.534	84
357.761	85
357.988	94
358.215	99
358.441	102
358.668	89
358.895	86
359.122	78
359.349	85
359.576	84
359.802	77
360.029	89
360.256	86
360.483	85
360.709	82
360.936	87
361.163	81
361.39	79
361.616	80
361.843	78
362.07	65
362.296	94
362.523	87
362.749	99
362.976	93
363.203	103
363.429	97
363.656	90
363.882	97
364.109	92
364.335	103
364.562	111
364.788	99
365.015	81
365.241	83
365.468	92
365.694	83
365.92	85
366.147	79
366.373	78
366.599	85
366.826	98
367.052	78
367.278	92
367.505	84
367.731	90
367.957	101
368.184	100
368.41	81
368.636	86
368.862	87
369.089	62
369.315	57
369.541	87
369.767	72
369.993	96
370.219	85
370.445	87
370.672	92
370.898	90
371.124	81
371.35	78
371.576	83
371.802	84
372.028	108
372.254	97
372.48	83
372.706	87
372.932	90
373.158	98
373.384	90
373.61	114
373.835	93
374.061	87
374.287	91
374.513	84
374.739	87
374.965	90
375.191	80
375.416	93
375.642	89
375.868	78
376.094	79
376.319	84
376.545	86
376.771	86
376.997	99
377.222	83
377.448	87
377.674	84
377.899	74
378.125	75
378.35	93
378.576	75
378.802	78
379.027	85
379.253	86
379.478	81
379.704	83
379.929	73
380.155	87
380.38	85
380.606	82
380.831	89
381.057	90
381.282	75
381.507	85
381.733	87
381.958	109
382.184	84
382.409	105
382.634	90
382.86	90
383.085	82
383.31	101
383.535	89
383.761	93
383.986	95
384.211	106
384.436	85
384.662	76
384.887	77
385.112	90
385.337	91
385.562	89
385.787	91
386.013	99
386.238	101
386.463	80
386.688	93
386.913	92
387.138	104
387.363	78
387.588	93
387.813	92
388.038	92
388.263	95
388.488	72
388.713	89
388.938	73
389.163	87
389.387	86
389.612	77
389.837	74
390.062	86
390.287	84
390.512	75
390.736	97
390.961	93
391.186	84
391.411	83
391.636	82
391.86	78
392.085	87
392.31	97
392.534	103
392.759	98
392.984	154
393.208	243
393.433	351
393.658	265
393.882	138
394.107	112
394.331	105
394.556	113
394.78	97
395.005	97
395.229	78
395.454	86
395.678	94
395.903	115
396.127	122
396.352	147
396.576	157
396.801	244
397.025	271
397.249	156
397.474	109
397.698	93
397.922	84
398.147	93
398.371	87
398.595	84
398.82	93
399.044	94
399.268	88
399.492	92
399.717	90
399.941	85
400.165	88
400.389	82
400.613	83
400.837	99
401.062	75
401.286	80
401.51	93
401.734	87
401.958	80
402.182	85
402.406	72
402.63	81
402.854	82
403.078	87
403.302	84
403.526	82
403.75	80
403.974	87
404.198	102
404.422	111
404.645	109
404.869	105
405.093	101
405.317	94
405.541	72
405.765	79
405.988	93
406.212	100
406.436	82
406.66	77
406.883	93
407.107	89
407.331	97
407.555	90
407.778	111
408.002	114
408.226	91
408.449	83
408.673	99
408.896	84
409.12	83
409.344	93
409.567	93
409.791	99
410.014	95
410.238	94
410.461	83
410.685	74
410.908	86
411.132	88
411.355	104
411.578	77
411.802	82
412.025	93
412.249	91
412.472	87
412.695	90
412.919	67
413.142	89
413.365	83
413.589	79
413.812	89
414.035	93
414.258	77
414.482	75
414.705	75
414.928	91
415.151	88
415.374	83
415.597	73
415.821	89
416.044	75
416.267	87
416.49	84
416.713	86
416.936	103
417.159	98
417.382	69
417.605	86
417.828	95
418.051	92
418.274	95
418.497	82
418.72	88
418.943	89
419.166	75
419.389	78
419.611	87
419.834	85
420.057	89
420.28	86
420.503	86
420.726	92
420.948	86
421.171	94
421.394	99
421.617	128
421.839	96
422.062	99
422.285	139
422.507	222
422.73	373
422.953	313
423.175	135
423.398	100
423.621	95
423.843	73
424.066	87
424.288	99
424.511	83
424.733	75
424.956	100
425.178	91
425.401	86
425.623	82
425.846	82
426.068	97
426.291	95
426.513	77
426.735	84
426.958	93
427.18	85
427.402	89
427.625	94
427.847	73
428.069	91
428.292	109
428.514	110
428.736	112
428.958	113
429.181	126
429.403	92
429.625	97
429.847	105
430.069	130
430.292	152
430.514	152
430.736	127
430.958	119
431.18	88
431.402	97
431.624	84
431.846	124
432.068	127
432.29	111
432.512	83
432.734	89
432.956	83
433.178	92
433.4	73
433.622	93
433.844	74
434.066	85
434.287	78
434.509	84
434.731	73
434.953	84
435.175	76
435.397	86
435.618	93
435.84	85
436.062	87
436.284	85
436.505	88
436.727	79
436.949	81
437.17	81
437.392	79
437.614	91
437.835	75
438.057	91
438.278	101
438.5	84
438.721	87
438.943	70
439.165	85
439.386	88
439.608	93
439.829	77
440.05	79
440.272	87
440.493	87
440.715	90
440.936	89
441.158	84
441.379	72
441.6	83
441.822	80
442.043	71
442.264	86
442.486	106
442.707	117
442.928	104
443.149	99
443.371	132
443.592	204
443.813	183
444.034	110
444.255	101
444.476	105
444.698	82
444.919	89
445.14	162
445.361	180
445.582	220
445.803	195
446.024	109
446.245	81
446.466	105
446.687	87
446.908	99
447.129	94
447.35	79
447.571	85
447.792	70
448.013	89
448.234	75
448.455	85
448.675	85
448.896	92
449.117	90
449.338	91
449.559	88
449.779	84
450	88
450.221	97
450.442	78
450.662	81
450.883	84
451.104	79
451.324	90
451.545	92
451.766	87
451.986	89
452.207	78
452.428	80
452.648	92
452.869	95
453.089	77
453.31	83
453.53	101
453.751	89
453.971	87
454.192	83
454.412	84
454.633	97
454.853	80
455.073	79
455.294	90
455.514	91
455.734	87
455.955	89
456.175	77
456.395	93
456.616	79
456.836	81
457.056	83
457.276	99
457.497	95
457.717	91
457.937	95
458.157	94
458.377	100
458.598	96
458.818	94
459.038	97
459.258	83
459.478	82
459.698	85
459.918	94
460.138	86
460.358	93
460.578	105
460.798	102
461.018	109
461.238	91
461.458	82
461.678	90
461.898	92
462.118	83
462.338	90
462.558	89
462.777	82
462.997	84
463.217	82
463.437	76
463.657	89
463.876	78
464.096	79
464.316	88
464.536	84
464.755	87
464.975	91
465.195	102
465.414	78
465.634	89
465.854	82
466.073	100
466.293	84
466.512	98
466.732	82
466.951	98
467.171	81
467.391	79
467.61	92
467.829	85
468.049	72
468.268	91
468.488	95
468.707	89
468.927	92
469.146	102
469.365	88
469.585	91
469.804	93
470.023	81
470.243	85
470.462	86
470.681	91
470.901	86
471.12	86
471.339	75
471.558	77
471.777	66
471.997	86
472.216	85
472.435	74
472.654	69
472.873	85
473.092	92
473.311	75
473.53	74
473.749	87
473.968	90
474.187	83
474.406	96
474.625	94
474.844	90
475.063	80
475.282	71
475.501	97
475.72	77
475.939	92
476.158	82
476.377	101
476.596	83
476.814	87
477.033	85
477.252	74
477.471	78
477.69	93
477.908	82
478.127	93
478.346	91
478.564	87
478.783	88
479.002	85
479.22	71
479.439	90
479.658	87
479.876	90
480.095	96
480.313	86
480.532	80
480.751	71
480.969	69
481.188	85
481.406	95
481.624	90
481.843	97
482.061	95
482.28	91
482.498	77
482.717	90
482.935	81
483.153	84
483.372	92
483.59	77
483.808	76
484.027	94
484.245	100
484.463	94
484.681	94
484.9	86
485.118	80
485.336	83
485.554	80
485.772	73
485.99	92
486.209	91
486.427	96
486.645	59
486.863	65
487.081	83
487.299	90
487.517	98
487.735	102
487.953	134
488.171	108
488.389	90
488.607	93
488.825	96
489.043	90
489.261	85
489.479	97
489.696	88
489.914	87
490.132	85
490.35	90
490.568	93
490.786	84
491.003	85
491.221	93
491.439	76
491.657	91
491.874	94
492.092	94
492.31	74
492.527	89
492.745	86
492.963	86
493.18	75
493.398	83
493.615	79
493.833	93
494.05	81
494.268	93
494.485	99
494.703	84
494.92	83
495.138	87
495.355	90
495.573	82
495.79	80
496.008	100
496.225	87
496.442	88
496.66	85
496.877	75
497.094	98
497.312	86
497.529	86
497.746	84
497.963	85
498.181	86
498.398	97
498.615	97
498.832	83
499.049	94
499.267	83
499.484	92
499.701	83
499.918	92
500.135	77
500.352	92
500.569	97
500.786	103
501.003	83
501.22	85
501.437	87
501.654	84
501.871	93
502.088	72
502.305	97
502.522	76
502.739	88
502.956	90
503.172	98
503.389	93
503.606	87
503.823	97
504.04	103
504.256	132
504.473	115
504.69	107
504.907	102
505.123	84
505.34	76
505.557	81
505.773	101
505.99	103
506.207	86
506.423	88
506.64	97
506.856	87
507.073	79
507.289	86
507.506	82
507.722	92
507.939	93
508.155	87
508.372	83
508.588	90
508.805	87
509.021	89
509.238	87
509.454	85
509.67	93
509.887	78
510.103	81
510.319	71
510.536	87
510.752	88
510.968	87
511.184	79
511.401	70
511.617	91
511.833	93
512.049	90
512.265	88
512.481	97
512.698	87
512.914	85
513.13	76
513.346	77
513.562	83
513.778	96
513.994	75
514.21	103
514.426	82
514.642	78
514.858	85
515.074	85
515.29	100
515.506	91
515.721	73
515.937	85
516.153	82
516.369	85
516.585	73
516.801	83
517.016	95
517.232	82
517.448	91
517.664	99
517.879	88
518.095	90
518.311	110
518.527	91
518.742	92
518.958	119
519.173	140
519.389	88
519.605	89
519.82	87
520.036	92
520.251	101
520.467	87
520.682	96
520.898	80
521.113	81
521.329	84
521.544	89
521.76	77
521.975	84
522.19	83
522.406	83
522.621	88
522.836	97
523.052	100
523.267	86
523.482	85
523.698	79
523.913	81
524.128	92
524.343	74
524.559	92
524.774	85
524.989	91
525.204	81
525.419	86
525.634	94
525.849	76
526.064	118
526.28	149
526.495	199
526.71	213
526.925	159
527.14	215
527.355	196
527.57	86
527.785	77
527.999	77
528.214	94
528.429	105
528.644	110
528.859	85
529.074	85
529.289	90
529.503	85
529.718	75
529.933	89
530.148	87
530.363	89
530.577	75
530.792	87
531.007	79
531.221	92
531.436	87
531.651	84
531.865	81
532.08	76
532.295	73
532.509	87
532.724	95
532.938	98
533.153	86
533.367	82
533.582	88
533.796	89
534.011	83
534.225	86
534.44	88
534.654	98
534.868	104
535.083	113
535.297	117
535.511	96
535.726	97
535.94	88
536.154	85
536.369	94
536.583	92
536.797	88
537.011	82
537.225	89
537.44	85
537.654	102
537.868	72
538.082	91
538.296	102
538.51	81
538.724	94
538.938	92
539.153	95
539.367	93
539.581	98
539.795	89
540.009	86
540.222	76
540.436	88
540.65	90
540.864	88
541.078	92
541.292	89
541.506	89
541.72	86
541.934	101
542.147	91
542.361	95
542.575	89
542.789	89
543.002	93
543.216	102
543.43	89
543.644	91
543.857	88
544.071	89
544.285	100
544.498	89
544.712	83
544.925	81
545.139	93
545.352	106
545.566	91
545.779	109
545.993	99
546.206	90
546.42	95
546.633	89
546.847	109
547.06	111
547.274	107
547.487	97
547.7	105
547.914	125
548.127	124
548.34	115
548.554	116
548.767	117
548.98	121
549.193	101
549.407	117
549.62	129
549.833	130
550.046	119
550.259	123
550.473	106
550.686	114
550.899	122
551.112	153
551.325	139
551.538	133
551.751	127
551.964	126
552.177	135
552.39	118
552.603	126
552.816	121
553.029	115
553.242	136
553.455	119
553.667	131
553.88	133
554.093	151
554.306	138
554.519	116
554.732	130
554.944	121
555.157	126
555.37	124
555.583	133
555.795	124
556.008	116
556.221	82
556.433	97
556.646	121
556.859	110
557.071	104
557.284	97
557.496	94
557.709	90
557.921	126
558.134	114
558.346	145
558.559	135
558.771	123
558.984	229
559.196	251
559.409	147
559.621	206
559.833	174
560.046	181
560.258	149
560.47	164
560.683	117
560.895	101
561.107	105
561.32	88
561.532	81
561.744	87
561.956	90
562.168	91
562.381	99
562.593	107
562.805	109
563.017	78
563.229	100
563.441	96
563.653	78
563.865	95
564.077	93
564.289	85
564.501	95
564.713	100
564.925	91
565.137	83
565.349	98
565.561	84
565.773	86
565.985	95
566.197	94
566.408	86
566.62	90
566.832	99
567.044	85
567.255	94
567.467	82
567.679	86
567.891	98
568.102	84
568.314	101
568.526	93
568.737	98
568.949	106
569.161	108
569.372	90
569.584	95
569.795	88
570.007	91
570.218	80
570.43	88
570.641	101
570.853	103
571.064	93
571.276	87
571.487	82
571.698	99
571.91	84
572.121	90
572.333	97
572.544	93
572.755	92
572.966	87
573.178	95
573.389	87
573.6	102
573.811	89
574.023	88
574.234	92
574.445	80
574.656	95
574.867	97
575.078	85
575.289	98
575.501	99
575.712	85
575.923	87
576.134	93
576.345	70
576.556	83
576.767	87
576.978	94
577.188	103
577.399	88
577.61	92
577.821	79
578.032	88
578.243	91
578.454	115
578.665	107
578.875	91
579.086	93
579.297	94
579.508	79
579.718	104
579.929	95
580.14	89
580.35	99
580.561	99
580.772	103
580.982	91
581.193	86
581.403	90
581.614	101
581.825	95
582.035	94
582.246	90
582.456	102
582.667	83
582.877	81
583.087	93
583.298	85
583.508	102
583.719	92
583.929	101
584.139	84
584.35	89
584.56	93
584.77	94
584.981	95
585.191	84
585.401	101
585.611	91
585.821	130
586.032	177
586.242	110
586.452	98
586.662	97
586.872	81
587.082	95
