Data from 15780_3_HRD10591_00032.txt Node
Date: Mon Jan 19 14:20:14 EST 2026
User: Yrep
Spectrometer: HR+D1059
Trigger mode: 1
Integration Time (sec): 1.000000E-1
Scans to average: 1
Electric dark correction enabled: true
Nonlinearity correction enabled: false
Boxcar width: 0
XAxis mode: Wavelengths
Number of Pixels in Spectrum: 2048
>>>>>Begin Spectral Data<<<<<
223.165	-18.06
223.4	-18.06
223.635	-18.06
223.869	-12.06
224.104	-18.06
224.338	-24.06
224.573	-26.06
224.808	-13.06
225.042	-14.06
225.277	-12.06
225.511	3.94
225.746	16.94
225.98	19.94
226.215	0.94
226.449	16.94
226.683	18.94
226.918	31.94
227.152	27.94
227.387	34.94
227.621	39.94
227.856	44.94
228.09	42.94
228.324	42.94
228.559	48.94
228.793	61.94
229.027	64.94
229.262	54.94
229.496	68.94
229.73	79.94
229.964	73.94
230.199	73.94
230.433	74.94
230.667	78.94
230.901	79.94
231.136	76.94
231.37	86.94
231.604	76.94
231.838	82.94
232.072	75.94
232.306	81.94
232.541	88.94
232.775	80.94
233.009	78.94
233.243	72.94
233.477	75.94
233.711	83.94
233.945	77.94
234.179	70.94
234.413	89.94
234.647	84.94
234.881	74.94
235.115	65.94
235.349	71.94
235.583	83.94
235.817	76.94
236.051	72.94
236.285	74.94
236.519	72.94
236.753	64.94
236.987	89.94
237.221	83.94
237.455	74.94
237.689	67.94
237.922	68.94
238.156	81.94
238.39	81.94
238.624	68.94
238.858	66.94
239.091	74.94
239.325	64.94
239.559	73.94
239.793	75.94
240.027	90.94
240.26	61.94
240.494	76.94
240.728	75.94
240.961	74.94
241.195	64.94
241.429	80.94
241.662	84.94
241.896	81.94
242.13	69.94
242.363	65.94
242.597	72.94
242.83	80.94
243.064	77.94
243.298	59.94
243.531	77.94
243.765	76.94
243.998	75.94
244.232	83.94
244.465	76.94
244.699	68.94
244.932	78.94
245.166	78.94
245.399	78.94
245.633	76.94
245.866	79.94
246.099	88.94
246.333	78.94
246.566	74.94
246.8	77.94
247.033	79.94
247.266	90.94
247.5	83.94
247.733	86.94
247.966	84.94
248.2	75.94
248.433	80.94
248.666	84.94
248.899	77.94
249.133	71.94
249.366	78.94
249.599	88.94
249.832	75.94
250.066	85.94
250.299	77.94
250.532	79.94
250.765	71.94
250.998	81.94
251.231	73.94
251.465	73.94
251.698	74.94
251.931	84.94
252.164	65.94
252.397	69.94
252.63	75.94
252.863	86.94
253.096	71.94
253.329	71.94
253.562	70.94
253.795	66.94
254.028	73.94
254.261	70.94
254.494	75.94
254.727	98.94
254.96	77.94
255.193	71.94
255.426	85.94
255.659	96.94
255.892	93.94
256.124	76.94
256.357	87.94
256.59	74.94
256.823	91.94
257.056	77.94
257.289	77.94
257.521	75.94
257.754	76.94
257.987	83.94
258.22	87.94
258.452	94.94
258.685	76.94
258.918	89.94
259.151	73.94
259.383	82.94
259.616	77.94
259.849	87.94
260.081	85.94
260.314	82.94
260.547	81.94
260.779	82.94
261.012	66.94
261.244	81.94
261.477	83.94
261.71	89.94
261.942	88.94
262.175	88.94
262.407	83.94
262.64	85.94
262.872	85.94
263.105	79.94
263.337	86.94
263.57	77.94
263.802	89.94
264.035	72.94
264.267	83.94
264.499	83.94
264.732	85.94
264.964	81.94
265.197	92.94
265.429	74.94
265.661	92.94
265.894	66.94
266.126	68.94
266.358	83.94
266.591	87.94
266.823	87.94
267.055	74.94
267.287	84.94
267.52	71.94
267.752	81.94
267.984	83.94
268.216	85.94
268.448	85.94
268.681	94.94
268.913	88.94
269.145	81.94
269.377	70.94
269.609	82.94
269.841	70.94
270.073	81.94
270.306	65.94
270.538	78.94
270.77	96.94
271.002	82.94
271.234	93.94
271.466	91.94
271.698	69.94
271.93	94.94
272.162	82.94
272.394	87.94
272.626	79.94
272.858	94.94
273.09	80.94
273.322	83.94
273.553	83.94
273.785	82.94
274.017	89.94
274.249	87.94
274.481	78.94
274.713	84.94
274.945	77.94
275.176	86.94
275.408	99.94
275.64	85.94
275.872	73.94
276.104	66.94
276.335	80.94
276.567	89.94
276.799	78.94
277.031	61.94
277.262	74.94
277.494	79.94
277.726	93.94
277.957	83.94
278.189	71.94
278.421	87.94
278.652	85.94
278.884	82.94
279.115	86.94
279.347	93.94
279.579	93.94
279.81	89.94
280.042	89.94
280.273	58.94
280.505	73.94
280.736	88.94
280.968	79.94
281.199	67.94
281.431	73.94
281.662	84.94
281.894	87.94
282.125	79.94
282.356	90.94
282.588	83.94
282.819	79.94
283.051	82.94
283.282	87.94
283.513	71.94
283.745	89.94
283.976	75.94
284.207	90.94
284.439	82.94
284.67	95.94
284.901	95.94
285.132	84.94
285.364	87.94
285.595	86.94
285.826	84.94
286.057	68.94
286.288	103.94
286.52	77.94
286.751	74.94
286.982	79.94
287.213	83.94
287.444	98.94
287.675	73.94
287.906	65.94
288.138	80.94
288.369	93.94
288.6	85.94
288.831	75.94
289.062	69.94
289.293	82.94
289.524	90.94
289.755	82.94
289.986	81.94
290.217	86.94
290.448	85.94
290.679	82.94
290.91	81.94
291.141	86.94
291.371	79.94
291.602	86.94
291.833	81.94
292.064	96.94
292.295	86.94
292.526	73.94
292.757	75.94
292.987	76.94
293.218	77.94
293.449	86.94
293.68	79.94
293.91	101.94
294.141	89.94
294.372	89.94
294.603	87.94
294.833	94.94
295.064	77.94
295.295	74.94
295.525	75.94
295.756	89.94
295.987	84.94
296.217	83.94
296.448	82.94
296.679	81.94
296.909	87.94
297.14	83.94
297.37	81.94
297.601	70.94
297.831	79.94
298.062	82.94
298.292	87.94
298.523	84.94
298.753	78.94
298.984	73.94
299.214	82.94
299.445	73.94
299.675	79.94
299.905	73.94
300.136	91.94
300.366	85.94
300.597	81.94
300.827	80.94
301.057	70.94
301.288	86.94
301.518	95.94
301.748	80.94
301.979	91.94
302.209	92.94
302.439	89.94
302.669	79.94
302.9	94.94
303.13	82.94
303.36	68.94
303.59	79.94
303.82	80.94
304.051	74.94
304.281	85.94
304.511	89.94
304.741	83.94
304.971	73.94
305.201	85.94
305.431	89.94
305.661	80.94
305.891	71.94
306.121	96.94
306.352	87.94
306.582	74.94
306.812	81.94
307.042	85.94
307.272	90.94
307.502	88.94
307.731	83.94
307.961	74.94
308.191	85.94
308.421	77.94
308.651	94.94
308.881	95.94
309.111	90.94
309.341	106.94
309.571	85.94
309.8	73.94
310.03	80.94
310.26	95.94
310.49	93.94
310.72	92.94
310.949	85.94
311.179	86.94
311.409	90.94
311.639	83.94
311.868	73.94
312.098	82.94
312.328	78.94
312.557	88.94
312.787	92.94
313.017	86.94
313.246	86.94
313.476	79.94
313.706	74.94
313.935	72.94
314.165	71.94
314.394	76.94
314.624	72.94
314.853	85.94
315.083	94.94
315.312	73.94
315.542	71.94
315.771	83.94
316.001	93.94
316.23	84.94
316.46	69.94
316.689	75.94
316.919	80.94
317.148	83.94
317.377	81.94
317.607	81.94
317.836	97.94
318.065	92.94
318.295	96.94
318.524	82.94
318.753	83.94
318.983	98.94
319.212	79.94
319.441	79.94
319.67	87.94
319.9	89.94
320.129	83.94
320.358	76.94
320.587	87.94
320.816	86.94
321.046	69.94
321.275	83.94
321.504	82.94
321.733	72.94
321.962	93.94
322.191	90.94
322.42	81.94
322.649	88.94
322.878	86.94
323.108	85.94
323.337	94.94
323.566	80.94
323.795	79.94
324.024	79.94
324.253	89.94
324.482	83.94
324.71	83.94
324.939	87.94
325.168	96.94
325.397	86.94
325.626	70.94
325.855	81.94
326.084	85.94
326.313	88.94
326.542	74.94
326.77	92.94
326.999	74.94
327.228	78.94
327.457	82.94
327.686	79.94
327.914	96.94
328.143	87.94
328.372	65.94
328.6	81.94
328.829	79.94
329.058	70.94
329.287	78.94
329.515	81.94
329.744	92.94
329.972	94.94
330.201	82.94
330.43	76.94
330.658	86.94
330.887	72.94
331.115	92.94
331.344	81.94
331.572	85.94
331.801	88.94
332.03	83.94
332.258	80.94
332.486	75.94
332.715	78.94
332.943	89.94
333.172	76.94
333.4	81.94
333.629	81.94
333.857	63.94
334.085	82.94
334.314	74.94
334.542	85.94
334.771	87.94
334.999	76.94
335.227	89.94
335.455	79.94
335.684	66.94
335.912	100.94
336.14	75.94
336.369	74.94
336.597	92.94
336.825	85.94
337.053	85.94
337.281	85.94
337.51	77.94
337.738	91.94
337.966	87.94
338.194	98.94
338.422	80.94
338.65	84.94
338.878	75.94
339.106	60.94
339.334	75.94
339.562	68.94
339.79	74.94
340.018	90.94
340.246	114.94
340.474	96.94
340.702	91.94
340.93	77.94
341.158	84.94
341.386	82.94
341.614	94.94
341.842	88.94
342.07	76.94
342.298	87.94
342.526	95.94
342.754	86.94
342.981	95.94
343.209	74.94
343.437	84.94
343.665	81.94
343.893	85.94
344.12	77.94
344.348	85.94
344.576	85.94
344.804	88.94
345.031	70.94
345.259	74.94
345.487	74.94
345.714	76.94
345.942	87.94
346.17	90.94
346.397	78.94
346.625	80.94
346.853	74.94
347.08	76.94
347.308	82.94
347.535	82.94
347.763	84.94
347.99	89.94
348.218	87.94
348.445	76.94
348.673	79.94
348.9	89.94
349.128	79.94
349.355	91.94
349.583	96.94
349.81	89.94
350.037	76.94
350.265	86.94
350.492	89.94
350.72	74.94
350.947	83.94
351.174	93.94
351.402	80.94
351.629	92.94
351.856	83.94
352.083	90.94
352.311	83.94
352.538	91.94
352.765	88.94
352.992	101.94
353.22	89.94
353.447	80.94
353.674	77.94
353.901	85.94
354.128	82.94
354.355	85.94
354.583	81.94
354.81	70.94
355.037	67.94
355.264	85.94
355.491	76.94
355.718	85.94
355.945	87.94
356.172	78.94
356.399	91.94
356.626	76.94
356.853	73.94
357.08	79.94
357.307	84.94
357.534	73.94
357.761	81.94
357.988	79.94
358.215	93.94
358.441	98.94
358.668	75.94
358.895	82.94
359.122	85.94
359.349	75.94
359.576	81.94
359.802	90.94
360.029	68.94
360.256	87.94
360.483	75.94
360.709	81.94
360.936	78.94
361.163	82.94
361.39	66.94
361.616	67.94
361.843	80.94
362.07	91.94
362.296	85.94
362.523	72.94
362.749	90.94
362.976	92.94
363.203	94.94
363.429	88.94
363.656	82.94
363.882	86.94
364.109	99.94
364.335	96.94
364.562	101.94
364.788	75.94
365.015	85.94
365.241	78.94
365.468	82.94
365.694	85.94
365.92	93.94
366.147	73.94
366.373	76.94
366.599	96.94
366.826	95.94
367.052	88.94
367.278	77.94
367.505	83.94
367.731	91.94
367.957	80.94
368.184	83.94
368.41	80.94
368.636	79.94
368.862	72.94
369.089	81.94
369.315	86.94
369.541	85.94
369.767	72.94
369.993	79.94
370.219	78.94
370.445	90.94
370.672	93.94
370.898	89.94
371.124	76.94
371.35	72.94
371.576	86.94
371.802	73.94
372.028	74.94
372.254	92.94
372.48	91.94
372.706	75.94
372.932	80.94
373.158	81.94
373.384	91.94
373.61	79.94
373.835	97.94
374.061	87.94
374.287	90.94
374.513	83.94
374.739	86.94
374.965	94.94
375.191	85.94
375.416	73.94
375.642	72.94
375.868	96.94
376.094	83.94
376.319	77.94
376.545	84.94
376.771	84.94
376.997	81.94
377.222	80.94
377.448	86.94
377.674	84.94
377.899	91.94
378.125	74.94
378.35	97.94
378.576	69.94
378.802	98.94
379.027	82.94
379.253	76.94
379.478	83.94
379.704	91.94
379.929	86.94
380.155	81.94
380.38	81.94
380.606	91.94
380.831	81.94
381.057	85.94
381.282	82.94
381.507	85.94
381.733	85.94
381.958	89.94
382.184	85.94
382.409	83.94
382.634	94.94
382.86	77.94
383.085	84.94
383.31	90.94
383.535	78.94
383.761	74.94
383.986	78.94
384.211	88.94
384.436	82.94
384.662	72.94
384.887	83.94
385.112	97.94
385.337	74.94
385.562	86.94
385.787	86.94
386.013	85.94
386.238	89.94
386.463	83.94
386.688	104.94
386.913	75.94
387.138	70.94
387.363	74.94
387.588	87.94
387.813	83.94
388.038	93.94
388.263	87.94
388.488	68.94
388.713	82.94
388.938	82.94
389.163	80.94
389.387	86.94
389.612	69.94
389.837	96.94
390.062	98.94
390.287	90.94
390.512	79.94
390.736	75.94
390.961	79.94
391.186	97.94
391.411	82.94
391.636	74.94
391.86	73.94
392.085	94.94
392.31	67.94
392.534	93.94
392.759	93.94
392.984	102.94
393.208	178.94
393.433	212.94
393.658	185.94
393.882	95.94
394.107	101.94
394.331	95.94
394.556	100.94
394.78	96.94
395.005	97.94
395.229	81.94
395.454	85.94
395.678	80.94
395.903	72.94
396.127	114.94
396.352	113.94
396.576	110.94
396.801	173.94
397.025	165.94
397.249	115.94
397.474	83.94
397.698	84.94
397.922	89.94
398.147	81.94
398.371	86.94
398.595	76.94
398.82	69.94
399.044	79.94
399.268	77.94
399.492	90.94
399.717	85.94
399.941	84.94
400.165	68.94
400.389	81.94
400.613	85.94
400.837	94.94
401.062	73.94
401.286	77.94
401.51	87.94
401.734	65.94
401.958	76.94
402.182	66.94
402.406	71.94
402.63	69.94
402.854	87.94
403.078	75.94
403.302	84.94
403.526	76.94
403.75	83.94
403.974	88.94
404.198	79.94
404.422	85.94
404.645	105.94
404.869	96.94
405.093	61.94
405.317	86.94
405.541	61.94
405.765	75.94
405.988	73.94
406.212	86.94
406.436	76.94
406.66	73.94
406.883	94.94
407.107	76.94
407.331	81.94
407.555	90.94
407.778	89.94
408.002	84.94
408.226	79.94
408.449	79.94
408.673	83.94
408.896	95.94
409.12	73.94
409.344	83.94
409.567	76.94
409.791	82.94
410.014	75.94
410.238	71.94
410.461	82.94
410.685	75.94
410.908	83.94
411.132	89.94
411.355	79.94
411.578	78.94
411.802	81.94
412.025	85.94
412.249	77.94
412.472	94.94
412.695	87.94
412.919	85.94
413.142	78.94
413.365	76.94
413.589	79.94
413.812	85.94
414.035	73.94
414.258	88.94
414.482	75.94
414.705	71.94
414.928	89.94
415.151	71.94
415.374	74.94
415.597	75.94
415.821	67.94
416.044	71.94
416.267	76.94
416.49	85.94
416.713	79.94
416.936	72.94
417.159	88.94
417.382	79.94
417.605	74.94
417.828	89.94
418.051	76.94
418.274	69.94
418.497	80.94
418.72	76.94
418.943	73.94
419.166	85.94
419.389	66.94
419.611	77.94
419.834	81.94
420.057	80.94
420.28	75.94
420.503	75.94
420.726	85.94
420.948	71.94
421.171	83.94
421.394	89.94
421.617	79.94
421.839	83.94
422.062	87.94
422.285	98.94
422.507	141.94
422.73	230.94
422.953	207.94
423.175	117.94
423.398	96.94
423.621	61.94
423.843	72.94
424.066	82.94
424.288	91.94
424.511	96.94
424.733	81.94
424.956	90.94
425.178	75.94
425.401	91.94
425.623	83.94
425.846	86.94
426.068	79.94
426.291	76.94
426.513	88.94
426.735	65.94
426.958	93.94
427.18	86.94
427.402	77.94
427.625	75.94
427.847	86.94
428.069	82.94
428.292	91.94
428.514	97.94
428.736	89.94
428.958	91.94
429.181	80.94
429.403	71.94
429.625	74.94
429.847	94.94
430.069	121.94
430.292	122.94
430.514	121.94
430.736	101.94
430.958	89.94
431.18	77.94
431.402	83.94
431.624	87.94
431.846	97.94
432.068	97.94
432.29	83.94
432.512	83.94
432.734	81.94
432.956	80.94
433.178	82.94
433.4	76.94
433.622	81.94
433.844	84.94
434.066	89.94
434.287	81.94
434.509	78.94
434.731	79.94
434.953	81.94
435.175	82.94
435.397	69.94
435.618	85.94
435.84	79.94
436.062	73.94
436.284	81.94
436.505	89.94
436.727	74.94
436.949	81.94
437.17	84.94
437.392	89.94
437.614	89.94
437.835	82.94
438.057	88.94
438.278	74.94
438.5	75.94
438.721	86.94
438.943	82.94
439.165	86.94
439.386	86.94
439.608	87.94
439.829	82.94
440.05	66.94
440.272	82.94
440.493	83.94
440.715	66.94
440.936	70.94
441.158	97.94
441.379	67.94
441.6	71.94
441.822	74.94
442.043	66.94
442.264	82.94
442.486	97.94
442.707	103.94
442.928	100.94
443.149	65.94
443.371	105.94
443.592	134.94
443.813	122.94
444.034	96.94
444.255	92.94
444.476	89.94
444.698	81.94
444.919	71.94
445.14	146.94
445.361	138.94
445.582	161.94
445.803	132.94
446.024	76.94
446.245	63.94
446.466	91.94
446.687	94.94
446.908	75.94
447.129	89.94
447.35	81.94
447.571	78.94
447.792	66.94
448.013	75.94
448.234	87.94
448.455	76.94
448.675	68.94
448.896	78.94
449.117	88.94
449.338	87.94
449.559	73.94
449.779	81.94
450	79.94
450.221	81.94
450.442	79.94
450.662	81.94
450.883	83.94
451.104	76.94
451.324	72.94
451.545	81.94
451.766	81.94
451.986	81.94
452.207	85.94
452.428	83.94
452.648	71.94
452.869	81.94
453.089	83.94
453.31	80.94
453.53	77.94
453.751	71.94
453.971	88.94
454.192	66.94
454.412	83.94
454.633	89.94
454.853	82.94
455.073	73.94
455.294	86.94
455.514	92.94
455.734	84.94
455.955	87.94
456.175	83.94
456.395	91.94
456.616	75.94
456.836	73.94
457.056	74.94
457.276	82.94
457.497	73.94
457.717	85.94
457.937	81.94
458.157	83.94
458.377	86.94
458.598	86.94
458.818	86.94
459.038	74.94
459.258	78.94
459.478	85.94
459.698	98.94
459.918	99.94
460.138	68.94
460.358	80.94
460.578	78.94
460.798	106.94
461.018	87.94
461.238	66.94
461.458	69.94
461.678	73.94
461.898	78.94
462.118	73.94
462.338	83.94
462.558	83.94
462.777	75.94
462.997	91.94
463.217	69.94
463.437	84.94
463.657	85.94
463.876	69.94
464.096	79.94
464.316	69.94
464.536	74.94
464.755	77.94
464.975	69.94
465.195	79.94
465.414	87.94
465.634	88.94
465.854	81.94
466.073	89.94
466.293	65.94
466.512	83.94
466.732	89.94
466.951	80.94
467.171	75.94
467.391	71.94
467.61	75.94
467.829	90.94
468.049	75.94
468.268	73.94
468.488	69.94
468.707	75.94
468.927	81.94
469.146	79.94
469.365	86.94
469.585	80.94
469.804	85.94
470.023	85.94
470.243	72.94
470.462	71.94
470.681	87.94
470.901	79.94
471.12	73.94
471.339	70.94
471.558	78.94
471.777	78.94
471.997	85.94
472.216	85.94
472.435	78.94
472.654	81.94
472.873	92.94
473.092	69.94
473.311	75.94
473.53	83.94
473.749	80.94
473.968	83.94
474.187	79.94
474.406	72.94
474.625	81.94
474.844	75.94
475.063	80.94
475.282	81.94
475.501	85.94
475.72	76.94
475.939	90.94
476.158	79.94
476.377	84.94
476.596	75.94
476.814	93.94
477.033	81.94
477.252	78.94
477.471	75.94
477.69	84.94
477.908	79.94
478.127	87.94
478.346	78.94
478.564	84.94
478.783	76.94
479.002	84.94
479.22	86.94
479.439	82.94
479.658	80.94
479.876	81.94
480.095	80.94
480.313	75.94
480.532	87.94
480.751	88.94
480.969	75.94
481.188	84.94
481.406	86.94
481.624	80.94
481.843	65.94
482.061	74.94
482.28	73.94
482.498	82.94
482.717	76.94
482.935	90.94
483.153	77.94
483.372	79.94
483.59	86.94
483.808	78.94
484.027	79.94
484.245	79.94
484.463	93.94
484.681	86.94
484.9	83.94
485.118	88.94
485.336	90.94
485.554	89.94
485.772	83.94
485.99	81.94
486.209	78.94
486.427	73.94
486.645	84.94
486.863	87.94
487.081	80.94
487.299	83.94
487.517	84.94
487.735	91.94
487.953	98.94
488.171	84.94
488.389	90.94
488.607	83.94
488.825	78.94
489.043	69.94
489.261	79.94
489.479	63.94
489.696	68.94
489.914	71.94
490.132	77.94
490.35	84.94
490.568	77.94
490.786	93.94
491.003	89.94
491.221	75.94
491.439	70.94
491.657	88.94
491.874	81.94
492.092	77.94
492.31	80.94
492.527	75.94
492.745	104.94
492.963	79.94
493.18	64.94
493.398	80.94
493.615	98.94
493.833	86.94
494.05	79.94
494.268	81.94
494.485	87.94
494.703	93.94
494.92	88.94
495.138	87.94
495.355	103.94
495.573	75.94
495.79	79.94
496.008	89.94
496.225	77.94
496.442	85.94
496.66	76.94
496.877	74.94
497.094	92.94
497.312	86.94
497.529	97.94
497.746	76.94
497.963	80.94
498.181	87.94
498.398	96.94
498.615	74.94
498.832	86.94
499.049	89.94
499.267	81.94
499.484	89.94
499.701	79.94
499.918	88.94
500.135	87.94
500.352	80.94
500.569	77.94
500.786	83.94
501.003	75.94
501.22	79.94
501.437	78.94
501.654	80.94
501.871	75.94
502.088	72.94
502.305	80.94
502.522	81.94
502.739	79.94
502.956	86.94
503.172	81.94
503.389	81.94
503.606	86.94
503.823	87.94
504.04	90.94
504.256	99.94
504.473	95.94
504.69	89.94
504.907	98.94
505.123	70.94
505.34	98.94
505.557	80.94
505.773	78.94
505.99	49.94
506.207	91.94
506.423	85.94
506.64	102.94
506.856	77.94
507.073	75.94
507.289	82.94
507.506	87.94
507.722	76.94
507.939	80.94
508.155	95.94
508.372	75.94
508.588	74.94
508.805	79.94
509.021	72.94
509.238	74.94
509.454	82.94
509.67	79.94
509.887	64.94
510.103	74.94
510.319	86.94
510.536	78.94
510.752	85.94
510.968	88.94
511.184	80.94
511.401	91.94
511.617	83.94
511.833	83.94
512.049	74.94
512.265	74.94
512.481	85.94
512.698	93.94
512.914	75.94
513.13	95.94
513.346	73.94
513.562	88.94
513.778	84.94
513.994	78.94
514.21	80.94
514.426	87.94
514.642	85.94
514.858	87.94
515.074	93.94
515.29	83.94
515.506	87.94
515.721	74.94
515.937	87.94
516.153	94.94
516.369	75.94
516.585	80.94
516.801	77.94
517.016	90.94
517.232	76.94
517.448	86.94
517.664	80.94
517.879	88.94
518.095	76.94
518.311	86.94
518.527	94.94
518.742	89.94
518.958	87.94
519.173	88.94
519.389	89.94
519.605	72.94
