Data from 15780_3_HRD10591_00037.txt Node
Date: Mon Jan 19 14:20:16 EST 2026
User: Yrep
Spectrometer: HR+D1059
Trigger mode: 1
Integration Time (sec): 1.000000E-1
Scans to average: 1
Electric dark correction enabled: true
Nonlinearity correction enabled: false
Boxcar width: 0
XAxis mode: Wavelengths
Number of Pixels in Spectrum: 2048
>>>>>Begin Spectral Data<<<<<
223.165	-13.25
223.4	-13.25
223.635	-13.25
223.869	-8.25
224.104	-21.25
224.338	-22.25
224.573	-14.25
224.808	-7.25
225.042	-14.25
225.277	-8.25
225.511	-14.25
225.746	0.75
225.98	22.75
226.215	17.75
226.449	12.75
226.683	14.75
226.918	20.75
227.152	33.75
227.387	39.75
227.621	34.75
227.856	44.75
228.09	51.75
228.324	42.75
228.559	51.75
228.793	55.75
229.027	54.75
229.262	79.75
229.496	71.75
229.73	75.75
229.964	59.75
230.199	74.75
230.433	78.75
230.667	74.75
230.901	79.75
231.136	79.75
231.37	72.75
231.604	86.75
231.838	77.75
232.072	89.75
232.306	88.75
232.541	81.75
232.775	76.75
233.009	84.75
233.243	92.75
233.477	74.75
233.711	83.75
233.945	92.75
234.179	76.75
234.413	82.75
234.647	85.75
234.881	69.75
235.115	81.75
235.349	82.75
235.583	81.75
235.817	87.75
236.051	70.75
236.285	75.75
236.519	84.75
236.753	78.75
236.987	84.75
237.221	82.75
237.455	85.75
237.689	70.75
237.922	77.75
238.156	71.75
238.39	63.75
238.624	67.75
238.858	77.75
239.091	83.75
239.325	77.75
239.559	76.75
239.793	82.75
240.027	75.75
240.26	66.75
240.494	79.75
240.728	75.75
240.961	74.75
241.195	74.75
241.429	83.75
241.662	83.75
241.896	85.75
242.13	80.75
242.363	67.75
242.597	82.75
242.83	75.75
243.064	81.75
243.298	91.75
243.531	78.75
243.765	81.75
243.998	69.75
244.232	90.75
244.465	72.75
244.699	68.75
244.932	72.75
245.166	69.75
245.399	73.75
245.633	70.75
245.866	85.75
246.099	77.75
246.333	88.75
246.566	61.75
246.8	66.75
247.033	73.75
247.266	69.75
247.5	90.75
247.733	77.75
247.966	67.75
248.2	84.75
248.433	77.75
248.666	90.75
248.899	83.75
249.133	75.75
249.366	85.75
249.599	83.75
249.832	72.75
250.066	84.75
250.299	92.75
250.532	78.75
250.765	71.75
250.998	83.75
251.231	73.75
251.465	83.75
251.698	91.75
251.931	72.75
252.164	78.75
252.397	89.75
252.63	73.75
252.863	79.75
253.096	77.75
253.329	77.75
253.562	73.75
253.795	91.75
254.028	81.75
254.261	76.75
254.494	84.75
254.727	79.75
254.96	72.75
255.193	76.75
255.426	85.75
255.659	67.75
255.892	74.75
256.124	82.75
256.357	73.75
256.59	87.75
256.823	72.75
257.056	80.75
257.289	77.75
257.521	68.75
257.754	84.75
257.987	77.75
258.22	87.75
258.452	87.75
258.685	75.75
258.918	75.75
259.151	82.75
259.383	78.75
259.616	75.75
259.849	89.75
260.081	82.75
260.314	90.75
260.547	90.75
260.779	68.75
261.012	91.75
261.244	77.75
261.477	75.75
261.71	74.75
261.942	77.75
262.175	69.75
262.407	89.75
262.64	82.75
262.872	72.75
263.105	75.75
263.337	87.75
263.57	84.75
263.802	78.75
264.035	82.75
264.267	84.75
264.499	92.75
264.732	87.75
264.964	80.75
265.197	75.75
265.429	95.75
265.661	91.75
265.894	74.75
266.126	83.75
266.358	60.75
266.591	90.75
266.823	88.75
267.055	81.75
267.287	78.75
267.52	78.75
267.752	85.75
267.984	81.75
268.216	79.75
268.448	71.75
268.681	103.75
268.913	72.75
269.145	70.75
269.377	93.75
269.609	84.75
269.841	72.75
270.073	61.75
270.306	89.75
270.538	83.75
270.77	85.75
271.002	81.75
271.234	77.75
271.466	86.75
271.698	74.75
271.93	73.75
272.162	81.75
272.394	77.75
272.626	76.75
272.858	88.75
273.09	91.75
273.322	81.75
273.553	71.75
273.785	72.75
274.017	99.75
274.249	75.75
274.481	90.75
274.713	89.75
274.945	92.75
275.176	104.75
275.408	85.75
275.64	93.75
275.872	85.75
276.104	79.75
276.335	85.75
276.567	91.75
276.799	93.75
277.031	80.75
277.262	73.75
277.494	83.75
277.726	91.75
277.957	100.75
278.189	77.75
278.421	72.75
278.652	89.75
278.884	96.75
279.115	77.75
279.347	89.75
279.579	91.75
279.81	73.75
280.042	68.75
280.273	80.75
280.505	73.75
280.736	84.75
280.968	92.75
281.199	91.75
281.431	75.75
281.662	68.75
281.894	74.75
282.125	92.75
282.356	75.75
282.588	86.75
282.819	81.75
283.051	91.75
283.282	86.75
283.513	89.75
283.745	85.75
283.976	87.75
284.207	84.75
284.439	74.75
284.67	93.75
284.901	81.75
285.132	84.75
285.364	73.75
285.595	85.75
285.826	89.75
286.057	89.75
286.288	90.75
286.52	77.75
286.751	77.75
286.982	94.75
287.213	81.75
287.444	90.75
287.675	81.75
287.906	92.75
288.138	81.75
288.369	89.75
288.6	75.75
288.831	65.75
289.062	81.75
289.293	97.75
289.524	96.75
289.755	88.75
289.986	89.75
290.217	92.75
290.448	89.75
290.679	86.75
290.91	100.75
291.141	91.75
291.371	87.75
291.602	102.75
291.833	97.75
292.064	87.75
292.295	77.75
292.526	99.75
292.757	79.75
292.987	82.75
293.218	70.75
293.449	79.75
293.68	87.75
293.91	87.75
294.141	82.75
294.372	86.75
294.603	75.75
294.833	77.75
295.064	85.75
295.295	105.75
295.525	95.75
295.756	86.75
295.987	85.75
296.217	89.75
296.448	73.75
296.679	81.75
296.909	94.75
297.14	89.75
297.37	79.75
297.601	83.75
297.831	74.75
298.062	104.75
298.292	92.75
298.523	95.75
298.753	94.75
298.984	98.75
299.214	84.75
299.445	92.75
299.675	88.75
299.905	84.75
300.136	87.75
300.366	75.75
300.597	102.75
300.827	87.75
301.057	91.75
301.288	80.75
301.518	86.75
301.748	84.75
301.979	90.75
302.209	80.75
302.439	83.75
302.669	97.75
302.9	89.75
303.13	84.75
303.36	89.75
303.59	86.75
303.82	95.75
304.051	85.75
304.281	85.75
304.511	84.75
304.741	97.75
304.971	91.75
305.201	95.75
305.431	88.75
305.661	88.75
305.891	74.75
306.121	89.75
306.352	96.75
306.582	87.75
306.812	81.75
307.042	88.75
307.272	81.75
307.502	85.75
307.731	92.75
307.961	90.75
308.191	88.75
308.421	95.75
308.651	73.75
308.881	96.75
309.111	84.75
309.341	89.75
309.571	91.75
309.8	80.75
310.03	85.75
310.26	76.75
310.49	76.75
310.72	98.75
310.949	99.75
311.179	83.75
311.409	85.75
311.639	100.75
311.868	79.75
312.098	84.75
312.328	90.75
312.557	85.75
312.787	76.75
313.017	87.75
313.246	85.75
313.476	74.75
313.706	88.75
313.935	85.75
314.165	93.75
314.394	91.75
314.624	94.75
314.853	89.75
315.083	96.75
315.312	95.75
315.542	75.75
315.771	95.75
316.001	78.75
316.23	88.75
316.46	89.75
316.689	86.75
316.919	77.75
317.148	76.75
317.377	93.75
317.607	96.75
317.836	96.75
318.065	87.75
318.295	93.75
318.524	90.75
318.753	86.75
318.983	90.75
319.212	84.75
319.441	96.75
319.67	82.75
319.9	94.75
320.129	90.75
320.358	96.75
320.587	82.75
320.816	77.75
321.046	88.75
321.275	76.75
321.504	87.75
321.733	87.75
321.962	90.75
322.191	89.75
322.42	79.75
322.649	99.75
322.878	102.75
323.108	104.75
323.337	104.75
323.566	98.75
323.795	93.75
324.024	91.75
324.253	83.75
324.482	90.75
324.71	75.75
324.939	81.75
325.168	89.75
325.397	96.75
325.626	82.75
325.855	78.75
326.084	93.75
326.313	76.75
326.542	84.75
326.77	97.75
326.999	90.75
327.228	78.75
327.457	83.75
327.686	72.75
327.914	85.75
328.143	90.75
328.372	91.75
328.6	80.75
328.829	87.75
329.058	70.75
329.287	74.75
329.515	89.75
329.744	90.75
329.972	91.75
330.201	102.75
330.43	97.75
330.658	91.75
330.887	74.75
331.115	87.75
331.344	78.75
331.572	86.75
331.801	76.75
332.03	76.75
332.258	87.75
332.486	71.75
332.715	91.75
332.943	85.75
333.172	68.75
333.4	81.75
333.629	91.75
333.857	77.75
334.085	88.75
334.314	79.75
334.542	87.75
334.771	88.75
334.999	82.75
335.227	102.75
335.455	83.75
335.684	106.75
335.912	94.75
336.14	77.75
336.369	81.75
336.597	80.75
336.825	80.75
337.053	85.75
337.281	86.75
337.51	86.75
337.738	83.75
337.966	83.75
338.194	93.75
338.422	72.75
338.65	99.75
338.878	97.75
339.106	93.75
339.334	89.75
339.562	81.75
339.79	83.75
340.018	89.75
340.246	81.75
340.474	77.75
340.702	79.75
340.93	75.75
341.158	81.75
341.386	81.75
341.614	89.75
341.842	100.75
342.07	83.75
342.298	87.75
342.526	67.75
342.754	88.75
342.981	77.75
343.209	86.75
343.437	99.75
343.665	85.75
343.893	87.75
344.12	88.75
344.348	84.75
344.576	93.75
344.804	92.75
345.031	92.75
345.259	89.75
345.487	72.75
345.714	90.75
345.942	85.75
346.17	79.75
346.397	79.75
346.625	92.75
346.853	79.75
347.08	91.75
347.308	86.75
347.535	93.75
347.763	76.75
347.99	77.75
348.218	96.75
348.445	84.75
348.673	88.75
348.9	103.75
349.128	80.75
349.355	84.75
349.583	86.75
349.81	77.75
350.037	92.75
350.265	101.75
350.492	91.75
350.72	85.75
350.947	83.75
351.174	91.75
351.402	76.75
351.629	74.75
351.856	79.75
352.083	77.75
352.311	92.75
352.538	87.75
352.765	83.75
352.992	94.75
353.22	91.75
353.447	75.75
353.674	80.75
353.901	95.75
354.128	95.75
354.355	92.75
354.583	75.75
354.81	96.75
355.037	85.75
355.264	88.75
355.491	87.75
355.718	85.75
355.945	93.75
356.172	54.75
356.399	77.75
356.626	98.75
356.853	82.75
357.08	91.75
357.307	96.75
357.534	83.75
357.761	91.75
357.988	95.75
358.215	80.75
358.441	101.75
358.668	85.75
358.895	95.75
359.122	81.75
359.349	84.75
359.576	89.75
359.802	98.75
360.029	80.75
360.256	72.75
360.483	82.75
360.709	90.75
360.936	103.75
361.163	82.75
361.39	82.75
361.616	92.75
361.843	78.75
362.07	99.75
362.296	90.75
362.523	102.75
362.749	92.75
362.976	90.75
363.203	106.75
363.429	85.75
363.656	86.75
363.882	83.75
364.109	101.75
364.335	108.75
364.562	127.75
364.788	86.75
365.015	93.75
365.241	92.75
365.468	80.75
365.694	84.75
365.92	86.75
366.147	84.75
366.373	78.75
366.599	79.75
366.826	87.75
367.052	80.75
367.278	91.75
367.505	90.75
367.731	96.75
367.957	86.75
368.184	78.75
368.41	87.75
368.636	98.75
368.862	83.75
369.089	78.75
369.315	88.75
369.541	77.75
369.767	81.75
369.993	91.75
370.219	96.75
370.445	89.75
370.672	94.75
370.898	87.75
371.124	76.75
371.35	79.75
371.576	83.75
371.802	85.75
372.028	80.75
372.254	95.75
372.48	99.75
372.706	87.75
372.932	87.75
373.158	90.75
373.384	107.75
373.61	96.75
373.835	94.75
374.061	88.75
374.287	80.75
374.513	86.75
374.739	92.75
374.965	86.75
375.191	93.75
375.416	93.75
375.642	84.75
375.868	90.75
376.094	89.75
376.319	82.75
376.545	86.75
376.771	86.75
376.997	96.75
377.222	90.75
377.448	79.75
377.674	76.75
377.899	95.75
378.125	101.75
378.35	76.75
378.576	97.75
378.802	72.75
379.027	79.75
379.253	83.75
379.478	90.75
379.704	81.75
379.929	87.75
380.155	95.75
380.38	82.75
380.606	72.75
380.831	95.75
381.057	91.75
381.282	87.75
381.507	73.75
381.733	85.75
381.958	93.75
382.184	95.75
382.409	93.75
382.634	81.75
382.86	79.75
383.085	88.75
383.31	89.75
383.535	105.75
383.761	95.75
383.986	87.75
384.211	77.75
384.436	77.75
384.662	97.75
384.887	87.75
385.112	90.75
385.337	92.75
385.562	92.75
385.787	112.75
386.013	92.75
386.238	90.75
386.463	77.75
386.688	101.75
386.913	93.75
387.138	87.75
387.363	96.75
387.588	103.75
387.813	98.75
388.038	99.75
388.263	81.75
388.488	75.75
388.713	81.75
388.938	99.75
389.163	81.75
389.387	71.75
389.612	72.75
389.837	93.75
390.062	110.75
390.287	87.75
390.512	82.75
390.736	80.75
390.961	88.75
391.186	84.75
391.411	96.75
391.636	99.75
391.86	88.75
392.085	77.75
392.31	94.75
392.534	87.75
392.759	116.75
392.984	127.75
393.208	184.75
393.433	279.75
393.658	215.75
393.882	125.75
394.107	111.75
394.331	121.75
394.556	120.75
394.78	105.75
395.005	89.75
395.229	77.75
395.454	94.75
395.678	109.75
395.903	105.75
396.127	119.75
396.352	132.75
396.576	145.75
396.801	211.75
397.025	247.75
397.249	138.75
397.474	94.75
397.698	94.75
397.922	76.75
398.147	87.75
398.371	88.75
398.595	77.75
398.82	85.75
399.044	85.75
399.268	83.75
399.492	79.75
399.717	89.75
399.941	70.75
400.165	92.75
400.389	84.75
400.613	79.75
400.837	82.75
401.062	86.75
401.286	90.75
401.51	78.75
401.734	80.75
401.958	81.75
402.182	62.75
402.406	90.75
402.63	77.75
402.854	90.75
403.078	78.75
403.302	87.75
403.526	90.75
403.75	89.75
403.974	87.75
404.198	88.75
404.422	105.75
404.645	104.75
404.869	107.75
405.093	87.75
405.317	87.75
405.541	82.75
405.765	76.75
405.988	73.75
406.212	84.75
406.436	77.75
406.66	102.75
406.883	87.75
407.107	76.75
407.331	83.75
407.555	93.75
407.778	103.75
408.002	90.75
408.226	87.75
408.449	91.75
408.673	88.75
408.896	85.75
409.12	89.75
409.344	81.75
409.567	93.75
409.791	82.75
410.014	96.75
410.238	78.75
410.461	89.75
410.685	95.75
410.908	78.75
411.132	78.75
411.355	84.75
411.578	80.75
411.802	85.75
412.025	86.75
412.249	73.75
412.472	89.75
412.695	88.75
412.919	85.75
413.142	79.75
413.365	77.75
413.589	87.75
413.812	84.75
414.035	77.75
414.258	105.75
414.482	99.75
414.705	81.75
414.928	85.75
415.151	79.75
415.374	77.75
415.597	83.75
415.821	68.75
416.044	83.75
416.267	100.75
416.49	95.75
416.713	91.75
416.936	77.75
417.159	84.75
417.382	74.75
417.605	70.75
417.828	82.75
418.051	89.75
418.274	76.75
418.497	75.75
418.72	95.75
418.943	95.75
419.166	94.75
419.389	95.75
419.611	74.75
419.834	87.75
420.057	81.75
420.28	72.75
420.503	76.75
420.726	93.75
420.948	83.75
421.171	77.75
421.394	84.75
421.617	99.75
421.839	89.75
422.062	109.75
422.285	122.75
422.507	196.75
422.73	309.75
422.953	301.75
423.175	153.75
423.398	112.75
423.621	102.75
423.843	83.75
424.066	111.75
424.288	104.75
424.511	77.75
424.733	97.75
424.956	87.75
425.178	81.75
425.401	90.75
425.623	88.75
425.846	79.75
426.068	67.75
426.291	80.75
426.513	83.75
426.735	84.75
426.958	99.75
427.18	87.75
427.402	103.75
427.625	87.75
427.847	80.75
428.069	87.75
428.292	121.75
428.514	130.75
428.736	91.75
428.958	111.75
429.181	106.75
429.403	98.75
429.625	97.75
429.847	91.75
430.069	135.75
430.292	149.75
430.514	141.75
430.736	124.75
430.958	128.75
431.18	87.75
431.402	82.75
431.624	88.75
431.846	107.75
432.068	116.75
432.29	77.75
432.512	88.75
432.734	95.75
432.956	79.75
433.178	84.75
433.4	91.75
433.622	92.75
433.844	81.75
434.066	91.75
434.287	80.75
434.509	83.75
434.731	77.75
434.953	77.75
435.175	90.75
435.397	83.75
435.618	81.75
435.84	93.75
436.062	95.75
436.284	79.75
436.505	88.75
436.727	70.75
436.949	79.75
437.17	79.75
437.392	85.75
437.614	81.75
437.835	79.75
438.057	85.75
438.278	79.75
438.5	85.75
438.721	77.75
438.943	92.75
439.165	77.75
439.386	87.75
439.608	90.75
439.829	96.75
440.05	89.75
440.272	73.75
440.493	76.75
440.715	85.75
440.936	93.75
441.158	78.75
441.379	80.75
441.6	95.75
441.822	75.75
442.043	95.75
442.264	104.75
442.486	116.75
442.707	124.75
442.928	100.75
443.149	93.75
443.371	129.75
443.592	177.75
443.813	172.75
444.034	108.75
444.255	80.75
444.476	102.75
444.698	83.75
444.919	85.75
445.14	156.75
445.361	177.75
445.582	231.75
445.803	202.75
446.024	113.75
446.245	77.75
446.466	73.75
446.687	88.75
446.908	78.75
447.129	78.75
447.35	79.75
447.571	75.75
447.792	73.75
448.013	67.75
448.234	74.75
448.455	76.75
448.675	82.75
448.896	90.75
449.117	71.75
449.338	85.75
449.559	78.75
449.779	87.75
450	75.75
450.221	93.75
450.442	80.75
450.662	92.75
450.883	81.75
451.104	93.75
451.324	94.75
451.545	86.75
451.766	91.75
451.986	81.75
452.207	83.75
452.428	88.75
452.648	81.75
452.869	101.75
453.089	88.75
453.31	101.75
453.53	89.75
453.751	82.75
453.971	81.75
454.192	81.75
454.412	80.75
454.633	77.75
454.853	69.75
455.073	76.75
455.294	87.75
455.514	95.75
455.734	90.75
455.955	81.75
456.175	77.75
456.395	78.75
456.616	88.75
456.836	87.75
457.056	83.75
457.276	84.75
457.497	76.75
457.717	83.75
457.937	93.75
458.157	89.75
458.377	88.75
458.598	90.75
458.818	87.75
459.038	77.75
459.258	76.75
459.478	80.75
459.698	82.75
459.918	85.75
460.138	82.75
460.358	86.75
460.578	96.75
460.798	104.75
461.018	114.75
461.238	93.75
461.458	82.75
461.678	73.75
461.898	79.75
462.118	93.75
462.338	86.75
462.558	87.75
462.777	89.75
462.997	66.75
463.217	82.75
463.437	86.75
463.657	85.75
463.876	85.75
464.096	85.75
464.316	83.75
464.536	83.75
464.755	93.75
464.975	83.75
465.195	71.75
465.414	73.75
465.634	96.75
465.854	95.75
466.073	81.75
466.293	88.75
466.512	66.75
466.732	74.75
466.951	68.75
467.171	84.75
467.391	77.75
467.61	83.75
467.829	77.75
468.049	77.75
468.268	76.75
468.488	90.75
468.707	77.75
468.927	84.75
469.146	87.75
469.365	89.75
469.585	100.75
469.804	90.75
470.023	86.75
470.243	78.75
470.462	70.75
470.681	89.75
470.901	97.75
471.12	69.75
471.339	88.75
471.558	89.75
471.777	71.75
471.997	87.75
472.216	84.75
472.435	79.75
472.654	83.75
472.873	74.75
473.092	76.75
473.311	88.75
473.53	90.75
473.749	91.75
473.968	88.75
474.187	102.75
474.406	85.75
474.625	68.75
474.844	84.75
475.063	85.75
475.282	90.75
475.501	77.75
475.72	76.75
475.939	83.75
476.158	78.75
476.377	72.75
476.596	87.75
476.814	76.75
477.033	91.75
477.252	87.75
477.471	81.75
477.69	82.75
477.908	96.75
478.127	84.75
478.346	82.75
478.564	88.75
478.783	76.75
479.002	87.75
479.22	84.75
479.439	82.75
479.658	99.75
479.876	82.75
480.095	91.75
480.313	93.75
480.532	93.75
480.751	70.75
480.969	81.75
481.188	99.75
481.406	98.75
481.624	88.75
481.843	76.75
482.061	86.75
482.28	65.75
482.498	89.75
482.717	83.75
482.935	77.75
483.153	85.75
483.372	74.75
483.59	91.75
483.808	74.75
484.027	83.75
484.245	95.75
484.463	84.75
484.681	75.75
484.9	87.75
485.118	93.75
485.336	81.75
485.554	88.75
485.772	72.75
485.99	75.75
486.209	79.75
486.427	94.75
486.645	87.75
486.863	93.75
487.081	89.75
487.299	97.75
487.517	91.75
487.735	87.75
487.953	140.75
488.171	102.75
488.389	91.75
488.607	96.75
488.825	78.75
489.043	85.75
489.261	89.75
489.479	96.75
489.696	75.75
489.914	87.75
490.132	95.75
490.35	95.75
490.568	86.75
490.786	83.75
491.003	90.75
491.221	74.75
491.439	89.75
491.657	85.75
491.874	95.75
492.092	89.75
492.31	87.75
492.527	88.75
492.745	91.75
492.963	91.75
493.18	83.75
493.398	98.75
493.615	84.75
493.833	84.75
494.05	87.75
494.268	92.75
494.485	92.75
494.703	78.75
494.92	69.75
495.138	81.75
495.355	84.75
495.573	76.75
495.79	90.75
496.008	75.75
496.225	100.75
496.442	75.75
496.66	83.75
496.877	78.75
497.094	83.75
497.312	92.75
497.529	83.75
497.746	88.75
497.963	70.75
498.181	95.75
498.398	89.75
498.615	90.75
498.832	79.75
499.049	80.75
499.267	96.75
499.484	85.75
499.701	105.75
499.918	85.75
500.135	94.75
500.352	92.75
500.569	85.75
500.786	83.75
501.003	90.75
501.22	89.75
501.437	79.75
501.654	85.75
501.871	92.75
502.088	83.75
502.305	73.75
502.522	103.75
502.739	95.75
502.956	90.75
503.172	92.75
503.389	90.75
503.606	87.75
503.823	97.75
504.04	100.75
504.256	105.75
504.473	100.75
504.69	87.75
504.907	105.75
505.123	92.75
505.34	87.75
505.557	78.75
505.773	101.75
505.99	87.75
506.207	85.75
506.423	91.75
506.64	84.75
506.856	89.75
507.073	83.75
507.289	90.75
507.506	87.75
507.722	92.75
507.939	79.75
508.155	67.75
508.372	91.75
508.588	88.75
508.805	97.75
509.021	75.75
509.238	90.75
509.454	85.75
509.67	75.75
509.887	75.75
510.103	97.75
510.319	86.75
510.536	95.75
510.752	106.75
510.968	86.75
511.184	91.75
511.401	83.75
511.617	89.75
511.833	83.75
512.049	84.75
512.265	82.75
512.481	93.75
512.698	100.75
512.914	75.75
513.13	90.75
513.346	79.75
513.562	90.75
513.778	91.75
513.994	85.75
514.21	84.75
514.426	88.75
514.642	86.75
514.858	81.75
515.074	95.75
515.29	85.75
515.506	97.75
515.721	85.75
515.937	88.75
516.153	73.75
516.369	75.75
516.585	79.75
516.801	96.75
517.016	89.75
517.232	88.75
517.448	85.75
517.664	84.75
517.879	87.75
518.095	91.75
518.311	89.75
518.527	97.75
518.742	97.75
