Data from 15780_3_HRD10591_00019.txt Node
Date: Mon Jan 19 14:20:07 EST 2026
User: Yrep
Spectrometer: HR+D1059
Trigger mode: 1
Integration Time (sec): 1.000000E-1
Scans to average: 1
Electric dark correction enabled: true
Nonlinearity correction enabled: false
Boxcar width: 0
XAxis mode: Wavelengths
Number of Pixels in Spectrum: 2048
>>>>>Begin Spectral Data<<<<<
223.165	-14.06
223.4	-14.06
223.635	-14.06
223.869	-12.06
224.104	-19.06
224.338	-12.06
224.573	-15.06
224.808	-8.06
225.042	-12.06
225.277	-11.06
225.511	-9.06
225.746	11.94
225.98	9.94
226.215	11.94
226.449	17.94
226.683	11.94
226.918	30.94
227.152	17.94
227.387	39.94
227.621	56.94
227.856	52.94
228.09	47.94
228.324	57.94
228.559	55.94
228.793	60.94
229.027	63.94
229.262	75.94
229.496	68.94
229.73	72.94
229.964	79.94
230.199	79.94
230.433	70.94
230.667	72.94
230.901	74.94
231.136	81.94
231.37	79.94
231.604	81.94
231.838	66.94
232.072	62.94
232.306	77.94
232.541	71.94
232.775	81.94
233.009	88.94
233.243	90.94
233.477	70.94
233.711	73.94
233.945	79.94
234.179	73.94
234.413	74.94
234.647	92.94
234.881	68.94
235.115	76.94
235.349	84.94
235.583	90.94
235.817	81.94
236.051	69.94
236.285	71.94
236.519	69.94
236.753	70.94
236.987	62.94
237.221	80.94
237.455	87.94
237.689	78.94
237.922	81.94
238.156	74.94
238.39	69.94
238.624	77.94
238.858	88.94
239.091	76.94
239.325	59.94
239.559	71.94
239.793	81.94
240.027	83.94
240.26	78.94
240.494	79.94
240.728	79.94
240.961	70.94
241.195	83.94
241.429	81.94
241.662	81.94
241.896	89.94
242.13	78.94
242.363	69.94
242.597	71.94
242.83	68.94
243.064	68.94
243.298	63.94
243.531	73.94
243.765	84.94
243.998	86.94
244.232	79.94
244.465	77.94
244.699	84.94
244.932	70.94
245.166	63.94
245.399	76.94
245.633	80.94
245.866	81.94
246.099	89.94
246.333	83.94
246.566	84.94
246.8	69.94
247.033	70.94
247.266	81.94
247.5	74.94
247.733	72.94
247.966	80.94
248.2	73.94
248.433	85.94
248.666	75.94
248.899	69.94
249.133	76.94
249.366	84.94
249.599	83.94
249.832	80.94
250.066	90.94
250.299	84.94
250.532	62.94
250.765	70.94
250.998	68.94
251.231	65.94
251.465	66.94
251.698	74.94
251.931	62.94
252.164	79.94
252.397	67.94
252.63	86.94
252.863	70.94
253.096	70.94
253.329	83.94
253.562	79.94
253.795	62.94
254.028	78.94
254.261	71.94
254.494	78.94
254.727	70.94
254.96	85.94
255.193	75.94
255.426	77.94
255.659	77.94
255.892	79.94
256.124	67.94
256.357	74.94
256.59	79.94
256.823	72.94
257.056	81.94
257.289	71.94
257.521	85.94
257.754	80.94
257.987	77.94
258.22	71.94
258.452	76.94
258.685	76.94
258.918	76.94
259.151	66.94
259.383	69.94
259.616	83.94
259.849	64.94
260.081	81.94
260.314	81.94
260.547	76.94
260.779	71.94
261.012	89.94
261.244	76.94
261.477	86.94
261.71	72.94
261.942	92.94
262.175	74.94
262.407	79.94
262.64	86.94
262.872	81.94
263.105	90.94
263.337	89.94
263.57	69.94
263.802	74.94
264.035	89.94
264.267	82.94
264.499	83.94
264.732	88.94
264.964	67.94
265.197	90.94
265.429	71.94
265.661	86.94
265.894	69.94
266.126	83.94
266.358	77.94
266.591	85.94
266.823	94.94
267.055	79.94
267.287	71.94
267.52	74.94
267.752	66.94
267.984	94.94
268.216	87.94
268.448	84.94
268.681	95.94
268.913	93.94
269.145	80.94
269.377	79.94
269.609	92.94
269.841	71.94
270.073	79.94
270.306	72.94
270.538	78.94
270.77	88.94
271.002	87.94
271.234	74.94
271.466	79.94
271.698	75.94
271.93	80.94
272.162	101.94
272.394	83.94
272.626	88.94
272.858	85.94
273.09	80.94
273.322	73.94
273.553	89.94
273.785	89.94
274.017	88.94
274.249	65.94
274.481	83.94
274.713	76.94
274.945	87.94
275.176	73.94
275.408	93.94
275.64	81.94
275.872	91.94
276.104	78.94
276.335	86.94
276.567	69.94
276.799	94.94
277.031	80.94
277.262	79.94
277.494	81.94
277.726	95.94
277.957	79.94
278.189	78.94
278.421	93.94
278.652	82.94
278.884	99.94
279.115	73.94
279.347	79.94
279.579	89.94
279.81	86.94
280.042	82.94
280.273	89.94
280.505	91.94
280.736	65.94
280.968	81.94
281.199	85.94
281.431	85.94
281.662	94.94
281.894	84.94
282.125	81.94
282.356	84.94
282.588	87.94
282.819	97.94
283.051	90.94
283.282	75.94
283.513	82.94
283.745	83.94
283.976	70.94
284.207	79.94
284.439	69.94
284.67	91.94
284.901	75.94
285.132	90.94
285.364	94.94
285.595	88.94
285.826	87.94
286.057	91.94
286.288	83.94
286.52	71.94
286.751	93.94
286.982	90.94
287.213	88.94
287.444	86.94
287.675	81.94
287.906	82.94
288.138	92.94
288.369	91.94
288.6	92.94
288.831	89.94
289.062	84.94
289.293	83.94
289.524	71.94
289.755	81.94
289.986	77.94
290.217	80.94
290.448	78.94
290.679	86.94
290.91	83.94
291.141	87.94
291.371	95.94
291.602	79.94
291.833	78.94
292.064	104.94
292.295	83.94
292.526	77.94
292.757	84.94
292.987	83.94
293.218	85.94
293.449	91.94
293.68	94.94
293.91	87.94
294.141	74.94
294.372	84.94
294.603	78.94
294.833	77.94
295.064	76.94
295.295	82.94
295.525	79.94
295.756	85.94
295.987	93.94
296.217	82.94
296.448	86.94
296.679	73.94
296.909	88.94
297.14	79.94
297.37	91.94
297.601	93.94
297.831	91.94
298.062	80.94
298.292	84.94
298.523	78.94
298.753	93.94
298.984	71.94
299.214	72.94
299.445	83.94
299.675	99.94
299.905	73.94
300.136	99.94
300.366	83.94
300.597	91.94
300.827	96.94
301.057	81.94
301.288	94.94
301.518	82.94
301.748	72.94
301.979	79.94
302.209	81.94
302.439	90.94
302.669	87.94
302.9	76.94
303.13	84.94
303.36	83.94
303.59	90.94
303.82	83.94
304.051	73.94
304.281	77.94
304.511	87.94
304.741	83.94
304.971	78.94
305.201	77.94
305.431	81.94
305.661	96.94
305.891	102.94
306.121	77.94
306.352	99.94
306.582	84.94
306.812	97.94
307.042	78.94
307.272	85.94
307.502	95.94
307.731	94.94
307.961	94.94
308.191	91.94
308.421	101.94
308.651	88.94
308.881	91.94
309.111	97.94
309.341	97.94
309.571	94.94
309.8	87.94
310.03	79.94
310.26	89.94
310.49	94.94
310.72	83.94
310.949	71.94
311.179	86.94
311.409	84.94
311.639	85.94
311.868	86.94
312.098	89.94
312.328	81.94
312.557	73.94
312.787	80.94
313.017	96.94
313.246	69.94
313.476	82.94
313.706	89.94
313.935	81.94
314.165	92.94
314.394	67.94
314.624	81.94
314.853	82.94
315.083	79.94
315.312	96.94
315.542	81.94
315.771	80.94
316.001	106.94
316.23	95.94
316.46	102.94
316.689	87.94
316.919	81.94
317.148	73.94
317.377	79.94
317.607	101.94
317.836	90.94
318.065	103.94
318.295	92.94
318.524	87.94
318.753	90.94
318.983	87.94
319.212	75.94
319.441	82.94
319.67	85.94
319.9	71.94
320.129	87.94
320.358	90.94
320.587	74.94
320.816	101.94
321.046	89.94
321.275	73.94
321.504	84.94
321.733	98.94
321.962	95.94
322.191	87.94
322.42	79.94
322.649	96.94
322.878	77.94
323.108	78.94
323.337	84.94
323.566	87.94
323.795	95.94
324.024	81.94
324.253	96.94
324.482	90.94
324.71	82.94
324.939	90.94
325.168	89.94
325.397	88.94
325.626	75.94
325.855	81.94
326.084	88.94
326.313	94.94
326.542	84.94
326.77	95.94
326.999	76.94
327.228	77.94
327.457	92.94
327.686	96.94
327.914	95.94
328.143	81.94
328.372	90.94
328.6	83.94
328.829	91.94
329.058	84.94
329.287	88.94
329.515	91.94
329.744	81.94
329.972	81.94
330.201	76.94
330.43	94.94
330.658	87.94
330.887	79.94
331.115	95.94
331.344	84.94
331.572	78.94
331.801	87.94
332.03	98.94
332.258	88.94
332.486	85.94
332.715	85.94
332.943	79.94
333.172	75.94
333.4	71.94
333.629	79.94
333.857	71.94
334.085	80.94
334.314	93.94
334.542	89.94
334.771	99.94
334.999	86.94
335.227	89.94
335.455	99.94
335.684	89.94
335.912	87.94
336.14	109.94
336.369	101.94
336.597	84.94
336.825	83.94
337.053	81.94
337.281	85.94
337.51	89.94
337.738	81.94
337.966	85.94
338.194	93.94
338.422	86.94
338.65	85.94
338.878	89.94
339.106	89.94
339.334	81.94
339.562	88.94
339.79	79.94
340.018	81.94
340.246	89.94
340.474	79.94
340.702	85.94
340.93	76.94
341.158	89.94
341.386	81.94
341.614	75.94
341.842	88.94
342.07	73.94
342.298	91.94
342.526	74.94
342.754	89.94
342.981	94.94
343.209	85.94
343.437	95.94
343.665	97.94
343.893	88.94
344.12	98.94
344.348	94.94
344.576	102.94
344.804	81.94
345.031	88.94
345.259	85.94
345.487	80.94
345.714	84.94
345.942	95.94
346.17	97.94
346.397	93.94
346.625	83.94
346.853	81.94
347.08	68.94
347.308	95.94
347.535	102.94
347.763	98.94
347.99	87.94
348.218	65.94
348.445	88.94
348.673	86.94
348.9	103.94
349.128	98.94
349.355	95.94
349.583	93.94
349.81	76.94
350.037	100.94
350.265	95.94
350.492	78.94
350.72	89.94
350.947	78.94
351.174	78.94
351.402	74.94
351.629	81.94
351.856	90.94
352.083	96.94
352.311	91.94
352.538	77.94
352.765	82.94
352.992	99.94
353.22	93.94
353.447	96.94
353.674	85.94
353.901	78.94
354.128	80.94
354.355	85.94
354.583	82.94
354.81	90.94
355.037	76.94
355.264	93.94
355.491	95.94
355.718	88.94
355.945	83.94
356.172	90.94
356.399	93.94
356.626	90.94
356.853	90.94
357.08	110.94
357.307	100.94
357.534	97.94
357.761	99.94
357.988	103.94
358.215	94.94
358.441	86.94
358.668	99.94
358.895	101.94
359.122	86.94
359.349	89.94
359.576	99.94
359.802	89.94
360.029	79.94
360.256	100.94
360.483	73.94
360.709	94.94
360.936	114.94
361.163	95.94
361.39	87.94
361.616	82.94
361.843	98.94
362.07	77.94
362.296	87.94
362.523	105.94
362.749	101.94
362.976	115.94
363.203	130.94
363.429	115.94
363.656	87.94
363.882	91.94
364.109	104.94
364.335	124.94
364.562	149.94
364.788	105.94
365.015	107.94
365.241	90.94
365.468	99.94
365.694	95.94
365.92	84.94
366.147	85.94
366.373	80.94
366.599	96.94
366.826	81.94
367.052	86.94
367.278	91.94
367.505	101.94
367.731	89.94
367.957	93.94
368.184	82.94
368.41	93.94
368.636	86.94
368.862	79.94
369.089	76.94
369.315	86.94
369.541	98.94
369.767	81.94
369.993	94.94
370.219	90.94
370.445	82.94
370.672	94.94
370.898	97.94
371.124	85.94
371.35	82.94
371.576	97.94
371.802	86.94
372.028	86.94
372.254	94.94
372.48	86.94
372.706	91.94
372.932	109.94
373.158	113.94
373.384	95.94
373.61	124.94
373.835	129.94
374.061	115.94
374.287	94.94
374.513	103.94
374.739	115.94
374.965	102.94
375.191	101.94
375.416	93.94
375.642	82.94
375.868	98.94
376.094	103.94
376.319	87.94
376.545	95.94
376.771	79.94
376.997	90.94
377.222	71.94
377.448	80.94
377.674	85.94
377.899	86.94
378.125	83.94
378.35	93.94
378.576	78.94
378.802	83.94
379.027	98.94
379.253	85.94
379.478	75.94
379.704	96.94
379.929	80.94
380.155	92.94
380.38	91.94
380.606	85.94
380.831	96.94
381.057	99.94
381.282	95.94
381.507	95.94
381.733	100.94
381.958	100.94
382.184	118.94
382.409	100.94
382.634	120.94
382.86	111.94
383.085	107.94
383.31	104.94
383.535	102.94
383.761	113.94
383.986	115.94
384.211	111.94
384.436	95.94
384.662	90.94
384.887	96.94
385.112	114.94
385.337	102.94
385.562	97.94
385.787	112.94
386.013	100.94
386.238	102.94
386.463	93.94
386.688	108.94
386.913	81.94
387.138	84.94
387.363	74.94
387.588	98.94
387.813	95.94
388.038	111.94
388.263	103.94
388.488	102.94
388.713	86.94
388.938	97.94
389.163	85.94
389.387	94.94
389.612	99.94
389.837	82.94
390.062	97.94
390.287	94.94
390.512	105.94
390.736	95.94
390.961	90.94
391.186	77.94
391.411	81.94
391.636	90.94
391.86	85.94
392.085	98.94
392.31	103.94
392.534	106.94
392.759	124.94
392.984	162.94
393.208	334.94
393.433	518.94
393.658	381.94
393.882	150.94
394.107	122.94
394.331	132.94
394.556	143.94
394.78	101.94
395.005	90.94
395.229	97.94
395.454	81.94
395.678	101.94
395.903	127.94
396.127	158.94
396.352	190.94
396.576	222.94
396.801	329.94
397.025	388.94
397.249	193.94
397.474	134.94
397.698	123.94
397.922	97.94
398.147	89.94
398.371	80.94
398.595	89.94
398.82	82.94
399.044	102.94
399.268	85.94
399.492	70.94
399.717	88.94
399.941	91.94
400.165	91.94
400.389	74.94
400.613	83.94
400.837	81.94
401.062	86.94
401.286	74.94
401.51	76.94
401.734	93.94
401.958	88.94
402.182	75.94
402.406	87.94
402.63	86.94
402.854	91.94
403.078	74.94
403.302	81.94
403.526	96.94
403.75	81.94
403.974	88.94
404.198	86.94
404.422	90.94
404.645	88.94
404.869	85.94
405.093	79.94
405.317	94.94
405.541	87.94
405.765	86.94
405.988	85.94
406.212	82.94
406.436	89.94
406.66	97.94
406.883	86.94
407.107	82.94
407.331	88.94
407.555	100.94
407.778	122.94
408.002	127.94
408.226	101.94
408.449	94.94
408.673	89.94
408.896	88.94
409.12	89.94
409.344	87.94
409.567	104.94
409.791	98.94
410.014	96.94
410.238	89.94
410.461	77.94
410.685	91.94
410.908	93.94
411.132	96.94
411.355	89.94
411.578	91.94
411.802	81.94
412.025	84.94
412.249	101.94
412.472	86.94
412.695	79.94
412.919	82.94
413.142	69.94
413.365	83.94
413.589	84.94
413.812	91.94
414.035	72.94
414.258	91.94
414.482	94.94
414.705	93.94
414.928	93.94
415.151	81.94
415.374	67.94
415.597	82.94
415.821	97.94
416.044	88.94
416.267	78.94
416.49	95.94
416.713	87.94
416.936	81.94
417.159	95.94
417.382	69.94
417.605	79.94
417.828	80.94
418.051	78.94
418.274	87.94
418.497	86.94
418.72	99.94
418.943	86.94
419.166	78.94
419.389	87.94
419.611	92.94
419.834	85.94
420.057	88.94
420.28	75.94
420.503	93.94
420.726	89.94
420.948	98.94
421.171	85.94
421.394	101.94
421.617	134.94
421.839	126.94
422.062	117.94
422.285	166.94
422.507	325.94
422.73	525.94
422.953	483.94
423.175	229.94
423.398	128.94
423.621	113.94
423.843	102.94
424.066	105.94
424.288	78.94
424.511	93.94
424.733	82.94
424.956	95.94
425.178	88.94
425.401	84.94
425.623	91.94
425.846	109.94
426.068	95.94
426.291	88.94
426.513	76.94
426.735	78.94
426.958	96.94
427.18	87.94
427.402	104.94
427.625	83.94
427.847	101.94
428.069	101.94
428.292	134.94
428.514	147.94
428.736	122.94
428.958	153.94
429.181	142.94
429.403	96.94
429.625	97.94
429.847	125.94
430.069	177.94
430.292	212.94
430.514	194.94
430.736	156.94
430.958	168.94
431.18	116.94
431.402	113.94
431.624	104.94
431.846	141.94
432.068	147.94
432.29	90.94
432.512	90.94
432.734	98.94
432.956	91.94
433.178	92.94
433.4	90.94
433.622	87.94
433.844	70.94
434.066	84.94
434.287	86.94
434.509	58.94
434.731	79.94
434.953	77.94
435.175	89.94
435.397	78.94
435.618	93.94
435.84	103.94
436.062	91.94
436.284	67.94
436.505	86.94
436.727	74.94
436.949	89.94
437.17	87.94
437.392	88.94
437.614	87.94
437.835	87.94
438.057	87.94
438.278	93.94
438.5	99.94
438.721	99.94
438.943	78.94
439.165	81.94
439.386	82.94
439.608	87.94
439.829	72.94
440.05	80.94
440.272	91.94
440.493	84.94
440.715	78.94
440.936	79.94
441.158	114.94
441.379	90.94
441.6	91.94
441.822	93.94
442.043	79.94
442.264	96.94
442.486	133.94
442.707	183.94
442.928	130.94
443.149	102.94
443.371	173.94
443.592	286.94
443.813	240.94
444.034	114.94
444.255	94.94
444.476	66.94
444.698	94.94
444.919	112.94
445.14	185.94
445.361	213.94
445.582	331.94
445.803	281.94
446.024	125.94
446.245	97.94
446.466	81.94
446.687	85.94
446.908	85.94
447.129	74.94
447.35	81.94
447.571	91.94
447.792	105.94
448.013	83.94
448.234	91.94
448.455	95.94
448.675	71.94
448.896	72.94
449.117	85.94
449.338	83.94
449.559	81.94
449.779	72.94
450	87.94
450.221	81.94
450.442	93.94
450.662	79.94
450.883	77.94
451.104	73.94
451.324	97.94
451.545	79.94
451.766	94.94
451.986	89.94
452.207	84.94
452.428	85.94
452.648	89.94
452.869	95.94
453.089	87.94
453.31	75.94
453.53	112.94
453.751	100.94
453.971	90.94
454.192	83.94
454.412	83.94
454.633	78.94
454.853	63.94
455.073	76.94
455.294	93.94
455.514	93.94
455.734	97.94
455.955	96.94
456.175	66.94
456.395	96.94
456.616	76.94
456.836	90.94
457.056	91.94
457.276	79.94
457.497	96.94
457.717	89.94
457.937	116.94
458.157	133.94
458.377	133.94
458.598	116.94
458.818	140.94
459.038	93.94
459.258	85.94
459.478	86.94
459.698	90.94
459.918	98.94
460.138	81.94
460.358	99.94
460.578	81.94
460.798	132.94
461.018	148.94
461.238	95.94
461.458	94.94
461.678	80.94
461.898	89.94
462.118	91.94
462.338	86.94
462.558	78.94
462.777	84.94
462.997	74.94
463.217	85.94
463.437	82.94
463.657	87.94
463.876	101.94
464.096	88.94
464.316	89.94
464.536	80.94
464.755	84.94
464.975	90.94
465.195	79.94
465.414	71.94
465.634	78.94
465.854	93.94
466.073	87.94
466.293	76.94
466.512	70.94
466.732	77.94
466.951	90.94
467.171	99.94
467.391	88.94
467.61	85.94
467.829	82.94
468.049	95.94
468.268	89.94
468.488	84.94
468.707	74.94
468.927	81.94
469.146	87.94
469.365	83.94
469.585	82.94
469.804	86.94
470.023	95.94
470.243	75.94
470.462	75.94
470.681	71.94
470.901	79.94
471.12	94.94
471.339	87.94
471.558	79.94
471.777	83.94
471.997	85.94
472.216	94.94
472.435	81.94
472.654	70.94
472.873	81.94
473.092	85.94
473.311	81.94
473.53	88.94
473.749	66.94
473.968	100.94
474.187	85.94
474.406	78.94
474.625	73.94
474.844	77.94
475.063	75.94
475.282	96.94
475.501	100.94
475.72	86.94
475.939	81.94
476.158	89.94
476.377	75.94
476.596	85.94
476.814	75.94
477.033	101.94
477.252	80.94
477.471	89.94
477.69	87.94
477.908	90.94
478.127	85.94
478.346	97.94
478.564	73.94
478.783	85.94
479.002	91.94
479.22	83.94
479.439	82.94
479.658	81.94
479.876	86.94
480.095	94.94
480.313	96.94
480.532	82.94
480.751	92.94
480.969	83.94
481.188	85.94
481.406	83.94
481.624	89.94
481.843	87.94
482.061	86.94
482.28	84.94
482.498	79.94
482.717	89.94
482.935	80.94
483.153	86.94
483.372	100.94
483.59	66.94
483.808	86.94
484.027	93.94
484.245	82.94
484.463	74.94
484.681	111.94
484.9	101.94
485.118	93.94
485.336	77.94
485.554	100.94
485.772	85.94
485.99	92.94
486.209	93.94
486.427	92.94
486.645	94.94
486.863	92.94
487.081	102.94
487.299	90.94
487.517	97.94
487.735	114.94
487.953	184.94
488.171	143.94
488.389	96.94
488.607	85.94
488.825	90.94
489.043	102.94
489.261	89.94
489.479	95.94
489.696	90.94
489.914	96.94
490.132	95.94
490.35	96.94
490.568	79.94
490.786	87.94
491.003	83.94
491.221	88.94
491.439	84.94
491.657	103.94
491.874	87.94
492.092	101.94
492.31	89.94
492.527	92.94
492.745	82.94
492.963	73.94
493.18	101.94
493.398	109.94
493.615	101.94
493.833	87.94
494.05	90.94
494.268	84.94
494.485	102.94
494.703	94.94
494.92	97.94
495.138	91.94
495.355	95.94
495.573	72.94
495.79	83.94
496.008	93.94
496.225	96.94
496.442	90.94
496.66	81.94
496.877	79.94
497.094	82.94
497.312	80.94
497.529	94.94
497.746	88.94
497.963	96.94
498.181	112.94
498.398	114.94
498.615	92.94
498.832	96.94
499.049	95.94
499.267	106.94
499.484	92.94
499.701	92.94
499.918	99.94
500.135	106.94
500.352	93.94
500.569	80.94
500.786	87.94
501.003	94.94
501.22	77.94
501.437	98.94
501.654	103.94
501.871	98.94
502.088	100.94
502.305	97.94
502.522	99.94
502.739	101.94
502.956	93.94
503.172	100.94
503.389	93.94
503.606	103.94
503.823	106.94
504.04	105.94
504.256	154.94
504.473	127.94
504.69	104.94
504.907	88.94
505.123	81.94
505.34	86.94
505.557	88.94
505.773	87.94
505.99	89.94
506.207	81.94
506.423	97.94
506.64	88.94
506.856	103.94
507.073	74.94
507.289	86.94
507.506	88.94
507.722	78.94
507.939	95.94
508.155	86.94
508.372	72.94
508.588	97.94
508.805	93.94
509.021	78.94
509.238	91.94
509.454	89.94
509.67	83.94
509.887	93.94
510.103	96.94
510.319	88.94
510.536	101.94
510.752	93.94
510.968	85.94
511.184	96.94
511.401	98.94
511.617	85.94
511.833	86.94
512.049	82.94
512.265	100.94
512.481	74.94
512.698	94.94
512.914	86.94
513.13	88.94
513.346	90.94
513.562	101.94
513.778	102.94
513.994	95.94
514.21	87.94
514.426	83.94
514.642	87.94
514.858	90.94
515.074	98.94
515.29	93.94
515.506	94.94
515.721	74.94
515.937	83.94
516.153	93.94
516.369	96.94
516.585	72.94
516.801	103.94
517.016	86.94
517.232	112.94
517.448	105.94
