Data from 15780_3_HRD10591_00017.txt Node
Date: Mon Jan 19 14:20:06 EST 2026
User: Yrep
Spectrometer: HR+D1059
Trigger mode: 1
Integration Time (sec): 1.000000E-1
Scans to average: 1
Electric dark correction enabled: true
Nonlinearity correction enabled: false
Boxcar width: 0
XAxis mode: Wavelengths
Number of Pixels in Spectrum: 2048
>>>>>Begin Spectral Data<<<<<
223.165	-21.44
223.4	-21.44
223.635	-21.44
223.869	-23.44
224.104	-14.44
224.338	-12.44
224.573	-0.44
224.808	-11.44
225.042	-7.44
225.277	0.56
225.511	-5.44
225.746	6.56
225.98	4.56
226.215	4.56
226.449	5.56
226.683	17.56
226.918	23.56
227.152	33.56
227.387	32.56
227.621	29.56
227.856	32.56
228.09	39.56
228.324	53.56
228.559	48.56
228.793	55.56
229.027	50.56
229.262	65.56
229.496	69.56
229.73	79.56
229.964	64.56
230.199	69.56
230.433	60.56
230.667	57.56
230.901	68.56
231.136	80.56
231.37	74.56
231.604	71.56
231.838	80.56
232.072	89.56
232.306	74.56
232.541	71.56
232.775	72.56
233.009	89.56
233.243	71.56
233.477	75.56
233.711	69.56
233.945	64.56
234.179	84.56
234.413	77.56
234.647	79.56
234.881	78.56
235.115	67.56
235.349	74.56
235.583	88.56
235.817	64.56
236.051	75.56
236.285	83.56
236.519	87.56
236.753	65.56
236.987	70.56
237.221	70.56
237.455	79.56
237.689	79.56
237.922	67.56
238.156	81.56
238.39	54.56
238.624	81.56
238.858	68.56
239.091	60.56
239.325	70.56
239.559	87.56
239.793	72.56
240.027	70.56
240.26	76.56
240.494	78.56
240.728	76.56
240.961	67.56
241.195	80.56
241.429	78.56
241.662	72.56
241.896	75.56
242.13	92.56
242.363	66.56
242.597	65.56
242.83	89.56
243.064	82.56
243.298	77.56
243.531	81.56
243.765	72.56
243.998	75.56
244.232	79.56
244.465	70.56
244.699	69.56
244.932	81.56
245.166	84.56
245.399	84.56
245.633	64.56
245.866	66.56
246.099	63.56
246.333	81.56
246.566	70.56
246.8	73.56
247.033	87.56
247.266	74.56
247.5	66.56
247.733	66.56
247.966	77.56
248.2	81.56
248.433	69.56
248.666	64.56
248.899	66.56
249.133	82.56
249.366	77.56
249.599	66.56
249.832	77.56
250.066	80.56
250.299	75.56
250.532	82.56
250.765	75.56
250.998	83.56
251.231	65.56
251.465	70.56
251.698	64.56
251.931	68.56
252.164	73.56
252.397	64.56
252.63	80.56
252.863	74.56
253.096	83.56
253.329	77.56
253.562	84.56
253.795	83.56
254.028	85.56
254.261	89.56
254.494	65.56
254.727	72.56
254.96	61.56
255.193	70.56
255.426	77.56
255.659	81.56
255.892	70.56
256.124	72.56
256.357	84.56
256.59	79.56
256.823	74.56
257.056	51.56
257.289	74.56
257.521	72.56
257.754	72.56
257.987	68.56
258.22	74.56
258.452	76.56
258.685	83.56
258.918	78.56
259.151	70.56
259.383	86.56
259.616	66.56
259.849	76.56
260.081	82.56
260.314	81.56
260.547	77.56
260.779	70.56
261.012	82.56
261.244	73.56
261.477	79.56
261.71	78.56
261.942	64.56
262.175	90.56
262.407	82.56
262.64	71.56
262.872	66.56
263.105	75.56
263.337	70.56
263.57	60.56
263.802	63.56
264.035	66.56
264.267	70.56
264.499	78.56
264.732	73.56
264.964	90.56
265.197	83.56
265.429	73.56
265.661	78.56
265.894	78.56
266.126	85.56
266.358	77.56
266.591	65.56
266.823	69.56
267.055	82.56
267.287	65.56
267.52	85.56
267.752	79.56
267.984	98.56
268.216	84.56
268.448	82.56
268.681	82.56
268.913	72.56
269.145	80.56
269.377	65.56
269.609	80.56
269.841	69.56
270.073	88.56
270.306	71.56
270.538	84.56
270.77	76.56
271.002	74.56
271.234	76.56
271.466	70.56
271.698	100.56
271.93	72.56
272.162	81.56
272.394	76.56
272.626	73.56
272.858	85.56
273.09	85.56
273.322	89.56
273.553	82.56
273.785	64.56
274.017	84.56
274.249	83.56
274.481	85.56
274.713	85.56
274.945	63.56
275.176	71.56
275.408	80.56
275.64	77.56
275.872	86.56
276.104	74.56
276.335	85.56
276.567	81.56
276.799	82.56
277.031	87.56
277.262	77.56
277.494	79.56
277.726	80.56
277.957	71.56
278.189	83.56
278.421	78.56
278.652	89.56
278.884	82.56
279.115	85.56
279.347	76.56
279.579	88.56
279.81	74.56
280.042	80.56
280.273	89.56
280.505	78.56
280.736	86.56
280.968	79.56
281.199	85.56
281.431	88.56
281.662	73.56
281.894	88.56
282.125	72.56
282.356	87.56
282.588	68.56
282.819	80.56
283.051	78.56
283.282	73.56
283.513	86.56
283.745	94.56
283.976	82.56
284.207	95.56
284.439	77.56
284.67	75.56
284.901	81.56
285.132	82.56
285.364	86.56
285.595	93.56
285.826	76.56
286.057	94.56
286.288	84.56
286.52	89.56
286.751	86.56
286.982	78.56
287.213	92.56
287.444	87.56
287.675	82.56
287.906	78.56
288.138	69.56
288.369	86.56
288.6	85.56
288.831	72.56
289.062	88.56
289.293	82.56
289.524	86.56
289.755	80.56
289.986	78.56
290.217	69.56
290.448	78.56
290.679	88.56
290.91	85.56
291.141	95.56
291.371	82.56
291.602	79.56
291.833	83.56
292.064	83.56
292.295	79.56
292.526	69.56
292.757	92.56
292.987	88.56
293.218	68.56
293.449	80.56
293.68	78.56
293.91	95.56
294.141	78.56
294.372	67.56
294.603	68.56
294.833	78.56
295.064	90.56
295.295	76.56
295.525	68.56
295.756	80.56
295.987	81.56
296.217	85.56
296.448	77.56
296.679	96.56
296.909	88.56
297.14	92.56
297.37	100.56
297.601	80.56
297.831	69.56
298.062	68.56
298.292	99.56
298.523	94.56
298.753	71.56
298.984	88.56
299.214	75.56
299.445	93.56
299.675	87.56
299.905	81.56
300.136	78.56
300.366	87.56
300.597	87.56
300.827	89.56
301.057	77.56
301.288	88.56
301.518	72.56
301.748	84.56
301.979	90.56
302.209	96.56
302.439	82.56
302.669	92.56
302.9	98.56
303.13	70.56
303.36	70.56
303.59	93.56
303.82	83.56
304.051	92.56
304.281	100.56
304.511	89.56
304.741	80.56
304.971	91.56
305.201	77.56
305.431	80.56
305.661	88.56
305.891	85.56
306.121	80.56
306.352	82.56
306.582	79.56
306.812	71.56
307.042	73.56
307.272	75.56
307.502	87.56
307.731	84.56
307.961	93.56
308.191	83.56
308.421	94.56
308.651	87.56
308.881	83.56
309.111	91.56
309.341	84.56
309.571	77.56
309.8	87.56
310.03	89.56
310.26	77.56
310.49	88.56
310.72	85.56
310.949	85.56
311.179	92.56
311.409	88.56
311.639	63.56
311.868	74.56
312.098	77.56
312.328	80.56
312.557	93.56
312.787	84.56
313.017	80.56
313.246	86.56
313.476	76.56
313.706	88.56
313.935	70.56
314.165	82.56
314.394	89.56
314.624	87.56
314.853	91.56
315.083	86.56
315.312	89.56
315.542	79.56
315.771	90.56
316.001	77.56
316.23	101.56
316.46	70.56
316.689	80.56
316.919	75.56
317.148	80.56
317.377	92.56
317.607	83.56
317.836	79.56
318.065	98.56
318.295	77.56
318.524	74.56
318.753	84.56
318.983	85.56
319.212	83.56
319.441	70.56
319.67	79.56
319.9	80.56
320.129	92.56
320.358	86.56
320.587	70.56
320.816	78.56
321.046	85.56
321.275	89.56
321.504	65.56
321.733	82.56
321.962	90.56
322.191	89.56
322.42	87.56
322.649	72.56
322.878	78.56
323.108	82.56
323.337	96.56
323.566	84.56
323.795	76.56
324.024	75.56
324.253	94.56
324.482	74.56
324.71	78.56
324.939	81.56
325.168	84.56
325.397	92.56
325.626	88.56
325.855	77.56
326.084	80.56
326.313	82.56
326.542	80.56
326.77	87.56
326.999	76.56
327.228	82.56
327.457	77.56
327.686	85.56
327.914	68.56
328.143	70.56
328.372	85.56
328.6	84.56
328.829	79.56
329.058	72.56
329.287	77.56
329.515	94.56
329.744	68.56
329.972	67.56
330.201	78.56
330.43	82.56
330.658	87.56
330.887	81.56
331.115	87.56
331.344	82.56
331.572	80.56
331.801	87.56
332.03	76.56
332.258	97.56
332.486	76.56
332.715	78.56
332.943	85.56
333.172	73.56
333.4	81.56
333.629	73.56
333.857	80.56
334.085	84.56
334.314	77.56
334.542	97.56
334.771	85.56
334.999	93.56
335.227	92.56
335.455	83.56
335.684	78.56
335.912	94.56
336.14	94.56
336.369	86.56
336.597	70.56
336.825	80.56
337.053	86.56
337.281	89.56
337.51	100.56
337.738	78.56
337.966	78.56
338.194	69.56
338.422	74.56
338.65	88.56
338.878	93.56
339.106	81.56
339.334	84.56
339.562	82.56
339.79	85.56
340.018	82.56
340.246	75.56
340.474	90.56
340.702	75.56
340.93	80.56
341.158	80.56
341.386	69.56
341.614	82.56
341.842	79.56
342.07	83.56
342.298	92.56
342.526	80.56
342.754	76.56
342.981	95.56
343.209	89.56
343.437	103.56
343.665	74.56
343.893	91.56
344.12	92.56
344.348	88.56
344.576	86.56
344.804	79.56
345.031	78.56
345.259	74.56
345.487	81.56
345.714	80.56
345.942	68.56
346.17	71.56
346.397	90.56
346.625	88.56
346.853	90.56
347.08	86.56
347.308	75.56
347.535	91.56
347.763	88.56
347.99	96.56
348.218	97.56
348.445	69.56
348.673	86.56
348.9	67.56
349.128	93.56
349.355	76.56
349.583	75.56
349.81	77.56
350.037	71.56
350.265	74.56
350.492	76.56
350.72	71.56
350.947	78.56
351.174	86.56
351.402	88.56
351.629	93.56
351.856	87.56
352.083	76.56
352.311	66.56
352.538	82.56
352.765	82.56
352.992	77.56
353.22	79.56
353.447	74.56
353.674	90.56
353.901	88.56
354.128	87.56
354.355	80.56
354.583	87.56
354.81	74.56
355.037	73.56
355.264	92.56
355.491	91.56
355.718	74.56
355.945	103.56
356.172	79.56
356.399	80.56
356.626	96.56
356.853	86.56
357.08	76.56
357.307	77.56
357.534	72.56
357.761	82.56
357.988	82.56
358.215	80.56
358.441	97.56
358.668	104.56
358.895	84.56
359.122	90.56
359.349	77.56
359.576	69.56
359.802	73.56
360.029	78.56
360.256	92.56
360.483	87.56
360.709	93.56
360.936	86.56
361.163	85.56
361.39	67.56
361.616	71.56
361.843	87.56
362.07	92.56
362.296	81.56
362.523	81.56
362.749	95.56
362.976	94.56
363.203	114.56
363.429	92.56
363.656	94.56
363.882	93.56
364.109	96.56
364.335	98.56
364.562	106.56
364.788	96.56
365.015	96.56
365.241	87.56
365.468	70.56
365.694	76.56
365.92	88.56
366.147	80.56
366.373	80.56
366.599	60.56
366.826	83.56
367.052	84.56
367.278	90.56
367.505	87.56
367.731	87.56
367.957	68.56
368.184	86.56
368.41	91.56
368.636	95.56
368.862	71.56
369.089	72.56
369.315	84.56
369.541	78.56
369.767	92.56
369.993	86.56
370.219	90.56
370.445	84.56
370.672	88.56
370.898	79.56
371.124	81.56
371.35	75.56
371.576	88.56
371.802	90.56
372.028	93.56
372.254	88.56
372.48	90.56
372.706	86.56
372.932	89.56
373.158	78.56
373.384	92.56
373.61	85.56
373.835	95.56
374.061	92.56
374.287	95.56
374.513	100.56
374.739	90.56
374.965	100.56
375.191	96.56
375.416	90.56
375.642	115.56
375.868	77.56
376.094	86.56
376.319	102.56
376.545	91.56
376.771	85.56
376.997	84.56
377.222	78.56
377.448	93.56
377.674	79.56
377.899	85.56
378.125	77.56
378.35	90.56
378.576	80.56
378.802	70.56
379.027	82.56
379.253	90.56
379.478	89.56
379.704	64.56
379.929	78.56
380.155	71.56
380.38	75.56
380.606	86.56
380.831	75.56
381.057	90.56
381.282	92.56
381.507	92.56
381.733	88.56
381.958	86.56
382.184	106.56
382.409	84.56
382.634	94.56
382.86	91.56
383.085	93.56
383.31	91.56
383.535	92.56
383.761	77.56
383.986	100.56
384.211	77.56
384.436	88.56
384.662	88.56
384.887	73.56
385.112	90.56
385.337	89.56
385.562	84.56
385.787	84.56
386.013	100.56
386.238	97.56
386.463	91.56
386.688	95.56
386.913	84.56
387.138	89.56
387.363	87.56
387.588	98.56
387.813	90.56
388.038	69.56
388.263	97.56
388.488	87.56
388.713	91.56
388.938	89.56
389.163	101.56
389.387	81.56
389.612	91.56
389.837	85.56
390.062	81.56
390.287	85.56
390.512	89.56
390.736	73.56
390.961	87.56
391.186	75.56
391.411	75.56
391.636	85.56
391.86	88.56
392.085	95.56
392.31	98.56
392.534	86.56
392.759	91.56
392.984	124.56
393.208	160.56
393.433	232.56
393.658	200.56
393.882	102.56
394.107	94.56
394.331	91.56
394.556	108.56
394.78	87.56
395.005	92.56
395.229	80.56
395.454	85.56
395.678	88.56
395.903	93.56
396.127	105.56
396.352	112.56
396.576	124.56
396.801	162.56
397.025	203.56
397.249	138.56
397.474	102.56
397.698	85.56
397.922	81.56
398.147	78.56
398.371	68.56
398.595	64.56
398.82	74.56
399.044	78.56
399.268	72.56
399.492	87.56
399.717	90.56
399.941	88.56
400.165	84.56
400.389	86.56
400.613	78.56
400.837	74.56
401.062	78.56
401.286	70.56
401.51	76.56
401.734	81.56
401.958	90.56
402.182	77.56
402.406	84.56
402.63	72.56
402.854	68.56
403.078	72.56
403.302	77.56
403.526	88.56
403.75	84.56
403.974	81.56
404.198	85.56
404.422	81.56
404.645	89.56
404.869	77.56
405.093	76.56
405.317	72.56
405.541	92.56
405.765	76.56
405.988	98.56
406.212	88.56
406.436	77.56
406.66	71.56
406.883	78.56
407.107	76.56
407.331	77.56
407.555	88.56
407.778	92.56
408.002	95.56
408.226	80.56
408.449	78.56
408.673	87.56
408.896	70.56
409.12	82.56
409.344	86.56
409.567	88.56
409.791	88.56
410.014	77.56
410.238	81.56
410.461	69.56
410.685	81.56
410.908	85.56
411.132	90.56
411.355	60.56
411.578	81.56
411.802	79.56
412.025	63.56
412.249	89.56
412.472	69.56
412.695	77.56
412.919	70.56
413.142	80.56
413.365	82.56
413.589	81.56
413.812	72.56
414.035	82.56
414.258	77.56
414.482	82.56
414.705	85.56
414.928	88.56
415.151	72.56
415.374	73.56
415.597	88.56
415.821	88.56
416.044	63.56
416.267	80.56
416.49	79.56
416.713	81.56
416.936	84.56
417.159	74.56
417.382	90.56
417.605	79.56
417.828	94.56
418.051	86.56
418.274	85.56
418.497	84.56
418.72	83.56
418.943	73.56
419.166	82.56
419.389	72.56
419.611	81.56
419.834	77.56
420.057	85.56
420.28	86.56
420.503	92.56
420.726	81.56
420.948	74.56
421.171	84.56
421.394	101.56
421.617	104.56
421.839	89.56
422.062	112.56
422.285	118.56
422.507	203.56
422.73	280.56
422.953	272.56
423.175	144.56
423.398	102.56
423.621	94.56
423.843	85.56
424.066	78.56
424.288	78.56
424.511	77.56
424.733	89.56
424.956	92.56
425.178	84.56
425.401	77.56
425.623	81.56
425.846	68.56
426.068	80.56
426.291	79.56
426.513	80.56
426.735	92.56
426.958	80.56
427.18	74.56
427.402	69.56
427.625	80.56
427.847	87.56
428.069	90.56
428.292	98.56
428.514	110.56
428.736	90.56
428.958	105.56
429.181	105.56
429.403	87.56
429.625	80.56
429.847	107.56
430.069	104.56
430.292	128.56
430.514	135.56
430.736	103.56
430.958	116.56
431.18	94.56
431.402	81.56
431.624	85.56
431.846	93.56
432.068	100.56
432.29	88.56
432.512	89.56
432.734	69.56
432.956	62.56
433.178	77.56
433.4	76.56
433.622	84.56
433.844	69.56
434.066	78.56
434.287	82.56
434.509	65.56
434.731	83.56
434.953	80.56
435.175	75.56
435.397	81.56
435.618	71.56
435.84	87.56
436.062	89.56
436.284	68.56
436.505	86.56
436.727	87.56
436.949	71.56
437.17	73.56
437.392	79.56
437.614	80.56
437.835	86.56
438.057	79.56
438.278	82.56
438.5	80.56
438.721	90.56
438.943	71.56
439.165	75.56
439.386	81.56
439.608	84.56
439.829	80.56
440.05	93.56
440.272	79.56
440.493	92.56
440.715	78.56
440.936	79.56
441.158	81.56
441.379	62.56
441.6	74.56
441.822	88.56
442.043	80.56
442.264	96.56
442.486	100.56
442.707	124.56
442.928	96.56
443.149	97.56
443.371	99.56
443.592	172.56
443.813	142.56
444.034	88.56
444.255	96.56
444.476	75.56
444.698	99.56
444.919	68.56
445.14	152.56
445.361	153.56
445.582	189.56
445.803	153.56
446.024	104.56
446.245	77.56
446.466	72.56
446.687	88.56
446.908	93.56
447.129	80.56
447.35	78.56
447.571	79.56
447.792	76.56
448.013	73.56
448.234	76.56
448.455	75.56
448.675	85.56
448.896	68.56
449.117	78.56
449.338	88.56
449.559	80.56
449.779	73.56
450	77.56
450.221	81.56
450.442	70.56
450.662	77.56
450.883	74.56
451.104	73.56
451.324	71.56
451.545	71.56
451.766	71.56
451.986	62.56
452.207	90.56
452.428	80.56
452.648	90.56
452.869	84.56
453.089	92.56
453.31	89.56
453.53	79.56
453.751	82.56
453.971	84.56
454.192	88.56
454.412	72.56
454.633	79.56
454.853	86.56
455.073	89.56
455.294	81.56
455.514	102.56
455.734	76.56
455.955	86.56
456.175	84.56
456.395	79.56
456.616	78.56
456.836	75.56
457.056	86.56
457.276	73.56
457.497	81.56
457.717	81.56
457.937	94.56
458.157	100.56
458.377	104.56
458.598	96.56
458.818	99.56
459.038	78.56
459.258	92.56
459.478	90.56
459.698	86.56
459.918	77.56
460.138	100.56
460.358	72.56
460.578	95.56
460.798	105.56
461.018	110.56
461.238	73.56
461.458	73.56
461.678	67.56
461.898	69.56
462.118	72.56
462.338	84.56
462.558	74.56
462.777	80.56
462.997	90.56
463.217	61.56
463.437	77.56
463.657	84.56
463.876	86.56
464.096	70.56
464.316	85.56
464.536	68.56
464.755	81.56
464.975	73.56
465.195	84.56
465.414	83.56
465.634	82.56
465.854	76.56
466.073	78.56
466.293	81.56
466.512	63.56
466.732	80.56
466.951	82.56
467.171	71.56
467.391	91.56
467.61	95.56
467.829	92.56
468.049	82.56
468.268	77.56
468.488	73.56
468.707	86.56
468.927	81.56
469.146	82.56
469.365	75.56
469.585	73.56
469.804	71.56
470.023	74.56
470.243	91.56
470.462	82.56
470.681	78.56
470.901	85.56
471.12	67.56
471.339	70.56
471.558	82.56
471.777	81.56
471.997	82.56
472.216	91.56
472.435	88.56
472.654	73.56
472.873	89.56
473.092	88.56
473.311	70.56
473.53	80.56
473.749	72.56
473.968	78.56
474.187	80.56
474.406	88.56
474.625	92.56
474.844	61.56
475.063	73.56
475.282	86.56
475.501	92.56
475.72	87.56
475.939	78.56
476.158	72.56
476.377	84.56
476.596	71.56
476.814	76.56
477.033	82.56
477.252	83.56
477.471	86.56
477.69	71.56
477.908	90.56
478.127	77.56
478.346	72.56
478.564	87.56
478.783	89.56
479.002	65.56
479.22	78.56
479.439	79.56
479.658	77.56
479.876	83.56
480.095	83.56
480.313	62.56
480.532	87.56
480.751	80.56
480.969	86.56
481.188	81.56
481.406	82.56
481.624	88.56
481.843	96.56
482.061	79.56
482.28	80.56
482.498	90.56
482.717	76.56
482.935	81.56
483.153	80.56
483.372	74.56
483.59	93.56
483.808	74.56
484.027	82.56
484.245	84.56
484.463	80.56
484.681	92.56
484.9	86.56
485.118	92.56
485.336	78.56
485.554	78.56
485.772	68.56
485.99	86.56
486.209	92.56
486.427	80.56
486.645	85.56
486.863	69.56
487.081	81.56
487.299	85.56
487.517	88.56
487.735	95.56
487.953	124.56
488.171	98.56
488.389	84.56
488.607	76.56
488.825	101.56
489.043	72.56
489.261	82.56
489.479	92.56
489.696	86.56
489.914	73.56
490.132	89.56
490.35	83.56
490.568	86.56
490.786	74.56
491.003	93.56
491.221	102.56
491.439	81.56
491.657	77.56
491.874	73.56
492.092	87.56
492.31	83.56
492.527	94.56
492.745	71.56
492.963	80.56
493.18	87.56
493.398	75.56
493.615	80.56
493.833	75.56
494.05	69.56
494.268	66.56
494.485	87.56
494.703	91.56
494.92	75.56
495.138	84.56
495.355	77.56
495.573	71.56
495.79	88.56
496.008	79.56
496.225	99.56
496.442	84.56
496.66	89.56
496.877	84.56
497.094	84.56
497.312	81.56
497.529	70.56
497.746	89.56
497.963	84.56
498.181	77.56
498.398	80.56
498.615	85.56
498.832	91.56
499.049	87.56
499.267	93.56
499.484	77.56
499.701	86.56
499.918	101.56
500.135	90.56
500.352	95.56
500.569	73.56
500.786	86.56
501.003	85.56
501.22	83.56
501.437	97.56
501.654	95.56
501.871	91.56
502.088	87.56
502.305	94.56
502.522	62.56
502.739	92.56
502.956	81.56
503.172	65.56
503.389	80.56
503.606	86.56
503.823	92.56
504.04	77.56
504.256	96.56
504.473	100.56
504.69	78.56
504.907	88.56
505.123	78.56
505.34	84.56
505.557	93.56
505.773	83.56
505.99	80.56
506.207	89.56
506.423	70.56
506.64	92.56
506.856	87.56
507.073	75.56
507.289	82.56
507.506	77.56
507.722	79.56
507.939	76.56
508.155	71.56
508.372	80.56
508.588	97.56
508.805	76.56
509.021	71.56
509.238	82.56
509.454	72.56
509.67	75.56
509.887	82.56
510.103	83.56
510.319	96.56
510.536	78.56
510.752	78.56
510.968	88.56
511.184	68.56
511.401	95.56
511.617	87.56
511.833	62.56
512.049	83.56
512.265	72.56
512.481	72.56
512.698	82.56
512.914	86.56
513.13	84.56
513.346	75.56
513.562	82.56
513.778	82.56
513.994	88.56
514.21	92.56
514.426	96.56
514.642	87.56
514.858	77.56
515.074	92.56
515.29	71.56
515.506	78.56
515.721	74.56
515.937	84.56
516.153	88.56
516.369	85.56
516.585	80.56
516.801	88.56
517.016	80.56
517.232	80.56
517.448	97.56
517.664	95.56
517.879	79.56
518.095	86.56
518.311	86.56
518.527	88.56
518.742	98.56
518.958	101.56
519.173	105.56
519.389	92.56
