Data from 15780_3_HRD10591_00016.txt Node
Date: Mon Jan 19 14:20:06 EST 2026
User: Yrep
Spectrometer: HR+D1059
Trigger mode: 1
Integration Time (sec): 1.000000E-1
Scans to average: 1
Electric dark correction enabled: true
Nonlinearity correction enabled: false
Boxcar width: 0
XAxis mode: Wavelengths
Number of Pixels in Spectrum: 2048
>>>>>Begin Spectral Data<<<<<
223.165	-20.19
223.4	-20.19
223.635	-20.19
223.869	-11.19
224.104	-13.19
224.338	-10.19
224.573	-2.19
224.808	-12.19
225.042	0.81
225.277	-17.19
225.511	8.81
225.746	10.81
225.98	-7.19
226.215	14.81
226.449	8.81
226.683	11.81
226.918	7.81
227.152	29.81
227.387	36.81
227.621	42.81
227.856	50.81
228.09	58.81
228.324	64.81
228.559	78.81
228.793	49.81
229.027	64.81
229.262	62.81
229.496	77.81
229.73	59.81
229.964	73.81
230.199	81.81
230.433	75.81
230.667	88.81
230.901	77.81
231.136	71.81
231.37	75.81
231.604	68.81
231.838	84.81
232.072	85.81
232.306	100.81
232.541	78.81
232.775	78.81
233.009	103.81
233.243	92.81
233.477	82.81
233.711	69.81
233.945	92.81
234.179	83.81
234.413	73.81
234.647	88.81
234.881	77.81
235.115	84.81
235.349	78.81
235.583	81.81
235.817	76.81
236.051	64.81
236.285	77.81
236.519	76.81
236.753	85.81
236.987	76.81
237.221	83.81
237.455	77.81
237.689	87.81
237.922	77.81
238.156	72.81
238.39	86.81
238.624	84.81
238.858	86.81
239.091	71.81
239.325	72.81
239.559	71.81
239.793	74.81
240.027	85.81
240.26	65.81
240.494	71.81
240.728	90.81
240.961	84.81
241.195	95.81
241.429	92.81
241.662	68.81
241.896	86.81
242.13	73.81
242.363	83.81
242.597	66.81
242.83	84.81
243.064	86.81
243.298	97.81
243.531	89.81
243.765	84.81
243.998	80.81
244.232	70.81
244.465	84.81
244.699	69.81
244.932	80.81
245.166	72.81
245.399	79.81
245.633	80.81
245.866	88.81
246.099	70.81
246.333	75.81
246.566	70.81
246.8	69.81
247.033	78.81
247.266	69.81
247.5	93.81
247.733	75.81
247.966	82.81
248.2	82.81
248.433	75.81
248.666	82.81
248.899	79.81
249.133	78.81
249.366	91.81
249.599	87.81
249.832	74.81
250.066	84.81
250.299	88.81
250.532	82.81
250.765	94.81
250.998	88.81
251.231	85.81
251.465	71.81
251.698	76.81
251.931	83.81
252.164	91.81
252.397	73.81
252.63	73.81
252.863	90.81
253.096	84.81
253.329	85.81
253.562	80.81
253.795	86.81
254.028	82.81
254.261	72.81
254.494	84.81
254.727	84.81
254.96	76.81
255.193	85.81
255.426	79.81
255.659	84.81
255.892	81.81
256.124	77.81
256.357	83.81
256.59	82.81
256.823	91.81
257.056	75.81
257.289	82.81
257.521	84.81
257.754	80.81
257.987	91.81
258.22	71.81
258.452	98.81
258.685	86.81
258.918	84.81
259.151	84.81
259.383	76.81
259.616	65.81
259.849	72.81
260.081	85.81
260.314	72.81
260.547	60.81
260.779	74.81
261.012	84.81
261.244	80.81
261.477	76.81
261.71	75.81
261.942	86.81
262.175	99.81
262.407	93.81
262.64	89.81
262.872	86.81
263.105	83.81
263.337	85.81
263.57	87.81
263.802	85.81
264.035	94.81
264.267	88.81
264.499	82.81
264.732	89.81
264.964	84.81
265.197	95.81
265.429	86.81
265.661	100.81
265.894	76.81
266.126	81.81
266.358	74.81
266.591	92.81
266.823	98.81
267.055	87.81
267.287	93.81
267.52	72.81
267.752	89.81
267.984	71.81
268.216	65.81
268.448	91.81
268.681	78.81
268.913	83.81
269.145	92.81
269.377	84.81
269.609	68.81
269.841	76.81
270.073	85.81
270.306	82.81
270.538	78.81
270.77	85.81
271.002	81.81
271.234	79.81
271.466	94.81
271.698	84.81
271.93	82.81
272.162	86.81
272.394	95.81
272.626	91.81
272.858	94.81
273.09	81.81
273.322	88.81
273.553	83.81
273.785	96.81
274.017	88.81
274.249	93.81
274.481	78.81
274.713	80.81
274.945	100.81
275.176	83.81
275.408	104.81
275.64	92.81
275.872	84.81
276.104	84.81
276.335	91.81
276.567	94.81
276.799	96.81
277.031	84.81
277.262	84.81
277.494	81.81
277.726	88.81
277.957	93.81
278.189	95.81
278.421	84.81
278.652	77.81
278.884	84.81
279.115	72.81
279.347	86.81
279.579	80.81
279.81	97.81
280.042	93.81
280.273	91.81
280.505	96.81
280.736	88.81
280.968	78.81
281.199	87.81
281.431	81.81
281.662	87.81
281.894	94.81
282.125	99.81
282.356	93.81
282.588	85.81
282.819	80.81
283.051	89.81
283.282	92.81
283.513	91.81
283.745	78.81
283.976	67.81
284.207	84.81
284.439	89.81
284.67	110.81
284.901	92.81
285.132	94.81
285.364	85.81
285.595	90.81
285.826	73.81
286.057	97.81
286.288	81.81
286.52	89.81
286.751	94.81
286.982	76.81
287.213	88.81
287.444	94.81
287.675	93.81
287.906	97.81
288.138	88.81
288.369	95.81
288.6	89.81
288.831	99.81
289.062	94.81
289.293	82.81
289.524	78.81
289.755	90.81
289.986	83.81
290.217	81.81
290.448	74.81
290.679	84.81
290.91	77.81
291.141	75.81
291.371	72.81
291.602	94.81
291.833	85.81
292.064	87.81
292.295	85.81
292.526	99.81
292.757	80.81
292.987	80.81
293.218	89.81
293.449	89.81
293.68	98.81
293.91	87.81
294.141	91.81
294.372	84.81
294.603	96.81
294.833	83.81
295.064	86.81
295.295	84.81
295.525	86.81
295.756	101.81
295.987	95.81
296.217	92.81
296.448	88.81
296.679	88.81
296.909	97.81
297.14	92.81
297.37	86.81
297.601	97.81
297.831	100.81
298.062	93.81
298.292	92.81
298.523	92.81
298.753	90.81
298.984	92.81
299.214	95.81
299.445	90.81
299.675	107.81
299.905	94.81
300.136	86.81
300.366	78.81
300.597	100.81
300.827	95.81
301.057	96.81
301.288	98.81
301.518	88.81
301.748	97.81
301.979	98.81
302.209	97.81
302.439	94.81
302.669	76.81
302.9	80.81
303.13	89.81
303.36	101.81
303.59	88.81
303.82	85.81
304.051	80.81
304.281	78.81
304.511	96.81
304.741	88.81
304.971	94.81
305.201	89.81
305.431	97.81
305.661	79.81
305.891	100.81
306.121	89.81
306.352	101.81
306.582	84.81
306.812	94.81
307.042	88.81
307.272	93.81
307.502	91.81
307.731	101.81
307.961	102.81
308.191	109.81
308.421	105.81
308.651	102.81
308.881	101.81
309.111	110.81
309.341	118.81
309.571	105.81
309.8	95.81
310.03	82.81
310.26	84.81
310.49	92.81
310.72	74.81
310.949	90.81
311.179	100.81
311.409	92.81
311.639	85.81
311.868	83.81
312.098	91.81
312.328	78.81
312.557	92.81
312.787	81.81
313.017	92.81
313.246	88.81
313.476	102.81
313.706	82.81
313.935	88.81
314.165	91.81
314.394	75.81
314.624	80.81
314.853	85.81
315.083	102.81
315.312	109.81
315.542	106.81
315.771	111.81
316.001	126.81
316.23	100.81
316.46	86.81
316.689	92.81
316.919	77.81
317.148	98.81
317.377	101.81
317.607	100.81
317.836	106.81
318.065	114.81
318.295	106.81
318.524	99.81
318.753	89.81
318.983	81.81
319.212	104.81
319.441	84.81
319.67	81.81
319.9	96.81
320.129	106.81
320.358	81.81
320.587	89.81
320.816	83.81
321.046	101.81
321.275	94.81
321.504	90.81
321.733	92.81
321.962	108.81
322.191	86.81
322.42	99.81
322.649	96.81
322.878	100.81
323.108	96.81
323.337	99.81
323.566	96.81
323.795	100.81
324.024	101.81
324.253	101.81
324.482	82.81
324.71	92.81
324.939	100.81
325.168	76.81
325.397	83.81
325.626	100.81
325.855	88.81
326.084	91.81
326.313	91.81
326.542	92.81
326.77	82.81
326.999	94.81
327.228	91.81
327.457	84.81
327.686	97.81
327.914	118.81
328.143	94.81
328.372	100.81
328.6	100.81
328.829	104.81
329.058	79.81
329.287	84.81
329.515	87.81
329.744	94.81
329.972	93.81
330.201	95.81
330.43	93.81
330.658	89.81
330.887	98.81
331.115	95.81
331.344	99.81
331.572	103.81
331.801	81.81
332.03	85.81
332.258	100.81
332.486	101.81
332.715	86.81
332.943	97.81
333.172	80.81
333.4	90.81
333.629	86.81
333.857	91.81
334.085	109.81
334.314	90.81
334.542	96.81
334.771	104.81
334.999	117.81
335.227	92.81
335.455	98.81
335.684	106.81
335.912	115.81
336.14	108.81
336.369	102.81
336.597	87.81
336.825	84.81
337.053	90.81
337.281	90.81
337.51	91.81
337.738	103.81
337.966	70.81
338.194	90.81
338.422	97.81
338.65	82.81
338.878	94.81
339.106	87.81
339.334	91.81
339.562	77.81
339.79	72.81
340.018	87.81
340.246	74.81
340.474	103.81
340.702	97.81
340.93	86.81
341.158	96.81
341.386	70.81
341.614	80.81
341.842	92.81
342.07	82.81
342.298	97.81
342.526	88.81
342.754	84.81
342.981	95.81
343.209	92.81
343.437	110.81
343.665	82.81
343.893	84.81
344.12	107.81
344.348	99.81
344.576	95.81
344.804	83.81
345.031	95.81
345.259	88.81
345.487	85.81
345.714	82.81
345.942	74.81
346.17	83.81
346.397	98.81
346.625	88.81
346.853	88.81
347.08	89.81
347.308	98.81
347.535	91.81
347.763	98.81
347.99	91.81
348.218	92.81
348.445	96.81
348.673	95.81
348.9	103.81
349.128	108.81
349.355	91.81
349.583	86.81
349.81	101.81
350.037	98.81
350.265	92.81
350.492	98.81
350.72	94.81
350.947	86.81
351.174	78.81
351.402	88.81
351.629	94.81
351.856	92.81
352.083	93.81
352.311	89.81
352.538	98.81
352.765	108.81
352.992	105.81
353.22	86.81
353.447	93.81
353.674	93.81
353.901	99.81
354.128	101.81
354.355	89.81
354.583	69.81
354.81	86.81
355.037	103.81
355.264	77.81
355.491	97.81
355.718	81.81
355.945	114.81
356.172	93.81
356.399	79.81
356.626	97.81
356.853	119.81
357.08	110.81
357.307	108.81
357.534	89.81
357.761	102.81
357.988	124.81
358.215	115.81
358.441	122.81
358.668	104.81
358.895	99.81
359.122	100.81
359.349	108.81
359.576	105.81
359.802	82.81
360.029	79.81
360.256	99.81
360.483	110.81
360.709	108.81
360.936	110.81
361.163	103.81
361.39	90.81
361.616	97.81
361.843	92.81
362.07	112.81
362.296	115.81
362.523	97.81
362.749	121.81
362.976	153.81
363.203	156.81
363.429	125.81
363.656	118.81
363.882	93.81
364.109	141.81
364.335	157.81
364.562	180.81
364.788	131.81
365.015	109.81
365.241	104.81
365.468	115.81
365.694	94.81
365.92	94.81
366.147	87.81
366.373	78.81
366.599	92.81
366.826	100.81
367.052	81.81
367.278	84.81
367.505	96.81
367.731	99.81
367.957	103.81
368.184	104.81
368.41	94.81
368.636	116.81
368.862	108.81
369.089	98.81
369.315	91.81
369.541	106.81
369.767	84.81
369.993	100.81
370.219	88.81
370.445	109.81
370.672	110.81
370.898	109.81
371.124	87.81
371.35	95.81
371.576	90.81
371.802	103.81
372.028	117.81
372.254	115.81
372.48	89.81
372.706	89.81
372.932	108.81
373.158	130.81
373.384	133.81
373.61	170.81
373.835	160.81
374.061	119.81
374.287	107.81
374.513	118.81
374.739	132.81
374.965	123.81
375.191	132.81
375.416	104.81
375.642	114.81
375.868	110.81
376.094	128.81
376.319	109.81
376.545	105.81
376.771	106.81
376.997	105.81
377.222	97.81
377.448	96.81
377.674	93.81
377.899	84.81
378.125	93.81
378.35	97.81
378.576	101.81
378.802	92.81
379.027	94.81
379.253	98.81
379.478	114.81
379.704	110.81
379.929	114.81
380.155	100.81
380.38	109.81
380.606	100.81
380.831	92.81
381.057	91.81
381.282	101.81
381.507	109.81
381.733	113.81
381.958	102.81
382.184	133.81
382.409	133.81
382.634	129.81
382.86	138.81
383.085	131.81
383.31	136.81
383.535	122.81
383.761	127.81
383.986	128.81
384.211	129.81
384.436	88.81
384.662	93.81
384.887	118.81
385.112	132.81
385.337	105.81
385.562	124.81
385.787	124.81
386.013	128.81
386.238	123.81
386.463	116.81
386.688	122.81
386.913	103.81
387.138	125.81
387.363	116.81
387.588	117.81
387.813	110.81
388.038	110.81
388.263	140.81
388.488	108.81
388.713	109.81
388.938	120.81
389.163	76.81
389.387	93.81
389.612	116.81
389.837	110.81
390.062	109.81
390.287	104.81
390.512	113.81
390.736	101.81
390.961	104.81
391.186	102.81
391.411	81.81
391.636	121.81
391.86	110.81
392.085	114.81
392.31	120.81
392.534	137.81
392.759	150.81
392.984	280.81
393.208	517.81
393.433	809.81
393.658	586.81
393.882	211.81
394.107	152.81
394.331	154.81
394.556	183.81
394.78	146.81
395.005	129.81
395.229	113.81
395.454	136.81
395.678	141.81
395.903	174.81
396.127	216.81
396.352	248.81
396.576	312.81
396.801	542.81
397.025	635.81
397.249	301.81
397.474	163.81
397.698	123.81
397.922	104.81
398.147	93.81
398.371	92.81
398.595	90.81
398.82	100.81
399.044	96.81
399.268	71.81
399.492	105.81
399.717	105.81
399.941	118.81
400.165	105.81
400.389	101.81
400.613	89.81
400.837	100.81
401.062	93.81
401.286	83.81
401.51	99.81
401.734	89.81
401.958	86.81
402.182	99.81
402.406	94.81
402.63	96.81
402.854	90.81
403.078	103.81
403.302	87.81
403.526	99.81
403.75	88.81
403.974	96.81
404.198	97.81
404.422	115.81
404.645	102.81
404.869	115.81
405.093	108.81
405.317	92.81
405.541	98.81
405.765	104.81
405.988	94.81
406.212	93.81
406.436	90.81
406.66	94.81
406.883	93.81
407.107	103.81
407.331	102.81
407.555	132.81
407.778	173.81
408.002	162.81
408.226	106.81
408.449	99.81
408.673	97.81
408.896	105.81
409.12	104.81
409.344	99.81
409.567	117.81
409.791	118.81
410.014	120.81
410.238	98.81
410.461	100.81
410.685	97.81
410.908	95.81
411.132	89.81
411.355	88.81
411.578	78.81
411.802	89.81
412.025	92.81
412.249	73.81
412.472	99.81
412.695	90.81
412.919	88.81
413.142	96.81
413.365	93.81
413.589	90.81
413.812	100.81
414.035	101.81
414.258	100.81
414.482	110.81
414.705	83.81
414.928	85.81
415.151	85.81
415.374	87.81
415.597	87.81
415.821	85.81
416.044	91.81
416.267	92.81
416.49	89.81
416.713	85.81
416.936	94.81
417.159	86.81
417.382	98.81
417.605	106.81
417.828	96.81
418.051	100.81
418.274	94.81
418.497	101.81
418.72	72.81
418.943	96.81
419.166	93.81
419.389	90.81
419.611	88.81
419.834	98.81
420.057	106.81
420.28	108.81
420.503	91.81
420.726	103.81
420.948	114.81
421.171	115.81
421.394	140.81
421.617	176.81
421.839	179.81
422.062	165.81
422.285	225.81
422.507	416.81
422.73	678.81
422.953	607.81
423.175	290.81
423.398	160.81
423.621	128.81
423.843	101.81
424.066	120.81
424.288	114.81
424.511	99.81
424.733	102.81
424.956	101.81
425.178	94.81
425.401	99.81
425.623	84.81
425.846	81.81
426.068	91.81
426.291	96.81
426.513	104.81
426.735	101.81
426.958	89.81
427.18	113.81
427.402	111.81
427.625	84.81
427.847	89.81
428.069	117.81
428.292	162.81
428.514	193.81
428.736	129.81
428.958	170.81
429.181	197.81
429.403	130.81
429.625	100.81
429.847	151.81
430.069	225.81
430.292	251.81
430.514	256.81
430.736	193.81
430.958	195.81
431.18	124.81
431.402	99.81
431.624	112.81
431.846	155.81
432.068	194.81
432.29	118.81
432.512	93.81
432.734	97.81
432.956	93.81
433.178	93.81
433.4	86.81
433.622	93.81
433.844	91.81
434.066	94.81
434.287	77.81
434.509	80.81
434.731	90.81
434.953	84.81
435.175	85.81
435.397	101.81
435.618	107.81
435.84	96.81
436.062	95.81
436.284	91.81
436.505	96.81
436.727	92.81
436.949	100.81
437.17	108.81
437.392	92.81
437.614	99.81
437.835	83.81
438.057	85.81
438.278	108.81
438.5	113.81
438.721	105.81
438.943	101.81
439.165	92.81
439.386	94.81
439.608	91.81
439.829	83.81
440.05	104.81
440.272	104.81
440.493	120.81
440.715	105.81
440.936	109.81
441.158	99.81
441.379	103.81
441.6	97.81
441.822	91.81
442.043	100.81
442.264	135.81
442.486	164.81
442.707	227.81
442.928	156.81
443.149	114.81
443.371	220.81
443.592	380.81
443.813	319.81
444.034	139.81
444.255	99.81
444.476	106.81
444.698	105.81
444.919	97.81
445.14	198.81
445.361	272.81
445.582	486.81
445.803	393.81
446.024	145.81
446.245	102.81
446.466	104.81
446.687	102.81
446.908	98.81
447.129	90.81
447.35	92.81
447.571	102.81
447.792	78.81
448.013	89.81
448.234	79.81
448.455	102.81
448.675	95.81
448.896	98.81
449.117	114.81
449.338	88.81
449.559	90.81
449.779	91.81
450	95.81
450.221	90.81
450.442	91.81
450.662	86.81
450.883	81.81
451.104	96.81
451.324	94.81
451.545	99.81
451.766	98.81
451.986	76.81
452.207	85.81
452.428	100.81
452.648	124.81
452.869	116.81
453.089	108.81
453.31	98.81
453.53	112.81
453.751	116.81
453.971	85.81
454.192	82.81
454.412	98.81
454.633	84.81
454.853	88.81
455.073	83.81
455.294	100.81
455.514	104.81
455.734	100.81
455.955	91.81
456.175	75.81
456.395	82.81
456.616	84.81
456.836	85.81
457.056	94.81
457.276	83.81
457.497	115.81
457.717	93.81
457.937	123.81
458.157	156.81
458.377	160.81
458.598	155.81
458.818	173.81
459.038	108.81
459.258	104.81
459.478	98.81
459.698	92.81
459.918	93.81
460.138	88.81
460.358	91.81
460.578	102.81
460.798	157.81
461.018	149.81
461.238	114.81
461.458	87.81
461.678	97.81
461.898	95.81
462.118	81.81
462.338	99.81
462.558	86.81
462.777	95.81
462.997	86.81
463.217	84.81
463.437	93.81
463.657	100.81
463.876	93.81
464.096	80.81
464.316	87.81
464.536	85.81
464.755	84.81
464.975	91.81
465.195	86.81
465.414	92.81
465.634	89.81
465.854	83.81
466.073	90.81
466.293	102.81
466.512	88.81
466.732	84.81
466.951	97.81
467.171	73.81
467.391	106.81
467.61	84.81
467.829	81.81
468.049	104.81
468.268	96.81
468.488	99.81
468.707	114.81
468.927	108.81
469.146	81.81
469.365	92.81
469.585	104.81
469.804	76.81
470.023	93.81
470.243	87.81
470.462	88.81
470.681	98.81
470.901	82.81
471.12	86.81
471.339	98.81
471.558	97.81
471.777	97.81
471.997	86.81
472.216	95.81
472.435	102.81
472.654	94.81
472.873	94.81
473.092	90.81
473.311	98.81
473.53	91.81
473.749	79.81
473.968	95.81
474.187	92.81
474.406	106.81
474.625	93.81
474.844	93.81
475.063	84.81
475.282	87.81
475.501	106.81
475.72	108.81
475.939	86.81
476.158	91.81
476.377	102.81
476.596	99.81
476.814	92.81
477.033	90.81
477.252	78.81
477.471	81.81
477.69	97.81
477.908	91.81
478.127	91.81
478.346	79.81
478.564	92.81
478.783	88.81
479.002	95.81
479.22	93.81
479.439	92.81
479.658	94.81
479.876	75.81
480.095	94.81
480.313	82.81
480.532	100.81
480.751	100.81
480.969	100.81
481.188	100.81
481.406	105.81
481.624	96.81
481.843	109.81
482.061	100.81
482.28	92.81
482.498	94.81
482.717	77.81
482.935	74.81
483.153	94.81
483.372	117.81
483.59	84.81
483.808	82.81
484.027	93.81
484.245	101.81
484.463	94.81
484.681	96.81
484.9	99.81
485.118	114.81
485.336	110.81
485.554	113.81
485.772	95.81
485.99	98.81
486.209	82.81
486.427	98.81
486.645	96.81
486.863	90.81
487.081	104.81
487.299	107.81
487.517	108.81
487.735	148.81
487.953	216.81
488.171	183.81
488.389	108.81
488.607	107.81
488.825	87.81
489.043	104.81
489.261	109.81
489.479	109.81
489.696	105.81
489.914	90.81
490.132	81.81
490.35	110.81
490.568	96.81
490.786	89.81
491.003	84.81
491.221	94.81
491.439	109.81
491.657	106.81
491.874	83.81
492.092	92.81
492.31	106.81
492.527	89.81
492.745	92.81
492.963	98.81
493.18	103.81
493.398	94.81
493.615	104.81
493.833	86.81
494.05	100.81
494.268	97.81
494.485	99.81
494.703	93.81
494.92	100.81
495.138	100.81
495.355	108.81
495.573	100.81
495.79	106.81
496.008	101.81
496.225	96.81
496.442	100.81
496.66	103.81
496.877	103.81
497.094	97.81
497.312	96.81
497.529	98.81
497.746	99.81
497.963	97.81
498.181	115.81
498.398	140.81
498.615	114.81
498.832	106.81
499.049	100.81
499.267	124.81
499.484	108.81
499.701	102.81
499.918	112.81
500.135	128.81
500.352	105.81
500.569	103.81
500.786	108.81
501.003	124.81
501.22	84.81
501.437	99.81
501.654	120.81
501.871	110.81
502.088	105.81
502.305	101.81
502.522	110.81
502.739	98.81
502.956	104.81
503.172	98.81
503.389	101.81
503.606	109.81
503.823	96.81
504.04	118.81
504.256	187.81
504.473	180.81
504.69	95.81
504.907	107.81
505.123	105.81
505.34	101.81
505.557	99.81
505.773	86.81
505.99	87.81
506.207	89.81
506.423	93.81
506.64	116.81
506.856	91.81
507.073	82.81
507.289	109.81
507.506	85.81
507.722	92.81
507.939	94.81
508.155	92.81
508.372	90.81
508.588	86.81
508.805	102.81
509.021	120.81
509.238	90.81
509.454	115.81
509.67	95.81
509.887	98.81
510.103	100.81
510.319	103.81
510.536	100.81
510.752	99.81
510.968	101.81
511.184	91.81
511.401	98.81
511.617	96.81
511.833	85.81
512.049	85.81
512.265	90.81
512.481	92.81
512.698	100.81
512.914	84.81
513.13	92.81
513.346	97.81
513.562	94.81
513.778	96.81
513.994	100.81
