Data from 15780_3_HRD10591_00049.txt Node
Date: Mon Jan 19 14:20:22 EST 2026
User: Yrep
Spectrometer: HR+D1059
Trigger mode: 1
Integration Time (sec): 1.000000E-1
Scans to average: 1
Electric dark correction enabled: true
Nonlinearity correction enabled: false
Boxcar width: 0
XAxis mode: Wavelengths
Number of Pixels in Spectrum: 2048
>>>>>Begin Spectral Data<<<<<
223.165	-14.62
223.4	-14.62
223.635	-14.62
223.869	-26.62
224.104	-16.62
224.338	-21.62
224.573	-0.62
224.808	-5.62
225.042	-12.62
225.277	-8.62
225.511	-15.62
225.746	-6.62
225.98	-1.62
226.215	19.38
226.449	28.38
226.683	20.38
226.918	23.38
227.152	39.38
227.387	46.38
227.621	41.38
227.856	58.38
228.09	52.38
228.324	47.38
228.559	61.38
228.793	53.38
229.027	52.38
229.262	63.38
229.496	59.38
229.73	68.38
229.964	64.38
230.199	92.38
230.433	64.38
230.667	73.38
230.901	68.38
231.136	77.38
231.37	84.38
231.604	82.38
231.838	73.38
232.072	96.38
232.306	85.38
232.541	91.38
232.775	82.38
233.009	77.38
233.243	68.38
233.477	76.38
233.711	99.38
233.945	83.38
234.179	90.38
234.413	91.38
234.647	90.38
234.881	75.38
235.115	90.38
235.349	80.38
235.583	82.38
235.817	81.38
236.051	79.38
236.285	93.38
236.519	91.38
236.753	73.38
236.987	81.38
237.221	93.38
237.455	79.38
237.689	73.38
237.922	83.38
238.156	71.38
238.39	76.38
238.624	69.38
238.858	70.38
239.091	73.38
239.325	66.38
239.559	75.38
239.793	73.38
240.027	76.38
240.26	68.38
240.494	83.38
240.728	71.38
240.961	67.38
241.195	93.38
241.429	74.38
241.662	72.38
241.896	82.38
242.13	77.38
242.363	73.38
242.597	83.38
242.83	77.38
243.064	69.38
243.298	63.38
243.531	74.38
243.765	67.38
243.998	77.38
244.232	77.38
244.465	75.38
244.699	80.38
244.932	81.38
245.166	80.38
245.399	74.38
245.633	74.38
245.866	88.38
246.099	87.38
246.333	72.38
246.566	80.38
246.8	79.38
247.033	91.38
247.266	76.38
247.5	69.38
247.733	58.38
247.966	76.38
248.2	88.38
248.433	78.38
248.666	75.38
248.899	93.38
249.133	81.38
249.366	86.38
249.599	84.38
249.832	101.38
250.066	83.38
250.299	85.38
250.532	74.38
250.765	67.38
250.998	78.38
251.231	61.38
251.465	77.38
251.698	92.38
251.931	87.38
252.164	76.38
252.397	91.38
252.63	91.38
252.863	75.38
253.096	81.38
253.329	86.38
253.562	101.38
253.795	83.38
254.028	81.38
254.261	77.38
254.494	88.38
254.727	90.38
254.96	81.38
255.193	77.38
255.426	76.38
255.659	94.38
255.892	85.38
256.124	71.38
256.357	89.38
256.59	86.38
256.823	70.38
257.056	86.38
257.289	86.38
257.521	76.38
257.754	83.38
257.987	93.38
258.22	85.38
258.452	82.38
258.685	73.38
258.918	73.38
259.151	74.38
259.383	76.38
259.616	89.38
259.849	94.38
260.081	93.38
260.314	96.38
260.547	83.38
260.779	68.38
261.012	78.38
261.244	85.38
261.477	76.38
261.71	73.38
261.942	77.38
262.175	89.38
262.407	88.38
262.64	75.38
262.872	95.38
263.105	77.38
263.337	69.38
263.57	73.38
263.802	91.38
264.035	87.38
264.267	76.38
264.499	91.38
264.732	68.38
264.964	89.38
265.197	83.38
265.429	86.38
265.661	81.38
265.894	90.38
266.126	65.38
266.358	97.38
266.591	87.38
266.823	88.38
267.055	86.38
267.287	78.38
267.52	80.38
267.752	91.38
267.984	71.38
268.216	74.38
268.448	84.38
268.681	81.38
268.913	95.38
269.145	71.38
269.377	74.38
269.609	77.38
269.841	84.38
270.073	70.38
270.306	91.38
270.538	73.38
270.77	83.38
271.002	91.38
271.234	80.38
271.466	97.38
271.698	92.38
271.93	87.38
272.162	60.38
272.394	92.38
272.626	74.38
272.858	81.38
273.09	78.38
273.322	99.38
273.553	71.38
273.785	81.38
274.017	89.38
274.249	91.38
274.481	88.38
274.713	84.38
274.945	93.38
275.176	81.38
275.408	89.38
275.64	80.38
275.872	89.38
276.104	96.38
276.335	64.38
276.567	83.38
276.799	87.38
277.031	70.38
277.262	78.38
277.494	88.38
277.726	73.38
277.957	74.38
278.189	73.38
278.421	80.38
278.652	92.38
278.884	81.38
279.115	83.38
279.347	97.38
279.579	97.38
279.81	101.38
280.042	86.38
280.273	93.38
280.505	84.38
280.736	105.38
280.968	72.38
281.199	97.38
281.431	84.38
281.662	82.38
281.894	71.38
282.125	79.38
282.356	87.38
282.588	84.38
282.819	85.38
283.051	81.38
283.282	87.38
283.513	77.38
283.745	76.38
283.976	95.38
284.207	93.38
284.439	75.38
284.67	74.38
284.901	93.38
285.132	95.38
285.364	90.38
285.595	85.38
285.826	81.38
286.057	97.38
286.288	95.38
286.52	90.38
286.751	85.38
286.982	87.38
287.213	89.38
287.444	80.38
287.675	97.38
287.906	99.38
288.138	82.38
288.369	96.38
288.6	83.38
288.831	104.38
289.062	79.38
289.293	85.38
289.524	76.38
289.755	88.38
289.986	100.38
290.217	95.38
290.448	94.38
290.679	90.38
290.91	86.38
291.141	84.38
291.371	87.38
291.602	73.38
291.833	97.38
292.064	86.38
292.295	83.38
292.526	76.38
292.757	88.38
292.987	88.38
293.218	90.38
293.449	84.38
293.68	88.38
293.91	85.38
294.141	85.38
294.372	83.38
294.603	91.38
294.833	85.38
295.064	99.38
295.295	80.38
295.525	90.38
295.756	89.38
295.987	89.38
296.217	87.38
296.448	96.38
296.679	98.38
296.909	93.38
297.14	74.38
297.37	91.38
297.601	81.38
297.831	89.38
298.062	92.38
298.292	99.38
298.523	96.38
298.753	105.38
298.984	87.38
299.214	89.38
299.445	87.38
299.675	86.38
299.905	92.38
300.136	88.38
300.366	88.38
300.597	88.38
300.827	87.38
301.057	91.38
301.288	78.38
301.518	97.38
301.748	88.38
301.979	101.38
302.209	90.38
302.439	94.38
302.669	78.38
302.9	79.38
303.13	91.38
303.36	92.38
303.59	87.38
303.82	90.38
304.051	80.38
304.281	88.38
304.511	93.38
304.741	73.38
304.971	82.38
305.201	73.38
305.431	95.38
305.661	83.38
305.891	84.38
306.121	65.38
306.352	90.38
306.582	89.38
306.812	89.38
307.042	88.38
307.272	74.38
307.502	77.38
307.731	84.38
307.961	83.38
308.191	90.38
308.421	81.38
308.651	87.38
308.881	88.38
309.111	93.38
309.341	96.38
309.571	100.38
309.8	97.38
310.03	95.38
310.26	94.38
310.49	86.38
310.72	83.38
310.949	91.38
311.179	96.38
311.409	87.38
311.639	91.38
311.868	85.38
312.098	83.38
312.328	101.38
312.557	90.38
312.787	88.38
313.017	84.38
313.246	90.38
313.476	77.38
313.706	81.38
313.935	76.38
314.165	80.38
314.394	96.38
314.624	72.38
314.853	84.38
315.083	91.38
315.312	105.38
315.542	93.38
315.771	98.38
316.001	111.38
316.23	98.38
316.46	84.38
316.689	83.38
316.919	92.38
317.148	89.38
317.377	80.38
317.607	93.38
317.836	95.38
318.065	122.38
318.295	99.38
318.524	75.38
318.753	79.38
318.983	90.38
319.212	91.38
319.441	86.38
319.67	88.38
319.9	86.38
320.129	87.38
320.358	86.38
320.587	89.38
320.816	90.38
321.046	84.38
321.275	92.38
321.504	88.38
321.733	80.38
321.962	80.38
322.191	103.38
322.42	87.38
322.649	75.38
322.878	91.38
323.108	90.38
323.337	94.38
323.566	107.38
323.795	100.38
324.024	89.38
324.253	99.38
324.482	91.38
324.71	82.38
324.939	87.38
325.168	95.38
325.397	91.38
325.626	90.38
325.855	92.38
326.084	86.38
326.313	100.38
326.542	98.38
326.77	87.38
326.999	81.38
327.228	98.38
327.457	84.38
327.686	89.38
327.914	92.38
328.143	83.38
328.372	83.38
328.6	96.38
328.829	100.38
329.058	80.38
329.287	85.38
329.515	105.38
329.744	87.38
329.972	80.38
330.201	101.38
330.43	99.38
330.658	74.38
330.887	85.38
331.115	90.38
331.344	82.38
331.572	81.38
331.801	86.38
332.03	83.38
332.258	97.38
332.486	93.38
332.715	83.38
332.943	87.38
333.172	76.38
333.4	83.38
333.629	87.38
333.857	87.38
334.085	69.38
334.314	91.38
334.542	101.38
334.771	101.38
334.999	94.38
335.227	97.38
335.455	90.38
335.684	87.38
335.912	94.38
336.14	100.38
336.369	98.38
336.597	93.38
336.825	90.38
337.053	84.38
337.281	84.38
337.51	85.38
337.738	78.38
337.966	93.38
338.194	81.38
338.422	87.38
338.65	97.38
338.878	81.38
339.106	92.38
339.334	84.38
339.562	82.38
339.79	101.38
340.018	93.38
340.246	89.38
340.474	77.38
340.702	77.38
340.93	88.38
341.158	92.38
341.386	82.38
341.614	87.38
341.842	95.38
342.07	83.38
342.298	87.38
342.526	92.38
342.754	89.38
342.981	89.38
343.209	91.38
343.437	82.38
343.665	81.38
343.893	103.38
344.12	99.38
344.348	98.38
344.576	76.38
344.804	75.38
345.031	96.38
345.259	90.38
345.487	92.38
345.714	93.38
345.942	89.38
346.17	97.38
346.397	93.38
346.625	79.38
346.853	93.38
347.08	91.38
347.308	86.38
347.535	87.38
347.763	84.38
347.99	90.38
348.218	92.38
348.445	86.38
348.673	96.38
348.9	89.38
349.128	99.38
349.355	77.38
349.583	89.38
349.81	98.38
350.037	104.38
350.265	91.38
350.492	89.38
350.72	87.38
350.947	97.38
351.174	88.38
351.402	80.38
351.629	84.38
351.856	84.38
352.083	73.38
352.311	86.38
352.538	79.38
352.765	83.38
352.992	100.38
353.22	92.38
353.447	82.38
353.674	86.38
353.901	81.38
354.128	90.38
354.355	73.38
354.583	87.38
354.81	86.38
355.037	74.38
355.264	79.38
355.491	82.38
355.718	93.38
355.945	81.38
356.172	87.38
356.399	78.38
356.626	77.38
356.853	97.38
357.08	81.38
357.307	107.38
357.534	97.38
357.761	90.38
357.988	101.38
358.215	82.38
358.441	92.38
358.668	92.38
358.895	76.38
359.122	77.38
359.349	92.38
359.576	92.38
359.802	89.38
360.029	93.38
360.256	89.38
360.483	96.38
360.709	102.38
360.936	89.38
361.163	87.38
361.39	76.38
361.616	93.38
361.843	105.38
362.07	88.38
362.296	93.38
362.523	98.38
362.749	77.38
362.976	109.38
363.203	119.38
363.429	89.38
363.656	91.38
363.882	88.38
364.109	89.38
364.335	105.38
364.562	115.38
364.788	103.38
365.015	91.38
365.241	85.38
365.468	85.38
365.694	80.38
365.92	84.38
366.147	89.38
366.373	66.38
366.599	64.38
366.826	76.38
367.052	89.38
367.278	84.38
367.505	81.38
367.731	84.38
367.957	87.38
368.184	101.38
368.41	79.38
368.636	105.38
368.862	81.38
369.089	74.38
369.315	71.38
369.541	90.38
369.767	77.38
369.993	90.38
370.219	92.38
370.445	101.38
370.672	104.38
370.898	91.38
371.124	75.38
371.35	83.38
371.576	98.38
371.802	95.38
372.028	106.38
372.254	96.38
372.48	71.38
372.706	98.38
372.932	86.38
373.158	85.38
373.384	115.38
373.61	125.38
373.835	119.38
374.061	101.38
374.287	90.38
374.513	81.38
374.739	90.38
374.965	98.38
375.191	109.38
375.416	89.38
375.642	97.38
375.868	78.38
376.094	98.38
376.319	109.38
376.545	93.38
376.771	88.38
376.997	90.38
377.222	81.38
377.448	85.38
377.674	92.38
377.899	97.38
378.125	90.38
378.35	90.38
378.576	78.38
378.802	89.38
379.027	81.38
379.253	77.38
379.478	79.38
379.704	89.38
379.929	77.38
380.155	91.38
380.38	91.38
380.606	80.38
380.831	91.38
381.057	94.38
381.282	91.38
381.507	99.38
381.733	98.38
381.958	87.38
382.184	113.38
382.409	93.38
382.634	99.38
382.86	107.38
383.085	91.38
383.31	104.38
383.535	108.38
383.761	104.38
383.986	93.38
384.211	106.38
384.436	103.38
384.662	90.38
384.887	99.38
385.112	100.38
385.337	89.38
385.562	113.38
385.787	105.38
386.013	106.38
386.238	106.38
386.463	90.38
386.688	100.38
386.913	90.38
387.138	105.38
387.363	89.38
387.588	102.38
387.813	98.38
388.038	113.38
388.263	93.38
388.488	88.38
388.713	99.38
388.938	89.38
389.163	92.38
389.387	84.38
389.612	92.38
389.837	89.38
390.062	86.38
390.287	85.38
390.512	78.38
390.736	99.38
390.961	86.38
391.186	95.38
391.411	87.38
391.636	87.38
391.86	88.38
392.085	108.38
392.31	105.38
392.534	113.38
392.759	132.38
392.984	214.38
393.208	469.38
393.433	747.38
393.658	553.38
393.882	184.38
394.107	115.38
394.331	136.38
394.556	131.38
394.78	128.38
395.005	92.38
395.229	86.38
395.454	102.38
395.678	114.38
395.903	145.38
396.127	157.38
396.352	202.38
396.576	269.38
396.801	469.38
397.025	577.38
397.249	241.38
397.474	134.38
397.698	103.38
397.922	99.38
398.147	92.38
398.371	96.38
398.595	87.38
398.82	81.38
399.044	84.38
399.268	91.38
399.492	77.38
399.717	86.38
399.941	88.38
400.165	104.38
400.389	77.38
400.613	84.38
400.837	81.38
401.062	71.38
401.286	99.38
401.51	87.38
401.734	90.38
401.958	91.38
402.182	81.38
402.406	86.38
402.63	87.38
402.854	81.38
403.078	86.38
403.302	72.38
403.526	88.38
403.75	95.38
403.974	91.38
404.198	102.38
404.422	127.38
404.645	127.38
404.869	130.38
405.093	108.38
405.317	95.38
405.541	87.38
405.765	82.38
405.988	82.38
406.212	87.38
406.436	74.38
406.66	100.38
406.883	89.38
407.107	82.38
407.331	83.38
407.555	109.38
407.778	126.38
408.002	139.38
408.226	96.38
408.449	89.38
408.673	76.38
408.896	85.38
409.12	74.38
409.344	80.38
409.567	88.38
409.791	102.38
410.014	96.38
410.238	81.38
410.461	96.38
410.685	98.38
410.908	88.38
411.132	81.38
411.355	77.38
411.578	87.38
411.802	85.38
412.025	75.38
412.249	75.38
412.472	89.38
412.695	93.38
412.919	88.38
413.142	82.38
413.365	91.38
413.589	74.38
413.812	87.38
414.035	85.38
414.258	93.38
414.482	71.38
414.705	91.38
414.928	89.38
415.151	87.38
415.374	87.38
415.597	84.38
415.821	88.38
416.044	77.38
416.267	91.38
416.49	94.38
416.713	87.38
416.936	93.38
417.159	74.38
417.382	77.38
417.605	87.38
417.828	72.38
418.051	88.38
418.274	86.38
418.497	105.38
418.72	87.38
418.943	88.38
419.166	75.38
419.389	75.38
419.611	70.38
419.834	74.38
420.057	97.38
420.28	87.38
420.503	93.38
420.726	85.38
420.948	83.38
421.171	86.38
421.394	97.38
421.617	127.38
421.839	120.38
422.062	126.38
422.285	159.38
422.507	340.38
422.73	649.38
422.953	563.38
423.175	219.38
423.398	108.38
423.621	107.38
423.843	101.38
424.066	74.38
424.288	89.38
424.511	85.38
424.733	90.38
424.956	104.38
425.178	75.38
425.401	92.38
425.623	92.38
425.846	90.38
426.068	91.38
426.291	100.38
426.513	91.38
426.735	80.38
426.958	74.38
427.18	94.38
427.402	94.38
427.625	84.38
427.847	86.38
428.069	115.38
428.292	151.38
428.514	148.38
428.736	121.38
428.958	141.38
429.181	143.38
429.403	97.38
429.625	103.38
429.847	129.38
430.069	191.38
430.292	235.38
430.514	203.38
430.736	140.38
430.958	155.38
431.18	104.38
431.402	88.38
431.624	101.38
431.846	135.38
432.068	164.38
432.29	106.38
432.512	87.38
432.734	85.38
432.956	90.38
433.178	71.38
433.4	77.38
433.622	84.38
433.844	75.38
434.066	67.38
434.287	72.38
434.509	84.38
434.731	104.38
434.953	85.38
435.175	83.38
435.397	99.38
435.618	108.38
435.84	87.38
436.062	87.38
436.284	72.38
436.505	91.38
436.727	86.38
436.949	90.38
437.17	77.38
437.392	79.38
437.614	74.38
437.835	89.38
438.057	76.38
438.278	102.38
438.5	83.38
438.721	89.38
438.943	84.38
439.165	77.38
439.386	83.38
439.608	81.38
439.829	83.38
440.05	86.38
440.272	79.38
440.493	77.38
440.715	85.38
440.936	81.38
441.158	77.38
441.379	74.38
441.6	87.38
441.822	96.38
442.043	99.38
442.264	97.38
442.486	139.38
442.707	176.38
442.928	123.38
443.149	122.38
443.371	144.38
443.592	257.38
443.813	225.38
444.034	114.38
444.255	99.38
444.476	70.38
444.698	83.38
444.919	97.38
445.14	184.38
445.361	215.38
445.582	342.38
445.803	269.38
446.024	114.38
446.245	91.38
446.466	75.38
446.687	88.38
446.908	90.38
447.129	89.38
447.35	78.38
447.571	91.38
447.792	83.38
448.013	81.38
448.234	84.38
448.455	95.38
448.675	76.38
448.896	91.38
449.117	91.38
449.338	78.38
449.559	83.38
449.779	79.38
450	80.38
450.221	79.38
450.442	75.38
450.662	78.38
450.883	81.38
451.104	79.38
451.324	91.38
451.545	79.38
451.766	67.38
451.986	77.38
452.207	84.38
452.428	71.38
452.648	89.38
452.869	91.38
453.089	100.38
453.31	84.38
453.53	90.38
453.751	92.38
453.971	87.38
454.192	70.38
454.412	88.38
454.633	91.38
454.853	91.38
455.073	97.38
455.294	83.38
455.514	85.38
455.734	95.38
455.955	80.38
456.175	82.38
456.395	88.38
456.616	78.38
456.836	78.38
457.056	97.38
457.276	80.38
457.497	96.38
457.717	81.38
457.937	100.38
458.157	116.38
458.377	118.38
458.598	103.38
458.818	114.38
459.038	92.38
459.258	84.38
459.478	81.38
459.698	74.38
459.918	81.38
460.138	83.38
460.358	91.38
460.578	102.38
460.798	126.38
461.018	125.38
461.238	74.38
461.458	87.38
461.678	92.38
461.898	73.38
462.118	88.38
462.338	79.38
462.558	75.38
462.777	74.38
462.997	86.38
463.217	91.38
463.437	80.38
463.657	95.38
463.876	79.38
464.096	83.38
464.316	93.38
464.536	95.38
464.755	88.38
464.975	92.38
465.195	81.38
465.414	91.38
465.634	88.38
465.854	77.38
466.073	79.38
466.293	71.38
466.512	75.38
466.732	83.38
466.951	83.38
467.171	83.38
467.391	82.38
467.61	90.38
467.829	89.38
468.049	84.38
468.268	89.38
468.488	85.38
468.707	82.38
468.927	77.38
469.146	89.38
469.365	92.38
469.585	85.38
469.804	80.38
470.023	83.38
470.243	75.38
470.462	95.38
470.681	83.38
470.901	74.38
471.12	85.38
471.339	81.38
471.558	82.38
471.777	76.38
471.997	72.38
472.216	84.38
472.435	89.38
472.654	93.38
472.873	81.38
473.092	85.38
473.311	91.38
473.53	84.38
473.749	78.38
473.968	87.38
474.187	84.38
474.406	75.38
474.625	86.38
474.844	73.38
475.063	84.38
475.282	85.38
475.501	79.38
475.72	89.38
475.939	97.38
476.158	89.38
476.377	81.38
476.596	77.38
476.814	87.38
477.033	85.38
477.252	92.38
477.471	88.38
477.69	78.38
477.908	89.38
478.127	91.38
478.346	79.38
478.564	86.38
478.783	94.38
479.002	84.38
479.22	84.38
479.439	94.38
479.658	88.38
479.876	96.38
480.095	85.38
480.313	83.38
480.532	83.38
480.751	87.38
480.969	79.38
481.188	82.38
481.406	85.38
481.624	69.38
481.843	86.38
482.061	87.38
482.28	89.38
482.498	82.38
482.717	68.38
482.935	80.38
483.153	89.38
483.372	83.38
483.59	97.38
483.808	85.38
484.027	89.38
484.245	68.38
484.463	84.38
484.681	79.38
484.9	95.38
485.118	96.38
485.336	88.38
485.554	75.38
485.772	89.38
485.99	84.38
486.209	88.38
486.427	86.38
486.645	83.38
486.863	87.38
487.081	100.38
487.299	86.38
487.517	97.38
487.735	102.38
487.953	145.38
488.171	106.38
488.389	83.38
488.607	91.38
488.825	85.38
489.043	73.38
489.261	79.38
489.479	86.38
489.696	89.38
489.914	83.38
490.132	79.38
490.35	83.38
490.568	83.38
490.786	84.38
491.003	107.38
491.221	88.38
491.439	79.38
491.657	91.38
491.874	88.38
492.092	77.38
492.31	93.38
492.527	81.38
492.745	88.38
492.963	76.38
493.18	80.38
493.398	81.38
493.615	92.38
493.833	80.38
494.05	74.38
494.268	85.38
494.485	83.38
494.703	88.38
494.92	85.38
495.138	84.38
495.355	93.38
495.573	73.38
495.79	83.38
496.008	63.38
496.225	73.38
496.442	84.38
496.66	95.38
496.877	81.38
497.094	94.38
497.312	72.38
497.529	90.38
497.746	74.38
497.963	96.38
498.181	90.38
498.398	91.38
498.615	85.38
498.832	88.38
499.049	92.38
499.267	91.38
499.484	97.38
499.701	76.38
499.918	90.38
500.135	87.38
500.352	79.38
500.569	88.38
500.786	83.38
501.003	87.38
501.22	84.38
501.437	83.38
501.654	95.38
501.871	79.38
502.088	89.38
502.305	91.38
502.522	92.38
502.739	83.38
502.956	90.38
503.172	77.38
503.389	91.38
503.606	85.38
503.823	89.38
504.04	84.38
504.256	113.38
504.473	127.38
504.69	90.38
504.907	81.38
505.123	83.38
505.34	90.38
505.557	87.38
505.773	96.38
505.99	96.38
506.207	83.38
506.423	89.38
506.64	80.38
506.856	76.38
507.073	78.38
507.289	87.38
507.506	81.38
507.722	87.38
507.939	96.38
508.155	88.38
508.372	77.38
508.588	94.38
508.805	94.38
509.021	83.38
509.238	76.38
509.454	95.38
509.67	84.38
509.887	81.38
510.103	75.38
510.319	85.38
510.536	91.38
510.752	90.38
510.968	86.38
511.184	92.38
511.401	86.38
511.617	84.38
511.833	89.38
512.049	83.38
512.265	76.38
512.481	92.38
512.698	78.38
512.914	91.38
513.13	81.38
513.346	85.38
513.562	101.38
513.778	89.38
513.994	79.38
514.21	91.38
514.426	82.38
514.642	71.38
514.858	81.38
515.074	92.38
515.29	73.38
515.506	90.38
515.721	113.38
515.937	83.38
516.153	97.38
516.369	88.38
516.585	91.38
516.801	87.38
517.016	92.38
517.232	89.38
517.448	99.38
517.664	86.38
517.879	93.38
