Data from 15780_3_HRD10591_00050.txt Node
Date: Mon Jan 19 14:20:23 EST 2026
User: Yrep
Spectrometer: HR+D1059
Trigger mode: 1
Integration Time (sec): 1.000000E-1
Scans to average: 1
Electric dark correction enabled: true
Nonlinearity correction enabled: false
Boxcar width: 0
XAxis mode: Wavelengths
Number of Pixels in Spectrum: 2048
>>>>>Begin Spectral Data<<<<<
223.165	-23.69
223.4	-23.69
223.635	-23.69
223.869	-36.69
224.104	-23.69
224.338	-13.69
224.573	-15.69
224.808	-4.69
225.042	5.31
225.277	-15.69
225.511	1.31
225.746	4.31
225.98	22.31
226.215	10.31
226.449	1.31
226.683	22.31
226.918	30.31
227.152	36.31
227.387	33.31
227.621	34.31
227.856	28.31
228.09	36.31
228.324	43.31
228.559	60.31
228.793	56.31
229.027	65.31
229.262	53.31
229.496	66.31
229.73	67.31
229.964	61.31
230.199	72.31
230.433	73.31
230.667	81.31
230.901	81.31
231.136	80.31
231.37	81.31
231.604	86.31
231.838	84.31
232.072	79.31
232.306	72.31
232.541	86.31
232.775	83.31
233.009	84.31
233.243	81.31
233.477	75.31
233.711	90.31
233.945	76.31
234.179	58.31
234.413	73.31
234.647	90.31
234.881	81.31
235.115	80.31
235.349	70.31
235.583	88.31
235.817	74.31
236.051	63.31
236.285	67.31
236.519	70.31
236.753	82.31
236.987	58.31
237.221	89.31
237.455	75.31
237.689	69.31
237.922	76.31
238.156	76.31
238.39	82.31
238.624	79.31
238.858	75.31
239.091	80.31
239.325	88.31
239.559	63.31
239.793	66.31
240.027	60.31
240.26	72.31
240.494	85.31
240.728	74.31
240.961	68.31
241.195	73.31
241.429	88.31
241.662	77.31
241.896	64.31
242.13	72.31
242.363	66.31
242.597	74.31
242.83	73.31
243.064	73.31
243.298	75.31
243.531	68.31
243.765	72.31
243.998	72.31
244.232	84.31
244.465	89.31
244.699	64.31
244.932	88.31
245.166	86.31
245.399	64.31
245.633	85.31
245.866	68.31
246.099	79.31
246.333	74.31
246.566	62.31
246.8	68.31
247.033	67.31
247.266	66.31
247.5	67.31
247.733	69.31
247.966	65.31
248.2	70.31
248.433	71.31
248.666	71.31
248.899	68.31
249.133	72.31
249.366	89.31
249.599	71.31
249.832	74.31
250.066	94.31
250.299	73.31
250.532	79.31
250.765	72.31
250.998	82.31
251.231	82.31
251.465	90.31
251.698	87.31
251.931	82.31
252.164	84.31
252.397	71.31
252.63	85.31
252.863	78.31
253.096	85.31
253.329	76.31
253.562	86.31
253.795	68.31
254.028	71.31
254.261	80.31
254.494	81.31
254.727	85.31
254.96	72.31
255.193	80.31
255.426	73.31
255.659	65.31
255.892	83.31
256.124	67.31
256.357	80.31
256.59	80.31
256.823	82.31
257.056	84.31
257.289	72.31
257.521	83.31
257.754	77.31
257.987	75.31
258.22	95.31
258.452	79.31
258.685	75.31
258.918	78.31
259.151	77.31
259.383	76.31
259.616	77.31
259.849	66.31
260.081	86.31
260.314	88.31
260.547	73.31
260.779	80.31
261.012	69.31
261.244	66.31
261.477	77.31
261.71	80.31
261.942	78.31
262.175	95.31
262.407	90.31
262.64	78.31
262.872	81.31
263.105	81.31
263.337	84.31
263.57	88.31
263.802	77.31
264.035	70.31
264.267	91.31
264.499	83.31
264.732	80.31
264.964	87.31
265.197	53.31
265.429	54.31
265.661	80.31
265.894	90.31
266.126	82.31
266.358	73.31
266.591	68.31
266.823	81.31
267.055	82.31
267.287	75.31
267.52	66.31
267.752	63.31
267.984	84.31
268.216	80.31
268.448	74.31
268.681	86.31
268.913	73.31
269.145	83.31
269.377	82.31
269.609	72.31
269.841	77.31
270.073	88.31
270.306	81.31
270.538	80.31
270.77	80.31
271.002	84.31
271.234	72.31
271.466	89.31
271.698	69.31
271.93	75.31
272.162	82.31
272.394	77.31
272.626	79.31
272.858	88.31
273.09	88.31
273.322	92.31
273.553	79.31
273.785	86.31
274.017	76.31
274.249	89.31
274.481	94.31
274.713	81.31
274.945	82.31
275.176	75.31
275.408	82.31
275.64	90.31
275.872	70.31
276.104	92.31
276.335	82.31
276.567	88.31
276.799	83.31
277.031	74.31
277.262	72.31
277.494	93.31
277.726	87.31
277.957	76.31
278.189	81.31
278.421	79.31
278.652	85.31
278.884	82.31
279.115	74.31
279.347	72.31
279.579	90.31
279.81	87.31
280.042	90.31
280.273	86.31
280.505	84.31
280.736	80.31
280.968	84.31
281.199	87.31
281.431	68.31
281.662	81.31
281.894	65.31
282.125	83.31
282.356	88.31
282.588	84.31
282.819	81.31
283.051	76.31
283.282	75.31
283.513	71.31
283.745	73.31
283.976	86.31
284.207	97.31
284.439	82.31
284.67	76.31
284.901	88.31
285.132	90.31
285.364	84.31
285.595	92.31
285.826	74.31
286.057	74.31
286.288	75.31
286.52	90.31
286.751	66.31
286.982	88.31
287.213	84.31
287.444	91.31
287.675	84.31
287.906	88.31
288.138	91.31
288.369	66.31
288.6	78.31
288.831	87.31
289.062	82.31
289.293	80.31
289.524	87.31
289.755	84.31
289.986	97.31
290.217	90.31
290.448	79.31
290.679	80.31
290.91	76.31
291.141	90.31
291.371	72.31
291.602	74.31
291.833	69.31
292.064	97.31
292.295	68.31
292.526	79.31
292.757	88.31
292.987	80.31
293.218	77.31
293.449	70.31
293.68	78.31
293.91	67.31
294.141	65.31
294.372	80.31
294.603	87.31
294.833	107.31
295.064	87.31
295.295	89.31
295.525	77.31
295.756	82.31
295.987	91.31
296.217	70.31
296.448	90.31
296.679	70.31
296.909	79.31
297.14	81.31
297.37	87.31
297.601	85.31
297.831	82.31
298.062	79.31
298.292	91.31
298.523	74.31
298.753	71.31
298.984	63.31
299.214	75.31
299.445	87.31
299.675	83.31
299.905	84.31
300.136	83.31
300.366	91.31
300.597	96.31
300.827	79.31
301.057	82.31
301.288	94.31
301.518	83.31
301.748	75.31
301.979	96.31
302.209	80.31
302.439	76.31
302.669	78.31
302.9	92.31
303.13	92.31
303.36	91.31
303.59	94.31
303.82	89.31
304.051	71.31
304.281	85.31
304.511	87.31
304.741	76.31
304.971	81.31
305.201	74.31
305.431	82.31
305.661	89.31
305.891	94.31
306.121	70.31
306.352	97.31
306.582	96.31
306.812	66.31
307.042	83.31
307.272	74.31
307.502	78.31
307.731	88.31
307.961	81.31
308.191	85.31
308.421	70.31
308.651	77.31
308.881	101.31
309.111	105.31
309.341	90.31
309.571	84.31
309.8	76.31
310.03	76.31
310.26	77.31
310.49	76.31
310.72	78.31
310.949	86.31
311.179	85.31
311.409	93.31
311.639	93.31
311.868	79.31
312.098	71.31
312.328	76.31
312.557	94.31
312.787	88.31
313.017	84.31
313.246	94.31
313.476	98.31
313.706	88.31
313.935	74.31
314.165	76.31
314.394	86.31
314.624	92.31
314.853	86.31
315.083	78.31
315.312	81.31
315.542	92.31
315.771	92.31
316.001	93.31
316.23	91.31
316.46	89.31
316.689	75.31
316.919	83.31
317.148	92.31
317.377	75.31
317.607	82.31
317.836	92.31
318.065	100.31
318.295	87.31
318.524	94.31
318.753	90.31
318.983	71.31
319.212	82.31
319.441	91.31
319.67	67.31
319.9	76.31
320.129	87.31
320.358	91.31
320.587	90.31
320.816	75.31
321.046	83.31
321.275	98.31
321.504	82.31
321.733	89.31
321.962	82.31
322.191	76.31
322.42	87.31
322.649	95.31
322.878	91.31
323.108	74.31
323.337	84.31
323.566	97.31
323.795	85.31
324.024	84.31
324.253	87.31
324.482	58.31
324.71	80.31
324.939	91.31
325.168	82.31
325.397	95.31
325.626	72.31
325.855	80.31
326.084	94.31
326.313	90.31
326.542	86.31
326.77	79.31
326.999	84.31
327.228	83.31
327.457	72.31
327.686	85.31
327.914	61.31
328.143	68.31
328.372	91.31
328.6	68.31
328.829	85.31
329.058	85.31
329.287	96.31
329.515	73.31
329.744	92.31
329.972	86.31
330.201	103.31
330.43	78.31
330.658	76.31
330.887	98.31
331.115	100.31
331.344	93.31
331.572	75.31
331.801	97.31
332.03	88.31
332.258	88.31
332.486	77.31
332.715	81.31
332.943	97.31
333.172	68.31
333.4	81.31
333.629	73.31
333.857	87.31
334.085	77.31
334.314	86.31
334.542	85.31
334.771	101.31
334.999	91.31
335.227	87.31
335.455	69.31
335.684	94.31
335.912	82.31
336.14	72.31
336.369	94.31
336.597	91.31
336.825	76.31
337.053	89.31
337.281	93.31
337.51	85.31
337.738	79.31
337.966	77.31
338.194	76.31
338.422	87.31
338.65	91.31
338.878	75.31
339.106	76.31
339.334	87.31
339.562	81.31
339.79	75.31
340.018	69.31
340.246	74.31
340.474	88.31
340.702	84.31
340.93	73.31
341.158	71.31
341.386	78.31
341.614	70.31
341.842	90.31
342.07	71.31
342.298	91.31
342.526	88.31
342.754	99.31
342.981	83.31
343.209	90.31
343.437	100.31
343.665	90.31
343.893	90.31
344.12	86.31
344.348	93.31
344.576	104.31
344.804	77.31
345.031	82.31
345.259	81.31
345.487	87.31
345.714	86.31
345.942	85.31
346.17	80.31
346.397	86.31
346.625	89.31
346.853	83.31
347.08	80.31
347.308	83.31
347.535	75.31
347.763	88.31
347.99	74.31
348.218	73.31
348.445	92.31
348.673	76.31
348.9	97.31
349.128	81.31
349.355	96.31
349.583	77.31
349.81	85.31
350.037	84.31
350.265	90.31
350.492	75.31
350.72	84.31
350.947	95.31
351.174	100.31
351.402	83.31
351.629	74.31
351.856	94.31
352.083	80.31
352.311	96.31
352.538	75.31
352.765	85.31
352.992	99.31
353.22	98.31
353.447	76.31
353.674	72.31
353.901	87.31
354.128	93.31
354.355	99.31
354.583	64.31
354.81	90.31
355.037	88.31
355.264	76.31
355.491	68.31
355.718	71.31
355.945	99.31
356.172	85.31
356.399	83.31
356.626	89.31
356.853	85.31
357.08	84.31
357.307	84.31
357.534	76.31
357.761	93.31
357.988	95.31
358.215	89.31
358.441	101.31
358.668	88.31
358.895	87.31
359.122	91.31
359.349	75.31
359.576	77.31
359.802	88.31
360.029	93.31
360.256	82.31
360.483	76.31
360.709	93.31
360.936	86.31
361.163	91.31
361.39	94.31
361.616	76.31
361.843	82.31
362.07	89.31
362.296	85.31
362.523	92.31
362.749	105.31
362.976	90.31
363.203	106.31
363.429	87.31
363.656	80.31
363.882	77.31
364.109	87.31
364.335	93.31
364.562	103.31
364.788	103.31
365.015	84.31
365.241	92.31
365.468	78.31
365.694	80.31
365.92	82.31
366.147	81.31
366.373	78.31
366.599	65.31
366.826	68.31
367.052	74.31
367.278	94.31
367.505	86.31
367.731	81.31
367.957	90.31
368.184	64.31
368.41	82.31
368.636	82.31
368.862	72.31
369.089	84.31
369.315	75.31
369.541	87.31
369.767	86.31
369.993	83.31
370.219	104.31
370.445	79.31
370.672	76.31
370.898	78.31
371.124	76.31
371.35	91.31
371.576	84.31
371.802	82.31
372.028	98.31
372.254	90.31
372.48	87.31
372.706	89.31
372.932	75.31
373.158	81.31
373.384	99.31
373.61	117.31
373.835	113.31
374.061	89.31
374.287	76.31
374.513	86.31
374.739	84.31
374.965	97.31
375.191	79.31
375.416	82.31
375.642	84.31
375.868	103.31
376.094	78.31
376.319	85.31
376.545	80.31
376.771	80.31
376.997	86.31
377.222	82.31
377.448	90.31
377.674	76.31
377.899	80.31
378.125	86.31
378.35	73.31
378.576	68.31
378.802	92.31
379.027	91.31
379.253	82.31
379.478	100.31
379.704	73.31
379.929	89.31
380.155	94.31
380.38	85.31
380.606	98.31
380.831	82.31
381.057	78.31
381.282	90.31
381.507	94.31
381.733	74.31
381.958	77.31
382.184	87.31
382.409	101.31
382.634	91.31
382.86	82.31
383.085	103.31
383.31	90.31
383.535	100.31
383.761	79.31
383.986	74.31
384.211	96.31
384.436	77.31
384.662	90.31
384.887	84.31
385.112	88.31
385.337	76.31
385.562	103.31
385.787	87.31
386.013	100.31
386.238	95.31
386.463	88.31
386.688	103.31
386.913	95.31
387.138	84.31
387.363	83.31
387.588	92.31
387.813	91.31
388.038	97.31
388.263	89.31
388.488	77.31
388.713	83.31
388.938	95.31
389.163	90.31
389.387	80.31
389.612	76.31
389.837	84.31
390.062	80.31
390.287	86.31
390.512	78.31
390.736	81.31
390.961	92.31
391.186	93.31
391.411	90.31
391.636	98.31
391.86	86.31
392.085	96.31
392.31	103.31
392.534	99.31
392.759	124.31
392.984	190.31
393.208	347.31
393.433	552.31
393.658	422.31
393.882	146.31
394.107	104.31
394.331	118.31
394.556	104.31
394.78	90.31
395.005	77.31
395.229	89.31
395.454	91.31
395.678	98.31
395.903	108.31
396.127	115.31
396.352	155.31
396.576	222.31
396.801	384.31
397.025	442.31
397.249	199.31
397.474	112.31
397.698	90.31
397.922	82.31
398.147	90.31
398.371	79.31
398.595	86.31
398.82	72.31
399.044	85.31
399.268	83.31
399.492	83.31
399.717	89.31
399.941	75.31
400.165	81.31
400.389	73.31
400.613	74.31
400.837	88.31
401.062	77.31
401.286	89.31
401.51	78.31
401.734	82.31
401.958	83.31
402.182	76.31
402.406	77.31
402.63	85.31
402.854	77.31
403.078	67.31
403.302	66.31
403.526	74.31
403.75	81.31
403.974	84.31
404.198	90.31
404.422	96.31
404.645	100.31
404.869	98.31
405.093	81.31
405.317	82.31
405.541	79.31
405.765	84.31
405.988	96.31
406.212	91.31
406.436	90.31
406.66	85.31
406.883	80.31
407.107	91.31
407.331	79.31
407.555	101.31
407.778	103.31
408.002	118.31
408.226	95.31
408.449	85.31
408.673	80.31
408.896	83.31
409.12	84.31
409.344	66.31
409.567	88.31
409.791	92.31
410.014	73.31
410.238	79.31
410.461	76.31
410.685	82.31
410.908	75.31
411.132	94.31
411.355	78.31
411.578	76.31
411.802	69.31
412.025	80.31
412.249	78.31
412.472	76.31
412.695	98.31
412.919	85.31
413.142	74.31
413.365	92.31
413.589	81.31
413.812	90.31
414.035	82.31
414.258	95.31
414.482	86.31
414.705	84.31
414.928	71.31
415.151	70.31
415.374	82.31
415.597	87.31
415.821	77.31
416.044	86.31
416.267	98.31
416.49	95.31
416.713	73.31
416.936	83.31
417.159	81.31
417.382	84.31
417.605	79.31
417.828	95.31
418.051	74.31
418.274	90.31
418.497	79.31
418.72	76.31
418.943	74.31
419.166	91.31
419.389	76.31
419.611	75.31
419.834	81.31
420.057	93.31
420.28	86.31
420.503	87.31
420.726	87.31
420.948	98.31
421.171	91.31
421.394	99.31
421.617	124.31
421.839	106.31
422.062	115.31
422.285	115.31
422.507	201.31
422.73	369.31
422.953	340.31
423.175	147.31
423.398	102.31
423.621	91.31
423.843	95.31
424.066	73.31
424.288	91.31
424.511	85.31
424.733	96.31
424.956	95.31
425.178	84.31
425.401	72.31
425.623	80.31
425.846	73.31
426.068	70.31
426.291	81.31
426.513	77.31
426.735	69.31
426.958	87.31
427.18	81.31
427.402	67.31
427.625	81.31
427.847	80.31
428.069	89.31
428.292	102.31
428.514	118.31
428.736	94.31
428.958	115.31
429.181	98.31
429.403	80.31
429.625	80.31
429.847	99.31
430.069	125.31
430.292	163.31
430.514	149.31
430.736	113.31
430.958	119.31
431.18	90.31
431.402	100.31
431.624	93.31
431.846	95.31
432.068	111.31
432.29	80.31
432.512	92.31
432.734	88.31
432.956	83.31
433.178	83.31
433.4	81.31
433.622	87.31
433.844	87.31
434.066	70.31
434.287	79.31
434.509	75.31
434.731	78.31
434.953	78.31
435.175	80.31
435.397	81.31
435.618	75.31
435.84	74.31
436.062	89.31
436.284	94.31
436.505	86.31
436.727	77.31
436.949	82.31
437.17	60.31
437.392	79.31
437.614	88.31
437.835	65.31
438.057	72.31
438.278	77.31
438.5	99.31
438.721	101.31
438.943	86.31
439.165	82.31
439.386	69.31
439.608	84.31
439.829	76.31
440.05	76.31
440.272	64.31
440.493	91.31
440.715	87.31
440.936	66.31
441.158	74.31
441.379	78.31
441.6	72.31
441.822	79.31
442.043	87.31
442.264	85.31
442.486	95.31
442.707	105.31
442.928	102.31
443.149	96.31
443.371	114.31
443.592	160.31
443.813	150.31
444.034	93.31
444.255	82.31
444.476	76.31
444.698	90.31
444.919	73.31
445.14	152.31
445.361	140.31
445.582	191.31
445.803	171.31
446.024	112.31
446.245	98.31
446.466	89.31
446.687	76.31
446.908	78.31
447.129	88.31
447.35	90.31
447.571	84.31
447.792	92.31
448.013	84.31
448.234	79.31
448.455	84.31
448.675	89.31
448.896	76.31
449.117	83.31
449.338	78.31
449.559	80.31
449.779	76.31
450	85.31
450.221	80.31
450.442	91.31
450.662	76.31
450.883	82.31
451.104	76.31
451.324	84.31
451.545	72.31
451.766	78.31
451.986	76.31
452.207	67.31
452.428	79.31
452.648	77.31
452.869	93.31
453.089	92.31
453.31	77.31
453.53	90.31
453.751	82.31
453.971	83.31
454.192	83.31
454.412	58.31
454.633	81.31
454.853	91.31
455.073	71.31
455.294	83.31
455.514	76.31
455.734	70.31
455.955	82.31
456.175	90.31
456.395	86.31
456.616	71.31
456.836	73.31
457.056	73.31
457.276	90.31
457.497	83.31
457.717	90.31
457.937	91.31
458.157	99.31
458.377	95.31
458.598	83.31
458.818	92.31
459.038	84.31
459.258	77.31
459.478	91.31
459.698	86.31
459.918	76.31
460.138	80.31
460.358	81.31
460.578	87.31
460.798	94.31
461.018	99.31
461.238	73.31
461.458	75.31
461.678	76.31
461.898	77.31
462.118	75.31
462.338	84.31
462.558	76.31
462.777	84.31
462.997	86.31
463.217	91.31
463.437	70.31
463.657	74.31
463.876	90.31
464.096	72.31
464.316	86.31
464.536	74.31
464.755	73.31
464.975	84.31
465.195	84.31
465.414	87.31
465.634	72.31
465.854	76.31
466.073	79.31
466.293	82.31
466.512	84.31
466.732	83.31
466.951	87.31
467.171	84.31
467.391	88.31
467.61	80.31
467.829	69.31
468.049	68.31
468.268	86.31
468.488	70.31
468.707	80.31
468.927	70.31
469.146	78.31
469.365	80.31
469.585	73.31
469.804	80.31
470.023	62.31
470.243	90.31
470.462	93.31
470.681	77.31
470.901	97.31
471.12	92.31
471.339	88.31
471.558	85.31
471.777	81.31
471.997	83.31
472.216	89.31
472.435	86.31
472.654	83.31
472.873	87.31
473.092	70.31
473.311	81.31
473.53	86.31
473.749	83.31
473.968	75.31
474.187	79.31
474.406	75.31
474.625	85.31
474.844	77.31
475.063	63.31
475.282	87.31
475.501	79.31
475.72	79.31
475.939	75.31
476.158	78.31
476.377	100.31
476.596	74.31
476.814	90.31
477.033	94.31
477.252	86.31
477.471	77.31
477.69	87.31
477.908	70.31
478.127	84.31
478.346	80.31
478.564	84.31
478.783	77.31
479.002	90.31
479.22	90.31
479.439	72.31
479.658	96.31
479.876	80.31
480.095	84.31
480.313	87.31
480.532	77.31
480.751	71.31
480.969	92.31
481.188	79.31
481.406	94.31
481.624	92.31
481.843	68.31
482.061	77.31
482.28	90.31
482.498	74.31
482.717	74.31
482.935	73.31
483.153	85.31
483.372	94.31
483.59	76.31
483.808	82.31
484.027	88.31
484.245	85.31
484.463	82.31
484.681	89.31
484.9	89.31
485.118	80.31
485.336	86.31
485.554	94.31
485.772	88.31
485.99	82.31
486.209	76.31
486.427	82.31
486.645	83.31
486.863	79.31
487.081	76.31
487.299	86.31
487.517	90.31
487.735	84.31
487.953	110.31
488.171	90.31
488.389	78.31
488.607	74.31
488.825	74.31
489.043	79.31
489.261	88.31
489.479	84.31
489.696	83.31
489.914	75.31
490.132	79.31
490.35	92.31
490.568	80.31
490.786	73.31
491.003	82.31
491.221	81.31
491.439	75.31
491.657	82.31
491.874	85.31
492.092	88.31
492.31	89.31
492.527	74.31
492.745	88.31
492.963	93.31
493.18	90.31
493.398	86.31
493.615	95.31
493.833	82.31
494.05	82.31
494.268	77.31
494.485	80.31
494.703	82.31
494.92	87.31
495.138	84.31
495.355	69.31
495.573	86.31
495.79	75.31
496.008	77.31
496.225	96.31
496.442	90.31
496.66	97.31
496.877	84.31
497.094	88.31
497.312	84.31
497.529	73.31
497.746	64.31
497.963	82.31
498.181	85.31
498.398	83.31
498.615	81.31
498.832	77.31
499.049	71.31
499.267	96.31
499.484	85.31
499.701	90.31
499.918	72.31
500.135	77.31
500.352	76.31
500.569	67.31
500.786	75.31
501.003	81.31
501.22	82.31
501.437	91.31
501.654	74.31
501.871	81.31
502.088	75.31
502.305	85.31
502.522	92.31
502.739	90.31
502.956	86.31
503.172	79.31
503.389	90.31
503.606	87.31
503.823	79.31
504.04	96.31
504.256	98.31
504.473	87.31
504.69	72.31
504.907	87.31
505.123	88.31
505.34	94.31
505.557	98.31
505.773	74.31
505.99	80.31
506.207	78.31
506.423	72.31
506.64	90.31
506.856	79.31
507.073	70.31
507.289	84.31
507.506	84.31
507.722	81.31
507.939	76.31
508.155	83.31
508.372	76.31
508.588	84.31
508.805	83.31
509.021	83.31
509.238	63.31
509.454	88.31
509.67	82.31
509.887	78.31
510.103	86.31
510.319	90.31
510.536	85.31
510.752	85.31
510.968	80.31
511.184	86.31
511.401	85.31
511.617	90.31
511.833	77.31
512.049	88.31
512.265	77.31
512.481	81.31
512.698	80.31
512.914	90.31
513.13	72.31
513.346	87.31
513.562	94.31
513.778	79.31
513.994	84.31
514.21	83.31
514.426	76.31
514.642	91.31
514.858	76.31
515.074	87.31
515.29	79.31
515.506	90.31
515.721	82.31
515.937	80.31
516.153	75.31
516.369	83.31
516.585	79.31
516.801	74.31
517.016	74.31
517.232	81.31
517.448	72.31
517.664	86.31
517.879	66.31
518.095	68.31
518.311	93.31
518.527	94.31
518.742	80.31
518.958	91.31
519.173	101.31
