Data from 15780_3_HRD10591_00041.txt Node
Date: Mon Jan 19 14:20:18 EST 2026
User: Yrep
Spectrometer: HR+D1059
Trigger mode: 1
Integration Time (sec): 1.000000E-1
Scans to average: 1
Electric dark correction enabled: true
Nonlinearity correction enabled: false
Boxcar width: 0
XAxis mode: Wavelengths
Number of Pixels in Spectrum: 2048
>>>>>Begin Spectral Data<<<<<
223.165	-6.69
223.4	-6.69
223.635	-6.69
223.869	-22.69
224.104	-25.69
224.338	-21.69
224.573	-14.69
224.808	-19.69
225.042	1.31
225.277	-0.69
225.511	-4.69
225.746	8.31
225.98	13.31
226.215	2.31
226.449	17.31
226.683	15.31
226.918	29.31
227.152	29.31
227.387	36.31
227.621	35.31
227.856	31.31
228.09	37.31
228.324	58.31
228.559	60.31
228.793	53.31
229.027	49.31
229.262	76.31
229.496	65.31
229.73	73.31
229.964	63.31
230.199	75.31
230.433	72.31
230.667	78.31
230.901	73.31
231.136	66.31
231.37	88.31
231.604	73.31
231.838	74.31
232.072	73.31
232.306	79.31
232.541	90.31
232.775	79.31
233.009	78.31
233.243	103.31
233.477	81.31
233.711	85.31
233.945	78.31
234.179	73.31
234.413	72.31
234.647	77.31
234.881	79.31
235.115	87.31
235.349	89.31
235.583	85.31
235.817	68.31
236.051	77.31
236.285	74.31
236.519	81.31
236.753	75.31
236.987	80.31
237.221	85.31
237.455	92.31
237.689	72.31
237.922	71.31
238.156	77.31
238.39	76.31
238.624	67.31
238.858	82.31
239.091	69.31
239.325	87.31
239.559	78.31
239.793	79.31
240.027	84.31
240.26	63.31
240.494	67.31
240.728	83.31
240.961	66.31
241.195	79.31
241.429	86.31
241.662	94.31
241.896	85.31
242.13	87.31
242.363	61.31
242.597	75.31
242.83	76.31
243.064	82.31
243.298	75.31
243.531	85.31
243.765	87.31
243.998	82.31
244.232	74.31
244.465	88.31
244.699	74.31
244.932	69.31
245.166	75.31
245.399	90.31
245.633	74.31
245.866	85.31
246.099	76.31
246.333	74.31
246.566	72.31
246.8	73.31
247.033	88.31
247.266	81.31
247.5	94.31
247.733	84.31
247.966	85.31
248.2	83.31
248.433	76.31
248.666	83.31
248.899	83.31
249.133	83.31
249.366	83.31
249.599	80.31
249.832	87.31
250.066	82.31
250.299	90.31
250.532	87.31
250.765	85.31
250.998	71.31
251.231	66.31
251.465	77.31
251.698	82.31
251.931	87.31
252.164	74.31
252.397	91.31
252.63	79.31
252.863	71.31
253.096	84.31
253.329	83.31
253.562	86.31
253.795	70.31
254.028	86.31
254.261	77.31
254.494	99.31
254.727	74.31
254.96	85.31
255.193	72.31
255.426	78.31
255.659	83.31
255.892	89.31
256.124	83.31
256.357	79.31
256.59	89.31
256.823	79.31
257.056	79.31
257.289	81.31
257.521	74.31
257.754	89.31
257.987	75.31
258.22	96.31
258.452	84.31
258.685	78.31
258.918	67.31
259.151	88.31
259.383	82.31
259.616	78.31
259.849	83.31
260.081	86.31
260.314	87.31
260.547	75.31
260.779	81.31
261.012	72.31
261.244	74.31
261.477	97.31
261.71	89.31
261.942	77.31
262.175	83.31
262.407	65.31
262.64	81.31
262.872	84.31
263.105	80.31
263.337	95.31
263.57	82.31
263.802	96.31
264.035	85.31
264.267	65.31
264.499	79.31
264.732	83.31
264.964	89.31
265.197	88.31
265.429	84.31
265.661	61.31
265.894	72.31
266.126	67.31
266.358	75.31
266.591	96.31
266.823	71.31
267.055	79.31
267.287	75.31
267.52	77.31
267.752	97.31
267.984	92.31
268.216	79.31
268.448	88.31
268.681	86.31
268.913	77.31
269.145	92.31
269.377	82.31
269.609	86.31
269.841	90.31
270.073	68.31
270.306	81.31
270.538	71.31
270.77	87.31
271.002	83.31
271.234	101.31
271.466	81.31
271.698	86.31
271.93	93.31
272.162	87.31
272.394	68.31
272.626	81.31
272.858	77.31
273.09	77.31
273.322	84.31
273.553	85.31
273.785	92.31
274.017	92.31
274.249	77.31
274.481	77.31
274.713	76.31
274.945	77.31
275.176	81.31
275.408	85.31
275.64	83.31
275.872	81.31
276.104	81.31
276.335	88.31
276.567	76.31
276.799	107.31
277.031	77.31
277.262	97.31
277.494	89.31
277.726	74.31
277.957	76.31
278.189	96.31
278.421	88.31
278.652	78.31
278.884	85.31
279.115	85.31
279.347	94.31
279.579	83.31
279.81	86.31
280.042	95.31
280.273	80.31
280.505	79.31
280.736	77.31
280.968	74.31
281.199	84.31
281.431	91.31
281.662	77.31
281.894	78.31
282.125	97.31
282.356	79.31
282.588	75.31
282.819	81.31
283.051	83.31
283.282	77.31
283.513	84.31
283.745	79.31
283.976	88.31
284.207	89.31
284.439	97.31
284.67	94.31
284.901	91.31
285.132	78.31
285.364	68.31
285.595	96.31
285.826	76.31
286.057	78.31
286.288	81.31
286.52	95.31
286.751	95.31
286.982	80.31
287.213	65.31
287.444	89.31
287.675	88.31
287.906	79.31
288.138	77.31
288.369	84.31
288.6	92.31
288.831	85.31
289.062	98.31
289.293	74.31
289.524	69.31
289.755	74.31
289.986	88.31
290.217	91.31
290.448	89.31
290.679	84.31
290.91	86.31
291.141	85.31
291.371	86.31
291.602	83.31
291.833	104.31
292.064	71.31
292.295	80.31
292.526	85.31
292.757	85.31
292.987	80.31
293.218	96.31
293.449	85.31
293.68	75.31
293.91	79.31
294.141	86.31
294.372	81.31
294.603	80.31
294.833	81.31
295.064	90.31
295.295	83.31
295.525	90.31
295.756	112.31
295.987	86.31
296.217	85.31
296.448	83.31
296.679	76.31
296.909	84.31
297.14	85.31
297.37	75.31
297.601	77.31
297.831	72.31
298.062	88.31
298.292	86.31
298.523	90.31
298.753	87.31
298.984	79.31
299.214	85.31
299.445	76.31
299.675	75.31
299.905	87.31
300.136	93.31
300.366	66.31
300.597	81.31
300.827	95.31
301.057	95.31
301.288	87.31
301.518	76.31
301.748	72.31
301.979	98.31
302.209	81.31
302.439	89.31
302.669	74.31
302.9	93.31
303.13	87.31
303.36	85.31
303.59	89.31
303.82	96.31
304.051	98.31
304.281	104.31
304.511	100.31
304.741	97.31
304.971	80.31
305.201	88.31
305.431	84.31
305.661	85.31
305.891	89.31
306.121	75.31
306.352	73.31
306.582	91.31
306.812	102.31
307.042	83.31
307.272	76.31
307.502	87.31
307.731	91.31
307.961	96.31
308.191	85.31
308.421	88.31
308.651	91.31
308.881	96.31
309.111	86.31
309.341	99.31
309.571	85.31
309.8	87.31
310.03	76.31
310.26	76.31
310.49	83.31
310.72	77.31
310.949	91.31
311.179	88.31
311.409	80.31
311.639	82.31
311.868	94.31
312.098	101.31
312.328	77.31
312.557	81.31
312.787	80.31
313.017	89.31
313.246	98.31
313.476	86.31
313.706	88.31
313.935	87.31
314.165	79.31
314.394	75.31
314.624	95.31
314.853	85.31
315.083	87.31
315.312	83.31
315.542	87.31
315.771	86.31
316.001	87.31
316.23	84.31
316.46	91.31
316.689	84.31
316.919	84.31
317.148	72.31
317.377	91.31
317.607	85.31
317.836	88.31
318.065	89.31
318.295	87.31
318.524	91.31
318.753	84.31
318.983	83.31
319.212	84.31
319.441	96.31
319.67	97.31
319.9	87.31
320.129	92.31
320.358	85.31
320.587	89.31
320.816	69.31
321.046	83.31
321.275	85.31
321.504	90.31
321.733	83.31
321.962	85.31
322.191	76.31
322.42	94.31
322.649	83.31
322.878	87.31
323.108	81.31
323.337	84.31
323.566	82.31
323.795	84.31
324.024	89.31
324.253	61.31
324.482	83.31
324.71	79.31
324.939	91.31
325.168	90.31
325.397	83.31
325.626	84.31
325.855	78.31
326.084	97.31
326.313	89.31
326.542	84.31
326.77	82.31
326.999	89.31
327.228	82.31
327.457	93.31
327.686	85.31
327.914	91.31
328.143	92.31
328.372	88.31
328.6	98.31
328.829	97.31
329.058	87.31
329.287	70.31
329.515	87.31
329.744	77.31
329.972	78.31
330.201	92.31
330.43	92.31
330.658	75.31
330.887	75.31
331.115	89.31
331.344	94.31
331.572	83.31
331.801	77.31
332.03	88.31
332.258	89.31
332.486	83.31
332.715	93.31
332.943	89.31
333.172	87.31
333.4	73.31
333.629	80.31
333.857	77.31
334.085	92.31
334.314	95.31
334.542	92.31
334.771	79.31
334.999	106.31
335.227	85.31
335.455	77.31
335.684	86.31
335.912	87.31
336.14	77.31
336.369	111.31
336.597	104.31
336.825	83.31
337.053	91.31
337.281	88.31
337.51	83.31
337.738	72.31
337.966	75.31
338.194	81.31
338.422	72.31
338.65	73.31
338.878	89.31
339.106	95.31
339.334	92.31
339.562	95.31
339.79	80.31
340.018	82.31
340.246	83.31
340.474	93.31
340.702	88.31
340.93	92.31
341.158	85.31
341.386	76.31
341.614	85.31
341.842	101.31
342.07	95.31
342.298	74.31
342.526	77.31
342.754	90.31
342.981	99.31
343.209	98.31
343.437	104.31
343.665	88.31
343.893	76.31
344.12	95.31
344.348	102.31
344.576	77.31
344.804	67.31
345.031	76.31
345.259	91.31
345.487	74.31
345.714	94.31
345.942	95.31
346.17	78.31
346.397	91.31
346.625	75.31
346.853	82.31
347.08	76.31
347.308	77.31
347.535	84.31
347.763	91.31
347.99	73.31
348.218	89.31
348.445	81.31
348.673	83.31
348.9	89.31
349.128	95.31
349.355	99.31
349.583	90.31
349.81	89.31
350.037	87.31
350.265	79.31
350.492	69.31
350.72	95.31
350.947	80.31
351.174	75.31
351.402	81.31
351.629	95.31
351.856	74.31
352.083	88.31
352.311	91.31
352.538	84.31
352.765	81.31
352.992	96.31
353.22	93.31
353.447	95.31
353.674	89.31
353.901	83.31
354.128	81.31
354.355	71.31
354.583	89.31
354.81	93.31
355.037	88.31
355.264	87.31
355.491	81.31
355.718	92.31
355.945	81.31
356.172	78.31
356.399	81.31
356.626	101.31
356.853	93.31
357.08	76.31
357.307	82.31
357.534	83.31
357.761	77.31
357.988	91.31
358.215	93.31
358.441	75.31
358.668	91.31
358.895	97.31
359.122	92.31
359.349	79.31
359.576	91.31
359.802	77.31
360.029	85.31
360.256	78.31
360.483	78.31
360.709	88.31
360.936	83.31
361.163	79.31
361.39	102.31
361.616	77.31
361.843	83.31
362.07	80.31
362.296	85.31
362.523	100.31
362.749	105.31
362.976	87.31
363.203	103.31
363.429	87.31
363.656	86.31
363.882	90.31
364.109	96.31
364.335	101.31
364.562	88.31
364.788	87.31
365.015	72.31
365.241	95.31
365.468	91.31
365.694	88.31
365.92	89.31
366.147	87.31
366.373	90.31
366.599	78.31
366.826	74.31
367.052	87.31
367.278	86.31
367.505	97.31
367.731	102.31
367.957	83.31
368.184	89.31
368.41	79.31
368.636	81.31
368.862	72.31
369.089	90.31
369.315	94.31
369.541	76.31
369.767	91.31
369.993	102.31
370.219	78.31
370.445	85.31
370.672	79.31
370.898	73.31
371.124	71.31
371.35	88.31
371.576	83.31
371.802	89.31
372.028	92.31
372.254	95.31
372.48	90.31
372.706	92.31
372.932	82.31
373.158	71.31
373.384	94.31
373.61	91.31
373.835	104.31
374.061	95.31
374.287	82.31
374.513	88.31
374.739	91.31
374.965	85.31
375.191	93.31
375.416	87.31
375.642	91.31
375.868	99.31
376.094	74.31
376.319	106.31
376.545	88.31
376.771	84.31
376.997	84.31
377.222	90.31
377.448	96.31
377.674	72.31
377.899	81.31
378.125	77.31
378.35	90.31
378.576	89.31
378.802	88.31
379.027	76.31
379.253	92.31
379.478	89.31
379.704	90.31
379.929	88.31
380.155	87.31
380.38	89.31
380.606	98.31
380.831	77.31
381.057	89.31
381.282	93.31
381.507	82.31
381.733	77.31
381.958	65.31
382.184	87.31
382.409	79.31
382.634	100.31
382.86	84.31
383.085	74.31
383.31	79.31
383.535	81.31
383.761	83.31
383.986	80.31
384.211	95.31
384.436	91.31
384.662	76.31
384.887	86.31
385.112	83.31
385.337	90.31
385.562	84.31
385.787	84.31
386.013	84.31
386.238	88.31
386.463	73.31
386.688	100.31
386.913	98.31
387.138	96.31
387.363	88.31
387.588	75.31
387.813	84.31
388.038	87.31
388.263	86.31
388.488	92.31
388.713	87.31
388.938	76.31
389.163	87.31
389.387	81.31
389.612	88.31
389.837	91.31
390.062	83.31
390.287	86.31
390.512	94.31
390.736	88.31
390.961	72.31
391.186	89.31
391.411	87.31
391.636	92.31
391.86	84.31
392.085	100.31
392.31	95.31
392.534	91.31
392.759	109.31
392.984	136.31
393.208	212.31
393.433	301.31
393.658	229.31
393.882	127.31
394.107	85.31
394.331	95.31
394.556	119.31
394.78	97.31
395.005	85.31
395.229	81.31
395.454	98.31
395.678	96.31
395.903	95.31
396.127	129.31
396.352	125.31
396.576	130.31
396.801	215.31
397.025	249.31
397.249	145.31
397.474	91.31
397.698	91.31
397.922	90.31
398.147	78.31
398.371	89.31
398.595	73.31
398.82	79.31
399.044	83.31
399.268	93.31
399.492	73.31
399.717	91.31
399.941	79.31
400.165	95.31
400.389	78.31
400.613	71.31
400.837	83.31
401.062	94.31
401.286	87.31
401.51	71.31
401.734	80.31
401.958	90.31
402.182	85.31
402.406	84.31
402.63	84.31
402.854	78.31
403.078	96.31
403.302	100.31
403.526	79.31
403.75	88.31
403.974	79.31
404.198	83.31
404.422	108.31
404.645	105.31
404.869	93.31
405.093	95.31
405.317	67.31
405.541	73.31
405.765	84.31
405.988	79.31
406.212	95.31
406.436	78.31
406.66	97.31
406.883	92.31
407.107	87.31
407.331	78.31
407.555	105.31
407.778	89.31
408.002	97.31
408.226	79.31
408.449	82.31
408.673	79.31
408.896	91.31
409.12	89.31
409.344	80.31
409.567	92.31
409.791	95.31
410.014	75.31
410.238	76.31
410.461	84.31
410.685	91.31
410.908	76.31
411.132	90.31
411.355	84.31
411.578	77.31
411.802	77.31
412.025	85.31
412.249	65.31
412.472	80.31
412.695	86.31
412.919	88.31
413.142	81.31
413.365	103.31
413.589	79.31
413.812	78.31
414.035	75.31
414.258	72.31
414.482	76.31
414.705	81.31
414.928	99.31
415.151	88.31
415.374	63.31
415.597	81.31
415.821	81.31
416.044	79.31
416.267	86.31
416.49	88.31
416.713	72.31
416.936	75.31
417.159	83.31
417.382	89.31
417.605	88.31
417.828	94.31
418.051	92.31
418.274	88.31
418.497	66.31
418.72	81.31
418.943	78.31
419.166	96.31
419.389	77.31
419.611	89.31
419.834	81.31
420.057	73.31
420.28	76.31
420.503	93.31
420.726	84.31
420.948	92.31
421.171	85.31
421.394	95.31
421.617	107.31
421.839	97.31
422.062	80.31
422.285	125.31
422.507	165.31
422.73	280.31
422.953	237.31
423.175	138.31
423.398	99.31
423.621	91.31
423.843	80.31
424.066	85.31
424.288	100.31
424.511	79.31
424.733	91.31
424.956	82.31
425.178	103.31
425.401	93.31
425.623	86.31
425.846	79.31
426.068	80.31
426.291	81.31
426.513	77.31
426.735	75.31
426.958	76.31
427.18	78.31
427.402	95.31
427.625	85.31
427.847	82.31
428.069	89.31
428.292	91.31
428.514	100.31
428.736	100.31
428.958	100.31
429.181	108.31
429.403	84.31
429.625	95.31
429.847	113.31
430.069	123.31
430.292	139.31
430.514	126.31
430.736	115.31
430.958	114.31
431.18	82.31
431.402	89.31
431.624	87.31
431.846	113.31
432.068	115.31
432.29	87.31
432.512	75.31
432.734	84.31
432.956	103.31
433.178	83.31
433.4	88.31
433.622	77.31
433.844	72.31
434.066	78.31
434.287	75.31
434.509	83.31
434.731	79.31
434.953	79.31
435.175	90.31
435.397	74.31
435.618	82.31
435.84	77.31
436.062	76.31
436.284	77.31
436.505	80.31
436.727	81.31
436.949	72.31
437.17	69.31
437.392	81.31
437.614	73.31
437.835	83.31
438.057	76.31
438.278	83.31
438.5	87.31
438.721	77.31
438.943	80.31
439.165	92.31
439.386	92.31
439.608	98.31
439.829	86.31
440.05	73.31
440.272	81.31
440.493	77.31
440.715	83.31
440.936	91.31
441.158	85.31
441.379	81.31
441.6	83.31
441.822	71.31
442.043	93.31
442.264	79.31
442.486	105.31
442.707	102.31
442.928	101.31
443.149	105.31
443.371	112.31
443.592	160.31
443.813	146.31
444.034	88.31
444.255	95.31
444.476	60.31
444.698	78.31
444.919	83.31
445.14	165.31
445.361	154.31
445.582	175.31
445.803	147.31
446.024	100.31
446.245	84.31
446.466	77.31
446.687	91.31
446.908	85.31
447.129	89.31
447.35	85.31
447.571	96.31
447.792	78.31
448.013	66.31
448.234	80.31
448.455	59.31
448.675	86.31
448.896	71.31
449.117	82.31
449.338	65.31
449.559	87.31
449.779	83.31
450	93.31
450.221	91.31
450.442	84.31
450.662	82.31
450.883	82.31
451.104	93.31
451.324	88.31
451.545	83.31
451.766	69.31
451.986	83.31
452.207	77.31
452.428	92.31
452.648	95.31
452.869	91.31
453.089	81.31
453.31	78.31
453.53	83.31
453.751	82.31
453.971	91.31
454.192	85.31
454.412	81.31
454.633	91.31
454.853	76.31
455.073	91.31
455.294	82.31
455.514	72.31
455.734	88.31
455.955	82.31
456.175	82.31
456.395	76.31
456.616	101.31
456.836	76.31
457.056	87.31
457.276	97.31
457.497	88.31
457.717	77.31
457.937	89.31
458.157	79.31
458.377	105.31
458.598	94.31
458.818	91.31
459.038	105.31
459.258	91.31
459.478	92.31
459.698	91.31
459.918	88.31
460.138	87.31
460.358	81.31
460.578	95.31
460.798	113.31
461.018	101.31
461.238	72.31
461.458	84.31
461.678	75.31
461.898	79.31
462.118	89.31
462.338	72.31
462.558	93.31
462.777	74.31
462.997	75.31
463.217	68.31
463.437	83.31
463.657	84.31
463.876	78.31
464.096	73.31
464.316	81.31
464.536	77.31
464.755	93.31
464.975	85.31
465.195	79.31
465.414	78.31
465.634	90.31
465.854	95.31
466.073	85.31
466.293	70.31
466.512	71.31
466.732	83.31
466.951	87.31
467.171	81.31
467.391	83.31
467.61	88.31
467.829	91.31
468.049	83.31
468.268	74.31
468.488	63.31
468.707	81.31
468.927	88.31
469.146	82.31
469.365	72.31
469.585	85.31
469.804	87.31
470.023	80.31
470.243	81.31
470.462	86.31
470.681	60.31
470.901	78.31
471.12	65.31
471.339	85.31
471.558	94.31
471.777	90.31
471.997	83.31
472.216	85.31
472.435	74.31
472.654	75.31
472.873	80.31
473.092	75.31
473.311	71.31
473.53	81.31
473.749	95.31
473.968	90.31
474.187	82.31
474.406	82.31
474.625	75.31
474.844	77.31
475.063	96.31
475.282	81.31
475.501	70.31
475.72	83.31
475.939	72.31
476.158	89.31
476.377	84.31
476.596	75.31
476.814	78.31
477.033	96.31
477.252	75.31
477.471	93.31
477.69	88.31
477.908	87.31
478.127	92.31
478.346	83.31
478.564	80.31
478.783	75.31
479.002	71.31
479.22	77.31
479.439	80.31
479.658	79.31
479.876	78.31
480.095	85.31
480.313	84.31
480.532	88.31
480.751	89.31
480.969	71.31
481.188	96.31
481.406	95.31
481.624	97.31
481.843	75.31
482.061	100.31
482.28	96.31
482.498	78.31
482.717	91.31
482.935	95.31
483.153	78.31
483.372	81.31
483.59	93.31
483.808	86.31
484.027	77.31
484.245	108.31
484.463	77.31
484.681	87.31
484.9	76.31
485.118	81.31
485.336	79.31
485.554	83.31
485.772	83.31
485.99	91.31
486.209	73.31
486.427	85.31
486.645	100.31
486.863	84.31
487.081	82.31
487.299	99.31
487.517	99.31
487.735	91.31
487.953	107.31
488.171	98.31
488.389	95.31
488.607	70.31
488.825	82.31
489.043	79.31
489.261	68.31
489.479	78.31
489.696	76.31
489.914	90.31
490.132	101.31
490.35	79.31
490.568	78.31
490.786	94.31
491.003	86.31
491.221	81.31
491.439	92.31
491.657	71.31
491.874	81.31
492.092	81.31
492.31	78.31
492.527	76.31
492.745	77.31
492.963	77.31
493.18	96.31
493.398	85.31
493.615	74.31
493.833	94.31
494.05	90.31
494.268	97.31
494.485	85.31
494.703	95.31
494.92	73.31
495.138	83.31
495.355	89.31
495.573	80.31
495.79	90.31
496.008	99.31
496.225	105.31
496.442	92.31
496.66	81.31
496.877	70.31
497.094	84.31
497.312	75.31
497.529	89.31
497.746	81.31
497.963	81.31
498.181	88.31
498.398	99.31
498.615	91.31
498.832	82.31
499.049	80.31
499.267	94.31
499.484	78.31
499.701	91.31
499.918	95.31
500.135	96.31
500.352	92.31
500.569	89.31
500.786	90.31
501.003	91.31
501.22	88.31
501.437	84.31
501.654	76.31
501.871	87.31
502.088	67.31
502.305	90.31
502.522	105.31
502.739	73.31
502.956	80.31
503.172	81.31
503.389	82.31
503.606	94.31
503.823	81.31
504.04	94.31
504.256	109.31
504.473	99.31
504.69	77.31
504.907	97.31
505.123	87.31
505.34	93.31
505.557	77.31
505.773	100.31
505.99	102.31
506.207	83.31
506.423	78.31
506.64	85.31
506.856	81.31
507.073	77.31
507.289	87.31
507.506	95.31
507.722	94.31
507.939	84.31
508.155	105.31
508.372	87.31
508.588	75.31
508.805	93.31
509.021	75.31
509.238	103.31
509.454	87.31
509.67	79.31
509.887	70.31
510.103	79.31
510.319	92.31
510.536	84.31
510.752	84.31
510.968	87.31
511.184	99.31
511.401	88.31
511.617	78.31
511.833	80.31
512.049	83.31
512.265	95.31
512.481	88.31
512.698	85.31
512.914	78.31
513.13	88.31
513.346	83.31
513.562	95.31
513.778	100.31
513.994	94.31
514.21	74.31
514.426	78.31
514.642	97.31
514.858	78.31
515.074	73.31
515.29	88.31
515.506	74.31
515.721	90.31
515.937	91.31
516.153	90.31
516.369	80.31
516.585	85.31
516.801	83.31
517.016	89.31
517.232	69.31
517.448	91.31
517.664	87.31
517.879	88.31
518.095	77.31
518.311	87.31
518.527	82.31
518.742	92.31
518.958	93.31
