Data from 15780_3_HRD10591_00012.txt Node
Date: Mon Jan 19 14:20:04 EST 2026
User: Yrep
Spectrometer: HR+D1059
Trigger mode: 1
Integration Time (sec): 1.000000E-1
Scans to average: 1
Electric dark correction enabled: true
Nonlinearity correction enabled: false
Boxcar width: 0
XAxis mode: Wavelengths
Number of Pixels in Spectrum: 2048
>>>>>Begin Spectral Data<<<<<
223.165	-13.12
223.4	-13.12
223.635	-13.12
223.869	-8.12
224.104	-21.12
224.338	-14.12
224.573	-7.12
224.808	-7.12
225.042	3.88
225.277	-2.12
225.511	3.88
225.746	-4.12
225.98	9.88
226.215	-2.12
226.449	7.88
226.683	15.88
226.918	18.88
227.152	18.88
227.387	32.88
227.621	42.88
227.856	64.88
228.09	53.88
228.324	69.88
228.559	65.88
228.793	54.88
229.027	62.88
229.262	56.88
229.496	71.88
229.73	73.88
229.964	71.88
230.199	74.88
230.433	75.88
230.667	67.88
230.901	84.88
231.136	80.88
231.37	89.88
231.604	73.88
231.838	85.88
232.072	83.88
232.306	72.88
232.541	79.88
232.775	79.88
233.009	85.88
233.243	90.88
233.477	98.88
233.711	83.88
233.945	82.88
234.179	81.88
234.413	80.88
234.647	98.88
234.881	73.88
235.115	84.88
235.349	78.88
235.583	72.88
235.817	73.88
236.051	74.88
236.285	89.88
236.519	81.88
236.753	69.88
236.987	84.88
237.221	75.88
237.455	70.88
237.689	67.88
237.922	80.88
238.156	89.88
238.39	72.88
238.624	66.88
238.858	68.88
239.091	75.88
239.325	76.88
239.559	86.88
239.793	78.88
240.027	77.88
240.26	71.88
240.494	66.88
240.728	75.88
240.961	72.88
241.195	75.88
241.429	71.88
241.662	83.88
241.896	88.88
242.13	68.88
242.363	82.88
242.597	72.88
242.83	63.88
243.064	84.88
243.298	63.88
243.531	63.88
243.765	74.88
243.998	61.88
244.232	76.88
244.465	83.88
244.699	78.88
244.932	73.88
245.166	84.88
245.399	87.88
245.633	83.88
245.866	84.88
246.099	82.88
246.333	77.88
246.566	75.88
246.8	67.88
247.033	61.88
247.266	83.88
247.5	71.88
247.733	76.88
247.966	75.88
248.2	69.88
248.433	77.88
248.666	92.88
248.899	82.88
249.133	86.88
249.366	77.88
249.599	83.88
249.832	83.88
250.066	82.88
250.299	92.88
250.532	71.88
250.765	80.88
250.998	80.88
251.231	92.88
251.465	88.88
251.698	89.88
251.931	89.88
252.164	83.88
252.397	82.88
252.63	82.88
252.863	81.88
253.096	64.88
253.329	91.88
253.562	74.88
253.795	93.88
254.028	88.88
254.261	79.88
254.494	67.88
254.727	86.88
254.96	67.88
255.193	78.88
255.426	83.88
255.659	77.88
255.892	72.88
256.124	74.88
256.357	77.88
256.59	81.88
256.823	71.88
257.056	67.88
257.289	85.88
257.521	86.88
257.754	89.88
257.987	78.88
258.22	81.88
258.452	76.88
258.685	81.88
258.918	70.88
259.151	87.88
259.383	78.88
259.616	83.88
259.849	91.88
260.081	79.88
260.314	86.88
260.547	85.88
260.779	76.88
261.012	84.88
261.244	92.88
261.477	91.88
261.71	80.88
261.942	99.88
262.175	78.88
262.407	86.88
262.64	84.88
262.872	82.88
263.105	89.88
263.337	78.88
263.57	71.88
263.802	81.88
264.035	78.88
264.267	61.88
264.499	67.88
264.732	88.88
264.964	79.88
265.197	83.88
265.429	89.88
265.661	79.88
265.894	94.88
266.126	88.88
266.358	76.88
266.591	82.88
266.823	75.88
267.055	74.88
267.287	74.88
267.52	73.88
267.752	85.88
267.984	88.88
268.216	72.88
268.448	78.88
268.681	90.88
268.913	88.88
269.145	85.88
269.377	84.88
269.609	69.88
269.841	75.88
270.073	84.88
270.306	82.88
270.538	88.88
270.77	92.88
271.002	91.88
271.234	81.88
271.466	74.88
271.698	85.88
271.93	91.88
272.162	89.88
272.394	90.88
272.626	95.88
272.858	87.88
273.09	85.88
273.322	77.88
273.553	92.88
273.785	84.88
274.017	86.88
274.249	83.88
274.481	63.88
274.713	79.88
274.945	75.88
275.176	88.88
275.408	82.88
275.64	84.88
275.872	78.88
276.104	96.88
276.335	93.88
276.567	94.88
276.799	73.88
277.031	85.88
277.262	93.88
277.494	96.88
277.726	87.88
277.957	88.88
278.189	100.88
278.421	84.88
278.652	83.88
278.884	77.88
279.115	90.88
279.347	98.88
279.579	89.88
279.81	84.88
280.042	97.88
280.273	100.88
280.505	92.88
280.736	96.88
280.968	91.88
281.199	87.88
281.431	73.88
281.662	80.88
281.894	92.88
282.125	83.88
282.356	80.88
282.588	96.88
282.819	81.88
283.051	78.88
283.282	85.88
283.513	103.88
283.745	95.88
283.976	92.88
284.207	97.88
284.439	83.88
284.67	92.88
284.901	101.88
285.132	97.88
285.364	112.88
285.595	106.88
285.826	87.88
286.057	85.88
286.288	77.88
286.52	78.88
286.751	89.88
286.982	96.88
287.213	84.88
287.444	74.88
287.675	88.88
287.906	94.88
288.138	99.88
288.369	85.88
288.6	105.88
288.831	80.88
289.062	91.88
289.293	83.88
289.524	87.88
289.755	81.88
289.986	81.88
290.217	85.88
290.448	98.88
290.679	76.88
290.91	91.88
291.141	81.88
291.371	83.88
291.602	78.88
291.833	96.88
292.064	90.88
292.295	79.88
292.526	73.88
292.757	89.88
292.987	87.88
293.218	82.88
293.449	85.88
293.68	89.88
293.91	75.88
294.141	82.88
294.372	75.88
294.603	101.88
294.833	104.88
295.064	96.88
295.295	83.88
295.525	93.88
295.756	83.88
295.987	102.88
296.217	101.88
296.448	80.88
296.679	96.88
296.909	112.88
297.14	98.88
297.37	78.88
297.601	97.88
297.831	96.88
298.062	87.88
298.292	94.88
298.523	96.88
298.753	76.88
298.984	82.88
299.214	76.88
299.445	97.88
299.675	88.88
299.905	93.88
300.136	95.88
300.366	101.88
300.597	89.88
300.827	91.88
301.057	96.88
301.288	86.88
301.518	97.88
301.748	111.88
301.979	107.88
302.209	121.88
302.439	113.88
302.669	93.88
302.9	85.88
303.13	92.88
303.36	71.88
303.59	87.88
303.82	89.88
304.051	101.88
304.281	101.88
304.511	88.88
304.741	84.88
304.971	90.88
305.201	93.88
305.431	91.88
305.661	89.88
305.891	102.88
306.121	84.88
306.352	88.88
306.582	85.88
306.812	94.88
307.042	81.88
307.272	87.88
307.502	81.88
307.731	87.88
307.961	104.88
308.191	116.88
308.421	123.88
308.651	100.88
308.881	91.88
309.111	95.88
309.341	122.88
309.571	109.88
309.8	105.88
310.03	88.88
310.26	99.88
310.49	94.88
310.72	82.88
310.949	77.88
311.179	91.88
311.409	101.88
311.639	63.88
311.868	80.88
312.098	86.88
312.328	96.88
312.557	88.88
312.787	89.88
313.017	89.88
313.246	83.88
313.476	87.88
313.706	86.88
313.935	96.88
314.165	73.88
314.394	84.88
314.624	96.88
314.853	85.88
315.083	84.88
315.312	97.88
315.542	92.88
315.771	102.88
316.001	108.88
316.23	114.88
316.46	95.88
316.689	91.88
316.919	88.88
317.148	85.88
317.377	92.88
317.607	104.88
317.836	99.88
318.065	117.88
318.295	123.88
318.524	94.88
318.753	102.88
318.983	98.88
319.212	91.88
319.441	99.88
319.67	90.88
319.9	84.88
320.129	83.88
320.358	84.88
320.587	96.88
320.816	107.88
321.046	102.88
321.275	90.88
321.504	90.88
321.733	95.88
321.962	99.88
322.191	86.88
322.42	93.88
322.649	90.88
322.878	100.88
323.108	85.88
323.337	95.88
323.566	106.88
323.795	84.88
324.024	91.88
324.253	88.88
324.482	90.88
324.71	99.88
324.939	98.88
325.168	90.88
325.397	77.88
325.626	89.88
325.855	86.88
326.084	87.88
326.313	84.88
326.542	88.88
326.77	83.88
326.999	108.88
327.228	96.88
327.457	74.88
327.686	80.88
327.914	91.88
328.143	86.88
328.372	90.88
328.6	92.88
328.829	99.88
329.058	80.88
329.287	85.88
329.515	86.88
329.744	91.88
329.972	98.88
330.201	95.88
330.43	99.88
330.658	102.88
330.887	88.88
331.115	73.88
331.344	95.88
331.572	84.88
331.801	94.88
332.03	95.88
332.258	100.88
332.486	93.88
332.715	81.88
332.943	97.88
333.172	86.88
333.4	82.88
333.629	85.88
333.857	83.88
334.085	97.88
334.314	91.88
334.542	107.88
334.771	103.88
334.999	115.88
335.227	102.88
335.455	93.88
335.684	115.88
335.912	106.88
336.14	126.88
336.369	131.88
336.597	103.88
336.825	86.88
337.053	87.88
337.281	99.88
337.51	105.88
337.738	91.88
337.966	101.88
338.194	92.88
338.422	97.88
338.65	105.88
338.878	83.88
339.106	100.88
339.334	85.88
339.562	95.88
339.79	95.88
340.018	84.88
340.246	78.88
340.474	77.88
340.702	87.88
340.93	97.88
341.158	93.88
341.386	88.88
341.614	101.88
341.842	79.88
342.07	78.88
342.298	89.88
342.526	83.88
342.754	85.88
342.981	83.88
343.209	77.88
343.437	101.88
343.665	91.88
343.893	126.88
344.12	117.88
344.348	101.88
344.576	105.88
344.804	98.88
345.031	82.88
345.259	90.88
345.487	96.88
345.714	78.88
345.942	93.88
346.17	85.88
346.397	93.88
346.625	97.88
346.853	101.88
347.08	97.88
347.308	91.88
347.535	100.88
347.763	108.88
347.99	92.88
348.218	115.88
348.445	103.88
348.673	103.88
348.9	101.88
349.128	103.88
349.355	99.88
349.583	105.88
349.81	99.88
350.037	100.88
350.265	90.88
350.492	80.88
350.72	84.88
350.947	93.88
351.174	95.88
351.402	89.88
351.629	92.88
351.856	109.88
352.083	85.88
352.311	77.88
352.538	91.88
352.765	86.88
352.992	90.88
353.22	98.88
353.447	85.88
353.674	78.88
353.901	87.88
354.128	102.88
354.355	77.88
354.583	89.88
354.81	88.88
355.037	83.88
355.264	97.88
355.491	91.88
355.718	103.88
355.945	89.88
356.172	89.88
356.399	89.88
356.626	102.88
356.853	117.88
357.08	117.88
357.307	111.88
357.534	91.88
357.761	113.88
357.988	137.88
358.215	131.88
358.441	123.88
358.668	109.88
358.895	111.88
359.122	100.88
359.349	99.88
359.576	101.88
359.802	97.88
360.029	96.88
360.256	104.88
360.483	96.88
360.709	106.88
360.936	121.88
361.163	103.88
361.39	90.88
361.616	101.88
361.843	120.88
362.07	126.88
362.296	133.88
362.523	131.88
362.749	137.88
362.976	171.88
363.203	185.88
363.429	147.88
363.656	131.88
363.882	123.88
364.109	145.88
364.335	205.88
364.562	232.88
364.788	152.88
365.015	108.88
365.241	102.88
365.468	106.88
365.694	97.88
365.92	93.88
366.147	92.88
366.373	96.88
366.599	92.88
366.826	86.88
367.052	89.88
367.278	89.88
367.505	83.88
367.731	97.88
367.957	104.88
368.184	105.88
368.41	93.88
368.636	100.88
368.862	92.88
369.089	94.88
369.315	95.88
369.541	90.88
369.767	106.88
369.993	82.88
370.219	87.88
370.445	108.88
370.672	135.88
370.898	119.88
371.124	103.88
371.35	103.88
371.576	98.88
371.802	115.88
372.028	123.88
372.254	122.88
372.48	121.88
372.706	95.88
372.932	119.88
373.158	111.88
373.384	153.88
373.61	194.88
373.835	172.88
374.061	122.88
374.287	117.88
374.513	131.88
374.739	163.88
374.965	151.88
375.191	138.88
375.416	127.88
375.642	121.88
375.868	119.88
376.094	124.88
376.319	121.88
376.545	116.88
376.771	103.88
376.997	99.88
377.222	78.88
377.448	96.88
377.674	96.88
377.899	90.88
378.125	91.88
378.35	105.88
378.576	91.88
378.802	105.88
379.027	101.88
379.253	95.88
379.478	93.88
379.704	105.88
379.929	102.88
380.155	104.88
380.38	116.88
380.606	86.88
380.831	93.88
381.057	94.88
381.282	106.88
381.507	120.88
381.733	129.88
381.958	125.88
382.184	133.88
382.409	147.88
382.634	145.88
382.86	150.88
383.085	139.88
383.31	137.88
383.535	141.88
383.761	145.88
383.986	138.88
384.211	133.88
384.436	127.88
384.662	106.88
384.887	113.88
385.112	105.88
385.337	118.88
385.562	125.88
385.787	136.88
386.013	145.88
386.238	143.88
386.463	113.88
386.688	116.88
386.913	114.88
387.138	121.88
387.363	131.88
387.588	121.88
387.813	134.88
388.038	139.88
388.263	129.88
388.488	121.88
388.713	122.88
388.938	102.88
389.163	106.88
389.387	99.88
389.612	98.88
389.837	97.88
390.062	123.88
390.287	121.88
390.512	97.88
390.736	107.88
390.961	97.88
391.186	111.88
391.411	91.88
391.636	107.88
391.86	120.88
392.085	128.88
392.31	135.88
392.534	130.88
392.759	190.88
392.984	296.88
393.208	585.88
393.433	847.88
393.658	635.88
393.882	246.88
394.107	183.88
394.331	201.88
394.556	223.88
394.78	159.88
395.005	136.88
395.229	120.88
395.454	128.88
395.678	166.88
395.903	213.88
396.127	297.88
396.352	325.88
396.576	333.88
396.801	557.88
397.025	649.88
397.249	332.88
397.474	179.88
397.698	136.88
397.922	127.88
398.147	120.88
398.371	122.88
398.595	106.88
398.82	100.88
399.044	116.88
399.268	106.88
399.492	91.88
399.717	100.88
399.941	103.88
400.165	91.88
400.389	90.88
400.613	88.88
400.837	83.88
401.062	98.88
401.286	98.88
401.51	92.88
401.734	85.88
401.958	86.88
402.182	96.88
402.406	113.88
402.63	83.88
402.854	89.88
403.078	98.88
403.302	105.88
403.526	97.88
403.75	96.88
403.974	103.88
404.198	117.88
404.422	144.88
404.645	147.88
404.869	132.88
405.093	112.88
405.317	102.88
405.541	102.88
405.765	99.88
405.988	102.88
406.212	109.88
406.436	122.88
406.66	103.88
406.883	102.88
407.107	100.88
407.331	108.88
407.555	135.88
407.778	167.88
408.002	166.88
408.226	106.88
408.449	101.88
408.673	95.88
408.896	106.88
409.12	99.88
409.344	108.88
409.567	129.88
409.791	122.88
410.014	137.88
410.238	103.88
410.461	114.88
410.685	107.88
410.908	90.88
411.132	96.88
411.355	100.88
411.578	107.88
411.802	86.88
412.025	108.88
412.249	95.88
412.472	81.88
412.695	89.88
412.919	96.88
413.142	91.88
413.365	100.88
413.589	105.88
413.812	89.88
414.035	90.88
414.258	95.88
414.482	87.88
414.705	86.88
414.928	93.88
415.151	106.88
415.374	108.88
415.597	93.88
415.821	79.88
416.044	94.88
416.267	78.88
416.49	86.88
416.713	94.88
416.936	82.88
417.159	75.88
417.382	87.88
417.605	93.88
417.828	112.88
418.051	96.88
418.274	85.88
418.497	83.88
418.72	99.88
418.943	87.88
419.166	100.88
419.389	93.88
419.611	109.88
419.834	111.88
420.057	106.88
420.28	94.88
420.503	101.88
420.726	124.88
420.948	97.88
421.171	123.88
421.394	137.88
421.617	191.88
421.839	214.88
422.062	188.88
422.285	292.88
422.507	574.88
422.73	936.88
422.953	826.88
423.175	410.88
423.398	209.88
423.621	168.88
423.843	136.88
424.066	118.88
424.288	124.88
424.511	112.88
424.733	114.88
424.956	109.88
425.178	119.88
425.401	109.88
425.623	111.88
425.846	105.88
426.068	107.88
426.291	82.88
426.513	93.88
426.735	112.88
426.958	96.88
427.18	119.88
427.402	112.88
427.625	109.88
427.847	116.88
428.069	131.88
428.292	206.88
428.514	242.88
428.736	168.88
428.958	209.88
429.181	205.88
429.403	133.88
429.625	137.88
429.847	204.88
430.069	297.88
430.292	381.88
430.514	320.88
430.736	251.88
430.958	265.88
431.18	152.88
431.402	112.88
431.624	114.88
431.846	192.88
432.068	225.88
432.29	123.88
432.512	115.88
432.734	104.88
432.956	104.88
433.178	84.88
433.4	107.88
433.622	86.88
433.844	99.88
434.066	98.88
434.287	88.88
434.509	81.88
434.731	102.88
434.953	105.88
435.175	98.88
435.397	113.88
435.618	121.88
435.84	113.88
436.062	113.88
436.284	103.88
436.505	84.88
436.727	83.88
436.949	99.88
437.17	92.88
437.392	92.88
437.614	97.88
437.835	104.88
438.057	93.88
438.278	120.88
438.5	136.88
438.721	103.88
438.943	103.88
439.165	91.88
439.386	86.88
439.608	86.88
439.829	97.88
440.05	95.88
440.272	107.88
440.493	101.88
440.715	99.88
440.936	92.88
441.158	85.88
441.379	82.88
441.6	110.88
441.822	106.88
442.043	114.88
442.264	126.88
442.486	224.88
442.707	325.88
442.928	203.88
443.149	152.88
443.371	262.88
443.592	545.88
443.813	461.88
444.034	180.88
444.255	113.88
444.476	96.88
444.698	104.88
444.919	119.88
445.14	232.88
445.361	351.88
445.582	649.88
445.803	559.88
446.024	195.88
446.245	136.88
446.466	100.88
446.687	108.88
446.908	96.88
447.129	93.88
447.35	95.88
447.571	87.88
447.792	79.88
448.013	87.88
448.234	91.88
448.455	84.88
448.675	84.88
448.896	108.88
449.117	103.88
449.338	99.88
449.559	104.88
449.779	79.88
450	102.88
450.221	84.88
450.442	89.88
450.662	90.88
450.883	96.88
451.104	98.88
451.324	113.88
451.545	96.88
451.766	84.88
451.986	84.88
452.207	95.88
452.428	95.88
452.648	111.88
452.869	138.88
453.089	123.88
453.31	124.88
453.53	142.88
453.751	129.88
453.971	104.88
454.192	83.88
454.412	79.88
454.633	96.88
454.853	87.88
455.073	95.88
455.294	107.88
455.514	101.88
455.734	108.88
455.955	80.88
456.175	99.88
456.395	88.88
456.616	89.88
456.836	95.88
457.056	101.88
457.276	93.88
457.497	89.88
457.717	98.88
457.937	153.88
458.157	180.88
458.377	211.88
458.598	185.88
458.818	210.88
459.038	127.88
459.258	111.88
459.478	89.88
459.698	85.88
459.918	97.88
460.138	98.88
460.358	93.88
460.578	120.88
460.798	188.88
461.018	179.88
461.238	110.88
461.458	95.88
461.678	105.88
461.898	97.88
462.118	97.88
462.338	93.88
462.558	83.88
462.777	92.88
462.997	90.88
463.217	85.88
463.437	90.88
463.657	95.88
463.876	99.88
464.096	99.88
464.316	90.88
464.536	94.88
464.755	100.88
464.975	95.88
465.195	92.88
465.414	96.88
465.634	78.88
465.854	108.88
466.073	95.88
466.293	93.88
466.512	91.88
466.732	93.88
466.951	87.88
467.171	104.88
467.391	89.88
467.61	107.88
467.829	97.88
468.049	88.88
468.268	90.88
468.488	95.88
468.707	105.88
468.927	109.88
469.146	90.88
469.365	83.88
469.585	90.88
469.804	97.88
470.023	94.88
470.243	96.88
470.462	102.88
470.681	118.88
470.901	95.88
471.12	89.88
471.339	81.88
471.558	101.88
471.777	91.88
471.997	84.88
472.216	76.88
472.435	102.88
472.654	81.88
472.873	93.88
473.092	98.88
473.311	83.88
473.53	97.88
473.749	100.88
473.968	99.88
474.187	101.88
474.406	90.88
474.625	83.88
474.844	100.88
475.063	96.88
475.282	93.88
475.501	89.88
475.72	98.88
475.939	93.88
476.158	94.88
476.377	88.88
476.596	94.88
476.814	94.88
477.033	93.88
477.252	91.88
477.471	90.88
477.69	96.88
477.908	100.88
478.127	95.88
478.346	102.88
478.564	89.88
478.783	99.88
479.002	105.88
479.22	97.88
479.439	107.88
479.658	86.88
479.876	90.88
480.095	87.88
480.313	91.88
480.532	98.88
480.751	96.88
480.969	106.88
481.188	93.88
481.406	87.88
481.624	102.88
481.843	90.88
482.061	88.88
482.28	104.88
482.498	100.88
482.717	83.88
482.935	98.88
483.153	97.88
483.372	116.88
483.59	99.88
483.808	91.88
484.027	98.88
484.245	109.88
484.463	112.88
484.681	113.88
484.9	112.88
485.118	101.88
485.336	90.88
485.554	95.88
485.772	109.88
485.99	100.88
486.209	108.88
486.427	100.88
486.645	100.88
486.863	113.88
487.081	117.88
487.299	116.88
487.517	120.88
487.735	155.88
487.953	348.88
488.171	248.88
488.389	124.88
488.607	108.88
488.825	108.88
489.043	95.88
489.261	105.88
489.479	102.88
489.696	113.88
489.914	99.88
490.132	103.88
490.35	95.88
490.568	103.88
490.786	88.88
491.003	100.88
491.221	85.88
491.439	95.88
491.657	95.88
491.874	113.88
492.092	116.88
492.31	99.88
492.527	98.88
492.745	104.88
492.963	87.88
493.18	102.88
493.398	113.88
493.615	124.88
493.833	99.88
494.05	97.88
494.268	107.88
494.485	90.88
494.703	97.88
494.92	100.88
495.138	96.88
495.355	92.88
495.573	82.88
495.79	96.88
496.008	105.88
496.225	105.88
496.442	106.88
496.66	115.88
496.877	101.88
497.094	115.88
497.312	101.88
497.529	97.88
497.746	106.88
497.963	111.88
498.181	131.88
498.398	162.88
498.615	136.88
498.832	115.88
499.049	119.88
499.267	145.88
499.484	104.88
499.701	108.88
499.918	94.88
500.135	153.88
500.352	132.88
500.569	105.88
500.786	138.88
501.003	137.88
501.22	114.88
501.437	111.88
501.654	147.88
501.871	112.88
502.088	106.88
502.305	115.88
502.522	102.88
502.739	115.88
502.956	87.88
503.172	94.88
503.389	100.88
503.606	105.88
503.823	136.88
504.04	154.88
504.256	227.88
504.473	231.88
504.69	123.88
504.907	113.88
505.123	108.88
505.34	101.88
505.557	101.88
505.773	86.88
505.99	91.88
506.207	96.88
506.423	95.88
506.64	105.88
506.856	88.88
507.073	95.88
507.289	98.88
507.506	76.88
507.722	101.88
507.939	91.88
508.155	95.88
508.372	93.88
508.588	81.88
508.805	98.88
509.021	96.88
509.238	87.88
509.454	102.88
509.67	87.88
509.887	87.88
510.103	104.88
510.319	99.88
510.536	103.88
510.752	89.88
510.968	95.88
511.184	95.88
511.401	97.88
511.617	104.88
511.833	96.88
512.049	99.88
512.265	93.88
512.481	92.88
512.698	90.88
512.914	108.88
513.13	103.88
513.346	89.88
