Data from 15780_3_HRD10591_00043.txt Node
Date: Mon Jan 19 14:20:19 EST 2026
User: Yrep
Spectrometer: HR+D1059
Trigger mode: 1
Integration Time (sec): 1.000000E-1
Scans to average: 1
Electric dark correction enabled: true
Nonlinearity correction enabled: false
Boxcar width: 0
XAxis mode: Wavelengths
Number of Pixels in Spectrum: 2048
>>>>>Begin Spectral Data<<<<<
223.165	-6.19
223.4	-6.19
223.635	-6.19
223.869	-16.19
224.104	-19.19
224.338	-10.19
224.573	-15.19
224.808	-25.19
225.042	-19.19
225.277	-1.19
225.511	-14.19
225.746	2.81
225.98	11.81
226.215	13.81
226.449	23.81
226.683	1.81
226.918	37.81
227.152	34.81
227.387	26.81
227.621	37.81
227.856	46.81
228.09	46.81
228.324	48.81
228.559	44.81
228.793	56.81
229.027	49.81
229.262	75.81
229.496	67.81
229.73	56.81
229.964	66.81
230.199	68.81
230.433	75.81
230.667	77.81
230.901	60.81
231.136	68.81
231.37	75.81
231.604	73.81
231.838	73.81
232.072	80.81
232.306	68.81
232.541	67.81
232.775	78.81
233.009	90.81
233.243	75.81
233.477	81.81
233.711	86.81
233.945	72.81
234.179	89.81
234.413	70.81
234.647	88.81
234.881	71.81
235.115	75.81
235.349	80.81
235.583	87.81
235.817	75.81
236.051	72.81
236.285	87.81
236.519	70.81
236.753	79.81
236.987	87.81
237.221	90.81
237.455	71.81
237.689	80.81
237.922	85.81
238.156	68.81
238.39	56.81
238.624	74.81
238.858	69.81
239.091	82.81
239.325	68.81
239.559	66.81
239.793	72.81
240.027	78.81
240.26	77.81
240.494	83.81
240.728	74.81
240.961	81.81
241.195	73.81
241.429	73.81
241.662	75.81
241.896	68.81
242.13	73.81
242.363	78.81
242.597	68.81
242.83	87.81
243.064	72.81
243.298	63.81
243.531	78.81
243.765	88.81
243.998	85.81
244.232	73.81
244.465	64.81
244.699	81.81
244.932	77.81
245.166	78.81
245.399	69.81
245.633	67.81
245.866	71.81
246.099	75.81
246.333	61.81
246.566	70.81
246.8	64.81
247.033	60.81
247.266	61.81
247.5	89.81
247.733	72.81
247.966	79.81
248.2	102.81
248.433	73.81
248.666	73.81
248.899	82.81
249.133	89.81
249.366	67.81
249.599	78.81
249.832	73.81
250.066	90.81
250.299	65.81
250.532	78.81
250.765	78.81
250.998	64.81
251.231	63.81
251.465	81.81
251.698	73.81
251.931	78.81
252.164	87.81
252.397	82.81
252.63	91.81
252.863	86.81
253.096	73.81
253.329	72.81
253.562	78.81
253.795	67.81
254.028	76.81
254.261	73.81
254.494	87.81
254.727	70.81
254.96	72.81
255.193	70.81
255.426	73.81
255.659	70.81
255.892	77.81
256.124	75.81
256.357	67.81
256.59	69.81
256.823	70.81
257.056	74.81
257.289	77.81
257.521	74.81
257.754	92.81
257.987	78.81
258.22	74.81
258.452	74.81
258.685	77.81
258.918	70.81
259.151	72.81
259.383	58.81
259.616	76.81
259.849	80.81
260.081	79.81
260.314	74.81
260.547	73.81
260.779	83.81
261.012	90.81
261.244	85.81
261.477	81.81
261.71	85.81
261.942	80.81
262.175	84.81
262.407	78.81
262.64	76.81
262.872	64.81
263.105	77.81
263.337	81.81
263.57	60.81
263.802	61.81
264.035	66.81
264.267	79.81
264.499	73.81
264.732	75.81
264.964	87.81
265.197	81.81
265.429	73.81
265.661	78.81
265.894	69.81
266.126	87.81
266.358	72.81
266.591	72.81
266.823	82.81
267.055	81.81
267.287	78.81
267.52	84.81
267.752	83.81
267.984	76.81
268.216	75.81
268.448	71.81
268.681	72.81
268.913	82.81
269.145	90.81
269.377	76.81
269.609	88.81
269.841	73.81
270.073	76.81
270.306	87.81
270.538	79.81
270.77	82.81
271.002	81.81
271.234	90.81
271.466	75.81
271.698	87.81
271.93	75.81
272.162	69.81
272.394	85.81
272.626	83.81
272.858	93.81
273.09	93.81
273.322	72.81
273.553	80.81
273.785	77.81
274.017	81.81
274.249	92.81
274.481	70.81
274.713	73.81
274.945	76.81
275.176	90.81
275.408	66.81
275.64	80.81
275.872	86.81
276.104	74.81
276.335	65.81
276.567	85.81
276.799	75.81
277.031	81.81
277.262	85.81
277.494	79.81
277.726	89.81
277.957	74.81
278.189	63.81
278.421	72.81
278.652	80.81
278.884	81.81
279.115	78.81
279.347	71.81
279.579	68.81
279.81	93.81
280.042	96.81
280.273	59.81
280.505	74.81
280.736	74.81
280.968	78.81
281.199	80.81
281.431	74.81
281.662	80.81
281.894	80.81
282.125	84.81
282.356	64.81
282.588	86.81
282.819	94.81
283.051	78.81
283.282	83.81
283.513	89.81
283.745	85.81
283.976	79.81
284.207	84.81
284.439	84.81
284.67	98.81
284.901	82.81
285.132	85.81
285.364	92.81
285.595	70.81
285.826	90.81
286.057	97.81
286.288	94.81
286.52	66.81
286.751	86.81
286.982	69.81
287.213	86.81
287.444	98.81
287.675	91.81
287.906	80.81
288.138	100.81
288.369	89.81
288.6	82.81
288.831	88.81
289.062	73.81
289.293	81.81
289.524	90.81
289.755	89.81
289.986	99.81
290.217	82.81
290.448	70.81
290.679	70.81
290.91	89.81
291.141	93.81
291.371	80.81
291.602	82.81
291.833	93.81
292.064	89.81
292.295	62.81
292.526	86.81
292.757	74.81
292.987	81.81
293.218	82.81
293.449	89.81
293.68	91.81
293.91	79.81
294.141	90.81
294.372	86.81
294.603	81.81
294.833	80.81
295.064	78.81
295.295	80.81
295.525	86.81
295.756	89.81
295.987	90.81
296.217	84.81
296.448	84.81
296.679	82.81
296.909	86.81
297.14	89.81
297.37	72.81
297.601	80.81
297.831	67.81
298.062	73.81
298.292	85.81
298.523	92.81
298.753	79.81
298.984	83.81
299.214	78.81
299.445	73.81
299.675	83.81
299.905	76.81
300.136	82.81
300.366	86.81
300.597	83.81
300.827	80.81
301.057	93.81
301.288	90.81
301.518	92.81
301.748	84.81
301.979	85.81
302.209	88.81
302.439	89.81
302.669	72.81
302.9	90.81
303.13	94.81
303.36	87.81
303.59	74.81
303.82	78.81
304.051	79.81
304.281	82.81
304.511	84.81
304.741	85.81
304.971	64.81
305.201	88.81
305.431	78.81
305.661	69.81
305.891	86.81
306.121	84.81
306.352	74.81
306.582	80.81
306.812	78.81
307.042	87.81
307.272	76.81
307.502	80.81
307.731	72.81
307.961	82.81
308.191	80.81
308.421	90.81
308.651	78.81
308.881	80.81
309.111	73.81
309.341	72.81
309.571	81.81
309.8	81.81
310.03	83.81
310.26	73.81
310.49	80.81
310.72	86.81
310.949	79.81
311.179	73.81
311.409	81.81
311.639	82.81
311.868	76.81
312.098	82.81
312.328	87.81
312.557	81.81
312.787	88.81
313.017	71.81
313.246	85.81
313.476	82.81
313.706	89.81
313.935	78.81
314.165	77.81
314.394	70.81
314.624	77.81
314.853	90.81
315.083	101.81
315.312	98.81
315.542	92.81
315.771	85.81
316.001	81.81
316.23	75.81
316.46	95.81
316.689	93.81
316.919	88.81
317.148	69.81
317.377	76.81
317.607	82.81
317.836	86.81
318.065	73.81
318.295	78.81
318.524	86.81
318.753	76.81
318.983	74.81
319.212	71.81
319.441	74.81
319.67	91.81
319.9	92.81
320.129	85.81
320.358	84.81
320.587	84.81
320.816	84.81
321.046	80.81
321.275	80.81
321.504	85.81
321.733	80.81
321.962	76.81
322.191	79.81
322.42	78.81
322.649	81.81
322.878	87.81
323.108	92.81
323.337	89.81
323.566	78.81
323.795	74.81
324.024	85.81
324.253	87.81
324.482	82.81
324.71	81.81
324.939	80.81
325.168	86.81
325.397	88.81
325.626	81.81
325.855	83.81
326.084	87.81
326.313	81.81
326.542	74.81
326.77	68.81
326.999	80.81
327.228	90.81
327.457	76.81
327.686	92.81
327.914	78.81
328.143	87.81
328.372	101.81
328.6	98.81
328.829	86.81
329.058	92.81
329.287	78.81
329.515	78.81
329.744	86.81
329.972	90.81
330.201	73.81
330.43	80.81
330.658	74.81
330.887	82.81
331.115	86.81
331.344	84.81
331.572	84.81
331.801	73.81
332.03	79.81
332.258	78.81
332.486	87.81
332.715	96.81
332.943	83.81
333.172	98.81
333.4	89.81
333.629	97.81
333.857	87.81
334.085	80.81
334.314	85.81
334.542	86.81
334.771	81.81
334.999	83.81
335.227	90.81
335.455	80.81
335.684	90.81
335.912	71.81
336.14	81.81
336.369	82.81
336.597	90.81
336.825	81.81
337.053	72.81
337.281	68.81
337.51	78.81
337.738	82.81
337.966	72.81
338.194	70.81
338.422	81.81
338.65	92.81
338.878	99.81
339.106	74.81
339.334	90.81
339.562	77.81
339.79	84.81
340.018	92.81
340.246	72.81
340.474	80.81
340.702	80.81
340.93	83.81
341.158	68.81
341.386	85.81
341.614	69.81
341.842	80.81
342.07	78.81
342.298	96.81
342.526	81.81
342.754	72.81
342.981	94.81
343.209	80.81
343.437	84.81
343.665	82.81
343.893	76.81
344.12	87.81
344.348	82.81
344.576	73.81
344.804	97.81
345.031	75.81
345.259	81.81
345.487	72.81
345.714	80.81
345.942	81.81
346.17	78.81
346.397	86.81
346.625	75.81
346.853	81.81
347.08	76.81
347.308	85.81
347.535	99.81
347.763	89.81
347.99	88.81
348.218	85.81
348.445	91.81
348.673	75.81
348.9	80.81
349.128	86.81
349.355	66.81
349.583	94.81
349.81	83.81
350.037	94.81
350.265	74.81
350.492	73.81
350.72	79.81
350.947	80.81
351.174	80.81
351.402	87.81
351.629	86.81
351.856	78.81
352.083	93.81
352.311	68.81
352.538	78.81
352.765	83.81
352.992	86.81
353.22	79.81
353.447	92.81
353.674	84.81
353.901	80.81
354.128	74.81
354.355	66.81
354.583	86.81
354.81	69.81
355.037	98.81
355.264	94.81
355.491	88.81
355.718	73.81
355.945	84.81
356.172	81.81
356.399	78.81
356.626	85.81
356.853	64.81
357.08	73.81
357.307	73.81
357.534	81.81
357.761	68.81
357.988	85.81
358.215	83.81
358.441	80.81
358.668	81.81
358.895	86.81
359.122	92.81
359.349	88.81
359.576	74.81
359.802	86.81
360.029	83.81
360.256	74.81
360.483	73.81
360.709	72.81
360.936	89.81
361.163	81.81
361.39	81.81
361.616	73.81
361.843	72.81
362.07	87.81
362.296	92.81
362.523	84.81
362.749	70.81
362.976	83.81
363.203	87.81
363.429	70.81
363.656	84.81
363.882	77.81
364.109	86.81
364.335	89.81
364.562	68.81
364.788	78.81
365.015	81.81
365.241	76.81
365.468	76.81
365.694	73.81
365.92	78.81
366.147	79.81
366.373	74.81
366.599	68.81
366.826	80.81
367.052	85.81
367.278	82.81
367.505	91.81
367.731	92.81
367.957	85.81
368.184	73.81
368.41	72.81
368.636	84.81
368.862	68.81
369.089	80.81
369.315	75.81
369.541	69.81
369.767	84.81
369.993	91.81
370.219	65.81
370.445	80.81
370.672	85.81
370.898	72.81
371.124	83.81
371.35	85.81
371.576	97.81
371.802	64.81
372.028	80.81
372.254	65.81
372.48	83.81
372.706	73.81
372.932	61.81
373.158	92.81
373.384	74.81
373.61	86.81
373.835	90.81
374.061	70.81
374.287	98.81
374.513	80.81
374.739	86.81
374.965	68.81
375.191	91.81
375.416	77.81
375.642	79.81
375.868	86.81
376.094	94.81
376.319	83.81
376.545	83.81
376.771	87.81
376.997	79.81
377.222	86.81
377.448	74.81
377.674	70.81
377.899	83.81
378.125	89.81
378.35	74.81
378.576	91.81
378.802	71.81
379.027	89.81
379.253	70.81
379.478	68.81
379.704	73.81
379.929	64.81
380.155	88.81
380.38	82.81
380.606	88.81
380.831	85.81
381.057	75.81
381.282	80.81
381.507	73.81
381.733	69.81
381.958	92.81
382.184	91.81
382.409	80.81
382.634	94.81
382.86	86.81
383.085	76.81
383.31	72.81
383.535	92.81
383.761	83.81
383.986	94.81
384.211	64.81
384.436	73.81
384.662	76.81
384.887	62.81
385.112	79.81
385.337	76.81
385.562	81.81
385.787	87.81
386.013	86.81
386.238	80.81
386.463	80.81
386.688	83.81
386.913	74.81
387.138	72.81
387.363	85.81
387.588	87.81
387.813	88.81
388.038	81.81
388.263	91.81
388.488	73.81
388.713	89.81
388.938	63.81
389.163	68.81
389.387	84.81
389.612	72.81
389.837	73.81
390.062	87.81
390.287	81.81
390.512	74.81
390.736	84.81
390.961	71.81
391.186	74.81
391.411	90.81
391.636	93.81
391.86	74.81
392.085	86.81
392.31	76.81
392.534	90.81
392.759	92.81
392.984	94.81
393.208	119.81
393.433	168.81
393.658	139.81
393.882	80.81
394.107	73.81
394.331	96.81
394.556	77.81
394.78	88.81
395.005	93.81
395.229	66.81
395.454	66.81
395.678	85.81
395.903	92.81
396.127	95.81
396.352	86.81
396.576	100.81
396.801	112.81
397.025	124.81
397.249	92.81
397.474	83.81
397.698	84.81
397.922	72.81
398.147	87.81
398.371	74.81
398.595	84.81
398.82	79.81
399.044	64.81
399.268	63.81
399.492	79.81
399.717	85.81
399.941	73.81
400.165	84.81
400.389	86.81
400.613	69.81
400.837	74.81
401.062	77.81
401.286	78.81
401.51	75.81
401.734	82.81
401.958	59.81
402.182	89.81
402.406	87.81
402.63	80.81
402.854	66.81
403.078	72.81
403.302	87.81
403.526	66.81
403.75	74.81
403.974	86.81
404.198	81.81
404.422	78.81
404.645	107.81
404.869	100.81
405.093	80.81
405.317	72.81
405.541	88.81
405.765	79.81
405.988	83.81
406.212	81.81
406.436	74.81
406.66	72.81
406.883	61.81
407.107	72.81
407.331	78.81
407.555	78.81
407.778	94.81
408.002	85.81
408.226	94.81
408.449	73.81
408.673	79.81
408.896	76.81
409.12	84.81
409.344	90.81
409.567	66.81
409.791	75.81
410.014	74.81
410.238	76.81
410.461	80.81
410.685	106.81
410.908	88.81
411.132	72.81
411.355	85.81
411.578	72.81
411.802	91.81
412.025	87.81
412.249	76.81
412.472	73.81
412.695	88.81
412.919	81.81
413.142	78.81
413.365	87.81
413.589	63.81
413.812	60.81
414.035	86.81
414.258	84.81
414.482	87.81
414.705	80.81
414.928	86.81
415.151	85.81
415.374	85.81
415.597	76.81
415.821	70.81
416.044	70.81
416.267	99.81
416.49	72.81
416.713	71.81
416.936	82.81
417.159	76.81
417.382	78.81
417.605	74.81
417.828	82.81
418.051	84.81
418.274	74.81
418.497	76.81
418.72	81.81
418.943	76.81
419.166	85.81
419.389	86.81
419.611	79.81
419.834	77.81
420.057	68.81
420.28	84.81
420.503	84.81
420.726	72.81
420.948	82.81
421.171	79.81
421.394	90.81
421.617	81.81
421.839	86.81
422.062	73.81
422.285	73.81
422.507	98.81
422.73	156.81
422.953	137.81
423.175	102.81
423.398	90.81
423.621	93.81
423.843	81.81
424.066	68.81
424.288	76.81
424.511	65.81
424.733	80.81
424.956	76.81
425.178	84.81
425.401	67.81
425.623	78.81
425.846	84.81
426.068	77.81
426.291	74.81
426.513	88.81
426.735	100.81
426.958	65.81
427.18	76.81
427.402	79.81
427.625	72.81
427.847	76.81
428.069	72.81
428.292	72.81
428.514	91.81
428.736	87.81
428.958	82.81
429.181	88.81
429.403	67.81
429.625	64.81
429.847	73.81
430.069	89.81
430.292	88.81
430.514	99.81
430.736	87.81
430.958	95.81
431.18	92.81
431.402	97.81
431.624	89.81
431.846	70.81
432.068	80.81
432.29	84.81
432.512	69.81
432.734	72.81
432.956	73.81
433.178	76.81
433.4	77.81
433.622	69.81
433.844	85.81
434.066	57.81
434.287	70.81
434.509	67.81
434.731	81.81
434.953	80.81
435.175	76.81
435.397	79.81
435.618	87.81
435.84	75.81
436.062	75.81
436.284	80.81
436.505	90.81
436.727	77.81
436.949	76.81
437.17	76.81
437.392	78.81
437.614	69.81
437.835	68.81
438.057	64.81
438.278	87.81
438.5	72.81
438.721	90.81
438.943	78.81
439.165	77.81
439.386	75.81
439.608	74.81
439.829	74.81
440.05	73.81
440.272	66.81
440.493	87.81
440.715	88.81
440.936	84.81
441.158	77.81
441.379	83.81
441.6	76.81
441.822	71.81
442.043	89.81
442.264	78.81
442.486	73.81
442.707	88.81
442.928	81.81
443.149	92.81
443.371	103.81
443.592	81.81
443.813	73.81
444.034	82.81
444.255	68.81
444.476	66.81
444.698	89.81
444.919	83.81
445.14	154.81
445.361	120.81
445.582	96.81
445.803	98.81
446.024	78.81
446.245	78.81
446.466	62.81
446.687	82.81
446.908	87.81
447.129	87.81
447.35	77.81
447.571	79.81
447.792	89.81
448.013	75.81
448.234	82.81
448.455	90.81
448.675	70.81
448.896	85.81
449.117	86.81
449.338	95.81
449.559	71.81
449.779	69.81
450	79.81
450.221	84.81
450.442	63.81
450.662	64.81
450.883	69.81
451.104	81.81
451.324	85.81
451.545	71.81
451.766	88.81
451.986	86.81
452.207	82.81
452.428	84.81
452.648	77.81
452.869	75.81
453.089	84.81
453.31	79.81
453.53	92.81
453.751	88.81
453.971	80.81
454.192	88.81
454.412	82.81
454.633	75.81
454.853	71.81
455.073	80.81
455.294	85.81
455.514	71.81
455.734	86.81
455.955	75.81
456.175	77.81
456.395	72.81
456.616	71.81
456.836	86.81
457.056	80.81
457.276	73.81
457.497	69.81
457.717	75.81
457.937	74.81
458.157	86.81
458.377	74.81
458.598	78.81
458.818	82.81
459.038	90.81
459.258	73.81
459.478	80.81
459.698	88.81
459.918	83.81
460.138	84.81
460.358	89.81
460.578	84.81
460.798	66.81
461.018	82.81
461.238	80.81
461.458	81.81
461.678	79.81
461.898	87.81
462.118	93.81
462.338	84.81
462.558	86.81
462.777	86.81
462.997	87.81
463.217	70.81
463.437	88.81
463.657	78.81
463.876	82.81
464.096	71.81
464.316	83.81
464.536	80.81
464.755	88.81
464.975	81.81
465.195	76.81
465.414	80.81
465.634	78.81
465.854	77.81
466.073	73.81
466.293	70.81
466.512	71.81
466.732	73.81
466.951	92.81
467.171	92.81
467.391	90.81
467.61	70.81
467.829	60.81
468.049	72.81
468.268	78.81
468.488	76.81
468.707	67.81
468.927	73.81
469.146	82.81
469.365	77.81
469.585	69.81
469.804	83.81
470.023	76.81
470.243	92.81
470.462	68.81
470.681	77.81
470.901	97.81
471.12	98.81
471.339	74.81
471.558	75.81
471.777	74.81
471.997	73.81
472.216	65.81
472.435	80.81
472.654	88.81
472.873	71.81
473.092	75.81
473.311	80.81
473.53	82.81
473.749	74.81
473.968	94.81
474.187	75.81
474.406	85.81
474.625	80.81
474.844	88.81
475.063	80.81
475.282	81.81
475.501	77.81
475.72	69.81
475.939	67.81
476.158	58.81
476.377	79.81
476.596	94.81
476.814	84.81
477.033	77.81
477.252	71.81
477.471	84.81
477.69	72.81
477.908	85.81
478.127	83.81
478.346	73.81
478.564	80.81
478.783	91.81
479.002	81.81
479.22	75.81
479.439	93.81
479.658	84.81
479.876	79.81
480.095	85.81
480.313	77.81
480.532	78.81
480.751	79.81
480.969	70.81
481.188	96.81
481.406	77.81
481.624	72.81
481.843	96.81
482.061	81.81
482.28	90.81
482.498	85.81
482.717	82.81
482.935	77.81
483.153	82.81
483.372	77.81
483.59	82.81
483.808	84.81
484.027	78.81
484.245	84.81
484.463	77.81
484.681	81.81
484.9	77.81
485.118	83.81
485.336	72.81
485.554	79.81
485.772	74.81
485.99	76.81
486.209	88.81
486.427	77.81
486.645	74.81
486.863	94.81
487.081	78.81
487.299	78.81
487.517	83.81
487.735	80.81
487.953	97.81
488.171	97.81
488.389	97.81
488.607	77.81
488.825	70.81
489.043	78.81
489.261	92.81
489.479	87.81
489.696	69.81
489.914	67.81
490.132	72.81
490.35	92.81
490.568	88.81
490.786	86.81
491.003	74.81
491.221	74.81
491.439	95.81
491.657	92.81
491.874	81.81
492.092	80.81
492.31	85.81
492.527	70.81
492.745	73.81
492.963	91.81
493.18	84.81
493.398	86.81
493.615	91.81
493.833	79.81
494.05	71.81
494.268	84.81
494.485	81.81
494.703	87.81
494.92	89.81
495.138	90.81
495.355	85.81
495.573	80.81
495.79	81.81
496.008	93.81
496.225	70.81
496.442	80.81
496.66	85.81
496.877	81.81
497.094	92.81
497.312	74.81
497.529	66.81
497.746	89.81
497.963	70.81
498.181	73.81
498.398	75.81
498.615	87.81
498.832	69.81
499.049	73.81
499.267	93.81
499.484	70.81
499.701	73.81
499.918	81.81
500.135	70.81
500.352	73.81
500.569	72.81
500.786	72.81
501.003	89.81
501.22	75.81
501.437	86.81
501.654	77.81
501.871	98.81
502.088	95.81
502.305	82.81
502.522	78.81
502.739	81.81
502.956	88.81
503.172	97.81
503.389	87.81
503.606	73.81
503.823	81.81
504.04	67.81
504.256	76.81
504.473	76.81
504.69	91.81
504.907	92.81
505.123	83.81
505.34	75.81
505.557	73.81
505.773	84.81
505.99	82.81
506.207	88.81
506.423	91.81
506.64	87.81
506.856	77.81
507.073	73.81
507.289	72.81
507.506	89.81
507.722	97.81
507.939	61.81
508.155	77.81
508.372	71.81
508.588	77.81
508.805	82.81
509.021	81.81
509.238	91.81
509.454	80.81
509.67	85.81
509.887	84.81
510.103	74.81
510.319	86.81
510.536	78.81
510.752	78.81
510.968	79.81
511.184	68.81
511.401	62.81
511.617	94.81
511.833	72.81
512.049	83.81
512.265	73.81
512.481	77.81
512.698	85.81
512.914	89.81
513.13	81.81
513.346	89.81
513.562	87.81
513.778	81.81
513.994	66.81
514.21	83.81
514.426	70.81
514.642	87.81
514.858	84.81
515.074	74.81
515.29	87.81
515.506	64.81
515.721	84.81
515.937	78.81
516.153	83.81
516.369	84.81
516.585	76.81
516.801	79.81
517.016	58.81
517.232	68.81
517.448	74.81
517.664	75.81
517.879	92.81
518.095	91.81
518.311	67.81
518.527	70.81
518.742	86.81
518.958	80.81
519.173	89.81
519.389	80.81
519.605	62.81
519.82	85.81
520.036	101.81
