Data from 15780_3_HRD10591_00014.txt Node
Date: Mon Jan 19 14:20:05 EST 2026
User: Yrep
Spectrometer: HR+D1059
Trigger mode: 1
Integration Time (sec): 1.000000E-1
Scans to average: 1
Electric dark correction enabled: true
Nonlinearity correction enabled: false
Boxcar width: 0
XAxis mode: Wavelengths
Number of Pixels in Spectrum: 2048
>>>>>Begin Spectral Data<<<<<
223.165	-7
223.4	-7
223.635	-7
223.869	-9
224.104	-23
224.338	-21
224.573	-26
224.808	-15
225.042	-10
225.277	-7
225.511	2
225.746	13
225.98	6
226.215	16
226.449	10
226.683	15
226.918	25
227.152	31
227.387	32
227.621	45
227.856	43
228.09	40
228.324	42
228.559	57
228.793	63
229.027	57
229.262	57
229.496	78
229.73	61
229.964	63
230.199	67
230.433	86
230.667	89
230.901	77
231.136	87
231.37	79
231.604	76
231.838	75
232.072	83
232.306	78
232.541	82
232.775	80
233.009	87
233.243	82
233.477	88
233.711	67
233.945	84
234.179	79
234.413	81
234.647	71
234.881	84
235.115	75
235.349	75
235.583	71
235.817	90
236.051	85
236.285	69
236.519	85
236.753	84
236.987	79
237.221	74
237.455	71
237.689	71
237.922	76
238.156	73
238.39	53
238.624	77
238.858	88
239.091	69
239.325	69
239.559	66
239.793	65
240.027	81
240.26	70
240.494	83
240.728	64
240.961	75
241.195	75
241.429	85
241.662	57
241.896	70
242.13	67
242.363	79
242.597	73
242.83	65
243.064	75
243.298	81
243.531	73
243.765	71
243.998	86
244.232	89
244.465	75
244.699	83
244.932	87
245.166	79
245.399	74
245.633	85
245.866	73
246.099	78
246.333	70
246.566	82
246.8	71
247.033	90
247.266	73
247.5	79
247.733	67
247.966	69
248.2	70
248.433	85
248.666	79
248.899	88
249.133	74
249.366	90
249.599	86
249.832	62
250.066	89
250.299	83
250.532	86
250.765	83
250.998	82
251.231	77
251.465	87
251.698	84
251.931	76
252.164	75
252.397	83
252.63	74
252.863	81
253.096	74
253.329	72
253.562	83
253.795	86
254.028	74
254.261	77
254.494	79
254.727	84
254.96	83
255.193	87
255.426	81
255.659	87
255.892	84
256.124	86
256.357	77
256.59	87
256.823	69
257.056	73
257.289	84
257.521	77
257.754	81
257.987	71
258.22	91
258.452	70
258.685	83
258.918	93
259.151	90
259.383	74
259.616	89
259.849	89
260.081	70
260.314	93
260.547	72
260.779	77
261.012	82
261.244	90
261.477	98
261.71	87
261.942	74
262.175	74
262.407	88
262.64	76
262.872	78
263.105	67
263.337	88
263.57	81
263.802	88
264.035	101
264.267	83
264.499	76
264.732	73
264.964	80
265.197	71
265.429	99
265.661	86
265.894	87
266.126	86
266.358	88
266.591	73
266.823	78
267.055	76
267.287	83
267.52	83
267.752	93
267.984	81
268.216	88
268.448	87
268.681	85
268.913	77
269.145	90
269.377	81
269.609	66
269.841	81
270.073	80
270.306	97
270.538	88
270.77	81
271.002	67
271.234	75
271.466	66
271.698	87
271.93	79
272.162	86
272.394	83
272.626	80
272.858	79
273.09	90
273.322	93
273.553	82
273.785	97
274.017	87
274.249	80
274.481	94
274.713	89
274.945	86
275.176	87
275.408	89
275.64	70
275.872	79
276.104	81
276.335	90
276.567	74
276.799	85
277.031	85
277.262	83
277.494	102
277.726	83
277.957	94
278.189	85
278.421	74
278.652	81
278.884	85
279.115	79
279.347	102
279.579	77
279.81	81
280.042	85
280.273	77
280.505	103
280.736	85
280.968	72
281.199	70
281.431	82
281.662	87
281.894	73
282.125	81
282.356	81
282.588	81
282.819	78
283.051	74
283.282	76
283.513	93
283.745	85
283.976	91
284.207	84
284.439	89
284.67	75
284.901	85
285.132	95
285.364	90
285.595	83
285.826	84
286.057	88
286.288	76
286.52	87
286.751	76
286.982	95
287.213	88
287.444	82
287.675	81
287.906	75
288.138	82
288.369	74
288.6	98
288.831	92
289.062	91
289.293	69
289.524	57
289.755	88
289.986	85
290.217	76
290.448	87
290.679	75
290.91	79
291.141	93
291.371	83
291.602	87
291.833	86
292.064	99
292.295	92
292.526	81
292.757	101
292.987	85
293.218	76
293.449	87
293.68	85
293.91	94
294.141	82
294.372	82
294.603	96
294.833	84
295.064	85
295.295	89
295.525	89
295.756	84
295.987	90
296.217	81
296.448	81
296.679	85
296.909	83
297.14	100
297.37	85
297.601	79
297.831	100
298.062	72
298.292	90
298.523	87
298.753	80
298.984	87
299.214	98
299.445	85
299.675	100
299.905	89
300.136	82
300.366	81
300.597	92
300.827	101
301.057	92
301.288	94
301.518	76
301.748	100
301.979	99
302.209	100
302.439	94
302.669	93
302.9	80
303.13	76
303.36	96
303.59	91
303.82	91
304.051	86
304.281	97
304.511	84
304.741	91
304.971	95
305.201	90
305.431	83
305.661	90
305.891	92
306.121	79
306.352	89
306.582	91
306.812	98
307.042	74
307.272	96
307.502	82
307.731	111
307.961	102
308.191	111
308.421	106
308.651	84
308.881	88
309.111	100
309.341	118
309.571	116
309.8	103
310.03	100
310.26	97
310.49	94
310.72	93
310.949	95
311.179	76
311.409	68
311.639	99
311.868	91
312.098	103
312.328	89
312.557	72
312.787	93
313.017	90
313.246	86
313.476	81
313.706	86
313.935	89
314.165	97
314.394	83
314.624	83
314.853	97
315.083	84
315.312	84
315.542	91
315.771	115
316.001	114
316.23	103
316.46	88
316.689	81
316.919	84
317.148	87
317.377	96
317.607	87
317.836	109
318.065	109
318.295	106
318.524	83
318.753	87
318.983	103
319.212	96
319.441	74
319.67	81
319.9	99
320.129	81
320.358	82
320.587	98
320.816	88
321.046	81
321.275	89
321.504	99
321.733	93
321.962	81
322.191	99
322.42	81
322.649	103
322.878	106
323.108	93
323.337	103
323.566	82
323.795	101
324.024	98
324.253	93
324.482	97
324.71	101
324.939	102
325.168	105
325.397	84
325.626	92
325.855	82
326.084	79
326.313	87
326.542	89
326.77	89
326.999	91
327.228	93
327.457	90
327.686	96
327.914	98
328.143	95
328.372	87
328.6	90
328.829	101
329.058	99
329.287	77
329.515	99
329.744	82
329.972	83
330.201	89
330.43	98
330.658	88
330.887	79
331.115	83
331.344	75
331.572	85
331.801	82
332.03	77
332.258	84
332.486	75
332.715	75
332.943	97
333.172	86
333.4	82
333.629	93
333.857	101
334.085	95
334.314	94
334.542	88
334.771	101
334.999	113
335.227	97
335.455	88
335.684	95
335.912	101
336.14	105
336.369	104
336.597	89
336.825	83
337.053	86
337.281	97
337.51	99
337.738	99
337.966	87
338.194	95
338.422	84
338.65	91
338.878	101
339.106	93
339.334	86
339.562	95
339.79	95
340.018	79
340.246	89
340.474	84
340.702	97
340.93	89
341.158	90
341.386	92
341.614	89
341.842	84
342.07	91
342.298	101
342.526	87
342.754	69
342.981	83
343.209	69
343.437	103
343.665	75
343.893	97
344.12	110
344.348	104
344.576	91
344.804	104
345.031	99
345.259	72
345.487	82
345.714	88
345.942	85
346.17	77
346.397	101
346.625	93
346.853	85
347.08	86
347.308	82
347.535	105
347.763	112
347.99	85
348.218	97
348.445	91
348.673	101
348.9	101
349.128	89
349.355	97
349.583	90
349.81	88
350.037	89
350.265	96
350.492	74
350.72	90
350.947	81
351.174	80
351.402	88
351.629	88
351.856	88
352.083	85
352.311	84
352.538	94
352.765	92
352.992	97
353.22	88
353.447	91
353.674	72
353.901	77
354.128	100
354.355	99
354.583	87
354.81	95
355.037	85
355.264	89
355.491	98
355.718	92
355.945	102
356.172	102
356.399	89
356.626	108
356.853	98
357.08	105
357.307	107
357.534	99
357.761	99
357.988	114
358.215	126
358.441	122
358.668	112
358.895	99
359.122	92
359.349	88
359.576	83
359.802	88
360.029	101
360.256	84
360.483	97
360.709	109
360.936	106
361.163	105
361.39	92
361.616	85
361.843	105
362.07	105
362.296	107
362.523	117
362.749	116
362.976	121
363.203	154
363.429	123
363.656	117
363.882	108
364.109	133
364.335	166
364.562	170
364.788	133
365.015	115
365.241	115
365.468	112
365.694	105
365.92	98
366.147	85
366.373	81
366.599	96
366.826	82
367.052	82
367.278	81
367.505	75
367.731	95
367.957	105
368.184	100
368.41	92
368.636	99
368.862	111
369.089	106
369.315	85
369.541	88
369.767	77
369.993	85
370.219	79
370.445	98
370.672	106
370.898	108
371.124	93
371.35	79
371.576	87
371.802	97
372.028	123
372.254	111
372.48	102
372.706	95
372.932	122
373.158	107
373.384	134
373.61	157
373.835	152
374.061	112
374.287	115
374.513	118
374.739	138
374.965	118
375.191	106
375.416	102
375.642	100
375.868	116
376.094	107
376.319	104
376.545	118
376.771	113
376.997	85
377.222	101
377.448	99
377.674	79
377.899	93
378.125	84
378.35	91
378.576	83
378.802	89
379.027	90
379.253	92
379.478	97
379.704	97
379.929	103
380.155	89
380.38	83
380.606	96
380.831	89
381.057	95
381.282	103
381.507	106
381.733	118
381.958	117
382.184	113
382.409	122
382.634	125
382.86	130
383.085	130
383.31	130
383.535	126
383.761	120
383.986	135
384.211	116
384.436	104
384.662	113
384.887	123
385.112	118
385.337	117
385.562	116
385.787	127
386.013	139
386.238	119
386.463	114
386.688	113
386.913	103
387.138	113
387.363	120
387.588	135
387.813	123
388.038	111
388.263	127
388.488	130
388.713	119
388.938	102
389.163	102
389.387	87
389.612	98
389.837	93
390.062	107
390.287	100
390.512	113
390.736	94
390.961	90
391.186	83
391.411	89
391.636	106
391.86	102
392.085	118
392.31	120
392.534	121
392.759	156
392.984	241
393.208	474
393.433	697
393.658	527
393.882	225
394.107	157
394.331	165
394.556	202
394.78	143
395.005	115
395.229	109
395.454	125
395.678	120
395.903	170
396.127	216
396.352	285
396.576	281
396.801	462
397.025	558
397.249	277
397.474	181
397.698	133
397.922	113
398.147	104
398.371	93
398.595	101
398.82	101
399.044	97
399.268	94
399.492	109
399.717	98
399.941	106
400.165	107
400.389	81
400.613	101
400.837	106
401.062	101
401.286	99
401.51	86
401.734	98
401.958	98
402.182	93
402.406	103
402.63	75
402.854	102
403.078	93
403.302	104
403.526	100
403.75	92
403.974	90
404.198	81
404.422	100
404.645	116
404.869	113
405.093	87
405.317	82
405.541	101
405.765	83
405.988	93
406.212	98
406.436	106
406.66	116
406.883	95
407.107	110
407.331	113
407.555	132
407.778	140
408.002	155
408.226	110
408.449	102
408.673	98
408.896	100
409.12	89
409.344	102
409.567	121
409.791	115
410.014	103
410.238	109
410.461	113
410.685	96
410.908	106
411.132	101
411.355	84
411.578	99
411.802	79
412.025	87
412.249	74
412.472	81
412.695	95
412.919	79
413.142	100
413.365	97
413.589	87
413.812	92
414.035	87
414.258	70
414.482	102
414.705	95
414.928	102
415.151	71
415.374	76
415.597	84
415.821	83
416.044	88
416.267	92
416.49	90
416.713	75
416.936	88
417.159	93
417.382	91
417.605	93
417.828	79
418.051	89
418.274	104
418.497	99
418.72	82
418.943	94
419.166	90
419.389	86
419.611	102
419.834	107
420.057	97
420.28	106
420.503	95
420.726	90
420.948	98
421.171	125
421.394	127
421.617	161
421.839	160
422.062	166
422.285	217
422.507	372
422.73	631
422.953	530
423.175	264
423.398	155
423.621	130
423.843	119
424.066	113
424.288	103
424.511	104
424.733	99
424.956	97
425.178	114
425.401	97
425.623	109
425.846	97
426.068	100
426.291	99
426.513	106
426.735	93
426.958	86
427.18	99
427.402	98
427.625	106
427.847	93
428.069	106
428.292	173
428.514	194
428.736	144
428.958	169
429.181	158
429.403	115
429.625	130
429.847	163
430.069	242
430.292	275
430.514	253
430.736	203
430.958	187
431.18	140
431.402	101
431.624	105
431.846	141
432.068	185
432.29	110
432.512	100
432.734	115
432.956	91
433.178	100
433.4	91
433.622	90
433.844	94
434.066	89
434.287	99
434.509	93
434.731	95
434.953	97
435.175	98
435.397	91
435.618	109
435.84	87
436.062	93
436.284	88
436.505	78
436.727	72
436.949	98
437.17	80
437.392	95
437.614	85
437.835	101
438.057	93
438.278	97
438.5	129
438.721	107
438.943	97
439.165	95
439.386	91
439.608	80
439.829	97
440.05	93
440.272	102
440.493	97
440.715	111
440.936	102
441.158	99
441.379	82
441.6	85
441.822	98
442.043	104
442.264	107
442.486	176
442.707	232
442.928	162
443.149	129
443.371	201
443.592	379
443.813	306
444.034	126
444.255	97
444.476	95
444.698	104
444.919	90
445.14	197
445.361	273
445.582	447
445.803	379
446.024	151
446.245	96
446.466	96
446.687	91
446.908	87
447.129	81
447.35	71
447.571	85
447.792	91
448.013	95
448.234	81
448.455	98
448.675	77
448.896	74
449.117	86
449.338	77
449.559	89
449.779	87
450	85
450.221	90
450.442	98
450.662	89
450.883	87
451.104	89
451.324	101
451.545	95
451.766	97
451.986	79
452.207	91
452.428	102
452.648	116
452.869	131
453.089	103
453.31	111
453.53	126
453.751	122
453.971	79
454.192	92
454.412	89
454.633	109
454.853	101
455.073	82
455.294	81
455.514	110
455.734	115
455.955	82
456.175	81
456.395	81
456.616	83
456.836	93
457.056	89
457.276	85
457.497	88
457.717	107
457.937	117
458.157	147
458.377	151
458.598	153
458.818	165
459.038	113
459.258	87
459.478	93
459.698	90
459.918	92
460.138	85
460.358	100
460.578	113
460.798	150
461.018	145
461.238	111
461.458	85
461.678	87
461.898	91
462.118	102
462.338	96
462.558	84
462.777	81
462.997	82
463.217	88
463.437	87
463.657	92
463.876	80
464.096	90
464.316	79
464.536	97
464.755	95
464.975	86
465.195	89
465.414	95
465.634	99
465.854	96
466.073	81
466.293	87
466.512	90
466.732	74
466.951	93
467.171	80
467.391	77
467.61	108
467.829	97
468.049	88
468.268	82
468.488	90
468.707	97
468.927	95
469.146	89
469.365	96
469.585	79
469.804	74
470.023	91
470.243	98
470.462	97
470.681	79
470.901	99
471.12	89
471.339	103
471.558	98
471.777	70
471.997	90
472.216	98
472.435	95
472.654	85
472.873	98
473.092	90
473.311	87
473.53	88
473.749	79
473.968	93
474.187	79
474.406	90
474.625	83
474.844	101
475.063	88
475.282	87
475.501	89
475.72	88
475.939	85
476.158	91
476.377	92
476.596	101
476.814	95
477.033	85
477.252	89
477.471	82
477.69	102
477.908	95
478.127	75
478.346	81
478.564	94
478.783	77
479.002	92
479.22	99
479.439	96
479.658	85
479.876	97
480.095	89
480.313	90
480.532	111
480.751	99
480.969	84
481.188	93
481.406	102
481.624	110
481.843	106
482.061	100
482.28	89
482.498	91
482.717	84
482.935	103
483.153	106
483.372	97
483.59	94
483.808	79
484.027	85
484.245	104
484.463	104
484.681	122
484.9	117
485.118	102
485.336	109
485.554	97
485.772	105
485.99	90
486.209	87
486.427	89
486.645	108
486.863	96
487.081	103
487.299	113
487.517	106
487.735	154
487.953	255
488.171	191
488.389	88
488.607	93
488.825	90
489.043	109
489.261	97
489.479	101
489.696	90
489.914	93
490.132	97
490.35	97
490.568	94
490.786	98
491.003	111
491.221	103
491.439	77
491.657	87
491.874	94
492.092	98
492.31	102
492.527	89
492.745	106
492.963	105
493.18	91
493.398	96
493.615	125
493.833	109
494.05	91
494.268	93
494.485	94
494.703	93
494.92	100
495.138	85
495.355	85
495.573	105
495.79	105
496.008	114
496.225	111
496.442	115
496.66	98
496.877	101
497.094	106
497.312	90
497.529	92
497.746	78
497.963	83
498.181	119
498.398	156
498.615	117
498.832	89
499.049	110
499.267	144
499.484	119
499.701	102
499.918	109
500.135	125
500.352	93
500.569	89
500.786	123
501.003	125
501.22	109
501.437	110
501.654	110
501.871	98
502.088	95
502.305	103
502.522	111
502.739	109
502.956	93
503.172	90
503.389	92
503.606	100
503.823	125
504.04	139
504.256	190
504.473	175
504.69	107
504.907	100
505.123	91
505.34	101
505.557	87
505.773	93
505.99	104
506.207	72
506.423	91
506.64	121
506.856	96
507.073	103
507.289	103
507.506	98
507.722	95
507.939	110
508.155	87
508.372	117
508.588	98
508.805	89
509.021	98
509.238	95
509.454	98
509.67	94
509.887	98
510.103	111
510.319	110
510.536	110
510.752	74
510.968	95
511.184	103
511.401	90
511.617	106
511.833	82
512.049	101
512.265	101
512.481	96
512.698	105
512.914	93
513.13	97
513.346	91
513.562	106
513.778	105
513.994	96
514.21	101
514.426	100
514.642	94
514.858	95
515.074	93
515.29	98
515.506	89
515.721	95
515.937	87
516.153	76
516.369	97
516.585	100
516.801	109
517.016	113
517.232	111
517.448	138
517.664	107
517.879	109
518.095	91
518.311	98
518.527	162
518.742	142
518.958	228
519.173	240
519.389	138
519.605	111
519.82	107
520.036	90
520.251	94
520.467	94
520.682	96
520.898	109
521.113	112
521.329	107
521.544	88
521.76	106
521.975	89
522.19	89
522.406	91
522.621	100
522.836	113
523.052	106
523.267	106
523.482	97
523.698	94
523.913	99
524.128	95
524.343	96
524.559	111
524.774	92
524.989	97
525.204	102
525.419	100
525.634	111
525.849	115
526.064	163
526.28	344
526.495	517
526.71	507
526.925	350
527.14	467
527.355	372
527.57	135
527.785	109
527.999	96
528.214	103
528.429	97
528.644	111
528.859	99
529.074	98
529.289	88
529.503	97
529.718	96
529.933	111
530.148	105
530.363	113
530.577	95
530.792	113
531.007	91
531.221	98
531.436	98
531.651	97
531.865	106
532.08	120
532.295	112
532.509	116
532.724	139
532.938	126
533.153	117
533.367	97
533.582	101
533.796	103
534.011	112
534.225	102
534.44	115
534.654	111
534.868	149
535.083	227
535.297	207
535.511	130
535.726	104
535.94	102
536.154	118
536.369	93
536.583	110
536.797	129
537.011	113
537.225	122
537.44	115
537.654	115
537.868	115
538.082	125
538.296	125
538.51	114
538.724	105
538.938	102
539.153	97
539.367	109
539.581	116
539.795	120
540.009	121
540.222	102
540.436	111
540.65	109
540.864	124
541.078	132
541.292	124
541.506	108
541.72	112
541.934	111
542.147	117
542.361	114
542.575	119
542.789	120
543.002	123
543.216	114
543.43	103
543.644	111
543.857	109
544.071	120
544.285	133
544.498	115
544.712	114
544.925	115
545.139	123
545.352	120
545.566	131
545.779	119
545.993	123
546.206	122
546.42	147
546.633	135
546.847	134
547.06	137
547.274	164
547.487	208
547.7	237
547.914	214
548.127	227
548.34	234
548.554	234
548.767	250
548.98	256
549.193	239
549.407	234
549.62	245
549.833	271
550.046	325
550.259	317
550.473	322
550.686	316
550.899	378
551.112	404
551.325	447
551.538	487
551.751	408
551.964	387
552.177	397
552.39	408
552.603	390
552.816	397
553.029	401
553.242	400
553.455	388
553.667	435
553.88	454
554.093	471
554.306	459
554.519	475
554.732	485
554.944	445
555.157	445
555.37	407
555.583	415
555.795	412
556.008	366
556.221	331
556.433	345
556.646	309
556.859	308
557.071	280
557.284	284
557.496	266
557.709	250
557.921	231
558.134	245
558.346	325
558.559	291
558.771	269
558.984	517
559.196	613
559.409	339
559.621	481
559.833	371
560.046	474
560.258	377
560.47	379
560.683	215
560.895	145
561.107	158
561.32	128
561.532	138
561.744	139
561.956	134
562.168	119
562.381	119
562.593	139
562.805	123
563.017	140
563.229	147
563.441	137
563.653	122
563.865	121
564.077	122
564.289	102
564.501	111
564.713	119
564.925	111
565.137	127
565.349	121
565.561	131
565.773	123
565.985	120
566.197	114
566.408	110
566.62	111
566.832	116
567.044	121
567.255	114
567.467	125
567.679	120
567.891	117
568.102	107
568.314	129
568.526	138
568.737	132
568.949	155
569.161	157
569.372	128
569.584	128
569.795	115
570.007	113
570.218	126
570.43	111
570.641	120
570.853	117
571.064	102
571.276	123
571.487	115
571.698	123
571.91	124
572.121	116
572.333	120
572.544	127
572.755	109
572.966	120
573.178	100
573.389	117
573.6	101
573.811	112
574.023	105
574.234	120
574.445	115
574.656	111
574.867	123
575.078	107
575.289	117
575.501	111
575.712	113
575.923	106
576.134	104
576.345	92
576.556	103
576.767	102
576.978	108
577.188	101
577.399	109
577.61	98
577.821	109
578.032	107
578.243	107
578.454	110
578.665	108
578.875	110
579.086	106
579.297	107
579.508	96
