Data from 15780_3_HRD10591_00044.txt Node
Date: Mon Jan 19 14:20:20 EST 2026
User: Yrep
Spectrometer: HR+D1059
Trigger mode: 1
Integration Time (sec): 1.000000E-1
Scans to average: 1
Electric dark correction enabled: true
Nonlinearity correction enabled: false
Boxcar width: 0
XAxis mode: Wavelengths
Number of Pixels in Spectrum: 2048
>>>>>Begin Spectral Data<<<<<
223.165	-15.38
223.4	-15.38
223.635	-15.38
223.869	-19.38
224.104	-32.38
224.338	-10.38
224.573	-14.38
224.808	-11.38
225.042	0.62
225.277	-7.38
225.511	0.62
225.746	-3.38
225.98	-1.38
226.215	13.62
226.449	10.62
226.683	32.62
226.918	25.62
227.152	31.62
227.387	28.62
227.621	44.62
227.856	29.62
228.09	46.62
228.324	39.62
228.559	58.62
228.793	50.62
229.027	64.62
229.262	67.62
229.496	77.62
229.73	68.62
229.964	75.62
230.199	74.62
230.433	59.62
230.667	72.62
230.901	82.62
231.136	81.62
231.37	81.62
231.604	74.62
231.838	75.62
232.072	78.62
232.306	80.62
232.541	76.62
232.775	84.62
233.009	70.62
233.243	87.62
233.477	82.62
233.711	67.62
233.945	64.62
234.179	65.62
234.413	74.62
234.647	68.62
234.881	69.62
235.115	74.62
235.349	65.62
235.583	87.62
235.817	81.62
236.051	91.62
236.285	76.62
236.519	58.62
236.753	75.62
236.987	71.62
237.221	74.62
237.455	71.62
237.689	90.62
237.922	84.62
238.156	89.62
238.39	84.62
238.624	68.62
238.858	84.62
239.091	75.62
239.325	64.62
239.559	59.62
239.793	68.62
240.027	72.62
240.26	81.62
240.494	67.62
240.728	76.62
240.961	73.62
241.195	78.62
241.429	77.62
241.662	89.62
241.896	73.62
242.13	80.62
242.363	84.62
242.597	87.62
242.83	76.62
243.064	80.62
243.298	81.62
243.531	69.62
243.765	83.62
243.998	75.62
244.232	84.62
244.465	73.62
244.699	81.62
244.932	84.62
245.166	75.62
245.399	71.62
245.633	75.62
245.866	80.62
246.099	78.62
246.333	77.62
246.566	86.62
246.8	85.62
247.033	76.62
247.266	70.62
247.5	92.62
247.733	73.62
247.966	85.62
248.2	79.62
248.433	89.62
248.666	77.62
248.899	83.62
249.133	88.62
249.366	90.62
249.599	81.62
249.832	89.62
250.066	78.62
250.299	74.62
250.532	73.62
250.765	81.62
250.998	87.62
251.231	89.62
251.465	68.62
251.698	69.62
251.931	87.62
252.164	85.62
252.397	78.62
252.63	84.62
252.863	74.62
253.096	93.62
253.329	89.62
253.562	71.62
253.795	76.62
254.028	70.62
254.261	87.62
254.494	77.62
254.727	77.62
254.96	78.62
255.193	75.62
255.426	67.62
255.659	88.62
255.892	71.62
256.124	72.62
256.357	84.62
256.59	79.62
256.823	75.62
257.056	87.62
257.289	73.62
257.521	83.62
257.754	75.62
257.987	84.62
258.22	83.62
258.452	84.62
258.685	84.62
258.918	76.62
259.151	91.62
259.383	76.62
259.616	79.62
259.849	75.62
260.081	90.62
260.314	70.62
260.547	73.62
260.779	80.62
261.012	77.62
261.244	72.62
261.477	94.62
261.71	78.62
261.942	80.62
262.175	77.62
262.407	83.62
262.64	68.62
262.872	83.62
263.105	86.62
263.337	74.62
263.57	83.62
263.802	80.62
264.035	90.62
264.267	86.62
264.499	94.62
264.732	96.62
264.964	82.62
265.197	80.62
265.429	75.62
265.661	73.62
265.894	76.62
266.126	77.62
266.358	82.62
266.591	95.62
266.823	83.62
267.055	73.62
267.287	77.62
267.52	72.62
267.752	75.62
267.984	92.62
268.216	76.62
268.448	91.62
268.681	81.62
268.913	85.62
269.145	75.62
269.377	81.62
269.609	87.62
269.841	85.62
270.073	76.62
270.306	93.62
270.538	76.62
270.77	72.62
271.002	86.62
271.234	80.62
271.466	82.62
271.698	81.62
271.93	80.62
272.162	78.62
272.394	89.62
272.626	83.62
272.858	88.62
273.09	94.62
273.322	83.62
273.553	92.62
273.785	78.62
274.017	83.62
274.249	69.62
274.481	76.62
274.713	90.62
274.945	89.62
275.176	81.62
275.408	78.62
275.64	79.62
275.872	86.62
276.104	77.62
276.335	93.62
276.567	81.62
276.799	83.62
277.031	82.62
277.262	86.62
277.494	71.62
277.726	81.62
277.957	83.62
278.189	92.62
278.421	68.62
278.652	65.62
278.884	97.62
279.115	96.62
279.347	100.62
279.579	84.62
279.81	97.62
280.042	72.62
280.273	86.62
280.505	99.62
280.736	76.62
280.968	77.62
281.199	75.62
281.431	81.62
281.662	81.62
281.894	83.62
282.125	88.62
282.356	88.62
282.588	77.62
282.819	101.62
283.051	78.62
283.282	84.62
283.513	89.62
283.745	70.62
283.976	74.62
284.207	70.62
284.439	81.62
284.67	84.62
284.901	81.62
285.132	94.62
285.364	91.62
285.595	95.62
285.826	90.62
286.057	90.62
286.288	80.62
286.52	79.62
286.751	82.62
286.982	74.62
287.213	75.62
287.444	90.62
287.675	91.62
287.906	85.62
288.138	73.62
288.369	96.62
288.6	84.62
288.831	78.62
289.062	84.62
289.293	71.62
289.524	76.62
289.755	87.62
289.986	93.62
290.217	85.62
290.448	92.62
290.679	84.62
290.91	88.62
291.141	81.62
291.371	91.62
291.602	82.62
291.833	90.62
292.064	88.62
292.295	90.62
292.526	85.62
292.757	72.62
292.987	91.62
293.218	85.62
293.449	87.62
293.68	84.62
293.91	88.62
294.141	79.62
294.372	73.62
294.603	87.62
294.833	83.62
295.064	87.62
295.295	83.62
295.525	75.62
295.756	92.62
295.987	87.62
296.217	81.62
296.448	90.62
296.679	84.62
296.909	93.62
297.14	93.62
297.37	87.62
297.601	76.62
297.831	97.62
298.062	93.62
298.292	90.62
298.523	95.62
298.753	83.62
298.984	72.62
299.214	91.62
299.445	96.62
299.675	93.62
299.905	96.62
300.136	86.62
300.366	96.62
300.597	85.62
300.827	104.62
301.057	93.62
301.288	88.62
301.518	81.62
301.748	95.62
301.979	116.62
302.209	101.62
302.439	93.62
302.669	81.62
302.9	76.62
303.13	84.62
303.36	86.62
303.59	91.62
303.82	88.62
304.051	88.62
304.281	91.62
304.511	80.62
304.741	82.62
304.971	77.62
305.201	82.62
305.431	83.62
305.661	83.62
305.891	87.62
306.121	77.62
306.352	84.62
306.582	85.62
306.812	78.62
307.042	72.62
307.272	76.62
307.502	72.62
307.731	89.62
307.961	100.62
308.191	100.62
308.421	97.62
308.651	90.62
308.881	91.62
309.111	95.62
309.341	98.62
309.571	104.62
309.8	85.62
310.03	77.62
310.26	76.62
310.49	80.62
310.72	71.62
310.949	79.62
311.179	83.62
311.409	83.62
311.639	78.62
311.868	83.62
312.098	104.62
312.328	75.62
312.557	80.62
312.787	74.62
313.017	91.62
313.246	93.62
313.476	87.62
313.706	79.62
313.935	79.62
314.165	93.62
314.394	89.62
314.624	83.62
314.853	89.62
315.083	77.62
315.312	85.62
315.542	94.62
315.771	92.62
316.001	92.62
316.23	86.62
316.46	81.62
316.689	79.62
316.919	90.62
317.148	93.62
317.377	98.62
317.607	97.62
317.836	102.62
318.065	104.62
318.295	95.62
318.524	85.62
318.753	85.62
318.983	75.62
319.212	81.62
319.441	80.62
319.67	75.62
319.9	79.62
320.129	83.62
320.358	88.62
320.587	97.62
320.816	82.62
321.046	83.62
321.275	76.62
321.504	108.62
321.733	84.62
321.962	84.62
322.191	91.62
322.42	85.62
322.649	87.62
322.878	96.62
323.108	96.62
323.337	78.62
323.566	73.62
323.795	84.62
324.024	96.62
324.253	87.62
324.482	94.62
324.71	85.62
324.939	77.62
325.168	89.62
325.397	89.62
325.626	90.62
325.855	81.62
326.084	87.62
326.313	81.62
326.542	86.62
326.77	78.62
326.999	90.62
327.228	81.62
327.457	81.62
327.686	87.62
327.914	90.62
328.143	94.62
328.372	83.62
328.6	70.62
328.829	97.62
329.058	93.62
329.287	73.62
329.515	76.62
329.744	83.62
329.972	94.62
330.201	99.62
330.43	99.62
330.658	79.62
330.887	71.62
331.115	74.62
331.344	95.62
331.572	77.62
331.801	77.62
332.03	73.62
332.258	89.62
332.486	101.62
332.715	97.62
332.943	91.62
333.172	79.62
333.4	88.62
333.629	86.62
333.857	91.62
334.085	86.62
334.314	90.62
334.542	87.62
334.771	98.62
334.999	98.62
335.227	95.62
335.455	108.62
335.684	92.62
335.912	101.62
336.14	104.62
336.369	79.62
336.597	73.62
336.825	87.62
337.053	90.62
337.281	88.62
337.51	98.62
337.738	85.62
337.966	92.62
338.194	87.62
338.422	89.62
338.65	81.62
338.878	72.62
339.106	85.62
339.334	95.62
339.562	84.62
339.79	88.62
340.018	91.62
340.246	91.62
340.474	60.62
340.702	83.62
340.93	100.62
341.158	81.62
341.386	85.62
341.614	73.62
341.842	83.62
342.07	83.62
342.298	92.62
342.526	81.62
342.754	79.62
342.981	91.62
343.209	101.62
343.437	106.62
343.665	91.62
343.893	85.62
344.12	91.62
344.348	89.62
344.576	99.62
344.804	92.62
345.031	89.62
345.259	94.62
345.487	74.62
345.714	95.62
345.942	80.62
346.17	74.62
346.397	83.62
346.625	80.62
346.853	89.62
347.08	82.62
347.308	98.62
347.535	76.62
347.763	91.62
347.99	85.62
348.218	100.62
348.445	93.62
348.673	81.62
348.9	94.62
349.128	93.62
349.355	86.62
349.583	92.62
349.81	97.62
350.037	82.62
350.265	89.62
350.492	95.62
350.72	81.62
350.947	80.62
351.174	80.62
351.402	87.62
351.629	90.62
351.856	101.62
352.083	70.62
352.311	83.62
352.538	83.62
352.765	82.62
352.992	85.62
353.22	98.62
353.447	101.62
353.674	87.62
353.901	89.62
354.128	94.62
354.355	83.62
354.583	92.62
354.81	89.62
355.037	81.62
355.264	94.62
355.491	81.62
355.718	91.62
355.945	90.62
356.172	75.62
356.399	108.62
356.626	90.62
356.853	87.62
357.08	90.62
357.307	96.62
357.534	98.62
357.761	104.62
357.988	98.62
358.215	115.62
358.441	105.62
358.668	90.62
358.895	88.62
359.122	103.62
359.349	97.62
359.576	92.62
359.802	87.62
360.029	82.62
360.256	82.62
360.483	89.62
360.709	99.62
360.936	99.62
361.163	86.62
361.39	76.62
361.616	85.62
361.843	98.62
362.07	112.62
362.296	95.62
362.523	97.62
362.749	97.62
362.976	91.62
363.203	117.62
363.429	108.62
363.656	99.62
363.882	91.62
364.109	111.62
364.335	123.62
364.562	126.62
364.788	103.62
365.015	97.62
365.241	91.62
365.468	100.62
365.694	87.62
365.92	84.62
366.147	95.62
366.373	95.62
366.599	91.62
366.826	82.62
367.052	92.62
367.278	80.62
367.505	84.62
367.731	99.62
367.957	83.62
368.184	75.62
368.41	66.62
368.636	93.62
368.862	92.62
369.089	81.62
369.315	80.62
369.541	94.62
369.767	77.62
369.993	77.62
370.219	90.62
370.445	93.62
370.672	90.62
370.898	90.62
371.124	92.62
371.35	83.62
371.576	81.62
371.802	95.62
372.028	103.62
372.254	89.62
372.48	69.62
372.706	89.62
372.932	80.62
373.158	87.62
373.384	102.62
373.61	108.62
373.835	116.62
374.061	109.62
374.287	88.62
374.513	99.62
374.739	104.62
374.965	88.62
375.191	102.62
375.416	91.62
375.642	102.62
375.868	95.62
376.094	74.62
376.319	70.62
376.545	77.62
376.771	90.62
376.997	83.62
377.222	93.62
377.448	79.62
377.674	78.62
377.899	77.62
378.125	85.62
378.35	80.62
378.576	83.62
378.802	83.62
379.027	80.62
379.253	94.62
379.478	91.62
379.704	91.62
379.929	81.62
380.155	85.62
380.38	82.62
380.606	92.62
380.831	85.62
381.057	95.62
381.282	97.62
381.507	93.62
381.733	104.62
381.958	92.62
382.184	96.62
382.409	95.62
382.634	106.62
382.86	93.62
383.085	107.62
383.31	100.62
383.535	83.62
383.761	106.62
383.986	117.62
384.211	99.62
384.436	88.62
384.662	89.62
384.887	99.62
385.112	90.62
385.337	97.62
385.562	91.62
385.787	107.62
386.013	113.62
386.238	111.62
386.463	104.62
386.688	104.62
386.913	95.62
387.138	90.62
387.363	97.62
387.588	101.62
387.813	83.62
388.038	98.62
388.263	112.62
388.488	93.62
388.713	100.62
388.938	89.62
389.163	90.62
389.387	76.62
389.612	80.62
389.837	87.62
390.062	80.62
390.287	90.62
390.512	86.62
390.736	84.62
390.961	97.62
391.186	85.62
391.411	95.62
391.636	87.62
391.86	89.62
392.085	88.62
392.31	102.62
392.534	99.62
392.759	142.62
392.984	225.62
393.208	428.62
393.433	669.62
393.658	477.62
393.882	169.62
394.107	125.62
394.331	122.62
394.556	137.62
394.78	108.62
395.005	97.62
395.229	94.62
395.454	107.62
395.678	113.62
395.903	121.62
396.127	178.62
396.352	204.62
396.576	248.62
396.801	418.62
397.025	533.62
397.249	240.62
397.474	119.62
397.698	100.62
397.922	86.62
398.147	83.62
398.371	95.62
398.595	89.62
398.82	96.62
399.044	78.62
399.268	83.62
399.492	75.62
399.717	79.62
399.941	85.62
400.165	84.62
400.389	84.62
400.613	86.62
400.837	74.62
401.062	86.62
401.286	96.62
401.51	90.62
401.734	80.62
401.958	79.62
402.182	78.62
402.406	88.62
402.63	76.62
402.854	90.62
403.078	85.62
403.302	87.62
403.526	90.62
403.75	99.62
403.974	107.62
404.198	110.62
404.422	155.62
404.645	184.62
404.869	154.62
405.093	106.62
405.317	89.62
405.541	88.62
405.765	81.62
405.988	102.62
406.212	82.62
406.436	77.62
406.66	82.62
406.883	87.62
407.107	89.62
407.331	96.62
407.555	95.62
407.778	137.62
408.002	133.62
408.226	98.62
408.449	74.62
408.673	77.62
408.896	78.62
409.12	71.62
409.344	92.62
409.567	85.62
409.791	86.62
410.014	97.62
410.238	100.62
410.461	84.62
410.685	77.62
410.908	92.62
411.132	91.62
411.355	89.62
411.578	94.62
411.802	85.62
412.025	96.62
412.249	77.62
412.472	75.62
412.695	87.62
412.919	78.62
413.142	76.62
413.365	81.62
413.589	95.62
413.812	84.62
414.035	77.62
414.258	82.62
414.482	86.62
414.705	93.62
414.928	93.62
415.151	69.62
415.374	68.62
415.597	99.62
415.821	91.62
416.044	87.62
416.267	90.62
416.49	83.62
416.713	78.62
416.936	97.62
417.159	78.62
417.382	77.62
417.605	87.62
417.828	91.62
418.051	88.62
418.274	86.62
418.497	77.62
418.72	83.62
418.943	84.62
419.166	88.62
419.389	83.62
419.611	90.62
419.834	81.62
420.057	93.62
420.28	88.62
420.503	97.62
420.726	95.62
420.948	100.62
421.171	112.62
421.394	102.62
421.617	147.62
421.839	125.62
422.062	128.62
422.285	176.62
422.507	345.62
422.73	607.62
422.953	559.62
423.175	230.62
423.398	122.62
423.621	100.62
423.843	105.62
424.066	89.62
424.288	65.62
424.511	91.62
424.733	99.62
424.956	97.62
425.178	77.62
425.401	83.62
425.623	96.62
425.846	81.62
426.068	85.62
426.291	81.62
426.513	77.62
426.735	86.62
426.958	86.62
427.18	90.62
427.402	87.62
427.625	73.62
427.847	92.62
428.069	115.62
428.292	145.62
428.514	165.62
428.736	130.62
428.958	124.62
429.181	149.62
429.403	102.62
429.625	99.62
429.847	145.62
430.069	199.62
430.292	246.62
430.514	236.62
430.736	179.62
430.958	163.62
431.18	87.62
431.402	97.62
431.624	100.62
431.846	141.62
432.068	164.62
432.29	93.62
432.512	90.62
432.734	87.62
432.956	85.62
433.178	89.62
433.4	89.62
433.622	87.62
433.844	87.62
434.066	88.62
434.287	68.62
434.509	76.62
434.731	65.62
434.953	83.62
435.175	87.62
435.397	77.62
435.618	87.62
435.84	80.62
436.062	80.62
436.284	76.62
436.505	97.62
436.727	86.62
436.949	85.62
437.17	79.62
437.392	81.62
437.614	83.62
437.835	87.62
438.057	87.62
438.278	90.62
438.5	85.62
438.721	96.62
438.943	76.62
439.165	86.62
439.386	92.62
439.608	90.62
439.829	95.62
440.05	80.62
440.272	81.62
440.493	102.62
440.715	92.62
440.936	76.62
441.158	81.62
441.379	85.62
441.6	81.62
441.822	89.62
442.043	92.62
442.264	91.62
442.486	137.62
442.707	194.62
442.928	131.62
443.149	108.62
443.371	177.62
443.592	299.62
443.813	251.62
444.034	102.62
444.255	100.62
444.476	88.62
444.698	93.62
444.919	98.62
445.14	198.62
445.361	234.62
445.582	362.62
445.803	298.62
446.024	140.62
446.245	90.62
446.466	92.62
446.687	88.62
446.908	86.62
447.129	83.62
447.35	75.62
447.571	89.62
447.792	83.62
448.013	79.62
448.234	85.62
448.455	85.62
448.675	84.62
448.896	82.62
449.117	83.62
449.338	87.62
449.559	74.62
449.779	76.62
450	83.62
450.221	72.62
450.442	87.62
450.662	90.62
450.883	97.62
451.104	101.62
451.324	90.62
451.545	92.62
451.766	89.62
451.986	78.62
452.207	96.62
452.428	84.62
452.648	111.62
452.869	95.62
453.089	85.62
453.31	91.62
453.53	85.62
453.751	90.62
453.971	85.62
454.192	87.62
454.412	89.62
454.633	72.62
454.853	98.62
455.073	83.62
455.294	77.62
455.514	94.62
455.734	81.62
455.955	93.62
456.175	76.62
456.395	88.62
456.616	82.62
456.836	83.62
457.056	91.62
457.276	91.62
457.497	75.62
457.717	88.62
457.937	117.62
458.157	121.62
458.377	115.62
458.598	108.62
458.818	126.62
459.038	96.62
459.258	86.62
459.478	87.62
459.698	99.62
459.918	79.62
460.138	77.62
460.358	95.62
460.578	98.62
460.798	132.62
461.018	119.62
461.238	89.62
461.458	85.62
461.678	97.62
461.898	97.62
462.118	78.62
462.338	98.62
462.558	85.62
462.777	73.62
462.997	77.62
463.217	67.62
463.437	82.62
463.657	77.62
463.876	89.62
464.096	87.62
464.316	72.62
464.536	88.62
464.755	84.62
464.975	89.62
465.195	69.62
465.414	74.62
465.634	93.62
465.854	77.62
466.073	88.62
466.293	79.62
466.512	84.62
466.732	86.62
466.951	86.62
467.171	96.62
467.391	94.62
467.61	74.62
467.829	75.62
468.049	95.62
468.268	85.62
468.488	81.62
468.707	83.62
468.927	92.62
469.146	92.62
469.365	89.62
469.585	89.62
469.804	88.62
470.023	95.62
470.243	83.62
470.462	74.62
470.681	83.62
470.901	81.62
471.12	84.62
471.339	77.62
471.558	88.62
471.777	89.62
471.997	92.62
472.216	89.62
472.435	97.62
472.654	103.62
472.873	81.62
473.092	93.62
473.311	82.62
473.53	88.62
473.749	84.62
473.968	89.62
474.187	71.62
474.406	78.62
474.625	96.62
474.844	83.62
475.063	81.62
475.282	83.62
475.501	96.62
475.72	86.62
475.939	82.62
476.158	83.62
476.377	72.62
476.596	83.62
476.814	75.62
477.033	83.62
477.252	77.62
477.471	92.62
477.69	96.62
477.908	77.62
478.127	83.62
478.346	78.62
478.564	78.62
478.783	89.62
479.002	88.62
479.22	92.62
479.439	92.62
479.658	73.62
479.876	73.62
480.095	94.62
480.313	96.62
480.532	85.62
480.751	97.62
480.969	90.62
481.188	91.62
481.406	102.62
481.624	72.62
481.843	72.62
482.061	84.62
482.28	74.62
482.498	92.62
482.717	104.62
482.935	87.62
483.153	81.62
483.372	97.62
483.59	92.62
483.808	91.62
484.027	107.62
484.245	94.62
484.463	93.62
484.681	91.62
484.9	83.62
485.118	70.62
485.336	98.62
485.554	97.62
485.772	92.62
485.99	73.62
486.209	71.62
486.427	83.62
486.645	85.62
486.863	84.62
487.081	89.62
487.299	80.62
487.517	101.62
487.735	108.62
487.953	152.62
488.171	141.62
488.389	90.62
488.607	82.62
488.825	98.62
489.043	90.62
489.261	84.62
489.479	97.62
489.696	88.62
489.914	82.62
490.132	87.62
490.35	81.62
490.568	82.62
490.786	99.62
491.003	96.62
491.221	86.62
491.439	81.62
491.657	91.62
491.874	65.62
492.092	94.62
492.31	100.62
492.527	90.62
492.745	87.62
492.963	86.62
493.18	102.62
493.398	89.62
493.615	89.62
493.833	86.62
494.05	96.62
494.268	96.62
494.485	91.62
494.703	89.62
494.92	90.62
495.138	86.62
495.355	85.62
495.573	84.62
495.79	89.62
496.008	96.62
496.225	79.62
496.442	100.62
496.66	100.62
496.877	98.62
497.094	96.62
497.312	87.62
497.529	78.62
497.746	93.62
497.963	102.62
498.181	95.62
498.398	109.62
498.615	99.62
498.832	78.62
499.049	74.62
499.267	98.62
499.484	101.62
499.701	81.62
499.918	88.62
500.135	98.62
500.352	91.62
500.569	91.62
500.786	89.62
501.003	99.62
501.22	88.62
501.437	90.62
501.654	91.62
501.871	90.62
502.088	92.62
502.305	84.62
502.522	88.62
502.739	89.62
502.956	92.62
503.172	87.62
503.389	96.62
503.606	97.62
503.823	109.62
504.04	100.62
504.256	126.62
504.473	109.62
504.69	96.62
504.907	89.62
505.123	102.62
505.34	87.62
505.557	72.62
505.773	79.62
505.99	73.62
506.207	87.62
506.423	82.62
506.64	78.62
506.856	84.62
507.073	98.62
507.289	89.62
507.506	88.62
507.722	83.62
507.939	88.62
508.155	91.62
508.372	102.62
508.588	107.62
508.805	82.62
509.021	83.62
509.238	82.62
509.454	85.62
509.67	77.62
509.887	87.62
510.103	101.62
510.319	77.62
510.536	89.62
510.752	86.62
510.968	87.62
511.184	84.62
511.401	85.62
511.617	104.62
511.833	85.62
512.049	85.62
512.265	94.62
512.481	87.62
512.698	95.62
512.914	92.62
513.13	73.62
513.346	89.62
513.562	97.62
513.778	91.62
513.994	81.62
514.21	99.62
514.426	107.62
514.642	92.62
514.858	87.62
515.074	84.62
515.29	96.62
515.506	90.62
515.721	85.62
515.937	69.62
516.153	87.62
516.369	84.62
516.585	84.62
516.801	97.62
517.016	71.62
517.232	96.62
517.448	89.62
517.664	109.62
517.879	77.62
