Data from 15780_3_HRD10591_00030.txt Node
Date: Mon Jan 19 14:20:13 EST 2026
User: Yrep
Spectrometer: HR+D1059
Trigger mode: 1
Integration Time (sec): 1.000000E-1
Scans to average: 1
Electric dark correction enabled: true
Nonlinearity correction enabled: false
Boxcar width: 0
XAxis mode: Wavelengths
Number of Pixels in Spectrum: 2048
>>>>>Begin Spectral Data<<<<<
223.165	-2.5
223.4	-2.5
223.635	-2.5
223.869	-15.5
224.104	-12.5
224.338	-12.5
224.573	-11.5
224.808	-13.5
225.042	-3.5
225.277	-3.5
225.511	-9.5
225.746	3.5
225.98	16.5
226.215	3.5
226.449	12.5
226.683	12.5
226.918	11.5
227.152	24.5
227.387	27.5
227.621	26.5
227.856	53.5
228.09	47.5
228.324	52.5
228.559	59.5
228.793	49.5
229.027	77.5
229.262	62.5
229.496	63.5
229.73	63.5
229.964	67.5
230.199	79.5
230.433	76.5
230.667	88.5
230.901	81.5
231.136	80.5
231.37	86.5
231.604	73.5
231.838	76.5
232.072	84.5
232.306	95.5
232.541	87.5
232.775	84.5
233.009	74.5
233.243	87.5
233.477	75.5
233.711	84.5
233.945	88.5
234.179	80.5
234.413	78.5
234.647	72.5
234.881	81.5
235.115	71.5
235.349	76.5
235.583	78.5
235.817	76.5
236.051	70.5
236.285	88.5
236.519	78.5
236.753	76.5
236.987	74.5
237.221	79.5
237.455	65.5
237.689	85.5
237.922	79.5
238.156	90.5
238.39	84.5
238.624	81.5
238.858	82.5
239.091	81.5
239.325	69.5
239.559	83.5
239.793	70.5
240.027	78.5
240.26	85.5
240.494	75.5
240.728	76.5
240.961	67.5
241.195	93.5
241.429	72.5
241.662	77.5
241.896	72.5
242.13	75.5
242.363	70.5
242.597	62.5
242.83	83.5
243.064	74.5
243.298	77.5
243.531	67.5
243.765	71.5
243.998	75.5
244.232	83.5
244.465	79.5
244.699	69.5
244.932	80.5
245.166	75.5
245.399	87.5
245.633	85.5
245.866	91.5
246.099	94.5
246.333	82.5
246.566	85.5
246.8	75.5
247.033	77.5
247.266	73.5
247.5	83.5
247.733	84.5
247.966	81.5
248.2	72.5
248.433	65.5
248.666	83.5
248.899	87.5
249.133	72.5
249.366	82.5
249.599	81.5
249.832	74.5
250.066	88.5
250.299	57.5
250.532	91.5
250.765	75.5
250.998	90.5
251.231	79.5
251.465	71.5
251.698	93.5
251.931	81.5
252.164	72.5
252.397	83.5
252.63	73.5
252.863	71.5
253.096	81.5
253.329	91.5
253.562	88.5
253.795	79.5
254.028	76.5
254.261	67.5
254.494	71.5
254.727	88.5
254.96	83.5
255.193	76.5
255.426	84.5
255.659	80.5
255.892	91.5
256.124	79.5
256.357	87.5
256.59	72.5
256.823	84.5
257.056	83.5
257.289	82.5
257.521	86.5
257.754	83.5
257.987	75.5
258.22	75.5
258.452	86.5
258.685	72.5
258.918	76.5
259.151	88.5
259.383	88.5
259.616	77.5
259.849	85.5
260.081	80.5
260.314	75.5
260.547	87.5
260.779	85.5
261.012	88.5
261.244	78.5
261.477	85.5
261.71	89.5
261.942	80.5
262.175	75.5
262.407	61.5
262.64	68.5
262.872	83.5
263.105	74.5
263.337	81.5
263.57	74.5
263.802	87.5
264.035	85.5
264.267	80.5
264.499	69.5
264.732	87.5
264.964	65.5
265.197	87.5
265.429	93.5
265.661	98.5
265.894	74.5
266.126	89.5
266.358	68.5
266.591	86.5
266.823	99.5
267.055	73.5
267.287	88.5
267.52	90.5
267.752	73.5
267.984	72.5
268.216	71.5
268.448	75.5
268.681	86.5
268.913	86.5
269.145	67.5
269.377	81.5
269.609	90.5
269.841	87.5
270.073	76.5
270.306	80.5
270.538	85.5
270.77	82.5
271.002	82.5
271.234	83.5
271.466	76.5
271.698	76.5
271.93	89.5
272.162	76.5
272.394	90.5
272.626	91.5
272.858	88.5
273.09	78.5
273.322	71.5
273.553	70.5
273.785	91.5
274.017	89.5
274.249	86.5
274.481	91.5
274.713	73.5
274.945	81.5
275.176	78.5
275.408	85.5
275.64	90.5
275.872	93.5
276.104	95.5
276.335	82.5
276.567	86.5
276.799	106.5
277.031	72.5
277.262	85.5
277.494	78.5
277.726	80.5
277.957	98.5
278.189	93.5
278.421	84.5
278.652	77.5
278.884	66.5
279.115	91.5
279.347	77.5
279.579	86.5
279.81	81.5
280.042	94.5
280.273	85.5
280.505	85.5
280.736	81.5
280.968	83.5
281.199	87.5
281.431	73.5
281.662	76.5
281.894	92.5
282.125	86.5
282.356	83.5
282.588	77.5
282.819	81.5
283.051	95.5
283.282	89.5
283.513	81.5
283.745	82.5
283.976	87.5
284.207	93.5
284.439	84.5
284.67	99.5
284.901	89.5
285.132	84.5
285.364	83.5
285.595	85.5
285.826	95.5
286.057	87.5
286.288	87.5
286.52	90.5
286.751	87.5
286.982	97.5
287.213	81.5
287.444	85.5
287.675	88.5
287.906	92.5
288.138	95.5
288.369	100.5
288.6	90.5
288.831	85.5
289.062	89.5
289.293	77.5
289.524	87.5
289.755	81.5
289.986	83.5
290.217	90.5
290.448	101.5
290.679	81.5
290.91	96.5
291.141	88.5
291.371	85.5
291.602	99.5
291.833	86.5
292.064	91.5
292.295	91.5
292.526	91.5
292.757	90.5
292.987	90.5
293.218	83.5
293.449	83.5
293.68	97.5
293.91	73.5
294.141	77.5
294.372	90.5
294.603	67.5
294.833	75.5
295.064	84.5
295.295	89.5
295.525	96.5
295.756	97.5
295.987	100.5
296.217	73.5
296.448	95.5
296.679	75.5
296.909	81.5
297.14	87.5
297.37	89.5
297.601	95.5
297.831	78.5
298.062	87.5
298.292	81.5
298.523	89.5
298.753	92.5
298.984	81.5
299.214	84.5
299.445	78.5
299.675	92.5
299.905	101.5
300.136	97.5
300.366	99.5
300.597	80.5
300.827	80.5
301.057	84.5
301.288	94.5
301.518	75.5
301.748	87.5
301.979	99.5
302.209	91.5
302.439	94.5
302.669	73.5
302.9	89.5
303.13	88.5
303.36	89.5
303.59	88.5
303.82	99.5
304.051	99.5
304.281	97.5
304.511	84.5
304.741	88.5
304.971	85.5
305.201	75.5
305.431	93.5
305.661	88.5
305.891	74.5
306.121	85.5
306.352	84.5
306.582	84.5
306.812	91.5
307.042	86.5
307.272	96.5
307.502	81.5
307.731	89.5
307.961	101.5
308.191	88.5
308.421	101.5
308.651	94.5
308.881	91.5
309.111	87.5
309.341	81.5
309.571	85.5
309.8	81.5
310.03	88.5
310.26	71.5
310.49	84.5
310.72	89.5
310.949	79.5
311.179	72.5
311.409	84.5
311.639	89.5
311.868	95.5
312.098	90.5
312.328	83.5
312.557	81.5
312.787	84.5
313.017	83.5
313.246	99.5
313.476	89.5
313.706	76.5
313.935	85.5
314.165	78.5
314.394	71.5
314.624	80.5
314.853	74.5
315.083	83.5
315.312	85.5
315.542	99.5
315.771	83.5
316.001	82.5
316.23	83.5
316.46	87.5
316.689	81.5
316.919	79.5
317.148	87.5
317.377	93.5
317.607	98.5
317.836	85.5
318.065	92.5
318.295	88.5
318.524	76.5
318.753	95.5
318.983	75.5
319.212	87.5
319.441	92.5
319.67	95.5
319.9	83.5
320.129	96.5
320.358	84.5
320.587	83.5
320.816	72.5
321.046	83.5
321.275	72.5
321.504	87.5
321.733	93.5
321.962	92.5
322.191	82.5
322.42	92.5
322.649	90.5
322.878	73.5
323.108	89.5
323.337	82.5
323.566	92.5
323.795	81.5
324.024	77.5
324.253	95.5
324.482	84.5
324.71	91.5
324.939	84.5
325.168	76.5
325.397	79.5
325.626	97.5
325.855	83.5
326.084	80.5
326.313	91.5
326.542	83.5
326.77	91.5
326.999	92.5
327.228	77.5
327.457	87.5
327.686	85.5
327.914	75.5
328.143	84.5
328.372	83.5
328.6	82.5
328.829	90.5
329.058	86.5
329.287	74.5
329.515	87.5
329.744	89.5
329.972	96.5
330.201	92.5
330.43	89.5
330.658	103.5
330.887	74.5
331.115	90.5
331.344	85.5
331.572	85.5
331.801	82.5
332.03	71.5
332.258	75.5
332.486	75.5
332.715	90.5
332.943	80.5
333.172	91.5
333.4	85.5
333.629	87.5
333.857	82.5
334.085	95.5
334.314	101.5
334.542	88.5
334.771	85.5
334.999	89.5
335.227	95.5
335.455	94.5
335.684	102.5
335.912	92.5
336.14	91.5
336.369	88.5
336.597	77.5
336.825	95.5
337.053	101.5
337.281	94.5
337.51	93.5
337.738	103.5
337.966	83.5
338.194	79.5
338.422	88.5
338.65	69.5
338.878	87.5
339.106	73.5
339.334	87.5
339.562	96.5
339.79	86.5
340.018	75.5
340.246	87.5
340.474	78.5
340.702	83.5
340.93	79.5
341.158	85.5
341.386	85.5
341.614	83.5
341.842	87.5
342.07	76.5
342.298	82.5
342.526	91.5
342.754	85.5
342.981	93.5
343.209	81.5
343.437	87.5
343.665	91.5
343.893	83.5
344.12	89.5
344.348	95.5
344.576	92.5
344.804	81.5
345.031	89.5
345.259	78.5
345.487	95.5
345.714	73.5
345.942	87.5
346.17	73.5
346.397	81.5
346.625	83.5
346.853	88.5
347.08	81.5
347.308	77.5
347.535	68.5
347.763	80.5
347.99	85.5
348.218	93.5
348.445	78.5
348.673	89.5
348.9	81.5
349.128	82.5
349.355	97.5
349.583	91.5
349.81	79.5
350.037	91.5
350.265	88.5
350.492	81.5
350.72	95.5
350.947	80.5
351.174	103.5
351.402	89.5
351.629	83.5
351.856	86.5
352.083	99.5
352.311	99.5
352.538	85.5
352.765	72.5
352.992	89.5
353.22	82.5
353.447	85.5
353.674	87.5
353.901	88.5
354.128	84.5
354.355	84.5
354.583	77.5
354.81	95.5
355.037	87.5
355.264	86.5
355.491	97.5
355.718	92.5
355.945	79.5
356.172	86.5
356.399	99.5
356.626	95.5
356.853	86.5
357.08	91.5
357.307	87.5
357.534	81.5
357.761	87.5
357.988	89.5
358.215	95.5
358.441	105.5
358.668	84.5
358.895	78.5
359.122	78.5
359.349	89.5
359.576	106.5
359.802	88.5
360.029	82.5
360.256	79.5
360.483	89.5
360.709	80.5
360.936	87.5
361.163	86.5
361.39	87.5
361.616	94.5
361.843	85.5
362.07	97.5
362.296	102.5
362.523	100.5
362.749	83.5
362.976	113.5
363.203	114.5
363.429	101.5
363.656	83.5
363.882	104.5
364.109	103.5
364.335	105.5
364.562	119.5
364.788	101.5
365.015	97.5
365.241	78.5
365.468	76.5
365.694	81.5
365.92	75.5
366.147	78.5
366.373	89.5
366.599	91.5
366.826	101.5
367.052	75.5
367.278	93.5
367.505	76.5
367.731	88.5
367.957	90.5
368.184	88.5
368.41	79.5
368.636	85.5
368.862	65.5
369.089	102.5
369.315	78.5
369.541	87.5
369.767	88.5
369.993	100.5
370.219	96.5
370.445	83.5
370.672	89.5
370.898	85.5
371.124	96.5
371.35	83.5
371.576	70.5
371.802	89.5
372.028	95.5
372.254	82.5
372.48	91.5
372.706	84.5
372.932	89.5
373.158	94.5
373.384	115.5
373.61	108.5
373.835	109.5
374.061	86.5
374.287	89.5
374.513	86.5
374.739	105.5
374.965	109.5
375.191	86.5
375.416	76.5
375.642	77.5
375.868	100.5
376.094	92.5
376.319	99.5
376.545	86.5
376.771	83.5
376.997	88.5
377.222	84.5
377.448	80.5
377.674	83.5
377.899	89.5
378.125	84.5
378.35	78.5
378.576	83.5
378.802	90.5
379.027	82.5
379.253	89.5
379.478	89.5
379.704	90.5
379.929	84.5
380.155	79.5
380.38	77.5
380.606	81.5
380.831	85.5
381.057	83.5
381.282	91.5
381.507	110.5
381.733	87.5
381.958	87.5
382.184	99.5
382.409	81.5
382.634	114.5
382.86	102.5
383.085	95.5
383.31	91.5
383.535	91.5
383.761	85.5
383.986	89.5
384.211	76.5
384.436	87.5
384.662	89.5
384.887	92.5
385.112	84.5
385.337	89.5
385.562	89.5
385.787	79.5
386.013	90.5
386.238	97.5
386.463	91.5
386.688	104.5
386.913	91.5
387.138	77.5
387.363	86.5
387.588	98.5
387.813	81.5
388.038	77.5
388.263	79.5
388.488	85.5
388.713	80.5
388.938	85.5
389.163	90.5
389.387	77.5
389.612	87.5
389.837	89.5
390.062	83.5
390.287	73.5
390.512	80.5
390.736	95.5
390.961	78.5
391.186	70.5
391.411	86.5
391.636	91.5
391.86	69.5
392.085	92.5
392.31	105.5
392.534	86.5
392.759	115.5
392.984	136.5
393.208	212.5
393.433	315.5
393.658	229.5
393.882	119.5
394.107	111.5
394.331	110.5
394.556	112.5
394.78	91.5
395.005	97.5
395.229	92.5
395.454	97.5
395.678	104.5
395.903	112.5
396.127	142.5
396.352	141.5
396.576	149.5
396.801	214.5
397.025	257.5
397.249	149.5
397.474	111.5
397.698	99.5
397.922	94.5
398.147	91.5
398.371	76.5
398.595	89.5
398.82	92.5
399.044	94.5
399.268	75.5
399.492	92.5
399.717	85.5
399.941	86.5
400.165	97.5
400.389	90.5
400.613	91.5
400.837	77.5
401.062	76.5
401.286	85.5
401.51	86.5
401.734	92.5
401.958	82.5
402.182	93.5
402.406	99.5
402.63	91.5
402.854	77.5
403.078	86.5
403.302	86.5
403.526	85.5
403.75	82.5
403.974	88.5
404.198	95.5
404.422	102.5
404.645	101.5
404.869	111.5
405.093	93.5
405.317	85.5
405.541	76.5
405.765	89.5
405.988	83.5
406.212	93.5
406.436	79.5
406.66	92.5
406.883	87.5
407.107	79.5
407.331	88.5
407.555	88.5
407.778	96.5
408.002	108.5
408.226	98.5
408.449	81.5
408.673	85.5
408.896	74.5
409.12	82.5
409.344	85.5
409.567	102.5
409.791	104.5
410.014	80.5
410.238	100.5
410.461	88.5
410.685	86.5
410.908	95.5
411.132	82.5
411.355	85.5
411.578	89.5
411.802	77.5
412.025	88.5
412.249	88.5
412.472	88.5
412.695	82.5
412.919	91.5
413.142	64.5
413.365	69.5
413.589	92.5
413.812	77.5
414.035	86.5
414.258	83.5
414.482	78.5
414.705	78.5
414.928	84.5
415.151	93.5
415.374	73.5
415.597	101.5
415.821	85.5
416.044	84.5
416.267	82.5
416.49	76.5
416.713	81.5
416.936	71.5
417.159	78.5
417.382	77.5
417.605	93.5
417.828	92.5
418.051	88.5
418.274	88.5
418.497	81.5
418.72	95.5
418.943	82.5
419.166	96.5
419.389	77.5
419.611	91.5
419.834	84.5
420.057	71.5
420.28	92.5
420.503	98.5
420.726	90.5
420.948	91.5
421.171	76.5
421.394	98.5
421.617	100.5
421.839	107.5
422.062	114.5
422.285	147.5
422.507	249.5
422.73	363.5
422.953	344.5
423.175	169.5
423.398	127.5
423.621	104.5
423.843	101.5
424.066	86.5
424.288	84.5
424.511	97.5
424.733	97.5
424.956	86.5
425.178	73.5
425.401	78.5
425.623	75.5
425.846	87.5
426.068	86.5
426.291	83.5
426.513	98.5
426.735	82.5
426.958	88.5
427.18	93.5
427.402	78.5
427.625	83.5
427.847	83.5
428.069	99.5
428.292	123.5
428.514	129.5
428.736	99.5
428.958	107.5
429.181	108.5
429.403	97.5
429.625	97.5
429.847	111.5
430.069	145.5
430.292	163.5
430.514	158.5
430.736	135.5
430.958	122.5
431.18	94.5
431.402	89.5
431.624	108.5
431.846	119.5
432.068	118.5
432.29	109.5
432.512	94.5
432.734	76.5
432.956	94.5
433.178	95.5
433.4	88.5
433.622	95.5
433.844	106.5
434.066	91.5
434.287	74.5
434.509	73.5
434.731	81.5
434.953	67.5
435.175	93.5
435.397	91.5
435.618	84.5
435.84	82.5
436.062	87.5
436.284	88.5
436.505	83.5
436.727	91.5
436.949	90.5
437.17	74.5
437.392	73.5
437.614	81.5
437.835	85.5
438.057	75.5
438.278	84.5
438.5	97.5
438.721	98.5
438.943	91.5
439.165	87.5
439.386	81.5
439.608	81.5
439.829	105.5
440.05	72.5
440.272	83.5
440.493	85.5
440.715	81.5
440.936	94.5
441.158	83.5
441.379	86.5
441.6	87.5
441.822	85.5
442.043	102.5
442.264	85.5
442.486	105.5
442.707	141.5
442.928	115.5
443.149	96.5
443.371	133.5
443.592	203.5
443.813	179.5
444.034	98.5
444.255	97.5
444.476	86.5
444.698	78.5
444.919	96.5
445.14	163.5
445.361	182.5
445.582	227.5
445.803	215.5
446.024	118.5
446.245	105.5
446.466	96.5
446.687	94.5
446.908	92.5
447.129	81.5
447.35	79.5
447.571	81.5
447.792	84.5
448.013	87.5
448.234	74.5
448.455	96.5
448.675	77.5
448.896	83.5
449.117	74.5
449.338	74.5
449.559	95.5
449.779	82.5
450	59.5
450.221	88.5
450.442	81.5
450.662	80.5
450.883	83.5
451.104	87.5
451.324	89.5
451.545	90.5
451.766	91.5
451.986	75.5
452.207	74.5
452.428	95.5
452.648	89.5
452.869	101.5
453.089	87.5
453.31	87.5
453.53	81.5
453.751	87.5
453.971	84.5
454.192	95.5
454.412	84.5
454.633	86.5
454.853	84.5
455.073	84.5
455.294	71.5
455.514	83.5
455.734	81.5
455.955	93.5
456.175	84.5
456.395	90.5
456.616	82.5
456.836	71.5
457.056	83.5
457.276	77.5
457.497	78.5
457.717	79.5
457.937	96.5
458.157	100.5
458.377	97.5
458.598	104.5
458.818	100.5
459.038	88.5
459.258	73.5
459.478	83.5
459.698	83.5
459.918	75.5
460.138	85.5
460.358	76.5
460.578	91.5
460.798	115.5
461.018	105.5
461.238	75.5
461.458	89.5
461.678	88.5
461.898	83.5
462.118	88.5
462.338	85.5
462.558	74.5
462.777	83.5
462.997	84.5
463.217	79.5
463.437	88.5
463.657	85.5
463.876	85.5
464.096	87.5
464.316	99.5
464.536	80.5
464.755	83.5
464.975	79.5
465.195	90.5
465.414	77.5
465.634	90.5
465.854	76.5
466.073	76.5
466.293	75.5
466.512	89.5
466.732	85.5
466.951	80.5
467.171	74.5
467.391	91.5
467.61	74.5
467.829	82.5
468.049	89.5
468.268	83.5
468.488	80.5
468.707	80.5
468.927	75.5
469.146	86.5
469.365	95.5
469.585	74.5
469.804	87.5
470.023	81.5
470.243	78.5
470.462	88.5
470.681	70.5
470.901	91.5
471.12	90.5
471.339	97.5
471.558	67.5
471.777	89.5
471.997	84.5
472.216	84.5
472.435	86.5
472.654	73.5
472.873	87.5
473.092	74.5
473.311	84.5
473.53	90.5
473.749	86.5
473.968	82.5
474.187	92.5
474.406	75.5
474.625	90.5
474.844	81.5
475.063	84.5
475.282	92.5
475.501	93.5
475.72	88.5
475.939	82.5
476.158	81.5
476.377	83.5
476.596	85.5
476.814	90.5
477.033	87.5
477.252	84.5
477.471	65.5
477.69	73.5
477.908	83.5
478.127	80.5
478.346	87.5
478.564	82.5
478.783	77.5
479.002	87.5
479.22	95.5
479.439	79.5
479.658	95.5
479.876	78.5
480.095	90.5
480.313	88.5
480.532	69.5
480.751	71.5
480.969	84.5
481.188	97.5
481.406	92.5
481.624	83.5
481.843	87.5
482.061	75.5
482.28	81.5
482.498	63.5
482.717	88.5
482.935	89.5
483.153	96.5
483.372	74.5
483.59	99.5
483.808	88.5
484.027	91.5
484.245	84.5
484.463	85.5
484.681	97.5
484.9	89.5
485.118	95.5
485.336	71.5
485.554	89.5
485.772	85.5
485.99	81.5
486.209	83.5
486.427	74.5
486.645	79.5
486.863	91.5
487.081	84.5
487.299	86.5
487.517	92.5
487.735	96.5
487.953	131.5
488.171	115.5
488.389	106.5
488.607	93.5
488.825	93.5
489.043	71.5
489.261	95.5
489.479	86.5
489.696	84.5
489.914	74.5
490.132	90.5
490.35	86.5
490.568	88.5
490.786	89.5
491.003	78.5
491.221	90.5
491.439	79.5
491.657	84.5
491.874	71.5
492.092	79.5
492.31	76.5
492.527	88.5
492.745	92.5
492.963	88.5
493.18	93.5
493.398	85.5
493.615	87.5
493.833	93.5
494.05	91.5
494.268	99.5
494.485	89.5
494.703	90.5
494.92	85.5
495.138	77.5
495.355	87.5
495.573	75.5
495.79	78.5
496.008	88.5
496.225	92.5
496.442	107.5
496.66	83.5
496.877	75.5
497.094	105.5
497.312	85.5
497.529	91.5
497.746	85.5
497.963	88.5
498.181	99.5
498.398	105.5
498.615	93.5
498.832	87.5
499.049	79.5
499.267	89.5
499.484	89.5
499.701	92.5
499.918	93.5
500.135	95.5
500.352	97.5
500.569	80.5
500.786	95.5
501.003	90.5
501.22	89.5
501.437	92.5
501.654	85.5
501.871	86.5
502.088	68.5
502.305	85.5
502.522	92.5
502.739	94.5
502.956	96.5
503.172	80.5
503.389	74.5
503.606	92.5
503.823	83.5
504.04	95.5
504.256	102.5
504.473	113.5
504.69	77.5
504.907	98.5
505.123	77.5
505.34	85.5
505.557	85.5
505.773	80.5
505.99	77.5
506.207	96.5
506.423	87.5
506.64	90.5
506.856	87.5
507.073	84.5
507.289	88.5
507.506	85.5
507.722	75.5
507.939	81.5
508.155	98.5
508.372	83.5
508.588	77.5
508.805	90.5
509.021	87.5
509.238	81.5
509.454	90.5
509.67	88.5
509.887	85.5
510.103	98.5
510.319	98.5
510.536	96.5
510.752	95.5
510.968	84.5
511.184	83.5
511.401	87.5
511.617	95.5
511.833	84.5
512.049	78.5
512.265	87.5
512.481	89.5
512.698	97.5
512.914	72.5
513.13	87.5
513.346	90.5
513.562	91.5
513.778	82.5
513.994	90.5
514.21	91.5
514.426	81.5
514.642	82.5
514.858	103.5
515.074	87.5
515.29	96.5
515.506	91.5
515.721	87.5
515.937	89.5
516.153	84.5
516.369	85.5
516.585	93.5
516.801	81.5
517.016	90.5
517.232	82.5
517.448	109.5
517.664	96.5
517.879	80.5
518.095	94.5
518.311	96.5
518.527	93.5
518.742	105.5
518.958	117.5
519.173	132.5
519.389	100.5
519.605	88.5
519.82	81.5
520.036	69.5
520.251	88.5
520.467	73.5
520.682	85.5
520.898	87.5
521.113	88.5
521.329	95.5
521.544	104.5
521.76	83.5
521.975	77.5
522.19	76.5
522.406	78.5
522.621	83.5
522.836	89.5
523.052	96.5
523.267	89.5
523.482	84.5
523.698	87.5
523.913	89.5
524.128	87.5
524.343	83.5
524.559	78.5
524.774	83.5
524.989	84.5
525.204	97.5
525.419	85.5
525.634	93.5
525.849	97.5
526.064	103.5
526.28	171.5
526.495	207.5
526.71	255.5
526.925	171.5
527.14	210.5
527.355	207.5
527.57	102.5
527.785	99.5
527.999	87.5
528.214	78.5
528.429	99.5
528.644	98.5
528.859	102.5
529.074	83.5
529.289	90.5
529.503	95.5
529.718	84.5
529.933	76.5
530.148	95.5
530.363	88.5
530.577	86.5
530.792	87.5
531.007	81.5
531.221	86.5
531.436	86.5
531.651	92.5
531.865	79.5
532.08	88.5
532.295	98.5
532.509	80.5
532.724	88.5
532.938	89.5
533.153	80.5
533.367	92.5
533.582	79.5
533.796	96.5
534.011	95.5
534.225	107.5
534.44	100.5
534.654	91.5
534.868	105.5
535.083	136.5
535.297	124.5
535.511	101.5
535.726	107.5
535.94	74.5
536.154	99.5
536.369	84.5
536.583	102.5
536.797	95.5
537.011	81.5
537.225	89.5
537.44	114.5
537.654	96.5
537.868	85.5
538.082	89.5
538.296	85.5
538.51	100.5
