Data from 15780_3_HRD10591_00031.txt Node
Date: Mon Jan 19 14:20:13 EST 2026
User: Yrep
Spectrometer: HR+D1059
Trigger mode: 1
Integration Time (sec): 1.000000E-1
Scans to average: 1
Electric dark correction enabled: true
Nonlinearity correction enabled: false
Boxcar width: 0
XAxis mode: Wavelengths
Number of Pixels in Spectrum: 2048
>>>>>Begin Spectral Data<<<<<
223.165	-11.38
223.4	-11.38
223.635	-11.38
223.869	-25.38
224.104	-15.38
224.338	-33.38
224.573	-25.38
224.808	-12.38
225.042	-9.38
225.277	-3.38
225.511	-12.38
225.746	8.62
225.98	10.62
226.215	11.62
226.449	13.62
226.683	25.62
226.918	34.62
227.152	43.62
227.387	46.62
227.621	34.62
227.856	59.62
228.09	40.62
228.324	60.62
228.559	55.62
228.793	62.62
229.027	60.62
229.262	75.62
229.496	73.62
229.73	76.62
229.964	73.62
230.199	65.62
230.433	75.62
230.667	88.62
230.901	79.62
231.136	87.62
231.37	86.62
231.604	60.62
231.838	85.62
232.072	84.62
232.306	73.62
232.541	96.62
232.775	83.62
233.009	62.62
233.243	82.62
233.477	82.62
233.711	73.62
233.945	69.62
234.179	83.62
234.413	75.62
234.647	78.62
234.881	77.62
235.115	86.62
235.349	88.62
235.583	76.62
235.817	53.62
236.051	76.62
236.285	89.62
236.519	89.62
236.753	86.62
236.987	86.62
237.221	69.62
237.455	68.62
237.689	77.62
237.922	75.62
238.156	82.62
238.39	75.62
238.624	61.62
238.858	76.62
239.091	71.62
239.325	86.62
239.559	84.62
239.793	66.62
240.027	79.62
240.26	61.62
240.494	75.62
240.728	75.62
240.961	81.62
241.195	72.62
241.429	68.62
241.662	67.62
241.896	62.62
242.13	94.62
242.363	73.62
242.597	84.62
242.83	71.62
243.064	81.62
243.298	78.62
243.531	74.62
243.765	79.62
243.998	84.62
244.232	75.62
244.465	77.62
244.699	87.62
244.932	76.62
245.166	73.62
245.399	71.62
245.633	79.62
245.866	82.62
246.099	82.62
246.333	85.62
246.566	85.62
246.8	90.62
247.033	74.62
247.266	66.62
247.5	83.62
247.733	83.62
247.966	84.62
248.2	93.62
248.433	78.62
248.666	77.62
248.899	70.62
249.133	73.62
249.366	90.62
249.599	73.62
249.832	76.62
250.066	83.62
250.299	89.62
250.532	93.62
250.765	76.62
250.998	86.62
251.231	71.62
251.465	84.62
251.698	82.62
251.931	79.62
252.164	78.62
252.397	65.62
252.63	64.62
252.863	79.62
253.096	74.62
253.329	77.62
253.562	76.62
253.795	81.62
254.028	88.62
254.261	70.62
254.494	65.62
254.727	82.62
254.96	84.62
255.193	69.62
255.426	74.62
255.659	77.62
255.892	76.62
256.124	88.62
256.357	83.62
256.59	75.62
256.823	78.62
257.056	81.62
257.289	78.62
257.521	84.62
257.754	103.62
257.987	85.62
258.22	80.62
258.452	80.62
258.685	88.62
258.918	83.62
259.151	78.62
259.383	78.62
259.616	83.62
259.849	75.62
260.081	65.62
260.314	82.62
260.547	74.62
260.779	99.62
261.012	80.62
261.244	83.62
261.477	78.62
261.71	68.62
261.942	85.62
262.175	86.62
262.407	77.62
262.64	81.62
262.872	91.62
263.105	86.62
263.337	84.62
263.57	84.62
263.802	102.62
264.035	88.62
264.267	72.62
264.499	84.62
264.732	89.62
264.964	92.62
265.197	81.62
265.429	90.62
265.661	73.62
265.894	89.62
266.126	76.62
266.358	90.62
266.591	90.62
266.823	97.62
267.055	78.62
267.287	64.62
267.52	72.62
267.752	78.62
267.984	84.62
268.216	85.62
268.448	70.62
268.681	82.62
268.913	82.62
269.145	85.62
269.377	82.62
269.609	74.62
269.841	92.62
270.073	83.62
270.306	76.62
270.538	78.62
270.77	94.62
271.002	84.62
271.234	83.62
271.466	74.62
271.698	94.62
271.93	80.62
272.162	83.62
272.394	78.62
272.626	84.62
272.858	82.62
273.09	93.62
273.322	79.62
273.553	90.62
273.785	78.62
274.017	72.62
274.249	76.62
274.481	66.62
274.713	64.62
274.945	81.62
275.176	79.62
275.408	74.62
275.64	85.62
275.872	76.62
276.104	82.62
276.335	90.62
276.567	76.62
276.799	88.62
277.031	72.62
277.262	97.62
277.494	76.62
277.726	85.62
277.957	75.62
278.189	82.62
278.421	81.62
278.652	85.62
278.884	73.62
279.115	86.62
279.347	82.62
279.579	88.62
279.81	80.62
280.042	80.62
280.273	76.62
280.505	84.62
280.736	81.62
280.968	83.62
281.199	88.62
281.431	74.62
281.662	78.62
281.894	90.62
282.125	87.62
282.356	83.62
282.588	82.62
282.819	86.62
283.051	78.62
283.282	96.62
283.513	74.62
283.745	82.62
283.976	58.62
284.207	83.62
284.439	75.62
284.67	75.62
284.901	92.62
285.132	88.62
285.364	85.62
285.595	89.62
285.826	76.62
286.057	80.62
286.288	78.62
286.52	90.62
286.751	80.62
286.982	71.62
287.213	76.62
287.444	87.62
287.675	85.62
287.906	90.62
288.138	80.62
288.369	85.62
288.6	88.62
288.831	73.62
289.062	100.62
289.293	87.62
289.524	73.62
289.755	70.62
289.986	84.62
290.217	89.62
290.448	86.62
290.679	90.62
290.91	84.62
291.141	85.62
291.371	101.62
291.602	85.62
291.833	78.62
292.064	91.62
292.295	89.62
292.526	88.62
292.757	82.62
292.987	78.62
293.218	74.62
293.449	84.62
293.68	90.62
293.91	79.62
294.141	102.62
294.372	84.62
294.603	78.62
294.833	98.62
295.064	72.62
295.295	89.62
295.525	64.62
295.756	82.62
295.987	70.62
296.217	83.62
296.448	76.62
296.679	81.62
296.909	88.62
297.14	84.62
297.37	90.62
297.601	73.62
297.831	89.62
298.062	81.62
298.292	86.62
298.523	94.62
298.753	87.62
298.984	76.62
299.214	69.62
299.445	66.62
299.675	96.62
299.905	85.62
300.136	71.62
300.366	83.62
300.597	94.62
300.827	83.62
301.057	96.62
301.288	78.62
301.518	86.62
301.748	90.62
301.979	90.62
302.209	77.62
302.439	86.62
302.669	80.62
302.9	82.62
303.13	77.62
303.36	79.62
303.59	74.62
303.82	78.62
304.051	89.62
304.281	77.62
304.511	81.62
304.741	90.62
304.971	67.62
305.201	96.62
305.431	109.62
305.661	76.62
305.891	83.62
306.121	78.62
306.352	78.62
306.582	86.62
306.812	82.62
307.042	73.62
307.272	82.62
307.502	89.62
307.731	91.62
307.961	82.62
308.191	91.62
308.421	88.62
308.651	94.62
308.881	94.62
309.111	82.62
309.341	93.62
309.571	82.62
309.8	97.62
310.03	78.62
310.26	72.62
310.49	82.62
310.72	97.62
310.949	85.62
311.179	77.62
311.409	81.62
311.639	71.62
311.868	81.62
312.098	81.62
312.328	74.62
312.557	82.62
312.787	64.62
313.017	90.62
313.246	90.62
313.476	74.62
313.706	89.62
313.935	84.62
314.165	82.62
314.394	73.62
314.624	82.62
314.853	74.62
315.083	86.62
315.312	86.62
315.542	78.62
315.771	79.62
316.001	90.62
316.23	95.62
316.46	91.62
316.689	89.62
316.919	81.62
317.148	102.62
317.377	84.62
317.607	72.62
317.836	80.62
318.065	79.62
318.295	89.62
318.524	91.62
318.753	86.62
318.983	83.62
319.212	88.62
319.441	83.62
319.67	97.62
319.9	73.62
320.129	93.62
320.358	89.62
320.587	67.62
320.816	80.62
321.046	81.62
321.275	94.62
321.504	90.62
321.733	94.62
321.962	84.62
322.191	89.62
322.42	88.62
322.649	74.62
322.878	90.62
323.108	96.62
323.337	89.62
323.566	84.62
323.795	86.62
324.024	68.62
324.253	100.62
324.482	96.62
324.71	84.62
324.939	87.62
325.168	81.62
325.397	78.62
325.626	88.62
325.855	82.62
326.084	86.62
326.313	85.62
326.542	83.62
326.77	92.62
326.999	86.62
327.228	74.62
327.457	79.62
327.686	88.62
327.914	87.62
328.143	94.62
328.372	81.62
328.6	100.62
328.829	78.62
329.058	88.62
329.287	90.62
329.515	80.62
329.744	88.62
329.972	97.62
330.201	70.62
330.43	79.62
330.658	86.62
330.887	76.62
331.115	82.62
331.344	97.62
331.572	89.62
331.801	66.62
332.03	72.62
332.258	80.62
332.486	83.62
332.715	71.62
332.943	89.62
333.172	101.62
333.4	83.62
333.629	75.62
333.857	83.62
334.085	95.62
334.314	81.62
334.542	89.62
334.771	81.62
334.999	76.62
335.227	92.62
335.455	81.62
335.684	77.62
335.912	90.62
336.14	84.62
336.369	96.62
336.597	79.62
336.825	84.62
337.053	89.62
337.281	82.62
337.51	80.62
337.738	90.62
337.966	88.62
338.194	92.62
338.422	83.62
338.65	86.62
338.878	76.62
339.106	73.62
339.334	85.62
339.562	78.62
339.79	92.62
340.018	90.62
340.246	91.62
340.474	83.62
340.702	85.62
340.93	96.62
341.158	77.62
341.386	72.62
341.614	91.62
341.842	69.62
342.07	91.62
342.298	76.62
342.526	85.62
342.754	84.62
342.981	88.62
343.209	70.62
343.437	96.62
343.665	76.62
343.893	83.62
344.12	98.62
344.348	92.62
344.576	81.62
344.804	86.62
345.031	85.62
345.259	82.62
345.487	84.62
345.714	83.62
345.942	80.62
346.17	74.62
346.397	82.62
346.625	84.62
346.853	79.62
347.08	79.62
347.308	87.62
347.535	88.62
347.763	89.62
347.99	90.62
348.218	85.62
348.445	77.62
348.673	82.62
348.9	82.62
349.128	82.62
349.355	84.62
349.583	81.62
349.81	73.62
350.037	82.62
350.265	95.62
350.492	75.62
350.72	63.62
350.947	79.62
351.174	78.62
351.402	72.62
351.629	85.62
351.856	80.62
352.083	92.62
352.311	74.62
352.538	80.62
352.765	76.62
352.992	92.62
353.22	88.62
353.447	100.62
353.674	91.62
353.901	81.62
354.128	93.62
354.355	80.62
354.583	79.62
354.81	92.62
355.037	90.62
355.264	84.62
355.491	86.62
355.718	79.62
355.945	92.62
356.172	91.62
356.399	88.62
356.626	75.62
356.853	79.62
357.08	84.62
357.307	83.62
357.534	89.62
357.761	75.62
357.988	85.62
358.215	96.62
358.441	84.62
358.668	72.62
358.895	86.62
359.122	86.62
359.349	83.62
359.576	84.62
359.802	77.62
360.029	92.62
360.256	94.62
360.483	86.62
360.709	79.62
360.936	84.62
361.163	79.62
361.39	101.62
361.616	83.62
361.843	76.62
362.07	93.62
362.296	91.62
362.523	78.62
362.749	81.62
362.976	90.62
363.203	86.62
363.429	84.62
363.656	98.62
363.882	77.62
364.109	100.62
364.335	88.62
364.562	98.62
364.788	84.62
365.015	82.62
365.241	64.62
365.468	80.62
365.694	80.62
365.92	78.62
366.147	72.62
366.373	78.62
366.599	79.62
366.826	97.62
367.052	79.62
367.278	92.62
367.505	83.62
367.731	96.62
367.957	85.62
368.184	85.62
368.41	78.62
368.636	87.62
368.862	77.62
369.089	75.62
369.315	85.62
369.541	85.62
369.767	88.62
369.993	84.62
370.219	78.62
370.445	78.62
370.672	87.62
370.898	94.62
371.124	84.62
371.35	79.62
371.576	78.62
371.802	79.62
372.028	86.62
372.254	86.62
372.48	85.62
372.706	82.62
372.932	89.62
373.158	87.62
373.384	83.62
373.61	93.62
373.835	91.62
374.061	82.62
374.287	93.62
374.513	82.62
374.739	81.62
374.965	87.62
375.191	82.62
375.416	88.62
375.642	80.62
375.868	92.62
376.094	90.62
376.319	79.62
376.545	77.62
376.771	90.62
376.997	86.62
377.222	74.62
377.448	82.62
377.674	94.62
377.899	90.62
378.125	96.62
378.35	96.62
378.576	68.62
378.802	83.62
379.027	73.62
379.253	85.62
379.478	76.62
379.704	79.62
379.929	72.62
380.155	85.62
380.38	94.62
380.606	91.62
380.831	84.62
381.057	95.62
381.282	89.62
381.507	88.62
381.733	77.62
381.958	82.62
382.184	82.62
382.409	91.62
382.634	93.62
382.86	87.62
383.085	86.62
383.31	70.62
383.535	81.62
383.761	92.62
383.986	88.62
384.211	77.62
384.436	68.62
384.662	74.62
384.887	75.62
385.112	78.62
385.337	90.62
385.562	73.62
385.787	68.62
386.013	88.62
386.238	85.62
386.463	81.62
386.688	88.62
386.913	81.62
387.138	98.62
387.363	79.62
387.588	64.62
387.813	96.62
388.038	90.62
388.263	98.62
388.488	81.62
388.713	90.62
388.938	79.62
389.163	90.62
389.387	78.62
389.612	68.62
389.837	97.62
390.062	85.62
390.287	82.62
390.512	100.62
390.736	100.62
390.961	89.62
391.186	89.62
391.411	78.62
391.636	64.62
391.86	75.62
392.085	75.62
392.31	81.62
392.534	91.62
392.759	90.62
392.984	96.62
393.208	133.62
393.433	161.62
393.658	127.62
393.882	108.62
394.107	101.62
394.331	88.62
394.556	90.62
394.78	96.62
395.005	90.62
395.229	79.62
395.454	97.62
395.678	79.62
395.903	88.62
396.127	100.62
396.352	89.62
396.576	97.62
396.801	143.62
397.025	136.62
397.249	105.62
397.474	74.62
397.698	79.62
397.922	84.62
398.147	81.62
398.371	78.62
398.595	89.62
398.82	84.62
399.044	81.62
399.268	83.62
399.492	76.62
399.717	88.62
399.941	81.62
400.165	80.62
400.389	78.62
400.613	85.62
400.837	89.62
401.062	63.62
401.286	73.62
401.51	78.62
401.734	79.62
401.958	85.62
402.182	82.62
402.406	79.62
402.63	77.62
402.854	84.62
403.078	105.62
403.302	90.62
403.526	64.62
403.75	98.62
403.974	85.62
404.198	87.62
404.422	98.62
404.645	84.62
404.869	92.62
405.093	81.62
405.317	76.62
405.541	79.62
405.765	86.62
405.988	70.62
406.212	97.62
406.436	84.62
406.66	74.62
406.883	76.62
407.107	71.62
407.331	90.62
407.555	93.62
407.778	102.62
408.002	86.62
408.226	88.62
408.449	88.62
408.673	82.62
408.896	91.62
409.12	86.62
409.344	83.62
409.567	78.62
409.791	78.62
410.014	93.62
410.238	74.62
410.461	82.62
410.685	79.62
410.908	72.62
411.132	83.62
411.355	78.62
411.578	83.62
411.802	92.62
412.025	84.62
412.249	82.62
412.472	84.62
412.695	90.62
412.919	88.62
413.142	86.62
413.365	73.62
413.589	78.62
413.812	82.62
414.035	88.62
414.258	70.62
414.482	91.62
414.705	86.62
414.928	87.62
415.151	85.62
415.374	84.62
415.597	72.62
415.821	78.62
416.044	76.62
416.267	88.62
416.49	88.62
416.713	85.62
416.936	64.62
417.159	88.62
417.382	78.62
417.605	78.62
417.828	85.62
418.051	86.62
418.274	81.62
418.497	81.62
418.72	87.62
418.943	75.62
419.166	88.62
419.389	85.62
419.611	83.62
419.834	81.62
420.057	90.62
420.28	89.62
420.503	90.62
420.726	95.62
420.948	86.62
421.171	90.62
421.394	91.62
421.617	77.62
421.839	94.62
422.062	83.62
422.285	107.62
422.507	118.62
422.73	154.62
422.953	145.62
423.175	109.62
423.398	88.62
423.621	90.62
423.843	77.62
424.066	90.62
424.288	78.62
424.511	77.62
424.733	85.62
424.956	78.62
425.178	80.62
425.401	90.62
425.623	93.62
425.846	70.62
426.068	82.62
426.291	60.62
426.513	88.62
426.735	85.62
426.958	64.62
427.18	90.62
427.402	88.62
427.625	72.62
427.847	74.62
428.069	76.62
428.292	91.62
428.514	89.62
428.736	95.62
428.958	89.62
429.181	93.62
429.403	82.62
429.625	78.62
429.847	106.62
430.069	102.62
430.292	105.62
430.514	101.62
430.736	94.62
430.958	97.62
431.18	84.62
431.402	72.62
431.624	80.62
431.846	106.62
432.068	96.62
432.29	104.62
432.512	85.62
432.734	92.62
432.956	78.62
433.178	85.62
433.4	69.62
433.622	81.62
433.844	89.62
434.066	82.62
434.287	74.62
434.509	84.62
434.731	88.62
434.953	73.62
435.175	75.62
435.397	87.62
435.618	77.62
435.84	67.62
436.062	64.62
436.284	86.62
436.505	96.62
436.727	77.62
436.949	90.62
437.17	82.62
437.392	84.62
437.614	72.62
437.835	90.62
438.057	83.62
438.278	90.62
438.5	85.62
438.721	102.62
438.943	90.62
439.165	88.62
439.386	73.62
439.608	74.62
439.829	91.62
440.05	89.62
440.272	76.62
440.493	69.62
440.715	75.62
440.936	94.62
441.158	77.62
441.379	70.62
441.6	90.62
441.822	73.62
442.043	59.62
442.264	76.62
442.486	112.62
442.707	89.62
442.928	86.62
443.149	77.62
443.371	104.62
443.592	115.62
443.813	117.62
444.034	94.62
444.255	95.62
444.476	80.62
444.698	58.62
444.919	94.62
445.14	149.62
445.361	139.62
445.582	103.62
445.803	112.62
446.024	83.62
446.245	98.62
446.466	78.62
446.687	73.62
446.908	94.62
447.129	88.62
447.35	73.62
447.571	69.62
447.792	85.62
448.013	74.62
448.234	93.62
448.455	82.62
448.675	84.62
448.896	81.62
449.117	84.62
449.338	91.62
449.559	96.62
449.779	96.62
450	85.62
450.221	70.62
450.442	85.62
450.662	74.62
450.883	79.62
451.104	84.62
451.324	89.62
451.545	90.62
451.766	82.62
451.986	84.62
452.207	94.62
452.428	85.62
452.648	82.62
452.869	90.62
453.089	78.62
453.31	81.62
453.53	93.62
453.751	82.62
453.971	83.62
454.192	88.62
454.412	88.62
454.633	86.62
454.853	80.62
455.073	81.62
455.294	79.62
455.514	84.62
455.734	85.62
455.955	94.62
456.175	89.62
456.395	82.62
456.616	84.62
456.836	79.62
457.056	92.62
457.276	88.62
457.497	76.62
457.717	77.62
457.937	87.62
458.157	84.62
458.377	82.62
458.598	100.62
458.818	98.62
459.038	88.62
459.258	82.62
459.478	92.62
459.698	105.62
459.918	90.62
460.138	83.62
460.358	94.62
460.578	92.62
460.798	99.62
461.018	76.62
461.238	83.62
461.458	78.62
461.678	76.62
461.898	73.62
462.118	81.62
462.338	89.62
462.558	83.62
462.777	82.62
462.997	89.62
463.217	70.62
463.437	82.62
463.657	75.62
463.876	84.62
464.096	88.62
464.316	70.62
464.536	74.62
464.755	76.62
464.975	78.62
465.195	85.62
465.414	80.62
465.634	78.62
465.854	87.62
466.073	95.62
466.293	87.62
466.512	83.62
466.732	81.62
466.951	80.62
467.171	92.62
467.391	94.62
467.61	92.62
467.829	89.62
468.049	78.62
468.268	86.62
468.488	92.62
468.707	67.62
468.927	68.62
469.146	79.62
469.365	84.62
469.585	86.62
469.804	82.62
470.023	90.62
470.243	90.62
470.462	73.62
470.681	85.62
470.901	66.62
471.12	77.62
471.339	64.62
471.558	79.62
471.777	85.62
471.997	94.62
472.216	88.62
472.435	73.62
472.654	91.62
472.873	79.62
473.092	90.62
473.311	90.62
473.53	85.62
473.749	86.62
473.968	84.62
474.187	84.62
474.406	82.62
474.625	86.62
474.844	93.62
475.063	68.62
475.282	91.62
475.501	86.62
475.72	89.62
475.939	81.62
476.158	87.62
476.377	86.62
476.596	77.62
476.814	82.62
477.033	88.62
477.252	74.62
477.471	101.62
477.69	79.62
477.908	82.62
478.127	84.62
478.346	90.62
478.564	70.62
478.783	77.62
479.002	79.62
479.22	100.62
479.439	85.62
479.658	77.62
479.876	91.62
480.095	83.62
480.313	83.62
480.532	81.62
480.751	83.62
480.969	92.62
481.188	85.62
481.406	80.62
481.624	84.62
481.843	69.62
482.061	80.62
482.28	74.62
482.498	80.62
482.717	82.62
482.935	92.62
483.153	81.62
483.372	84.62
483.59	91.62
483.808	75.62
484.027	73.62
484.245	84.62
484.463	88.62
484.681	88.62
484.9	84.62
485.118	84.62
485.336	94.62
485.554	87.62
485.772	88.62
485.99	87.62
486.209	90.62
486.427	88.62
486.645	70.62
486.863	75.62
487.081	72.62
487.299	90.62
487.517	88.62
487.735	85.62
487.953	79.62
488.171	99.62
488.389	90.62
488.607	81.62
488.825	76.62
489.043	86.62
489.261	85.62
489.479	78.62
489.696	100.62
489.914	96.62
490.132	96.62
490.35	90.62
490.568	84.62
490.786	82.62
491.003	81.62
491.221	92.62
491.439	88.62
491.657	89.62
491.874	88.62
492.092	87.62
492.31	93.62
492.527	75.62
492.745	76.62
492.963	85.62
493.18	84.62
493.398	88.62
493.615	76.62
493.833	82.62
494.05	101.62
494.268	79.62
494.485	93.62
494.703	86.62
494.92	80.62
495.138	85.62
495.355	103.62
495.573	86.62
495.79	88.62
496.008	93.62
496.225	82.62
496.442	85.62
496.66	93.62
496.877	68.62
497.094	84.62
497.312	76.62
497.529	82.62
497.746	86.62
497.963	100.62
498.181	79.62
498.398	90.62
498.615	84.62
498.832	82.62
499.049	66.62
499.267	90.62
499.484	92.62
499.701	83.62
499.918	79.62
500.135	91.62
500.352	89.62
500.569	92.62
500.786	68.62
501.003	98.62
501.22	82.62
501.437	93.62
501.654	77.62
501.871	89.62
502.088	91.62
502.305	81.62
502.522	82.62
502.739	90.62
502.956	75.62
503.172	86.62
503.389	64.62
503.606	86.62
503.823	75.62
504.04	74.62
504.256	94.62
504.473	78.62
504.69	94.62
504.907	84.62
505.123	83.62
505.34	73.62
505.557	88.62
505.773	73.62
505.99	88.62
506.207	84.62
506.423	91.62
506.64	73.62
506.856	91.62
507.073	85.62
507.289	98.62
507.506	92.62
507.722	83.62
507.939	90.62
508.155	75.62
508.372	88.62
508.588	86.62
508.805	81.62
509.021	85.62
509.238	85.62
509.454	79.62
509.67	85.62
509.887	80.62
510.103	82.62
510.319	76.62
510.536	92.62
510.752	84.62
510.968	78.62
511.184	84.62
511.401	74.62
511.617	89.62
511.833	70.62
512.049	80.62
512.265	77.62
512.481	76.62
512.698	78.62
512.914	77.62
513.13	95.62
513.346	95.62
513.562	84.62
513.778	97.62
513.994	94.62
514.21	88.62
514.426	84.62
514.642	89.62
514.858	96.62
515.074	80.62
515.29	93.62
515.506	79.62
515.721	75.62
515.937	86.62
516.153	94.62
516.369	89.62
516.585	78.62
516.801	72.62
517.016	88.62
517.232	87.62
517.448	83.62
517.664	89.62
517.879	74.62
518.095	80.62
518.311	78.62
518.527	83.62
518.742	77.62
518.958	79.62
519.173	87.62
519.389	99.62
