Data from 15780_3_HRD10591_00034.txt Node
Date: Mon Jan 19 14:20:15 EST 2026
User: Yrep
Spectrometer: HR+D1059
Trigger mode: 1
Integration Time (sec): 1.000000E-1
Scans to average: 1
Electric dark correction enabled: true
Nonlinearity correction enabled: false
Boxcar width: 0
XAxis mode: Wavelengths
Number of Pixels in Spectrum: 2048
>>>>>Begin Spectral Data<<<<<
223.165	-20.19
223.4	-20.19
223.635	-20.19
223.869	-41.19
224.104	-17.19
224.338	-21.19
224.573	-16.19
224.808	-7.19
225.042	4.81
225.277	-10.19
225.511	-4.19
225.746	3.81
225.98	3.81
226.215	7.81
226.449	13.81
226.683	31.81
226.918	40.81
227.152	30.81
227.387	25.81
227.621	39.81
227.856	36.81
228.09	49.81
228.324	47.81
228.559	54.81
228.793	64.81
229.027	63.81
229.262	65.81
229.496	67.81
229.73	71.81
229.964	73.81
230.199	71.81
230.433	71.81
230.667	89.81
230.901	78.81
231.136	67.81
231.37	89.81
231.604	81.81
231.838	80.81
232.072	88.81
232.306	83.81
232.541	84.81
232.775	86.81
233.009	81.81
233.243	76.81
233.477	81.81
233.711	83.81
233.945	89.81
234.179	86.81
234.413	98.81
234.647	82.81
234.881	81.81
235.115	75.81
235.349	67.81
235.583	88.81
235.817	75.81
236.051	83.81
236.285	90.81
236.519	81.81
236.753	82.81
236.987	75.81
237.221	83.81
237.455	78.81
237.689	69.81
237.922	72.81
238.156	74.81
238.39	88.81
238.624	74.81
238.858	71.81
239.091	72.81
239.325	68.81
239.559	88.81
239.793	81.81
240.027	81.81
240.26	80.81
240.494	58.81
240.728	85.81
240.961	85.81
241.195	93.81
241.429	78.81
241.662	69.81
241.896	78.81
242.13	68.81
242.363	81.81
242.597	74.81
242.83	81.81
243.064	66.81
243.298	84.81
243.531	70.81
243.765	78.81
243.998	80.81
244.232	74.81
244.465	72.81
244.699	67.81
244.932	83.81
245.166	82.81
245.399	71.81
245.633	75.81
245.866	80.81
246.099	84.81
246.333	75.81
246.566	86.81
246.8	71.81
247.033	71.81
247.266	74.81
247.5	68.81
247.733	83.81
247.966	76.81
248.2	65.81
248.433	82.81
248.666	77.81
248.899	76.81
249.133	82.81
249.366	98.81
249.599	86.81
249.832	90.81
250.066	85.81
250.299	73.81
250.532	83.81
250.765	80.81
250.998	76.81
251.231	59.81
251.465	80.81
251.698	83.81
251.931	88.81
252.164	87.81
252.397	74.81
252.63	73.81
252.863	75.81
253.096	84.81
253.329	75.81
253.562	72.81
253.795	79.81
254.028	84.81
254.261	81.81
254.494	83.81
254.727	70.81
254.96	75.81
255.193	82.81
255.426	77.81
255.659	83.81
255.892	86.81
256.124	83.81
256.357	72.81
256.59	72.81
256.823	76.81
257.056	75.81
257.289	81.81
257.521	83.81
257.754	82.81
257.987	98.81
258.22	84.81
258.452	80.81
258.685	74.81
258.918	63.81
259.151	78.81
259.383	72.81
259.616	83.81
259.849	81.81
260.081	78.81
260.314	84.81
260.547	77.81
260.779	77.81
261.012	89.81
261.244	72.81
261.477	86.81
261.71	87.81
261.942	78.81
262.175	76.81
262.407	89.81
262.64	90.81
262.872	90.81
263.105	88.81
263.337	97.81
263.57	78.81
263.802	93.81
264.035	84.81
264.267	95.81
264.499	77.81
264.732	85.81
264.964	84.81
265.197	91.81
265.429	76.81
265.661	76.81
265.894	95.81
266.126	89.81
266.358	67.81
266.591	89.81
266.823	79.81
267.055	76.81
267.287	87.81
267.52	68.81
267.752	83.81
267.984	76.81
268.216	69.81
268.448	87.81
268.681	91.81
268.913	94.81
269.145	68.81
269.377	77.81
269.609	84.81
269.841	83.81
270.073	85.81
270.306	75.81
270.538	83.81
270.77	85.81
271.002	78.81
271.234	89.81
271.466	89.81
271.698	76.81
271.93	82.81
272.162	99.81
272.394	84.81
272.626	79.81
272.858	92.81
273.09	95.81
273.322	89.81
273.553	88.81
273.785	76.81
274.017	71.81
274.249	89.81
274.481	85.81
274.713	69.81
274.945	90.81
275.176	72.81
275.408	88.81
275.64	85.81
275.872	74.81
276.104	87.81
276.335	87.81
276.567	93.81
276.799	88.81
277.031	90.81
277.262	58.81
277.494	80.81
277.726	84.81
277.957	72.81
278.189	76.81
278.421	72.81
278.652	89.81
278.884	87.81
279.115	99.81
279.347	68.81
279.579	93.81
279.81	92.81
280.042	86.81
280.273	76.81
280.505	75.81
280.736	77.81
280.968	89.81
281.199	90.81
281.431	69.81
281.662	78.81
281.894	71.81
282.125	89.81
282.356	92.81
282.588	85.81
282.819	97.81
283.051	91.81
283.282	69.81
283.513	86.81
283.745	87.81
283.976	81.81
284.207	79.81
284.439	80.81
284.67	85.81
284.901	73.81
285.132	95.81
285.364	94.81
285.595	100.81
285.826	78.81
286.057	88.81
286.288	89.81
286.52	83.81
286.751	89.81
286.982	74.81
287.213	71.81
287.444	98.81
287.675	81.81
287.906	102.81
288.138	100.81
288.369	85.81
288.6	75.81
288.831	82.81
289.062	87.81
289.293	97.81
289.524	92.81
289.755	78.81
289.986	87.81
290.217	81.81
290.448	96.81
290.679	77.81
290.91	83.81
291.141	93.81
291.371	89.81
291.602	89.81
291.833	75.81
292.064	92.81
292.295	75.81
292.526	95.81
292.757	85.81
292.987	89.81
293.218	97.81
293.449	78.81
293.68	71.81
293.91	83.81
294.141	101.81
294.372	87.81
294.603	84.81
294.833	95.81
295.064	97.81
295.295	75.81
295.525	88.81
295.756	88.81
295.987	88.81
296.217	89.81
296.448	90.81
296.679	82.81
296.909	89.81
297.14	91.81
297.37	97.81
297.601	84.81
297.831	83.81
298.062	87.81
298.292	97.81
298.523	93.81
298.753	87.81
298.984	89.81
299.214	81.81
299.445	72.81
299.675	80.81
299.905	81.81
300.136	83.81
300.366	89.81
300.597	82.81
300.827	87.81
301.057	76.81
301.288	77.81
301.518	89.81
301.748	98.81
301.979	94.81
302.209	82.81
302.439	83.81
302.669	88.81
302.9	80.81
303.13	82.81
303.36	81.81
303.59	96.81
303.82	93.81
304.051	81.81
304.281	91.81
304.511	85.81
304.741	75.81
304.971	100.81
305.201	88.81
305.431	87.81
305.661	87.81
305.891	83.81
306.121	70.81
306.352	78.81
306.582	89.81
306.812	63.81
307.042	88.81
307.272	90.81
307.502	83.81
307.731	95.81
307.961	85.81
308.191	89.81
308.421	88.81
308.651	93.81
308.881	94.81
309.111	74.81
309.341	99.81
309.571	103.81
309.8	95.81
310.03	86.81
310.26	85.81
310.49	86.81
310.72	91.81
310.949	92.81
311.179	91.81
311.409	75.81
311.639	82.81
311.868	104.81
312.098	84.81
312.328	90.81
312.557	76.81
312.787	75.81
313.017	73.81
313.246	91.81
313.476	77.81
313.706	83.81
313.935	90.81
314.165	86.81
314.394	84.81
314.624	83.81
314.853	97.81
315.083	84.81
315.312	80.81
315.542	78.81
315.771	85.81
316.001	99.81
316.23	89.81
316.46	79.81
316.689	96.81
316.919	95.81
317.148	83.81
317.377	93.81
317.607	92.81
317.836	105.81
318.065	117.81
318.295	102.81
318.524	87.81
318.753	69.81
318.983	77.81
319.212	82.81
319.441	92.81
319.67	79.81
319.9	75.81
320.129	67.81
320.358	77.81
320.587	98.81
320.816	90.81
321.046	81.81
321.275	88.81
321.504	92.81
321.733	86.81
321.962	90.81
322.191	98.81
322.42	92.81
322.649	85.81
322.878	83.81
323.108	97.81
323.337	92.81
323.566	90.81
323.795	91.81
324.024	83.81
324.253	78.81
324.482	82.81
324.71	88.81
324.939	89.81
325.168	96.81
325.397	89.81
325.626	75.81
325.855	80.81
326.084	84.81
326.313	102.81
326.542	89.81
326.77	87.81
326.999	87.81
327.228	77.81
327.457	99.81
327.686	89.81
327.914	78.81
328.143	85.81
328.372	91.81
328.6	80.81
328.829	96.81
329.058	89.81
329.287	93.81
329.515	90.81
329.744	107.81
329.972	91.81
330.201	80.81
330.43	71.81
330.658	74.81
330.887	82.81
331.115	94.81
331.344	92.81
331.572	86.81
331.801	78.81
332.03	93.81
332.258	89.81
332.486	81.81
332.715	87.81
332.943	70.81
333.172	92.81
333.4	93.81
333.629	78.81
333.857	93.81
334.085	97.81
334.314	95.81
334.542	84.81
334.771	83.81
334.999	105.81
335.227	89.81
335.455	96.81
335.684	113.81
335.912	92.81
336.14	107.81
336.369	83.81
336.597	78.81
336.825	87.81
337.053	88.81
337.281	87.81
337.51	89.81
337.738	83.81
337.966	92.81
338.194	99.81
338.422	81.81
338.65	84.81
338.878	87.81
339.106	81.81
339.334	106.81
339.562	85.81
339.79	85.81
340.018	82.81
340.246	85.81
340.474	81.81
340.702	84.81
340.93	78.81
341.158	88.81
341.386	69.81
341.614	81.81
341.842	65.81
342.07	82.81
342.298	93.81
342.526	90.81
342.754	91.81
342.981	85.81
343.209	93.81
343.437	102.81
343.665	88.81
343.893	91.81
344.12	84.81
344.348	85.81
344.576	87.81
344.804	86.81
345.031	76.81
345.259	73.81
345.487	92.81
345.714	74.81
345.942	81.81
346.17	95.81
346.397	96.81
346.625	87.81
346.853	87.81
347.08	60.81
347.308	87.81
347.535	98.81
347.763	91.81
347.99	92.81
348.218	88.81
348.445	81.81
348.673	84.81
348.9	95.81
349.128	84.81
349.355	74.81
349.583	89.81
349.81	85.81
350.037	98.81
350.265	91.81
350.492	86.81
350.72	88.81
350.947	95.81
351.174	70.81
351.402	93.81
351.629	81.81
351.856	85.81
352.083	84.81
352.311	92.81
352.538	89.81
352.765	78.81
352.992	102.81
353.22	77.81
353.447	92.81
353.674	76.81
353.901	79.81
354.128	91.81
354.355	87.81
354.583	89.81
354.81	96.81
355.037	92.81
355.264	83.81
355.491	84.81
355.718	85.81
355.945	85.81
356.172	73.81
356.399	85.81
356.626	96.81
356.853	100.81
357.08	96.81
357.307	99.81
357.534	87.81
357.761	92.81
357.988	86.81
358.215	105.81
358.441	88.81
358.668	89.81
358.895	100.81
359.122	87.81
359.349	91.81
359.576	87.81
359.802	85.81
360.029	79.81
360.256	74.81
360.483	89.81
360.709	84.81
360.936	98.81
361.163	91.81
361.39	78.81
361.616	85.81
361.843	99.81
362.07	101.81
362.296	79.81
362.523	85.81
362.749	99.81
362.976	103.81
363.203	128.81
363.429	95.81
363.656	87.81
363.882	85.81
364.109	103.81
364.335	125.81
364.562	129.81
364.788	104.81
365.015	89.81
365.241	86.81
365.468	91.81
365.694	82.81
365.92	96.81
366.147	76.81
366.373	89.81
366.599	85.81
366.826	91.81
367.052	87.81
367.278	97.81
367.505	93.81
367.731	88.81
367.957	92.81
368.184	94.81
368.41	91.81
368.636	90.81
368.862	93.81
369.089	95.81
369.315	74.81
369.541	90.81
369.767	87.81
369.993	78.81
370.219	93.81
370.445	95.81
370.672	83.81
370.898	97.81
371.124	84.81
371.35	85.81
371.576	81.81
371.802	92.81
372.028	91.81
372.254	85.81
372.48	96.81
372.706	75.81
372.932	89.81
373.158	94.81
373.384	105.81
373.61	108.81
373.835	112.81
374.061	87.81
374.287	84.81
374.513	93.81
374.739	93.81
374.965	107.81
375.191	91.81
375.416	90.81
375.642	94.81
375.868	84.81
376.094	81.81
376.319	91.81
376.545	89.81
376.771	83.81
376.997	89.81
377.222	89.81
377.448	90.81
377.674	83.81
377.899	95.81
378.125	81.81
378.35	100.81
378.576	95.81
378.802	92.81
379.027	85.81
379.253	90.81
379.478	81.81
379.704	76.81
379.929	87.81
380.155	92.81
380.38	85.81
380.606	81.81
380.831	75.81
381.057	99.81
381.282	95.81
381.507	83.81
381.733	93.81
381.958	90.81
382.184	92.81
382.409	83.81
382.634	90.81
382.86	88.81
383.085	107.81
383.31	109.81
383.535	79.81
383.761	81.81
383.986	88.81
384.211	87.81
384.436	89.81
384.662	77.81
384.887	96.81
385.112	89.81
385.337	79.81
385.562	88.81
385.787	93.81
386.013	85.81
386.238	90.81
386.463	95.81
386.688	98.81
386.913	84.81
387.138	91.81
387.363	97.81
387.588	84.81
387.813	93.81
388.038	83.81
388.263	98.81
388.488	93.81
388.713	88.81
388.938	73.81
389.163	89.81
389.387	85.81
389.612	75.81
389.837	75.81
390.062	92.81
390.287	77.81
390.512	86.81
390.736	87.81
390.961	92.81
391.186	95.81
391.411	85.81
391.636	97.81
391.86	102.81
392.085	93.81
392.31	97.81
392.534	95.81
392.759	110.81
392.984	168.81
393.208	283.81
393.433	411.81
393.658	307.81
393.882	123.81
394.107	103.81
394.331	106.81
394.556	127.81
394.78	106.81
395.005	104.81
395.229	101.81
395.454	93.81
395.678	103.81
395.903	103.81
396.127	151.81
396.352	152.81
396.576	159.81
396.801	269.81
397.025	317.81
397.249	174.81
397.474	121.81
397.698	84.81
397.922	85.81
398.147	93.81
398.371	95.81
398.595	80.81
398.82	73.81
399.044	75.81
399.268	81.81
399.492	80.81
399.717	75.81
399.941	93.81
400.165	85.81
400.389	88.81
400.613	85.81
400.837	83.81
401.062	74.81
401.286	76.81
401.51	93.81
401.734	83.81
401.958	88.81
402.182	91.81
402.406	96.81
402.63	81.81
402.854	73.81
403.078	68.81
403.302	99.81
403.526	80.81
403.75	93.81
403.974	97.81
404.198	90.81
404.422	131.81
404.645	127.81
404.869	107.81
405.093	78.81
405.317	81.81
405.541	77.81
405.765	85.81
405.988	87.81
406.212	85.81
406.436	100.81
406.66	96.81
406.883	84.81
407.107	84.81
407.331	83.81
407.555	91.81
407.778	124.81
408.002	128.81
408.226	83.81
408.449	81.81
408.673	92.81
408.896	73.81
409.12	85.81
409.344	95.81
409.567	98.81
409.791	86.81
410.014	94.81
410.238	90.81
410.461	89.81
410.685	95.81
410.908	81.81
411.132	82.81
411.355	78.81
411.578	92.81
411.802	93.81
412.025	91.81
412.249	80.81
412.472	78.81
412.695	93.81
412.919	78.81
413.142	89.81
413.365	74.81
413.589	78.81
413.812	77.81
414.035	87.81
414.258	87.81
414.482	96.81
414.705	77.81
414.928	75.81
415.151	87.81
415.374	69.81
415.597	86.81
415.821	70.81
416.044	85.81
416.267	89.81
416.49	78.81
416.713	81.81
416.936	86.81
417.159	85.81
417.382	73.81
417.605	69.81
417.828	85.81
418.051	84.81
418.274	96.81
418.497	77.81
418.72	75.81
418.943	77.81
419.166	84.81
419.389	85.81
419.611	84.81
419.834	86.81
420.057	85.81
420.28	88.81
420.503	79.81
420.726	87.81
420.948	85.81
421.171	89.81
421.394	96.81
421.617	112.81
421.839	120.81
422.062	113.81
422.285	149.81
422.507	262.81
422.73	402.81
422.953	354.81
423.175	196.81
423.398	119.81
423.621	98.81
423.843	111.81
424.066	99.81
424.288	92.81
424.511	98.81
424.733	90.81
424.956	79.81
425.178	90.81
425.401	88.81
425.623	83.81
425.846	77.81
426.068	69.81
426.291	85.81
426.513	89.81
426.735	102.81
426.958	82.81
427.18	77.81
427.402	90.81
427.625	88.81
427.847	100.81
428.069	87.81
428.292	123.81
428.514	150.81
428.736	115.81
428.958	119.81
429.181	130.81
429.403	92.81
429.625	99.81
429.847	109.81
430.069	149.81
430.292	193.81
430.514	157.81
430.736	121.81
430.958	135.81
431.18	97.81
431.402	85.81
431.624	87.81
431.846	99.81
432.068	123.81
432.29	92.81
432.512	95.81
432.734	77.81
432.956	89.81
433.178	81.81
433.4	90.81
433.622	83.81
433.844	93.81
434.066	85.81
434.287	69.81
434.509	88.81
434.731	97.81
434.953	92.81
435.175	89.81
435.397	81.81
435.618	80.81
435.84	83.81
436.062	77.81
436.284	65.81
436.505	85.81
436.727	82.81
436.949	81.81
437.17	77.81
437.392	83.81
437.614	95.81
437.835	84.81
438.057	77.81
438.278	105.81
438.5	96.81
438.721	104.81
438.943	76.81
439.165	76.81
439.386	81.81
439.608	81.81
439.829	84.81
440.05	78.81
440.272	89.81
440.493	68.81
440.715	72.81
440.936	85.81
441.158	77.81
441.379	77.81
441.6	100.81
441.822	74.81
442.043	85.81
442.264	95.81
442.486	137.81
442.707	149.81
442.928	129.81
443.149	103.81
443.371	137.81
443.592	227.81
443.813	197.81
444.034	108.81
444.255	96.81
444.476	94.81
444.698	98.81
444.919	100.81
445.14	158.81
445.361	204.81
445.582	287.81
445.803	231.81
446.024	111.81
446.245	89.81
446.466	88.81
446.687	92.81
446.908	113.81
447.129	75.81
447.35	87.81
447.571	77.81
447.792	74.81
448.013	66.81
448.234	91.81
448.455	72.81
448.675	65.81
448.896	93.81
449.117	87.81
449.338	84.81
449.559	77.81
449.779	73.81
450	69.81
450.221	92.81
450.442	69.81
450.662	81.81
450.883	94.81
451.104	91.81
451.324	82.81
451.545	83.81
451.766	83.81
451.986	90.81
452.207	85.81
452.428	66.81
452.648	82.81
452.869	99.81
453.089	96.81
453.31	86.81
453.53	83.81
453.751	93.81
453.971	87.81
454.192	85.81
454.412	80.81
454.633	84.81
454.853	82.81
455.073	90.81
455.294	85.81
455.514	89.81
455.734	80.81
455.955	77.81
456.175	86.81
456.395	68.81
456.616	84.81
456.836	84.81
457.056	84.81
457.276	77.81
457.497	93.81
457.717	85.81
457.937	92.81
458.157	106.81
458.377	114.81
458.598	111.81
458.818	112.81
459.038	89.81
459.258	88.81
459.478	83.81
459.698	91.81
459.918	82.81
460.138	81.81
460.358	74.81
460.578	85.81
460.798	113.81
461.018	112.81
461.238	87.81
461.458	79.81
461.678	90.81
461.898	82.81
462.118	76.81
462.338	77.81
462.558	95.81
462.777	91.81
462.997	91.81
463.217	93.81
463.437	81.81
463.657	85.81
463.876	93.81
464.096	76.81
464.316	81.81
464.536	89.81
464.755	91.81
464.975	92.81
465.195	87.81
465.414	79.81
465.634	80.81
465.854	84.81
466.073	83.81
466.293	74.81
466.512	65.81
466.732	73.81
466.951	77.81
467.171	98.81
467.391	78.81
467.61	91.81
467.829	71.81
468.049	91.81
468.268	91.81
468.488	87.81
468.707	88.81
468.927	92.81
469.146	84.81
469.365	88.81
469.585	86.81
469.804	91.81
470.023	75.81
470.243	90.81
470.462	69.81
470.681	88.81
470.901	95.81
471.12	79.81
471.339	93.81
471.558	86.81
471.777	87.81
471.997	78.81
472.216	85.81
472.435	70.81
472.654	81.81
472.873	99.81
473.092	91.81
473.311	80.81
473.53	80.81
473.749	88.81
473.968	92.81
474.187	89.81
474.406	92.81
474.625	99.81
474.844	79.81
475.063	77.81
475.282	95.81
475.501	73.81
475.72	69.81
475.939	79.81
476.158	95.81
476.377	78.81
476.596	80.81
476.814	83.81
477.033	74.81
477.252	83.81
477.471	88.81
477.69	79.81
477.908	76.81
478.127	97.81
478.346	89.81
478.564	83.81
478.783	77.81
479.002	91.81
479.22	88.81
479.439	93.81
479.658	88.81
479.876	75.81
480.095	87.81
480.313	77.81
480.532	82.81
480.751	91.81
480.969	92.81
481.188	82.81
481.406	89.81
481.624	84.81
481.843	72.81
482.061	93.81
482.28	81.81
482.498	86.81
482.717	88.81
482.935	84.81
483.153	73.81
483.372	85.81
483.59	85.81
483.808	100.81
484.027	91.81
484.245	99.81
484.463	95.81
484.681	93.81
484.9	91.81
485.118	77.81
485.336	84.81
485.554	80.81
485.772	95.81
485.99	85.81
486.209	97.81
486.427	88.81
486.645	88.81
486.863	73.81
487.081	90.81
487.299	83.81
487.517	81.81
487.735	91.81
487.953	154.81
488.171	130.81
488.389	86.81
488.607	97.81
488.825	87.81
489.043	94.81
489.261	79.81
489.479	83.81
489.696	75.81
489.914	92.81
490.132	82.81
490.35	89.81
490.568	82.81
490.786	83.81
491.003	91.81
491.221	85.81
491.439	87.81
491.657	86.81
491.874	79.81
492.092	87.81
492.31	94.81
492.527	88.81
492.745	77.81
492.963	87.81
493.18	89.81
493.398	96.81
493.615	75.81
493.833	89.81
494.05	96.81
494.268	84.81
494.485	78.81
494.703	99.81
494.92	99.81
495.138	78.81
495.355	81.81
495.573	76.81
495.79	86.81
496.008	90.81
496.225	78.81
496.442	82.81
496.66	90.81
496.877	83.81
497.094	84.81
497.312	93.81
497.529	71.81
497.746	81.81
497.963	81.81
498.181	91.81
498.398	114.81
498.615	102.81
498.832	89.81
499.049	95.81
499.267	89.81
499.484	84.81
499.701	84.81
499.918	99.81
500.135	98.81
500.352	88.81
500.569	80.81
500.786	91.81
501.003	84.81
501.22	82.81
501.437	91.81
501.654	87.81
501.871	98.81
502.088	85.81
502.305	88.81
502.522	85.81
502.739	83.81
502.956	90.81
503.172	81.81
503.389	83.81
503.606	83.81
503.823	105.81
504.04	107.81
504.256	108.81
504.473	115.81
504.69	100.81
504.907	99.81
505.123	85.81
505.34	104.81
505.557	103.81
505.773	77.81
505.99	74.81
506.207	81.81
506.423	87.81
506.64	84.81
506.856	82.81
507.073	96.81
507.289	76.81
507.506	82.81
507.722	89.81
507.939	86.81
508.155	76.81
508.372	88.81
508.588	80.81
508.805	86.81
509.021	85.81
509.238	93.81
509.454	83.81
509.67	92.81
509.887	76.81
510.103	95.81
510.319	95.81
510.536	74.81
510.752	91.81
510.968	83.81
511.184	80.81
511.401	85.81
511.617	86.81
511.833	78.81
512.049	81.81
512.265	88.81
512.481	100.81
512.698	85.81
512.914	97.81
513.13	109.81
513.346	85.81
513.562	63.81
513.778	87.81
513.994	73.81
514.21	82.81
514.426	93.81
514.642	81.81
514.858	86.81
515.074	82.81
515.29	83.81
515.506	82.81
515.721	85.81
515.937	95.81
516.153	91.81
516.369	88.81
516.585	95.81
516.801	97.81
517.016	94.81
517.232	91.81
517.448	83.81
517.664	105.81
517.879	88.81
518.095	95.81
518.311	83.81
518.527	86.81
