Data from 15780_3_HRD10591_00026.txt Node
Date: Mon Jan 19 14:20:11 EST 2026
User: Yrep
Spectrometer: HR+D1059
Trigger mode: 1
Integration Time (sec): 1.000000E-1
Scans to average: 1
Electric dark correction enabled: true
Nonlinearity correction enabled: false
Boxcar width: 0
XAxis mode: Wavelengths
Number of Pixels in Spectrum: 2048
>>>>>Begin Spectral Data<<<<<
223.165	-23.81
223.4	-23.81
223.635	-23.81
223.869	-11.81
224.104	-24.81
224.338	-11.81
224.573	-21.81
224.808	-11.81
225.042	-5.81
225.277	1.19
225.511	-3.81
225.746	-2.81
225.98	-0.81
226.215	32.19
226.449	9.19
226.683	28.19
226.918	27.19
227.152	21.19
227.387	29.19
227.621	37.19
227.856	43.19
228.09	38.19
228.324	58.19
228.559	79.19
228.793	57.19
229.027	64.19
229.262	58.19
229.496	62.19
229.73	85.19
229.964	64.19
230.199	73.19
230.433	71.19
230.667	73.19
230.901	72.19
231.136	87.19
231.37	66.19
231.604	71.19
231.838	80.19
232.072	78.19
232.306	73.19
232.541	71.19
232.775	73.19
233.009	57.19
233.243	80.19
233.477	88.19
233.711	80.19
233.945	87.19
234.179	76.19
234.413	89.19
234.647	86.19
234.881	81.19
235.115	79.19
235.349	74.19
235.583	82.19
235.817	70.19
236.051	72.19
236.285	58.19
236.519	77.19
236.753	76.19
236.987	73.19
237.221	66.19
237.455	86.19
237.689	64.19
237.922	72.19
238.156	68.19
238.39	68.19
238.624	85.19
238.858	72.19
239.091	76.19
239.325	79.19
239.559	79.19
239.793	79.19
240.027	75.19
240.26	86.19
240.494	98.19
240.728	78.19
240.961	80.19
241.195	73.19
241.429	79.19
241.662	71.19
241.896	83.19
242.13	80.19
242.363	74.19
242.597	80.19
242.83	77.19
243.064	70.19
243.298	61.19
243.531	83.19
243.765	70.19
243.998	79.19
244.232	75.19
244.465	71.19
244.699	86.19
244.932	83.19
245.166	65.19
245.399	80.19
245.633	79.19
245.866	70.19
246.099	81.19
246.333	74.19
246.566	89.19
246.8	86.19
247.033	67.19
247.266	88.19
247.5	75.19
247.733	78.19
247.966	68.19
248.2	73.19
248.433	67.19
248.666	63.19
248.899	81.19
249.133	74.19
249.366	80.19
249.599	61.19
249.832	76.19
250.066	92.19
250.299	70.19
250.532	85.19
250.765	93.19
250.998	82.19
251.231	80.19
251.465	88.19
251.698	83.19
251.931	85.19
252.164	78.19
252.397	86.19
252.63	85.19
252.863	74.19
253.096	73.19
253.329	77.19
253.562	80.19
253.795	74.19
254.028	72.19
254.261	79.19
254.494	73.19
254.727	79.19
254.96	84.19
255.193	77.19
255.426	72.19
255.659	73.19
255.892	88.19
256.124	75.19
256.357	81.19
256.59	71.19
256.823	82.19
257.056	81.19
257.289	77.19
257.521	91.19
257.754	71.19
257.987	70.19
258.22	66.19
258.452	80.19
258.685	69.19
258.918	88.19
259.151	72.19
259.383	73.19
259.616	80.19
259.849	94.19
260.081	74.19
260.314	85.19
260.547	83.19
260.779	98.19
261.012	91.19
261.244	71.19
261.477	78.19
261.71	81.19
261.942	84.19
262.175	96.19
262.407	88.19
262.64	70.19
262.872	79.19
263.105	78.19
263.337	84.19
263.57	85.19
263.802	92.19
264.035	82.19
264.267	84.19
264.499	95.19
264.732	67.19
264.964	94.19
265.197	81.19
265.429	80.19
265.661	85.19
265.894	80.19
266.126	80.19
266.358	70.19
266.591	80.19
266.823	68.19
267.055	82.19
267.287	74.19
267.52	77.19
267.752	72.19
267.984	81.19
268.216	66.19
268.448	97.19
268.681	78.19
268.913	95.19
269.145	82.19
269.377	97.19
269.609	83.19
269.841	87.19
270.073	84.19
270.306	89.19
270.538	79.19
270.77	83.19
271.002	78.19
271.234	85.19
271.466	88.19
271.698	76.19
271.93	72.19
272.162	81.19
272.394	74.19
272.626	79.19
272.858	82.19
273.09	71.19
273.322	79.19
273.553	84.19
273.785	84.19
274.017	80.19
274.249	91.19
274.481	86.19
274.713	86.19
274.945	80.19
275.176	69.19
275.408	74.19
275.64	76.19
275.872	77.19
276.104	76.19
276.335	73.19
276.567	94.19
276.799	88.19
277.031	94.19
277.262	75.19
277.494	84.19
277.726	78.19
277.957	80.19
278.189	68.19
278.421	90.19
278.652	81.19
278.884	77.19
279.115	80.19
279.347	81.19
279.579	81.19
279.81	98.19
280.042	98.19
280.273	85.19
280.505	74.19
280.736	69.19
280.968	84.19
281.199	82.19
281.431	71.19
281.662	84.19
281.894	92.19
282.125	92.19
282.356	86.19
282.588	85.19
282.819	69.19
283.051	77.19
283.282	77.19
283.513	79.19
283.745	74.19
283.976	96.19
284.207	69.19
284.439	101.19
284.67	90.19
284.901	84.19
285.132	89.19
285.364	84.19
285.595	92.19
285.826	90.19
286.057	84.19
286.288	90.19
286.52	98.19
286.751	75.19
286.982	81.19
287.213	80.19
287.444	91.19
287.675	84.19
287.906	80.19
288.138	78.19
288.369	81.19
288.6	86.19
288.831	78.19
289.062	91.19
289.293	98.19
289.524	87.19
289.755	95.19
289.986	80.19
290.217	80.19
290.448	94.19
290.679	82.19
290.91	79.19
291.141	90.19
291.371	82.19
291.602	77.19
291.833	76.19
292.064	87.19
292.295	85.19
292.526	93.19
292.757	90.19
292.987	100.19
293.218	83.19
293.449	81.19
293.68	82.19
293.91	81.19
294.141	89.19
294.372	71.19
294.603	82.19
294.833	79.19
295.064	90.19
295.295	85.19
295.525	88.19
295.756	95.19
295.987	93.19
296.217	74.19
296.448	74.19
296.679	82.19
296.909	86.19
297.14	78.19
297.37	72.19
297.601	82.19
297.831	76.19
298.062	72.19
298.292	87.19
298.523	76.19
298.753	82.19
298.984	83.19
299.214	88.19
299.445	77.19
299.675	84.19
299.905	68.19
300.136	76.19
300.366	87.19
300.597	87.19
300.827	101.19
301.057	92.19
301.288	93.19
301.518	89.19
301.748	89.19
301.979	82.19
302.209	89.19
302.439	80.19
302.669	79.19
302.9	82.19
303.13	96.19
303.36	73.19
303.59	68.19
303.82	76.19
304.051	93.19
304.281	80.19
304.511	93.19
304.741	84.19
304.971	88.19
305.201	90.19
305.431	101.19
305.661	71.19
305.891	76.19
306.121	93.19
306.352	87.19
306.582	84.19
306.812	76.19
307.042	75.19
307.272	96.19
307.502	91.19
307.731	79.19
307.961	82.19
308.191	85.19
308.421	74.19
308.651	78.19
308.881	90.19
309.111	97.19
309.341	82.19
309.571	84.19
309.8	89.19
310.03	89.19
310.26	95.19
310.49	85.19
310.72	63.19
310.949	71.19
311.179	90.19
311.409	86.19
311.639	74.19
311.868	99.19
312.098	93.19
312.328	81.19
312.557	90.19
312.787	92.19
313.017	89.19
313.246	88.19
313.476	73.19
313.706	73.19
313.935	88.19
314.165	79.19
314.394	75.19
314.624	83.19
314.853	85.19
315.083	89.19
315.312	78.19
315.542	98.19
315.771	92.19
316.001	92.19
316.23	94.19
316.46	89.19
316.689	73.19
316.919	86.19
317.148	82.19
317.377	84.19
317.607	77.19
317.836	94.19
318.065	77.19
318.295	84.19
318.524	86.19
318.753	86.19
318.983	80.19
319.212	97.19
319.441	82.19
319.67	93.19
319.9	77.19
320.129	93.19
320.358	80.19
320.587	101.19
320.816	84.19
321.046	79.19
321.275	84.19
321.504	78.19
321.733	79.19
321.962	74.19
322.191	82.19
322.42	84.19
322.649	78.19
322.878	81.19
323.108	92.19
323.337	77.19
323.566	75.19
323.795	79.19
324.024	74.19
324.253	79.19
324.482	80.19
324.71	80.19
324.939	94.19
325.168	84.19
325.397	84.19
325.626	85.19
325.855	80.19
326.084	85.19
326.313	92.19
326.542	86.19
326.77	95.19
326.999	80.19
327.228	92.19
327.457	92.19
327.686	81.19
327.914	73.19
328.143	81.19
328.372	89.19
328.6	80.19
328.829	76.19
329.058	94.19
329.287	85.19
329.515	88.19
329.744	71.19
329.972	89.19
330.201	90.19
330.43	89.19
330.658	83.19
330.887	82.19
331.115	79.19
331.344	81.19
331.572	86.19
331.801	100.19
332.03	78.19
332.258	82.19
332.486	86.19
332.715	84.19
332.943	83.19
333.172	88.19
333.4	92.19
333.629	88.19
333.857	78.19
334.085	87.19
334.314	76.19
334.542	93.19
334.771	87.19
334.999	80.19
335.227	81.19
335.455	83.19
335.684	80.19
335.912	73.19
336.14	81.19
336.369	95.19
336.597	88.19
336.825	88.19
337.053	81.19
337.281	89.19
337.51	83.19
337.738	92.19
337.966	83.19
338.194	73.19
338.422	68.19
338.65	90.19
338.878	93.19
339.106	89.19
339.334	84.19
339.562	69.19
339.79	96.19
340.018	74.19
340.246	69.19
340.474	85.19
340.702	78.19
340.93	96.19
341.158	91.19
341.386	72.19
341.614	69.19
341.842	81.19
342.07	76.19
342.298	84.19
342.526	72.19
342.754	84.19
342.981	90.19
343.209	85.19
343.437	101.19
343.665	96.19
343.893	94.19
344.12	97.19
344.348	70.19
344.576	70.19
344.804	74.19
345.031	79.19
345.259	84.19
345.487	79.19
345.714	80.19
345.942	88.19
346.17	74.19
346.397	82.19
346.625	88.19
346.853	85.19
347.08	89.19
347.308	85.19
347.535	88.19
347.763	74.19
347.99	70.19
348.218	87.19
348.445	76.19
348.673	85.19
348.9	80.19
349.128	76.19
349.355	93.19
349.583	74.19
349.81	66.19
350.037	77.19
350.265	79.19
350.492	82.19
350.72	67.19
350.947	86.19
351.174	85.19
351.402	77.19
351.629	82.19
351.856	90.19
352.083	85.19
352.311	81.19
352.538	66.19
352.765	75.19
352.992	88.19
353.22	91.19
353.447	88.19
353.674	93.19
353.901	86.19
354.128	86.19
354.355	84.19
354.583	75.19
354.81	77.19
355.037	86.19
355.264	84.19
355.491	79.19
355.718	75.19
355.945	83.19
356.172	85.19
356.399	83.19
356.626	89.19
356.853	80.19
357.08	85.19
357.307	73.19
357.534	83.19
357.761	82.19
357.988	85.19
358.215	74.19
358.441	94.19
358.668	84.19
358.895	80.19
359.122	86.19
359.349	96.19
359.576	88.19
359.802	67.19
360.029	81.19
360.256	91.19
360.483	79.19
360.709	85.19
360.936	73.19
361.163	73.19
361.39	88.19
361.616	94.19
361.843	78.19
362.07	96.19
362.296	84.19
362.523	87.19
362.749	86.19
362.976	72.19
363.203	92.19
363.429	83.19
363.656	78.19
363.882	87.19
364.109	82.19
364.335	88.19
364.562	91.19
364.788	85.19
365.015	88.19
365.241	87.19
365.468	72.19
365.694	64.19
365.92	88.19
366.147	77.19
366.373	80.19
366.599	81.19
366.826	85.19
367.052	80.19
367.278	68.19
367.505	85.19
367.731	68.19
367.957	98.19
368.184	91.19
368.41	82.19
368.636	99.19
368.862	82.19
369.089	95.19
369.315	66.19
369.541	91.19
369.767	71.19
369.993	90.19
370.219	75.19
370.445	70.19
370.672	73.19
370.898	78.19
371.124	80.19
371.35	76.19
371.576	69.19
371.802	66.19
372.028	80.19
372.254	70.19
372.48	78.19
372.706	90.19
372.932	86.19
373.158	84.19
373.384	90.19
373.61	95.19
373.835	87.19
374.061	70.19
374.287	94.19
374.513	100.19
374.739	71.19
374.965	97.19
375.191	76.19
375.416	72.19
375.642	71.19
375.868	85.19
376.094	84.19
376.319	86.19
376.545	79.19
376.771	79.19
376.997	66.19
377.222	89.19
377.448	78.19
377.674	72.19
377.899	75.19
378.125	68.19
378.35	87.19
378.576	84.19
378.802	87.19
379.027	86.19
379.253	78.19
379.478	82.19
379.704	89.19
379.929	77.19
380.155	88.19
380.38	83.19
380.606	93.19
380.831	68.19
381.057	88.19
381.282	80.19
381.507	82.19
381.733	83.19
381.958	92.19
382.184	84.19
382.409	83.19
382.634	89.19
382.86	92.19
383.085	88.19
383.31	90.19
383.535	88.19
383.761	82.19
383.986	87.19
384.211	76.19
384.436	85.19
384.662	72.19
384.887	78.19
385.112	74.19
385.337	86.19
385.562	74.19
385.787	79.19
386.013	91.19
386.238	93.19
386.463	78.19
386.688	104.19
386.913	88.19
387.138	81.19
387.363	90.19
387.588	89.19
387.813	89.19
388.038	78.19
388.263	73.19
388.488	84.19
388.713	86.19
388.938	89.19
389.163	74.19
389.387	72.19
389.612	82.19
389.837	84.19
390.062	72.19
390.287	68.19
390.512	71.19
390.736	94.19
390.961	76.19
391.186	87.19
391.411	82.19
391.636	70.19
391.86	84.19
392.085	90.19
392.31	89.19
392.534	77.19
392.759	95.19
392.984	94.19
393.208	147.19
393.433	196.19
393.658	152.19
393.882	95.19
394.107	79.19
394.331	90.19
394.556	87.19
394.78	90.19
395.005	75.19
395.229	85.19
395.454	83.19
395.678	94.19
395.903	97.19
396.127	99.19
396.352	102.19
396.576	118.19
396.801	137.19
397.025	171.19
397.249	100.19
397.474	102.19
397.698	99.19
397.922	84.19
398.147	83.19
398.371	80.19
398.595	78.19
398.82	72.19
399.044	93.19
399.268	102.19
399.492	88.19
399.717	86.19
399.941	75.19
400.165	81.19
400.389	88.19
400.613	68.19
400.837	79.19
401.062	85.19
401.286	92.19
401.51	79.19
401.734	81.19
401.958	81.19
402.182	91.19
402.406	88.19
402.63	63.19
402.854	82.19
403.078	87.19
403.302	81.19
403.526	69.19
403.75	92.19
403.974	82.19
404.198	65.19
404.422	82.19
404.645	80.19
404.869	73.19
405.093	85.19
405.317	89.19
405.541	86.19
405.765	80.19
405.988	64.19
406.212	70.19
406.436	83.19
406.66	85.19
406.883	83.19
407.107	84.19
407.331	72.19
407.555	84.19
407.778	96.19
408.002	84.19
408.226	80.19
408.449	71.19
408.673	65.19
408.896	97.19
409.12	79.19
409.344	89.19
409.567	74.19
409.791	86.19
410.014	84.19
410.238	78.19
410.461	75.19
410.685	74.19
410.908	70.19
411.132	84.19
411.355	83.19
411.578	83.19
411.802	80.19
412.025	103.19
412.249	85.19
412.472	90.19
412.695	83.19
412.919	79.19
413.142	78.19
413.365	86.19
413.589	88.19
413.812	77.19
414.035	89.19
414.258	94.19
414.482	79.19
414.705	83.19
414.928	84.19
415.151	70.19
415.374	89.19
415.597	73.19
415.821	83.19
416.044	87.19
416.267	82.19
416.49	80.19
416.713	68.19
416.936	77.19
417.159	75.19
417.382	82.19
417.605	83.19
417.828	86.19
418.051	92.19
418.274	84.19
418.497	91.19
418.72	75.19
418.943	71.19
419.166	75.19
419.389	72.19
419.611	78.19
419.834	85.19
420.057	73.19
420.28	88.19
420.503	88.19
420.726	92.19
420.948	78.19
421.171	86.19
421.394	86.19
421.617	99.19
421.839	95.19
422.062	96.19
422.285	102.19
422.507	132.19
422.73	192.19
422.953	179.19
423.175	104.19
423.398	80.19
423.621	81.19
423.843	80.19
424.066	72.19
424.288	83.19
424.511	72.19
424.733	74.19
424.956	91.19
425.178	84.19
425.401	80.19
425.623	75.19
425.846	81.19
426.068	87.19
426.291	80.19
426.513	80.19
426.735	85.19
426.958	92.19
427.18	87.19
427.402	79.19
427.625	64.19
427.847	80.19
428.069	95.19
428.292	105.19
428.514	95.19
428.736	75.19
428.958	89.19
429.181	98.19
429.403	80.19
429.625	72.19
429.847	94.19
430.069	93.19
430.292	112.19
430.514	120.19
430.736	84.19
430.958	96.19
431.18	90.19
431.402	81.19
431.624	79.19
431.846	92.19
432.068	92.19
432.29	80.19
432.512	81.19
432.734	90.19
432.956	83.19
433.178	82.19
433.4	69.19
433.622	95.19
433.844	70.19
434.066	78.19
434.287	84.19
434.509	80.19
434.731	82.19
434.953	69.19
435.175	74.19
435.397	75.19
435.618	88.19
435.84	92.19
436.062	70.19
436.284	79.19
436.505	80.19
436.727	74.19
436.949	86.19
437.17	64.19
437.392	75.19
437.614	83.19
437.835	67.19
438.057	80.19
438.278	86.19
438.5	84.19
438.721	85.19
438.943	86.19
439.165	75.19
439.386	80.19
439.608	86.19
439.829	87.19
440.05	88.19
440.272	70.19
440.493	82.19
440.715	77.19
440.936	93.19
441.158	66.19
441.379	86.19
441.6	80.19
441.822	78.19
442.043	76.19
442.264	77.19
442.486	81.19
442.707	93.19
442.928	78.19
443.149	72.19
443.371	102.19
443.592	118.19
443.813	124.19
444.034	82.19
444.255	82.19
444.476	76.19
444.698	88.19
444.919	81.19
445.14	134.19
445.361	122.19
445.582	140.19
445.803	110.19
446.024	79.19
446.245	85.19
446.466	80.19
446.687	82.19
446.908	75.19
447.129	83.19
447.35	71.19
447.571	78.19
447.792	72.19
448.013	73.19
448.234	80.19
448.455	74.19
448.675	84.19
448.896	78.19
449.117	88.19
449.338	75.19
449.559	72.19
449.779	89.19
450	73.19
450.221	82.19
450.442	75.19
450.662	85.19
450.883	74.19
451.104	71.19
451.324	83.19
451.545	90.19
451.766	79.19
451.986	73.19
452.207	71.19
452.428	80.19
452.648	81.19
452.869	93.19
453.089	80.19
453.31	75.19
453.53	71.19
453.751	84.19
453.971	75.19
454.192	73.19
454.412	82.19
454.633	80.19
454.853	64.19
455.073	70.19
455.294	77.19
455.514	76.19
455.734	78.19
455.955	81.19
456.175	83.19
456.395	80.19
456.616	79.19
456.836	83.19
457.056	74.19
457.276	90.19
457.497	72.19
457.717	85.19
457.937	72.19
458.157	74.19
458.377	86.19
458.598	86.19
458.818	92.19
459.038	69.19
459.258	60.19
459.478	63.19
459.698	80.19
459.918	83.19
460.138	92.19
460.358	66.19
460.578	96.19
460.798	101.19
461.018	91.19
461.238	85.19
461.458	76.19
461.678	72.19
461.898	69.19
462.118	86.19
462.338	62.19
462.558	81.19
462.777	84.19
462.997	73.19
463.217	93.19
463.437	73.19
463.657	79.19
463.876	81.19
464.096	91.19
464.316	72.19
464.536	96.19
464.755	89.19
464.975	82.19
465.195	80.19
465.414	88.19
465.634	94.19
465.854	88.19
466.073	79.19
466.293	77.19
466.512	84.19
466.732	72.19
466.951	69.19
467.171	72.19
467.391	61.19
467.61	68.19
467.829	88.19
468.049	84.19
468.268	80.19
468.488	92.19
468.707	73.19
468.927	87.19
469.146	69.19
469.365	70.19
469.585	85.19
469.804	70.19
470.023	87.19
470.243	86.19
470.462	77.19
470.681	69.19
470.901	65.19
471.12	73.19
471.339	88.19
471.558	80.19
471.777	72.19
471.997	81.19
472.216	79.19
472.435	74.19
472.654	90.19
472.873	82.19
473.092	73.19
473.311	89.19
473.53	77.19
473.749	74.19
473.968	80.19
474.187	83.19
474.406	82.19
474.625	80.19
474.844	86.19
475.063	80.19
475.282	69.19
475.501	90.19
475.72	83.19
475.939	75.19
476.158	85.19
476.377	87.19
476.596	80.19
476.814	79.19
477.033	71.19
477.252	89.19
477.471	75.19
477.69	86.19
477.908	80.19
478.127	72.19
478.346	68.19
478.564	87.19
478.783	75.19
479.002	94.19
479.22	82.19
479.439	96.19
479.658	73.19
479.876	70.19
480.095	69.19
480.313	84.19
480.532	80.19
480.751	70.19
480.969	83.19
481.188	88.19
481.406	82.19
481.624	79.19
481.843	80.19
482.061	73.19
482.28	93.19
482.498	74.19
482.717	73.19
482.935	80.19
483.153	78.19
483.372	85.19
483.59	89.19
483.808	78.19
484.027	87.19
484.245	85.19
484.463	73.19
484.681	98.19
484.9	74.19
485.118	71.19
485.336	88.19
485.554	77.19
485.772	93.19
485.99	74.19
486.209	75.19
486.427	76.19
486.645	84.19
486.863	85.19
487.081	68.19
487.299	78.19
487.517	99.19
487.735	80.19
487.953	82.19
488.171	88.19
488.389	82.19
488.607	82.19
488.825	80.19
489.043	85.19
489.261	89.19
489.479	88.19
489.696	80.19
489.914	85.19
490.132	65.19
490.35	74.19
490.568	91.19
490.786	92.19
491.003	68.19
491.221	94.19
491.439	72.19
491.657	89.19
491.874	81.19
492.092	78.19
492.31	74.19
492.527	70.19
492.745	81.19
492.963	74.19
493.18	88.19
493.398	68.19
493.615	90.19
493.833	75.19
494.05	70.19
494.268	79.19
494.485	63.19
494.703	84.19
494.92	80.19
495.138	77.19
495.355	80.19
495.573	83.19
495.79	87.19
496.008	78.19
496.225	74.19
496.442	80.19
496.66	84.19
496.877	76.19
497.094	86.19
497.312	70.19
497.529	82.19
497.746	84.19
497.963	88.19
498.181	71.19
498.398	81.19
498.615	99.19
498.832	102.19
499.049	85.19
499.267	84.19
499.484	71.19
499.701	82.19
499.918	92.19
500.135	77.19
500.352	82.19
500.569	86.19
500.786	90.19
501.003	73.19
501.22	82.19
501.437	84.19
501.654	97.19
501.871	84.19
502.088	87.19
502.305	92.19
502.522	77.19
502.739	64.19
502.956	78.19
503.172	94.19
503.389	93.19
503.606	87.19
503.823	78.19
504.04	87.19
504.256	104.19
504.473	105.19
504.69	79.19
504.907	93.19
505.123	97.19
505.34	89.19
505.557	80.19
505.773	77.19
505.99	76.19
506.207	97.19
506.423	85.19
506.64	82.19
506.856	92.19
507.073	65.19
507.289	80.19
507.506	78.19
507.722	63.19
507.939	84.19
508.155	87.19
508.372	76.19
508.588	70.19
508.805	92.19
509.021	80.19
509.238	82.19
509.454	74.19
509.67	80.19
509.887	72.19
510.103	79.19
510.319	84.19
510.536	88.19
510.752	87.19
510.968	81.19
511.184	83.19
511.401	90.19
511.617	84.19
511.833	99.19
512.049	84.19
512.265	87.19
512.481	89.19
512.698	83.19
512.914	85.19
513.13	70.19
513.346	73.19
513.562	69.19
513.778	87.19
513.994	86.19
514.21	93.19
514.426	86.19
514.642	89.19
514.858	91.19
515.074	85.19
515.29	89.19
515.506	88.19
515.721	82.19
515.937	94.19
516.153	73.19
516.369	69.19
516.585	93.19
516.801	82.19
517.016	79.19
517.232	89.19
517.448	87.19
517.664	83.19
517.879	91.19
518.095	81.19
518.311	88.19
518.527	88.19
518.742	68.19
518.958	89.19
519.173	87.19
519.389	100.19
519.605	75.19
519.82	76.19
