Data from 15780_3_HRD10591_00018.txt Node
Date: Mon Jan 19 14:20:07 EST 2026
User: Yrep
Spectrometer: HR+D1059
Trigger mode: 1
Integration Time (sec): 1.000000E-1
Scans to average: 1
Electric dark correction enabled: true
Nonlinearity correction enabled: false
Boxcar width: 0
XAxis mode: Wavelengths
Number of Pixels in Spectrum: 2048
>>>>>Begin Spectral Data<<<<<
223.165	-11.38
223.4	-11.38
223.635	-11.38
223.869	-23.38
224.104	-17.38
224.338	-18.38
224.573	-8.38
224.808	-5.38
225.042	-20.38
225.277	1.62
225.511	0.62
225.746	-6.38
225.98	-0.38
226.215	18.62
226.449	4.62
226.683	13.62
226.918	27.62
227.152	44.62
227.387	30.62
227.621	38.62
227.856	55.62
228.09	45.62
228.324	56.62
228.559	64.62
228.793	58.62
229.027	61.62
229.262	57.62
229.496	82.62
229.73	70.62
229.964	92.62
230.199	87.62
230.433	68.62
230.667	68.62
230.901	74.62
231.136	83.62
231.37	82.62
231.604	91.62
231.838	84.62
232.072	80.62
232.306	77.62
232.541	80.62
232.775	100.62
233.009	82.62
233.243	70.62
233.477	92.62
233.711	86.62
233.945	64.62
234.179	85.62
234.413	75.62
234.647	84.62
234.881	83.62
235.115	74.62
235.349	82.62
235.583	79.62
235.817	97.62
236.051	72.62
236.285	70.62
236.519	78.62
236.753	65.62
236.987	91.62
237.221	92.62
237.455	70.62
237.689	74.62
237.922	81.62
238.156	66.62
238.39	82.62
238.624	78.62
238.858	86.62
239.091	78.62
239.325	74.62
239.559	80.62
239.793	72.62
240.027	74.62
240.26	81.62
240.494	76.62
240.728	78.62
240.961	77.62
241.195	71.62
241.429	62.62
241.662	73.62
241.896	78.62
242.13	77.62
242.363	70.62
242.597	85.62
242.83	59.62
243.064	66.62
243.298	71.62
243.531	70.62
243.765	93.62
243.998	85.62
244.232	83.62
244.465	81.62
244.699	74.62
244.932	74.62
245.166	68.62
245.399	79.62
245.633	84.62
245.866	78.62
246.099	82.62
246.333	81.62
246.566	90.62
246.8	78.62
247.033	85.62
247.266	78.62
247.5	83.62
247.733	86.62
247.966	75.62
248.2	77.62
248.433	82.62
248.666	69.62
248.899	68.62
249.133	72.62
249.366	64.62
249.599	71.62
249.832	75.62
250.066	76.62
250.299	90.62
250.532	68.62
250.765	81.62
250.998	72.62
251.231	92.62
251.465	82.62
251.698	93.62
251.931	72.62
252.164	76.62
252.397	87.62
252.63	81.62
252.863	81.62
253.096	67.62
253.329	84.62
253.562	78.62
253.795	77.62
254.028	85.62
254.261	76.62
254.494	75.62
254.727	71.62
254.96	92.62
255.193	88.62
255.426	77.62
255.659	82.62
255.892	80.62
256.124	77.62
256.357	76.62
256.59	73.62
256.823	87.62
257.056	75.62
257.289	84.62
257.521	85.62
257.754	80.62
257.987	68.62
258.22	86.62
258.452	78.62
258.685	86.62
258.918	81.62
259.151	83.62
259.383	81.62
259.616	87.62
259.849	101.62
260.081	82.62
260.314	70.62
260.547	75.62
260.779	87.62
261.012	86.62
261.244	83.62
261.477	87.62
261.71	87.62
261.942	85.62
262.175	91.62
262.407	75.62
262.64	77.62
262.872	88.62
263.105	70.62
263.337	76.62
263.57	78.62
263.802	86.62
264.035	71.62
264.267	75.62
264.499	89.62
264.732	90.62
264.964	82.62
265.197	90.62
265.429	80.62
265.661	89.62
265.894	84.62
266.126	86.62
266.358	75.62
266.591	74.62
266.823	78.62
267.055	92.62
267.287	64.62
267.52	86.62
267.752	84.62
267.984	91.62
268.216	72.62
268.448	80.62
268.681	84.62
268.913	82.62
269.145	83.62
269.377	94.62
269.609	83.62
269.841	86.62
270.073	83.62
270.306	77.62
270.538	77.62
270.77	78.62
271.002	76.62
271.234	91.62
271.466	79.62
271.698	78.62
271.93	84.62
272.162	88.62
272.394	79.62
272.626	77.62
272.858	86.62
273.09	96.62
273.322	65.62
273.553	85.62
273.785	74.62
274.017	83.62
274.249	82.62
274.481	85.62
274.713	90.62
274.945	82.62
275.176	89.62
275.408	79.62
275.64	87.62
275.872	82.62
276.104	81.62
276.335	78.62
276.567	82.62
276.799	88.62
277.031	74.62
277.262	88.62
277.494	93.62
277.726	71.62
277.957	89.62
278.189	68.62
278.421	78.62
278.652	87.62
278.884	85.62
279.115	84.62
279.347	76.62
279.579	89.62
279.81	77.62
280.042	79.62
280.273	90.62
280.505	98.62
280.736	77.62
280.968	90.62
281.199	80.62
281.431	81.62
281.662	72.62
281.894	85.62
282.125	80.62
282.356	77.62
282.588	86.62
282.819	88.62
283.051	87.62
283.282	81.62
283.513	86.62
283.745	86.62
283.976	87.62
284.207	81.62
284.439	92.62
284.67	69.62
284.901	75.62
285.132	85.62
285.364	70.62
285.595	99.62
285.826	82.62
286.057	75.62
286.288	76.62
286.52	94.62
286.751	92.62
286.982	88.62
287.213	76.62
287.444	83.62
287.675	96.62
287.906	78.62
288.138	80.62
288.369	88.62
288.6	93.62
288.831	85.62
289.062	96.62
289.293	76.62
289.524	75.62
289.755	86.62
289.986	100.62
290.217	83.62
290.448	78.62
290.679	86.62
290.91	84.62
291.141	87.62
291.371	96.62
291.602	94.62
291.833	81.62
292.064	86.62
292.295	74.62
292.526	79.62
292.757	82.62
292.987	79.62
293.218	87.62
293.449	97.62
293.68	89.62
293.91	82.62
294.141	85.62
294.372	79.62
294.603	84.62
294.833	83.62
295.064	94.62
295.295	86.62
295.525	78.62
295.756	91.62
295.987	85.62
296.217	90.62
296.448	91.62
296.679	100.62
296.909	97.62
297.14	84.62
297.37	102.62
297.601	84.62
297.831	60.62
298.062	88.62
298.292	77.62
298.523	77.62
298.753	73.62
298.984	80.62
299.214	82.62
299.445	93.62
299.675	86.62
299.905	86.62
300.136	76.62
300.366	71.62
300.597	83.62
300.827	97.62
301.057	96.62
301.288	79.62
301.518	77.62
301.748	75.62
301.979	100.62
302.209	70.62
302.439	87.62
302.669	82.62
302.9	93.62
303.13	79.62
303.36	86.62
303.59	79.62
303.82	90.62
304.051	84.62
304.281	83.62
304.511	91.62
304.741	86.62
304.971	81.62
305.201	74.62
305.431	100.62
305.661	106.62
305.891	97.62
306.121	83.62
306.352	77.62
306.582	78.62
306.812	95.62
307.042	91.62
307.272	72.62
307.502	82.62
307.731	102.62
307.961	98.62
308.191	89.62
308.421	88.62
308.651	86.62
308.881	91.62
309.111	101.62
309.341	76.62
309.571	96.62
309.8	73.62
310.03	79.62
310.26	85.62
310.49	85.62
310.72	85.62
310.949	77.62
311.179	80.62
311.409	91.62
311.639	93.62
311.868	71.62
312.098	81.62
312.328	84.62
312.557	84.62
312.787	84.62
313.017	92.62
313.246	66.62
313.476	82.62
313.706	67.62
313.935	95.62
314.165	90.62
314.394	88.62
314.624	81.62
314.853	100.62
315.083	80.62
315.312	89.62
315.542	82.62
315.771	79.62
316.001	84.62
316.23	94.62
316.46	86.62
316.689	87.62
316.919	88.62
317.148	95.62
317.377	98.62
317.607	88.62
317.836	86.62
318.065	104.62
318.295	90.62
318.524	96.62
318.753	75.62
318.983	77.62
319.212	88.62
319.441	94.62
319.67	80.62
319.9	90.62
320.129	106.62
320.358	85.62
320.587	94.62
320.816	94.62
321.046	73.62
321.275	86.62
321.504	92.62
321.733	94.62
321.962	89.62
322.191	85.62
322.42	100.62
322.649	90.62
322.878	87.62
323.108	80.62
323.337	79.62
323.566	93.62
323.795	91.62
324.024	100.62
324.253	85.62
324.482	86.62
324.71	92.62
324.939	88.62
325.168	96.62
325.397	87.62
325.626	72.62
325.855	96.62
326.084	87.62
326.313	84.62
326.542	78.62
326.77	93.62
326.999	94.62
327.228	69.62
327.457	75.62
327.686	78.62
327.914	84.62
328.143	84.62
328.372	87.62
328.6	77.62
328.829	93.62
329.058	89.62
329.287	96.62
329.515	86.62
329.744	82.62
329.972	74.62
330.201	89.62
330.43	108.62
330.658	84.62
330.887	92.62
331.115	81.62
331.344	92.62
331.572	87.62
331.801	70.62
332.03	92.62
332.258	87.62
332.486	84.62
332.715	87.62
332.943	91.62
333.172	91.62
333.4	97.62
333.629	92.62
333.857	89.62
334.085	91.62
334.314	109.62
334.542	88.62
334.771	93.62
334.999	98.62
335.227	78.62
335.455	76.62
335.684	74.62
335.912	76.62
336.14	84.62
336.369	71.62
336.597	90.62
336.825	86.62
337.053	101.62
337.281	83.62
337.51	88.62
337.738	80.62
337.966	78.62
338.194	90.62
338.422	86.62
338.65	88.62
338.878	87.62
339.106	78.62
339.334	90.62
339.562	93.62
339.79	99.62
340.018	83.62
340.246	97.62
340.474	78.62
340.702	90.62
340.93	88.62
341.158	82.62
341.386	99.62
341.614	93.62
341.842	77.62
342.07	70.62
342.298	67.62
342.526	72.62
342.754	79.62
342.981	93.62
343.209	87.62
343.437	89.62
343.665	85.62
343.893	93.62
344.12	97.62
344.348	98.62
344.576	92.62
344.804	96.62
345.031	100.62
345.259	102.62
345.487	76.62
345.714	92.62
345.942	93.62
346.17	88.62
346.397	85.62
346.625	87.62
346.853	83.62
347.08	83.62
347.308	95.62
347.535	91.62
347.763	99.62
347.99	93.62
348.218	73.62
348.445	86.62
348.673	96.62
348.9	76.62
349.128	84.62
349.355	94.62
349.583	85.62
349.81	83.62
350.037	73.62
350.265	90.62
350.492	98.62
350.72	86.62
350.947	74.62
351.174	79.62
351.402	88.62
351.629	96.62
351.856	97.62
352.083	88.62
352.311	83.62
352.538	79.62
352.765	76.62
352.992	92.62
353.22	87.62
353.447	89.62
353.674	90.62
353.901	83.62
354.128	86.62
354.355	72.62
354.583	94.62
354.81	86.62
355.037	80.62
355.264	77.62
355.491	84.62
355.718	79.62
355.945	74.62
356.172	75.62
356.399	84.62
356.626	88.62
356.853	84.62
357.08	96.62
357.307	83.62
357.534	90.62
357.761	91.62
357.988	102.62
358.215	98.62
358.441	90.62
358.668	85.62
358.895	96.62
359.122	89.62
359.349	87.62
359.576	88.62
359.802	88.62
360.029	85.62
360.256	70.62
360.483	84.62
360.709	87.62
360.936	84.62
361.163	83.62
361.39	78.62
361.616	88.62
361.843	88.62
362.07	82.62
362.296	100.62
362.523	110.62
362.749	94.62
362.976	96.62
363.203	107.62
363.429	93.62
363.656	91.62
363.882	109.62
364.109	112.62
364.335	106.62
364.562	103.62
364.788	112.62
365.015	92.62
365.241	94.62
365.468	74.62
365.694	78.62
365.92	94.62
366.147	87.62
366.373	96.62
366.599	94.62
366.826	71.62
367.052	89.62
367.278	86.62
367.505	80.62
367.731	87.62
367.957	91.62
368.184	99.62
368.41	97.62
368.636	100.62
368.862	82.62
369.089	84.62
369.315	79.62
369.541	85.62
369.767	89.62
369.993	109.62
370.219	93.62
370.445	94.62
370.672	94.62
370.898	84.62
371.124	89.62
371.35	93.62
371.576	87.62
371.802	90.62
372.028	85.62
372.254	109.62
372.48	81.62
372.706	96.62
372.932	96.62
373.158	97.62
373.384	105.62
373.61	118.62
373.835	102.62
374.061	100.62
374.287	106.62
374.513	89.62
374.739	112.62
374.965	114.62
375.191	104.62
375.416	93.62
375.642	84.62
375.868	92.62
376.094	93.62
376.319	101.62
376.545	100.62
376.771	103.62
376.997	85.62
377.222	79.62
377.448	85.62
377.674	89.62
377.899	102.62
378.125	101.62
378.35	76.62
378.576	76.62
378.802	105.62
379.027	82.62
379.253	96.62
379.478	89.62
379.704	94.62
379.929	91.62
380.155	89.62
380.38	95.62
380.606	95.62
380.831	81.62
381.057	92.62
381.282	97.62
381.507	92.62
381.733	88.62
381.958	88.62
382.184	86.62
382.409	90.62
382.634	104.62
382.86	85.62
383.085	97.62
383.31	85.62
383.535	87.62
383.761	98.62
383.986	100.62
384.211	83.62
384.436	95.62
384.662	94.62
384.887	91.62
385.112	78.62
385.337	91.62
385.562	87.62
385.787	100.62
386.013	114.62
386.238	101.62
386.463	82.62
386.688	108.62
386.913	110.62
387.138	84.62
387.363	88.62
387.588	102.62
387.813	103.62
388.038	96.62
388.263	94.62
388.488	98.62
388.713	107.62
388.938	89.62
389.163	100.62
389.387	100.62
389.612	92.62
389.837	83.62
390.062	90.62
390.287	89.62
390.512	89.62
390.736	93.62
390.961	98.62
391.186	72.62
391.411	98.62
391.636	79.62
391.86	82.62
392.085	95.62
392.31	103.62
392.534	99.62
392.759	114.62
392.984	139.62
393.208	244.62
393.433	368.62
393.658	285.62
393.882	130.62
394.107	104.62
394.331	122.62
394.556	126.62
394.78	98.62
395.005	100.62
395.229	96.62
395.454	106.62
395.678	100.62
395.903	114.62
396.127	125.62
396.352	138.62
396.576	185.62
396.801	256.62
397.025	328.62
397.249	169.62
397.474	123.62
397.698	112.62
397.922	96.62
398.147	88.62
398.371	82.62
398.595	83.62
398.82	94.62
399.044	97.62
399.268	88.62
399.492	78.62
399.717	109.62
399.941	99.62
400.165	84.62
400.389	88.62
400.613	106.62
400.837	97.62
401.062	91.62
401.286	61.62
401.51	97.62
401.734	78.62
401.958	98.62
402.182	84.62
402.406	83.62
402.63	86.62
402.854	83.62
403.078	100.62
403.302	100.62
403.526	78.62
403.75	83.62
403.974	77.62
404.198	82.62
404.422	84.62
404.645	104.62
404.869	86.62
405.093	94.62
405.317	93.62
405.541	96.62
405.765	79.62
405.988	96.62
406.212	92.62
406.436	86.62
406.66	84.62
406.883	93.62
407.107	88.62
407.331	87.62
407.555	100.62
407.778	113.62
408.002	112.62
408.226	104.62
408.449	89.62
408.673	93.62
408.896	85.62
409.12	91.62
409.344	86.62
409.567	94.62
409.791	96.62
410.014	86.62
410.238	98.62
410.461	98.62
410.685	81.62
410.908	86.62
411.132	88.62
411.355	95.62
411.578	79.62
411.802	88.62
412.025	75.62
412.249	92.62
412.472	73.62
412.695	83.62
412.919	85.62
413.142	70.62
413.365	89.62
413.589	102.62
413.812	94.62
414.035	98.62
414.258	85.62
414.482	73.62
414.705	61.62
414.928	76.62
415.151	71.62
415.374	86.62
415.597	92.62
415.821	97.62
416.044	86.62
416.267	92.62
416.49	89.62
416.713	82.62
416.936	88.62
417.159	82.62
417.382	94.62
417.605	78.62
417.828	71.62
418.051	80.62
418.274	109.62
418.497	90.62
418.72	93.62
418.943	87.62
419.166	73.62
419.389	73.62
419.611	83.62
419.834	76.62
420.057	100.62
420.28	93.62
420.503	84.62
420.726	83.62
420.948	94.62
421.171	85.62
421.394	90.62
421.617	127.62
421.839	121.62
422.062	106.62
422.285	148.62
422.507	259.62
422.73	386.62
422.953	364.62
423.175	161.62
423.398	114.62
423.621	94.62
423.843	89.62
424.066	92.62
424.288	92.62
424.511	85.62
424.733	89.62
424.956	84.62
425.178	85.62
425.401	101.62
425.623	84.62
425.846	91.62
426.068	82.62
426.291	94.62
426.513	86.62
426.735	86.62
426.958	88.62
427.18	96.62
427.402	89.62
427.625	103.62
427.847	95.62
428.069	92.62
428.292	123.62
428.514	122.62
428.736	119.62
428.958	113.62
429.181	109.62
429.403	91.62
429.625	98.62
429.847	119.62
430.069	149.62
430.292	164.62
430.514	160.62
430.736	115.62
430.958	115.62
431.18	78.62
431.402	102.62
431.624	86.62
431.846	125.62
432.068	124.62
432.29	105.62
432.512	87.62
432.734	78.62
432.956	93.62
433.178	86.62
433.4	95.62
433.622	81.62
433.844	94.62
434.066	92.62
434.287	69.62
434.509	84.62
434.731	92.62
434.953	84.62
435.175	84.62
435.397	82.62
435.618	76.62
435.84	76.62
436.062	76.62
436.284	83.62
436.505	95.62
436.727	90.62
436.949	86.62
437.17	95.62
437.392	80.62
437.614	82.62
437.835	86.62
438.057	93.62
438.278	98.62
438.5	94.62
438.721	84.62
438.943	83.62
439.165	80.62
439.386	93.62
439.608	92.62
439.829	78.62
440.05	86.62
440.272	92.62
440.493	81.62
440.715	86.62
440.936	89.62
441.158	89.62
441.379	82.62
441.6	88.62
441.822	100.62
442.043	84.62
442.264	98.62
442.486	107.62
442.707	139.62
442.928	117.62
443.149	90.62
443.371	127.62
443.592	212.62
443.813	171.62
444.034	92.62
444.255	106.62
444.476	88.62
444.698	100.62
444.919	88.62
445.14	166.62
445.361	177.62
445.582	238.62
445.803	203.62
446.024	109.62
446.245	89.62
446.466	97.62
446.687	80.62
446.908	96.62
447.129	87.62
447.35	93.62
447.571	82.62
447.792	74.62
448.013	83.62
448.234	88.62
448.455	81.62
448.675	83.62
448.896	77.62
449.117	81.62
449.338	80.62
449.559	101.62
449.779	86.62
450	77.62
450.221	82.62
450.442	68.62
450.662	74.62
450.883	73.62
451.104	79.62
451.324	83.62
451.545	77.62
451.766	98.62
451.986	91.62
452.207	88.62
452.428	84.62
452.648	89.62
452.869	105.62
453.089	96.62
453.31	101.62
453.53	76.62
453.751	94.62
453.971	84.62
454.192	91.62
454.412	81.62
454.633	93.62
454.853	82.62
455.073	83.62
455.294	64.62
455.514	81.62
455.734	101.62
455.955	83.62
456.175	84.62
456.395	83.62
456.616	87.62
456.836	85.62
457.056	88.62
457.276	77.62
457.497	96.62
457.717	85.62
457.937	105.62
458.157	97.62
458.377	100.62
458.598	88.62
458.818	107.62
459.038	85.62
459.258	89.62
459.478	80.62
459.698	90.62
459.918	86.62
460.138	72.62
460.358	81.62
460.578	93.62
460.798	120.62
461.018	115.62
461.238	95.62
461.458	98.62
461.678	84.62
461.898	107.62
462.118	79.62
462.338	73.62
462.558	84.62
462.777	102.62
462.997	81.62
463.217	86.62
463.437	78.62
463.657	86.62
463.876	72.62
464.096	87.62
464.316	96.62
464.536	85.62
464.755	82.62
464.975	76.62
465.195	91.62
465.414	73.62
465.634	101.62
465.854	96.62
466.073	78.62
466.293	96.62
466.512	76.62
466.732	92.62
466.951	77.62
467.171	80.62
467.391	92.62
467.61	76.62
467.829	84.62
468.049	91.62
468.268	88.62
468.488	83.62
468.707	85.62
468.927	86.62
469.146	86.62
469.365	88.62
469.585	88.62
469.804	95.62
470.023	71.62
470.243	97.62
470.462	72.62
470.681	86.62
470.901	86.62
471.12	78.62
471.339	83.62
471.558	86.62
471.777	87.62
471.997	95.62
472.216	86.62
472.435	85.62
472.654	94.62
472.873	84.62
473.092	83.62
473.311	80.62
473.53	75.62
473.749	78.62
473.968	83.62
474.187	93.62
474.406	87.62
474.625	93.62
474.844	102.62
475.063	84.62
475.282	88.62
475.501	95.62
475.72	90.62
475.939	88.62
476.158	85.62
476.377	88.62
476.596	76.62
476.814	77.62
477.033	77.62
477.252	79.62
477.471	84.62
477.69	74.62
477.908	93.62
478.127	91.62
478.346	91.62
478.564	99.62
478.783	86.62
479.002	88.62
479.22	78.62
479.439	84.62
479.658	90.62
479.876	78.62
480.095	77.62
480.313	84.62
480.532	92.62
480.751	84.62
480.969	77.62
481.188	96.62
481.406	92.62
481.624	80.62
481.843	89.62
482.061	88.62
482.28	70.62
482.498	73.62
482.717	84.62
482.935	80.62
483.153	90.62
483.372	85.62
483.59	89.62
483.808	87.62
484.027	91.62
484.245	75.62
484.463	91.62
484.681	102.62
484.9	93.62
485.118	91.62
485.336	91.62
485.554	71.62
485.772	85.62
485.99	82.62
486.209	84.62
486.427	88.62
486.645	84.62
486.863	91.62
487.081	97.62
487.299	92.62
487.517	100.62
487.735	99.62
487.953	129.62
488.171	122.62
488.389	99.62
488.607	79.62
488.825	93.62
489.043	92.62
489.261	74.62
489.479	84.62
489.696	83.62
489.914	85.62
490.132	88.62
490.35	87.62
490.568	84.62
490.786	95.62
491.003	98.62
491.221	85.62
491.439	89.62
491.657	85.62
491.874	82.62
492.092	92.62
492.31	84.62
492.527	99.62
492.745	83.62
492.963	94.62
493.18	93.62
493.398	99.62
493.615	98.62
493.833	92.62
494.05	81.62
494.268	84.62
494.485	95.62
494.703	97.62
494.92	102.62
495.138	82.62
495.355	93.62
495.573	87.62
495.79	90.62
496.008	99.62
496.225	92.62
496.442	92.62
496.66	92.62
496.877	77.62
497.094	105.62
497.312	97.62
497.529	91.62
497.746	88.62
497.963	97.62
498.181	92.62
498.398	86.62
498.615	92.62
498.832	98.62
499.049	94.62
499.267	94.62
499.484	101.62
499.701	81.62
499.918	91.62
500.135	90.62
500.352	93.62
500.569	85.62
500.786	102.62
501.003	78.62
501.22	84.62
501.437	94.62
501.654	88.62
501.871	77.62
502.088	100.62
502.305	92.62
502.522	71.62
502.739	80.62
502.956	91.62
503.172	87.62
503.389	90.62
503.606	90.62
503.823	89.62
504.04	105.62
504.256	130.62
504.473	99.62
504.69	101.62
504.907	81.62
505.123	87.62
505.34	83.62
505.557	90.62
505.773	85.62
505.99	85.62
506.207	78.62
506.423	101.62
506.64	87.62
506.856	89.62
507.073	88.62
507.289	91.62
507.506	80.62
507.722	100.62
507.939	90.62
508.155	107.62
508.372	95.62
508.588	87.62
508.805	94.62
509.021	86.62
509.238	90.62
509.454	95.62
509.67	78.62
509.887	70.62
510.103	105.62
510.319	101.62
510.536	102.62
510.752	99.62
510.968	84.62
511.184	85.62
511.401	93.62
511.617	83.62
511.833	93.62
512.049	82.62
512.265	102.62
512.481	96.62
512.698	104.62
512.914	72.62
513.13	88.62
513.346	95.62
513.562	78.62
513.778	87.62
513.994	92.62
514.21	86.62
514.426	92.62
514.642	92.62
514.858	104.62
515.074	92.62
515.29	86.62
515.506	86.62
515.721	99.62
515.937	90.62
516.153	93.62
516.369	89.62
516.585	83.62
516.801	93.62
517.016	79.62
517.232	97.62
517.448	89.62
517.664	85.62
517.879	82.62
