Data from 15780_3_HRD10591_00003.txt Node
Date: Mon Jan 19 14:19:59 EST 2026
User: Yrep
Spectrometer: HR+D1059
Trigger mode: 1
Integration Time (sec): 1.000000E-1
Scans to average: 1
Electric dark correction enabled: true
Nonlinearity correction enabled: false
Boxcar width: 0
XAxis mode: Wavelengths
Number of Pixels in Spectrum: 2048
>>>>>Begin Spectral Data<<<<<
223.165	-16.56
223.4	-16.56
223.635	-16.56
223.869	-23.56
224.104	-13.56
224.338	-20.56
224.573	-12.56
224.808	-16.56
225.042	-10.56
225.277	9.44
225.511	-3.56
225.746	-11.56
225.98	0.44
226.215	3.44
226.449	18.44
226.683	24.44
226.918	26.44
227.152	46.44
227.387	33.44
227.621	42.44
227.856	49.44
228.09	39.44
228.324	49.44
228.559	55.44
228.793	65.44
229.027	72.44
229.262	53.44
229.496	51.44
229.73	78.44
229.964	65.44
230.199	69.44
230.433	66.44
230.667	89.44
230.901	76.44
231.136	85.44
231.37	66.44
231.604	75.44
231.838	73.44
232.072	77.44
232.306	85.44
232.541	83.44
232.775	75.44
233.009	74.44
233.243	68.44
233.477	62.44
233.711	70.44
233.945	76.44
234.179	74.44
234.413	69.44
234.647	76.44
234.881	76.44
235.115	78.44
235.349	86.44
235.583	73.44
235.817	81.44
236.051	72.44
236.285	72.44
236.519	86.44
236.753	63.44
236.987	97.44
237.221	69.44
237.455	77.44
237.689	83.44
237.922	60.44
238.156	79.44
238.39	65.44
238.624	67.44
238.858	74.44
239.091	85.44
239.325	71.44
239.559	60.44
239.793	71.44
240.027	73.44
240.26	79.44
240.494	76.44
240.728	68.44
240.961	63.44
241.195	66.44
241.429	73.44
241.662	77.44
241.896	71.44
242.13	76.44
242.363	84.44
242.597	74.44
242.83	79.44
243.064	72.44
243.298	59.44
243.531	81.44
243.765	67.44
243.998	70.44
244.232	72.44
244.465	75.44
244.699	84.44
244.932	86.44
245.166	70.44
245.399	75.44
245.633	79.44
245.866	71.44
246.099	87.44
246.333	77.44
246.566	83.44
246.8	71.44
247.033	85.44
247.266	79.44
247.5	76.44
247.733	83.44
247.966	77.44
248.2	63.44
248.433	75.44
248.666	73.44
248.899	84.44
249.133	63.44
249.366	74.44
249.599	74.44
249.832	72.44
250.066	95.44
250.299	82.44
250.532	71.44
250.765	81.44
250.998	63.44
251.231	78.44
251.465	81.44
251.698	90.44
251.931	84.44
252.164	80.44
252.397	69.44
252.63	74.44
252.863	75.44
253.096	78.44
253.329	85.44
253.562	70.44
253.795	77.44
254.028	71.44
254.261	75.44
254.494	65.44
254.727	87.44
254.96	87.44
255.193	82.44
255.426	72.44
255.659	81.44
255.892	88.44
256.124	81.44
256.357	69.44
256.59	84.44
256.823	69.44
257.056	71.44
257.289	73.44
257.521	64.44
257.754	82.44
257.987	73.44
258.22	79.44
258.452	77.44
258.685	86.44
258.918	76.44
259.151	75.44
259.383	73.44
259.616	82.44
259.849	81.44
260.081	84.44
260.314	85.44
260.547	81.44
260.779	62.44
261.012	77.44
261.244	69.44
261.477	90.44
261.71	77.44
261.942	81.44
262.175	84.44
262.407	71.44
262.64	83.44
262.872	78.44
263.105	83.44
263.337	102.44
263.57	84.44
263.802	82.44
264.035	72.44
264.267	87.44
264.499	89.44
264.732	87.44
264.964	87.44
265.197	93.44
265.429	78.44
265.661	78.44
265.894	87.44
266.126	87.44
266.358	89.44
266.591	86.44
266.823	81.44
267.055	77.44
267.287	65.44
267.52	71.44
267.752	83.44
267.984	101.44
268.216	85.44
268.448	84.44
268.681	92.44
268.913	83.44
269.145	92.44
269.377	74.44
269.609	85.44
269.841	80.44
270.073	83.44
270.306	73.44
270.538	84.44
270.77	90.44
271.002	81.44
271.234	83.44
271.466	79.44
271.698	80.44
271.93	87.44
272.162	87.44
272.394	91.44
272.626	71.44
272.858	75.44
273.09	87.44
273.322	74.44
273.553	90.44
273.785	73.44
274.017	83.44
274.249	85.44
274.481	70.44
274.713	94.44
274.945	81.44
275.176	79.44
275.408	75.44
275.64	78.44
275.872	75.44
276.104	84.44
276.335	87.44
276.567	69.44
276.799	73.44
277.031	82.44
277.262	77.44
277.494	82.44
277.726	90.44
277.957	89.44
278.189	69.44
278.421	77.44
278.652	69.44
278.884	84.44
279.115	80.44
279.347	85.44
279.579	89.44
279.81	76.44
280.042	71.44
280.273	80.44
280.505	75.44
280.736	89.44
280.968	88.44
281.199	82.44
281.431	84.44
281.662	92.44
281.894	91.44
282.125	73.44
282.356	81.44
282.588	91.44
282.819	89.44
283.051	81.44
283.282	93.44
283.513	80.44
283.745	79.44
283.976	85.44
284.207	81.44
284.439	80.44
284.67	93.44
284.901	81.44
285.132	79.44
285.364	86.44
285.595	87.44
285.826	82.44
286.057	85.44
286.288	81.44
286.52	85.44
286.751	81.44
286.982	71.44
287.213	91.44
287.444	80.44
287.675	86.44
287.906	92.44
288.138	88.44
288.369	69.44
288.6	81.44
288.831	75.44
289.062	76.44
289.293	89.44
289.524	82.44
289.755	75.44
289.986	78.44
290.217	89.44
290.448	74.44
290.679	75.44
290.91	76.44
291.141	84.44
291.371	81.44
291.602	89.44
291.833	83.44
292.064	74.44
292.295	71.44
292.526	71.44
292.757	96.44
292.987	97.44
293.218	78.44
293.449	92.44
293.68	93.44
293.91	71.44
294.141	92.44
294.372	104.44
294.603	82.44
294.833	83.44
295.064	74.44
295.295	73.44
295.525	79.44
295.756	82.44
295.987	90.44
296.217	91.44
296.448	89.44
296.679	85.44
296.909	78.44
297.14	99.44
297.37	90.44
297.601	74.44
297.831	90.44
298.062	81.44
298.292	85.44
298.523	95.44
298.753	69.44
298.984	87.44
299.214	97.44
299.445	95.44
299.675	85.44
299.905	90.44
300.136	94.44
300.366	89.44
300.597	79.44
300.827	90.44
301.057	80.44
301.288	90.44
301.518	73.44
301.748	89.44
301.979	112.44
302.209	86.44
302.439	90.44
302.669	74.44
302.9	76.44
303.13	96.44
303.36	94.44
303.59	79.44
303.82	75.44
304.051	92.44
304.281	79.44
304.511	89.44
304.741	84.44
304.971	95.44
305.201	85.44
305.431	81.44
305.661	85.44
305.891	78.44
306.121	96.44
306.352	78.44
306.582	78.44
306.812	89.44
307.042	80.44
307.272	85.44
307.502	86.44
307.731	85.44
307.961	87.44
308.191	79.44
308.421	99.44
308.651	76.44
308.881	86.44
309.111	89.44
309.341	86.44
309.571	93.44
309.8	102.44
310.03	79.44
310.26	89.44
310.49	81.44
310.72	75.44
310.949	98.44
311.179	86.44
311.409	82.44
311.639	78.44
311.868	81.44
312.098	73.44
312.328	94.44
312.557	88.44
312.787	81.44
313.017	80.44
313.246	88.44
313.476	89.44
313.706	79.44
313.935	82.44
314.165	73.44
314.394	85.44
314.624	73.44
314.853	82.44
315.083	96.44
315.312	90.44
315.542	82.44
315.771	76.44
316.001	87.44
316.23	81.44
316.46	83.44
316.689	90.44
316.919	85.44
317.148	84.44
317.377	89.44
317.607	90.44
317.836	75.44
318.065	100.44
318.295	98.44
318.524	81.44
318.753	104.44
318.983	95.44
319.212	80.44
319.441	78.44
319.67	79.44
319.9	80.44
320.129	98.44
320.358	85.44
320.587	75.44
320.816	79.44
321.046	85.44
321.275	89.44
321.504	83.44
321.733	90.44
321.962	97.44
322.191	78.44
322.42	95.44
322.649	100.44
322.878	81.44
323.108	95.44
323.337	89.44
323.566	89.44
323.795	105.44
324.024	79.44
324.253	90.44
324.482	90.44
324.71	86.44
324.939	80.44
325.168	84.44
325.397	83.44
325.626	100.44
325.855	82.44
326.084	101.44
326.313	71.44
326.542	85.44
326.77	91.44
326.999	98.44
327.228	76.44
327.457	89.44
327.686	83.44
327.914	73.44
328.143	75.44
328.372	84.44
328.6	93.44
328.829	86.44
329.058	89.44
329.287	93.44
329.515	90.44
329.744	74.44
329.972	84.44
330.201	89.44
330.43	79.44
330.658	83.44
330.887	89.44
331.115	85.44
331.344	79.44
331.572	83.44
331.801	79.44
332.03	85.44
332.258	77.44
332.486	78.44
332.715	76.44
332.943	78.44
333.172	81.44
333.4	85.44
333.629	81.44
333.857	78.44
334.085	89.44
334.314	91.44
334.542	102.44
334.771	80.44
334.999	93.44
335.227	106.44
335.455	93.44
335.684	87.44
335.912	83.44
336.14	93.44
336.369	100.44
336.597	99.44
336.825	71.44
337.053	87.44
337.281	83.44
337.51	89.44
337.738	80.44
337.966	85.44
338.194	83.44
338.422	87.44
338.65	85.44
338.878	90.44
339.106	84.44
339.334	78.44
339.562	86.44
339.79	80.44
340.018	89.44
340.246	67.44
340.474	82.44
340.702	95.44
340.93	73.44
341.158	87.44
341.386	79.44
341.614	89.44
341.842	85.44
342.07	81.44
342.298	96.44
342.526	71.44
342.754	83.44
342.981	82.44
343.209	82.44
343.437	85.44
343.665	69.44
343.893	80.44
344.12	97.44
344.348	65.44
344.576	83.44
344.804	98.44
345.031	83.44
345.259	91.44
345.487	83.44
345.714	84.44
345.942	111.44
346.17	91.44
346.397	90.44
346.625	91.44
346.853	90.44
347.08	74.44
347.308	73.44
347.535	87.44
347.763	99.44
347.99	81.44
348.218	95.44
348.445	89.44
348.673	95.44
348.9	97.44
349.128	103.44
349.355	81.44
349.583	75.44
349.81	89.44
350.037	91.44
350.265	80.44
350.492	85.44
350.72	87.44
350.947	78.44
351.174	87.44
351.402	90.44
351.629	97.44
351.856	86.44
352.083	87.44
352.311	80.44
352.538	75.44
352.765	94.44
352.992	101.44
353.22	88.44
353.447	81.44
353.674	94.44
353.901	91.44
354.128	83.44
354.355	79.44
354.583	91.44
354.81	96.44
355.037	96.44
355.264	85.44
355.491	87.44
355.718	85.44
355.945	89.44
356.172	83.44
356.399	85.44
356.626	96.44
356.853	94.44
357.08	90.44
357.307	96.44
357.534	79.44
357.761	84.44
357.988	102.44
358.215	98.44
358.441	98.44
358.668	95.44
358.895	88.44
359.122	80.44
359.349	88.44
359.576	75.44
359.802	86.44
360.029	86.44
360.256	74.44
360.483	83.44
360.709	86.44
360.936	98.44
361.163	88.44
361.39	99.44
361.616	85.44
361.843	83.44
362.07	89.44
362.296	97.44
362.523	89.44
362.749	104.44
362.976	103.44
363.203	117.44
363.429	105.44
363.656	98.44
363.882	93.44
364.109	117.44
364.335	121.44
364.562	122.44
364.788	93.44
365.015	98.44
365.241	87.44
365.468	91.44
365.694	87.44
365.92	70.44
366.147	86.44
366.373	89.44
366.599	85.44
366.826	84.44
367.052	85.44
367.278	82.44
367.505	85.44
367.731	91.44
367.957	89.44
368.184	95.44
368.41	99.44
368.636	89.44
368.862	89.44
369.089	92.44
369.315	84.44
369.541	81.44
369.767	85.44
369.993	67.44
370.219	86.44
370.445	94.44
370.672	101.44
370.898	94.44
371.124	97.44
371.35	93.44
371.576	80.44
371.802	94.44
372.028	92.44
372.254	101.44
372.48	89.44
372.706	102.44
372.932	88.44
373.158	80.44
373.384	98.44
373.61	110.44
373.835	106.44
374.061	85.44
374.287	91.44
374.513	91.44
374.739	92.44
374.965	99.44
375.191	101.44
375.416	91.44
375.642	75.44
375.868	104.44
376.094	83.44
376.319	101.44
376.545	94.44
376.771	81.44
376.997	105.44
377.222	75.44
377.448	75.44
377.674	82.44
377.899	97.44
378.125	78.44
378.35	90.44
378.576	92.44
378.802	74.44
379.027	87.44
379.253	95.44
379.478	84.44
379.704	90.44
379.929	83.44
380.155	88.44
380.38	85.44
380.606	88.44
380.831	84.44
381.057	99.44
381.282	91.44
381.507	96.44
381.733	100.44
381.958	105.44
382.184	88.44
382.409	88.44
382.634	113.44
382.86	98.44
383.085	105.44
383.31	90.44
383.535	111.44
383.761	93.44
383.986	93.44
384.211	100.44
384.436	97.44
384.662	91.44
384.887	81.44
385.112	82.44
385.337	94.44
385.562	88.44
385.787	101.44
386.013	102.44
386.238	99.44
386.463	98.44
386.688	96.44
386.913	85.44
387.138	91.44
387.363	98.44
387.588	87.44
387.813	99.44
388.038	103.44
388.263	105.44
388.488	100.44
388.713	90.44
388.938	88.44
389.163	94.44
389.387	97.44
389.612	99.44
389.837	100.44
390.062	97.44
390.287	93.44
390.512	91.44
390.736	81.44
390.961	88.44
391.186	90.44
391.411	93.44
391.636	81.44
391.86	100.44
392.085	89.44
392.31	94.44
392.534	101.44
392.759	115.44
392.984	135.44
393.208	217.44
393.433	288.44
393.658	237.44
393.882	128.44
394.107	90.44
394.331	115.44
394.556	126.44
394.78	106.44
395.005	113.44
395.229	89.44
395.454	90.44
395.678	106.44
395.903	125.44
396.127	127.44
396.352	134.44
396.576	150.44
396.801	185.44
397.025	234.44
397.249	146.44
397.474	99.44
397.698	99.44
397.922	98.44
398.147	84.44
398.371	85.44
398.595	70.44
398.82	86.44
399.044	85.44
399.268	91.44
399.492	78.44
399.717	86.44
399.941	82.44
400.165	89.44
400.389	88.44
400.613	99.44
400.837	71.44
401.062	76.44
401.286	76.44
401.51	95.44
401.734	81.44
401.958	91.44
402.182	86.44
402.406	83.44
402.63	93.44
402.854	62.44
403.078	90.44
403.302	81.44
403.526	81.44
403.75	90.44
403.974	77.44
404.198	86.44
404.422	83.44
404.645	102.44
404.869	94.44
405.093	90.44
405.317	84.44
405.541	82.44
405.765	83.44
405.988	80.44
406.212	87.44
406.436	85.44
406.66	99.44
406.883	74.44
407.107	92.44
407.331	91.44
407.555	75.44
407.778	113.44
408.002	103.44
408.226	89.44
408.449	86.44
408.673	95.44
408.896	87.44
409.12	96.44
409.344	87.44
409.567	92.44
409.791	82.44
410.014	90.44
410.238	79.44
410.461	69.44
410.685	98.44
410.908	86.44
411.132	103.44
411.355	86.44
411.578	88.44
411.802	89.44
412.025	84.44
412.249	88.44
412.472	89.44
412.695	79.44
412.919	84.44
413.142	88.44
413.365	82.44
413.589	83.44
413.812	71.44
414.035	89.44
414.258	95.44
414.482	84.44
414.705	81.44
414.928	89.44
415.151	80.44
415.374	74.44
415.597	79.44
415.821	89.44
416.044	90.44
416.267	94.44
416.49	87.44
416.713	79.44
416.936	85.44
417.159	79.44
417.382	81.44
417.605	87.44
417.828	81.44
418.051	87.44
418.274	86.44
418.497	79.44
418.72	87.44
418.943	96.44
419.166	86.44
419.389	89.44
419.611	85.44
419.834	79.44
420.057	98.44
420.28	86.44
420.503	82.44
420.726	83.44
420.948	93.44
421.171	89.44
421.394	101.44
421.617	115.44
421.839	117.44
422.062	106.44
422.285	133.44
422.507	199.44
422.73	282.44
422.953	262.44
423.175	175.44
423.398	117.44
423.621	112.44
423.843	86.44
424.066	76.44
424.288	94.44
424.511	87.44
424.733	85.44
424.956	75.44
425.178	81.44
425.401	85.44
425.623	90.44
425.846	73.44
426.068	86.44
426.291	93.44
426.513	89.44
426.735	86.44
426.958	73.44
427.18	97.44
427.402	80.44
427.625	98.44
427.847	90.44
428.069	99.44
428.292	98.44
428.514	113.44
428.736	113.44
428.958	114.44
429.181	122.44
429.403	79.44
429.625	89.44
429.847	108.44
430.069	129.44
430.292	146.44
430.514	156.44
430.736	122.44
430.958	140.44
431.18	85.44
431.402	72.44
431.624	95.44
431.846	101.44
432.068	107.44
432.29	98.44
432.512	83.44
432.734	84.44
432.956	82.44
433.178	95.44
433.4	85.44
433.622	93.44
433.844	76.44
434.066	67.44
434.287	113.44
434.509	79.44
434.731	84.44
434.953	93.44
435.175	94.44
435.397	97.44
435.618	79.44
435.84	92.44
436.062	90.44
436.284	85.44
436.505	88.44
436.727	90.44
436.949	84.44
437.17	81.44
437.392	77.44
437.614	75.44
437.835	79.44
438.057	86.44
438.278	94.44
438.5	97.44
438.721	87.44
438.943	75.44
439.165	75.44
439.386	77.44
439.608	78.44
439.829	86.44
440.05	86.44
440.272	78.44
440.493	83.44
440.715	69.44
440.936	97.44
441.158	73.44
441.379	89.44
441.6	90.44
441.822	96.44
442.043	88.44
442.264	88.44
442.486	121.44
442.707	152.44
442.928	118.44
443.149	106.44
443.371	119.44
443.592	187.44
443.813	182.44
444.034	111.44
444.255	104.44
444.476	85.44
444.698	91.44
444.919	107.44
445.14	146.44
445.361	163.44
445.582	232.44
445.803	207.44
446.024	104.44
446.245	96.44
446.466	90.44
446.687	81.44
446.908	86.44
447.129	82.44
447.35	71.44
447.571	67.44
447.792	70.44
448.013	77.44
448.234	88.44
448.455	84.44
448.675	58.44
448.896	66.44
449.117	84.44
449.338	71.44
449.559	77.44
449.779	81.44
450	79.44
450.221	94.44
450.442	89.44
450.662	77.44
450.883	83.44
451.104	82.44
451.324	94.44
451.545	108.44
451.766	92.44
451.986	79.44
452.207	91.44
452.428	87.44
452.648	102.44
452.869	94.44
453.089	91.44
453.31	99.44
453.53	87.44
453.751	94.44
453.971	92.44
454.192	83.44
454.412	81.44
454.633	85.44
454.853	78.44
455.073	87.44
455.294	83.44
455.514	83.44
455.734	93.44
455.955	92.44
456.175	88.44
456.395	76.44
456.616	78.44
456.836	75.44
457.056	91.44
457.276	84.44
457.497	90.44
457.717	88.44
457.937	98.44
458.157	105.44
458.377	130.44
458.598	95.44
458.818	107.44
459.038	93.44
459.258	87.44
459.478	81.44
459.698	81.44
459.918	81.44
460.138	81.44
460.358	73.44
460.578	95.44
460.798	109.44
461.018	105.44
461.238	93.44
461.458	95.44
461.678	82.44
461.898	84.44
462.118	80.44
462.338	97.44
462.558	87.44
462.777	83.44
462.997	74.44
463.217	81.44
463.437	83.44
463.657	74.44
463.876	83.44
464.096	85.44
464.316	85.44
464.536	89.44
464.755	96.44
464.975	70.44
465.195	93.44
465.414	76.44
465.634	70.44
465.854	91.44
466.073	101.44
466.293	89.44
466.512	83.44
466.732	83.44
466.951	89.44
467.171	99.44
467.391	91.44
467.61	81.44
467.829	83.44
468.049	86.44
468.268	73.44
468.488	85.44
468.707	97.44
468.927	77.44
469.146	78.44
469.365	85.44
469.585	75.44
469.804	84.44
470.023	82.44
470.243	78.44
470.462	79.44
470.681	76.44
470.901	90.44
471.12	84.44
471.339	81.44
471.558	81.44
471.777	73.44
471.997	91.44
472.216	74.44
472.435	95.44
472.654	89.44
472.873	81.44
473.092	81.44
473.311	72.44
473.53	86.44
473.749	97.44
473.968	91.44
474.187	82.44
474.406	92.44
474.625	82.44
474.844	96.44
475.063	76.44
475.282	79.44
475.501	97.44
475.72	92.44
475.939	94.44
476.158	94.44
476.377	79.44
476.596	71.44
476.814	75.44
477.033	91.44
477.252	88.44
477.471	80.44
477.69	90.44
477.908	92.44
478.127	85.44
478.346	81.44
478.564	90.44
478.783	78.44
479.002	81.44
479.22	81.44
479.439	74.44
479.658	75.44
479.876	84.44
480.095	93.44
480.313	96.44
480.532	90.44
480.751	88.44
480.969	97.44
481.188	88.44
481.406	91.44
481.624	94.44
481.843	69.44
482.061	79.44
482.28	87.44
482.498	89.44
482.717	76.44
482.935	87.44
483.153	83.44
483.372	97.44
483.59	95.44
483.808	83.44
484.027	110.44
484.245	87.44
484.463	89.44
484.681	87.44
484.9	89.44
485.118	96.44
485.336	108.44
485.554	89.44
485.772	91.44
485.99	93.44
486.209	74.44
486.427	76.44
486.645	91.44
486.863	109.44
487.081	97.44
487.299	81.44
487.517	85.44
487.735	90.44
487.953	161.44
488.171	125.44
488.389	101.44
488.607	96.44
488.825	101.44
489.043	91.44
489.261	90.44
489.479	92.44
489.696	86.44
489.914	97.44
490.132	94.44
490.35	93.44
490.568	94.44
490.786	86.44
491.003	92.44
491.221	89.44
491.439	84.44
491.657	81.44
491.874	63.44
492.092	83.44
492.31	101.44
492.527	90.44
492.745	102.44
492.963	87.44
493.18	105.44
493.398	97.44
493.615	86.44
493.833	86.44
494.05	86.44
494.268	91.44
494.485	89.44
494.703	89.44
494.92	85.44
495.138	94.44
495.355	97.44
495.573	88.44
495.79	81.44
496.008	95.44
496.225	91.44
496.442	95.44
496.66	98.44
496.877	105.44
497.094	91.44
497.312	83.44
497.529	89.44
497.746	84.44
497.963	92.44
498.181	91.44
498.398	109.44
498.615	106.44
498.832	104.44
499.049	84.44
499.267	95.44
499.484	83.44
499.701	96.44
499.918	90.44
500.135	101.44
500.352	109.44
500.569	80.44
500.786	97.44
501.003	97.44
501.22	76.44
501.437	93.44
501.654	107.44
501.871	103.44
502.088	89.44
502.305	98.44
502.522	87.44
502.739	97.44
502.956	90.44
503.172	80.44
503.389	81.44
503.606	100.44
503.823	104.44
504.04	105.44
504.256	133.44
504.473	129.44
504.69	99.44
504.907	101.44
505.123	74.44
505.34	96.44
505.557	102.44
505.773	91.44
505.99	93.44
506.207	94.44
506.423	108.44
506.64	88.44
506.856	92.44
507.073	89.44
507.289	82.44
507.506	98.44
507.722	99.44
507.939	80.44
508.155	85.44
508.372	97.44
508.588	83.44
508.805	85.44
509.021	95.44
509.238	100.44
509.454	89.44
509.67	84.44
509.887	88.44
510.103	90.44
510.319	92.44
510.536	100.44
510.752	78.44
510.968	83.44
511.184	86.44
511.401	89.44
511.617	91.44
511.833	99.44
512.049	100.44
512.265	93.44
512.481	101.44
512.698	99.44
512.914	84.44
513.13	74.44
513.346	94.44
513.562	86.44
513.778	98.44
513.994	84.44
514.21	79.44
514.426	87.44
514.642	96.44
514.858	89.44
515.074	94.44
515.29	91.44
515.506	96.44
515.721	97.44
515.937	112.44
516.153	79.44
516.369	81.44
516.585	96.44
516.801	107.44
517.016	100.44
517.232	101.44
517.448	109.44
517.664	97.44
517.879	88.44
518.095	99.44
