Data from 15780_3_HRD10591_00046.txt Node
Date: Mon Jan 19 14:20:21 EST 2026
User: Yrep
Spectrometer: HR+D1059
Trigger mode: 1
Integration Time (sec): 1.000000E-1
Scans to average: 1
Electric dark correction enabled: true
Nonlinearity correction enabled: false
Boxcar width: 0
XAxis mode: Wavelengths
Number of Pixels in Spectrum: 2048
>>>>>Begin Spectral Data<<<<<
223.165	-17.62
223.4	-17.62
223.635	-17.62
223.869	-20.62
224.104	-35.62
224.338	-10.62
224.573	-20.62
224.808	-2.62
225.042	-1.62
225.277	-9.62
225.511	3.38
225.746	8.38
225.98	16.38
226.215	7.38
226.449	9.38
226.683	21.38
226.918	21.38
227.152	31.38
227.387	31.38
227.621	33.38
227.856	52.38
228.09	53.38
228.324	46.38
228.559	67.38
228.793	53.38
229.027	56.38
229.262	67.38
229.496	56.38
229.73	81.38
229.964	73.38
230.199	72.38
230.433	90.38
230.667	79.38
230.901	79.38
231.136	78.38
231.37	89.38
231.604	77.38
231.838	83.38
232.072	87.38
232.306	66.38
232.541	85.38
232.775	66.38
233.009	87.38
233.243	71.38
233.477	76.38
233.711	77.38
233.945	92.38
234.179	81.38
234.413	88.38
234.647	77.38
234.881	74.38
235.115	82.38
235.349	76.38
235.583	77.38
235.817	76.38
236.051	82.38
236.285	82.38
236.519	86.38
236.753	92.38
236.987	75.38
237.221	75.38
237.455	74.38
237.689	85.38
237.922	83.38
238.156	65.38
238.39	95.38
238.624	71.38
238.858	72.38
239.091	81.38
239.325	79.38
239.559	80.38
239.793	77.38
240.027	73.38
240.26	74.38
240.494	74.38
240.728	62.38
240.961	80.38
241.195	83.38
241.429	82.38
241.662	72.38
241.896	90.38
242.13	73.38
242.363	71.38
242.597	77.38
242.83	87.38
243.064	77.38
243.298	75.38
243.531	66.38
243.765	77.38
243.998	75.38
244.232	67.38
244.465	84.38
244.699	80.38
244.932	79.38
245.166	91.38
245.399	81.38
245.633	105.38
245.866	84.38
246.099	73.38
246.333	69.38
246.566	74.38
246.8	67.38
247.033	78.38
247.266	79.38
247.5	88.38
247.733	81.38
247.966	75.38
248.2	86.38
248.433	80.38
248.666	81.38
248.899	77.38
249.133	87.38
249.366	82.38
249.599	90.38
249.832	80.38
250.066	89.38
250.299	85.38
250.532	65.38
250.765	79.38
250.998	71.38
251.231	77.38
251.465	67.38
251.698	79.38
251.931	88.38
252.164	76.38
252.397	100.38
252.63	74.38
252.863	82.38
253.096	81.38
253.329	79.38
253.562	85.38
253.795	77.38
254.028	92.38
254.261	86.38
254.494	86.38
254.727	78.38
254.96	79.38
255.193	69.38
255.426	75.38
255.659	78.38
255.892	79.38
256.124	77.38
256.357	77.38
256.59	83.38
256.823	77.38
257.056	90.38
257.289	94.38
257.521	88.38
257.754	88.38
257.987	79.38
258.22	89.38
258.452	80.38
258.685	79.38
258.918	69.38
259.151	78.38
259.383	88.38
259.616	85.38
259.849	71.38
260.081	83.38
260.314	78.38
260.547	74.38
260.779	86.38
261.012	71.38
261.244	74.38
261.477	74.38
261.71	86.38
261.942	67.38
262.175	96.38
262.407	83.38
262.64	72.38
262.872	78.38
263.105	66.38
263.337	87.38
263.57	89.38
263.802	88.38
264.035	89.38
264.267	91.38
264.499	86.38
264.732	91.38
264.964	87.38
265.197	67.38
265.429	85.38
265.661	84.38
265.894	93.38
266.126	78.38
266.358	78.38
266.591	84.38
266.823	89.38
267.055	77.38
267.287	73.38
267.52	84.38
267.752	85.38
267.984	86.38
268.216	89.38
268.448	93.38
268.681	63.38
268.913	72.38
269.145	89.38
269.377	87.38
269.609	84.38
269.841	90.38
270.073	83.38
270.306	83.38
270.538	90.38
270.77	99.38
271.002	84.38
271.234	72.38
271.466	78.38
271.698	81.38
271.93	84.38
272.162	92.38
272.394	82.38
272.626	102.38
272.858	90.38
273.09	89.38
273.322	79.38
273.553	76.38
273.785	74.38
274.017	92.38
274.249	87.38
274.481	92.38
274.713	79.38
274.945	79.38
275.176	84.38
275.408	99.38
275.64	83.38
275.872	85.38
276.104	78.38
276.335	83.38
276.567	95.38
276.799	92.38
277.031	91.38
277.262	97.38
277.494	93.38
277.726	74.38
277.957	83.38
278.189	94.38
278.421	81.38
278.652	83.38
278.884	89.38
279.115	88.38
279.347	80.38
279.579	83.38
279.81	79.38
280.042	78.38
280.273	92.38
280.505	86.38
280.736	79.38
280.968	66.38
281.199	76.38
281.431	92.38
281.662	83.38
281.894	87.38
282.125	80.38
282.356	81.38
282.588	69.38
282.819	84.38
283.051	85.38
283.282	96.38
283.513	89.38
283.745	80.38
283.976	83.38
284.207	99.38
284.439	74.38
284.67	95.38
284.901	91.38
285.132	79.38
285.364	82.38
285.595	95.38
285.826	99.38
286.057	71.38
286.288	82.38
286.52	87.38
286.751	80.38
286.982	98.38
287.213	90.38
287.444	85.38
287.675	75.38
287.906	94.38
288.138	97.38
288.369	108.38
288.6	86.38
288.831	80.38
289.062	90.38
289.293	84.38
289.524	89.38
289.755	93.38
289.986	86.38
290.217	80.38
290.448	83.38
290.679	78.38
290.91	99.38
291.141	79.38
291.371	88.38
291.602	74.38
291.833	96.38
292.064	83.38
292.295	103.38
292.526	89.38
292.757	79.38
292.987	83.38
293.218	100.38
293.449	91.38
293.68	85.38
293.91	94.38
294.141	80.38
294.372	92.38
294.603	80.38
294.833	96.38
295.064	71.38
295.295	100.38
295.525	83.38
295.756	91.38
295.987	84.38
296.217	87.38
296.448	91.38
296.679	89.38
296.909	81.38
297.14	82.38
297.37	82.38
297.601	86.38
297.831	75.38
298.062	92.38
298.292	85.38
298.523	93.38
298.753	79.38
298.984	86.38
299.214	94.38
299.445	92.38
299.675	94.38
299.905	99.38
300.136	80.38
300.366	94.38
300.597	102.38
300.827	83.38
301.057	93.38
301.288	91.38
301.518	82.38
301.748	77.38
301.979	95.38
302.209	87.38
302.439	97.38
302.669	96.38
302.9	86.38
303.13	93.38
303.36	80.38
303.59	82.38
303.82	88.38
304.051	97.38
304.281	88.38
304.511	87.38
304.741	95.38
304.971	78.38
305.201	90.38
305.431	87.38
305.661	89.38
305.891	79.38
306.121	90.38
306.352	87.38
306.582	77.38
306.812	83.38
307.042	78.38
307.272	89.38
307.502	93.38
307.731	76.38
307.961	91.38
308.191	95.38
308.421	101.38
308.651	85.38
308.881	105.38
309.111	110.38
309.341	94.38
309.571	89.38
309.8	91.38
310.03	85.38
310.26	73.38
310.49	74.38
310.72	65.38
310.949	80.38
311.179	85.38
311.409	83.38
311.639	76.38
311.868	70.38
312.098	86.38
312.328	82.38
312.557	100.38
312.787	73.38
313.017	83.38
313.246	85.38
313.476	85.38
313.706	78.38
313.935	79.38
314.165	87.38
314.394	84.38
314.624	91.38
314.853	87.38
315.083	83.38
315.312	86.38
315.542	93.38
315.771	102.38
316.001	106.38
316.23	87.38
316.46	85.38
316.689	95.38
316.919	93.38
317.148	95.38
317.377	87.38
317.607	95.38
317.836	91.38
318.065	98.38
318.295	114.38
318.524	83.38
318.753	87.38
318.983	84.38
319.212	98.38
319.441	85.38
319.67	83.38
319.9	73.38
320.129	101.38
320.358	89.38
320.587	84.38
320.816	81.38
321.046	81.38
321.275	92.38
321.504	92.38
321.733	87.38
321.962	86.38
322.191	91.38
322.42	91.38
322.649	102.38
322.878	81.38
323.108	89.38
323.337	92.38
323.566	83.38
323.795	91.38
324.024	72.38
324.253	79.38
324.482	73.38
324.71	87.38
324.939	93.38
325.168	97.38
325.397	84.38
325.626	104.38
325.855	96.38
326.084	83.38
326.313	87.38
326.542	90.38
326.77	87.38
326.999	93.38
327.228	90.38
327.457	85.38
327.686	93.38
327.914	88.38
328.143	93.38
328.372	91.38
328.6	84.38
328.829	85.38
329.058	86.38
329.287	89.38
329.515	96.38
329.744	79.38
329.972	98.38
330.201	80.38
330.43	77.38
330.658	92.38
330.887	94.38
331.115	93.38
331.344	89.38
331.572	97.38
331.801	81.38
332.03	88.38
332.258	85.38
332.486	78.38
332.715	88.38
332.943	87.38
333.172	92.38
333.4	79.38
333.629	90.38
333.857	93.38
334.085	97.38
334.314	85.38
334.542	86.38
334.771	91.38
334.999	105.38
335.227	106.38
335.455	99.38
335.684	93.38
335.912	93.38
336.14	92.38
336.369	100.38
336.597	93.38
336.825	98.38
337.053	87.38
337.281	92.38
337.51	94.38
337.738	91.38
337.966	97.38
338.194	96.38
338.422	86.38
338.65	97.38
338.878	87.38
339.106	71.38
339.334	77.38
339.562	90.38
339.79	91.38
340.018	80.38
340.246	93.38
340.474	88.38
340.702	93.38
340.93	99.38
341.158	82.38
341.386	97.38
341.614	92.38
341.842	94.38
342.07	91.38
342.298	102.38
342.526	80.38
342.754	86.38
342.981	85.38
343.209	67.38
343.437	102.38
343.665	82.38
343.893	88.38
344.12	88.38
344.348	92.38
344.576	97.38
344.804	106.38
345.031	88.38
345.259	83.38
345.487	98.38
345.714	83.38
345.942	91.38
346.17	92.38
346.397	91.38
346.625	89.38
346.853	93.38
347.08	74.38
347.308	82.38
347.535	94.38
347.763	93.38
347.99	81.38
348.218	90.38
348.445	78.38
348.673	108.38
348.9	97.38
349.128	91.38
349.355	76.38
349.583	92.38
349.81	85.38
350.037	79.38
350.265	81.38
350.492	83.38
350.72	83.38
350.947	97.38
351.174	95.38
351.402	91.38
351.629	77.38
351.856	71.38
352.083	88.38
352.311	81.38
352.538	97.38
352.765	93.38
352.992	97.38
353.22	85.38
353.447	73.38
353.674	89.38
353.901	93.38
354.128	91.38
354.355	97.38
354.583	94.38
354.81	81.38
355.037	86.38
355.264	90.38
355.491	96.38
355.718	106.38
355.945	77.38
356.172	74.38
356.399	98.38
356.626	100.38
356.853	108.38
357.08	116.38
357.307	91.38
357.534	96.38
357.761	87.38
357.988	115.38
358.215	102.38
358.441	91.38
358.668	97.38
358.895	93.38
359.122	101.38
359.349	77.38
359.576	91.38
359.802	87.38
360.029	84.38
360.256	73.38
360.483	93.38
360.709	93.38
360.936	108.38
361.163	99.38
361.39	94.38
361.616	93.38
361.843	94.38
362.07	99.38
362.296	101.38
362.523	114.38
362.749	122.38
362.976	114.38
363.203	133.38
363.429	110.38
363.656	105.38
363.882	115.38
364.109	118.38
364.335	135.38
364.562	149.38
364.788	114.38
365.015	93.38
365.241	102.38
365.468	94.38
365.694	79.38
365.92	98.38
366.147	102.38
366.373	94.38
366.599	74.38
366.826	96.38
367.052	90.38
367.278	91.38
367.505	109.38
367.731	73.38
367.957	97.38
368.184	101.38
368.41	92.38
368.636	78.38
368.862	111.38
369.089	96.38
369.315	102.38
369.541	89.38
369.767	94.38
369.993	94.38
370.219	90.38
370.445	103.38
370.672	103.38
370.898	117.38
371.124	86.38
371.35	92.38
371.576	87.38
371.802	93.38
372.028	96.38
372.254	100.38
372.48	72.38
372.706	90.38
372.932	95.38
373.158	109.38
373.384	113.38
373.61	139.38
373.835	135.38
374.061	117.38
374.287	99.38
374.513	111.38
374.739	118.38
374.965	119.38
375.191	104.38
375.416	109.38
375.642	101.38
375.868	107.38
376.094	107.38
376.319	89.38
376.545	93.38
376.771	106.38
376.997	104.38
377.222	98.38
377.448	91.38
377.674	74.38
377.899	79.38
378.125	94.38
378.35	83.38
378.576	89.38
378.802	98.38
379.027	102.38
379.253	91.38
379.478	92.38
379.704	89.38
379.929	107.38
380.155	93.38
380.38	80.38
380.606	86.38
380.831	97.38
381.057	101.38
381.282	96.38
381.507	111.38
381.733	97.38
381.958	101.38
382.184	105.38
382.409	111.38
382.634	119.38
382.86	94.38
383.085	117.38
383.31	119.38
383.535	115.38
383.761	121.38
383.986	120.38
384.211	97.38
384.436	89.38
384.662	93.38
384.887	95.38
385.112	85.38
385.337	109.38
385.562	103.38
385.787	111.38
386.013	123.38
386.238	100.38
386.463	95.38
386.688	117.38
386.913	82.38
387.138	93.38
387.363	117.38
387.588	106.38
387.813	102.38
388.038	110.38
388.263	115.38
388.488	114.38
388.713	100.38
388.938	92.38
389.163	93.38
389.387	92.38
389.612	89.38
389.837	91.38
390.062	99.38
390.287	107.38
390.512	85.38
390.736	94.38
390.961	89.38
391.186	75.38
391.411	87.38
391.636	87.38
391.86	108.38
392.085	106.38
392.31	103.38
392.534	123.38
392.759	141.38
392.984	206.38
393.208	423.38
393.433	616.38
393.658	429.38
393.882	160.38
394.107	130.38
394.331	145.38
394.556	133.38
394.78	119.38
395.005	97.38
395.229	101.38
395.454	106.38
395.678	113.38
395.903	142.38
396.127	169.38
396.352	205.38
396.576	245.38
396.801	392.38
397.025	499.38
397.249	234.38
397.474	135.38
397.698	102.38
397.922	106.38
398.147	88.38
398.371	110.38
398.595	87.38
398.82	94.38
399.044	85.38
399.268	78.38
399.492	95.38
399.717	98.38
399.941	92.38
400.165	107.38
400.389	85.38
400.613	79.38
400.837	90.38
401.062	88.38
401.286	83.38
401.51	75.38
401.734	87.38
401.958	85.38
402.182	97.38
402.406	95.38
402.63	89.38
402.854	91.38
403.078	80.38
403.302	90.38
403.526	85.38
403.75	94.38
403.974	105.38
404.198	111.38
404.422	128.38
404.645	144.38
404.869	126.38
405.093	94.38
405.317	93.38
405.541	89.38
405.765	82.38
405.988	77.38
406.212	87.38
406.436	95.38
406.66	101.38
406.883	82.38
407.107	82.38
407.331	103.38
407.555	104.38
407.778	127.38
408.002	133.38
408.226	101.38
408.449	99.38
408.673	84.38
408.896	91.38
409.12	82.38
409.344	99.38
409.567	90.38
409.791	99.38
410.014	101.38
410.238	101.38
410.461	104.38
410.685	92.38
410.908	73.38
411.132	81.38
411.355	93.38
411.578	87.38
411.802	100.38
412.025	89.38
412.249	82.38
412.472	87.38
412.695	90.38
412.919	77.38
413.142	83.38
413.365	88.38
413.589	85.38
413.812	93.38
414.035	103.38
414.258	86.38
414.482	101.38
414.705	98.38
414.928	96.38
415.151	93.38
415.374	70.38
415.597	79.38
415.821	77.38
416.044	89.38
416.267	93.38
416.49	105.38
416.713	90.38
416.936	99.38
417.159	86.38
417.382	89.38
417.605	97.38
417.828	82.38
418.051	99.38
418.274	83.38
418.497	84.38
418.72	92.38
418.943	83.38
419.166	94.38
419.389	62.38
419.611	81.38
419.834	84.38
420.057	94.38
420.28	74.38
420.503	99.38
420.726	93.38
420.948	105.38
421.171	95.38
421.394	116.38
421.617	144.38
421.839	137.38
422.062	128.38
422.285	191.38
422.507	311.38
422.73	519.38
422.953	444.38
423.175	227.38
423.398	133.38
423.621	107.38
423.843	90.38
424.066	86.38
424.288	90.38
424.511	110.38
424.733	87.38
424.956	94.38
425.178	78.38
425.401	82.38
425.623	85.38
425.846	92.38
426.068	80.38
426.291	95.38
426.513	84.38
426.735	79.38
426.958	95.38
427.18	107.38
427.402	94.38
427.625	93.38
427.847	102.38
428.069	119.38
428.292	149.38
428.514	159.38
428.736	133.38
428.958	150.38
429.181	153.38
429.403	105.38
429.625	108.38
429.847	133.38
430.069	205.38
430.292	247.38
430.514	215.38
430.736	164.38
430.958	168.38
431.18	117.38
431.402	96.38
431.624	121.38
431.846	147.38
432.068	167.38
432.29	117.38
432.512	94.38
432.734	97.38
432.956	96.38
433.178	93.38
433.4	86.38
433.622	75.38
433.844	71.38
434.066	81.38
434.287	91.38
434.509	90.38
434.731	74.38
434.953	78.38
435.175	93.38
435.397	89.38
435.618	76.38
435.84	99.38
436.062	94.38
436.284	83.38
436.505	80.38
436.727	89.38
436.949	84.38
437.17	79.38
437.392	92.38
437.614	80.38
437.835	79.38
438.057	87.38
438.278	98.38
438.5	115.38
438.721	105.38
438.943	87.38
439.165	98.38
439.386	97.38
439.608	89.38
439.829	79.38
440.05	89.38
440.272	87.38
440.493	94.38
440.715	87.38
440.936	79.38
441.158	104.38
441.379	99.38
441.6	86.38
441.822	82.38
442.043	85.38
442.264	118.38
442.486	154.38
442.707	207.38
442.928	143.38
443.149	119.38
443.371	180.38
443.592	340.38
443.813	286.38
444.034	127.38
444.255	95.38
444.476	86.38
444.698	90.38
444.919	101.38
445.14	180.38
445.361	248.38
445.582	395.38
445.803	342.38
446.024	145.38
446.245	83.38
446.466	89.38
446.687	92.38
446.908	90.38
447.129	92.38
447.35	86.38
447.571	89.38
447.792	87.38
448.013	77.38
448.234	89.38
448.455	95.38
448.675	91.38
448.896	88.38
449.117	86.38
449.338	88.38
449.559	91.38
449.779	89.38
450	88.38
450.221	97.38
450.442	95.38
450.662	94.38
450.883	82.38
451.104	98.38
451.324	93.38
451.545	86.38
451.766	90.38
451.986	95.38
452.207	73.38
452.428	107.38
452.648	98.38
452.869	101.38
453.089	98.38
453.31	89.38
453.53	103.38
453.751	96.38
453.971	92.38
454.192	80.38
454.412	89.38
454.633	97.38
454.853	87.38
455.073	95.38
455.294	85.38
455.514	87.38
455.734	84.38
455.955	78.38
456.175	92.38
456.395	79.38
456.616	91.38
456.836	80.38
457.056	85.38
457.276	90.38
457.497	90.38
457.717	95.38
457.937	105.38
458.157	127.38
458.377	135.38
458.598	137.38
458.818	145.38
459.038	101.38
459.258	84.38
459.478	89.38
459.698	105.38
459.918	94.38
460.138	76.38
460.358	91.38
460.578	109.38
460.798	129.38
461.018	113.38
461.238	93.38
461.458	102.38
461.678	90.38
461.898	104.38
462.118	99.38
462.338	81.38
462.558	77.38
462.777	88.38
462.997	74.38
463.217	91.38
463.437	93.38
463.657	77.38
463.876	79.38
464.096	90.38
464.316	86.38
464.536	102.38
464.755	85.38
464.975	79.38
465.195	88.38
465.414	85.38
465.634	78.38
465.854	76.38
466.073	89.38
466.293	90.38
466.512	81.38
466.732	83.38
466.951	88.38
467.171	88.38
467.391	88.38
467.61	85.38
467.829	79.38
468.049	74.38
468.268	82.38
468.488	97.38
468.707	77.38
468.927	91.38
469.146	71.38
469.365	94.38
469.585	82.38
469.804	93.38
470.023	89.38
470.243	86.38
470.462	92.38
470.681	85.38
470.901	81.38
471.12	99.38
471.339	87.38
471.558	86.38
471.777	78.38
471.997	88.38
472.216	90.38
472.435	96.38
472.654	84.38
472.873	86.38
473.092	86.38
473.311	86.38
473.53	77.38
473.749	85.38
473.968	89.38
474.187	93.38
474.406	79.38
474.625	87.38
474.844	84.38
475.063	99.38
475.282	107.38
475.501	94.38
475.72	95.38
475.939	84.38
476.158	83.38
476.377	86.38
476.596	77.38
476.814	80.38
477.033	73.38
477.252	87.38
477.471	92.38
477.69	80.38
477.908	91.38
478.127	85.38
478.346	73.38
478.564	85.38
478.783	84.38
479.002	97.38
479.22	83.38
479.439	91.38
479.658	84.38
479.876	90.38
480.095	86.38
480.313	91.38
480.532	84.38
480.751	105.38
480.969	77.38
481.188	78.38
481.406	118.38
481.624	104.38
481.843	83.38
482.061	77.38
482.28	102.38
482.498	88.38
482.717	77.38
482.935	92.38
483.153	87.38
483.372	87.38
483.59	100.38
483.808	87.38
484.027	82.38
484.245	93.38
484.463	103.38
484.681	98.38
484.9	82.38
485.118	114.38
485.336	93.38
485.554	90.38
485.772	94.38
485.99	86.38
486.209	79.38
486.427	83.38
486.645	82.38
486.863	87.38
487.081	90.38
487.299	89.38
487.517	107.38
487.735	115.38
487.953	193.38
488.171	168.38
488.389	101.38
488.607	100.38
488.825	83.38
489.043	86.38
489.261	105.38
489.479	97.38
489.696	101.38
489.914	73.38
490.132	90.38
490.35	83.38
490.568	94.38
490.786	88.38
491.003	84.38
491.221	75.38
491.439	92.38
491.657	90.38
491.874	89.38
492.092	82.38
492.31	107.38
492.527	80.38
492.745	72.38
492.963	84.38
493.18	91.38
493.398	89.38
493.615	98.38
493.833	85.38
494.05	94.38
494.268	87.38
494.485	80.38
494.703	100.38
494.92	105.38
495.138	96.38
495.355	94.38
495.573	73.38
495.79	108.38
496.008	95.38
496.225	83.38
496.442	98.38
496.66	101.38
496.877	94.38
497.094	91.38
497.312	94.38
497.529	91.38
497.746	107.38
497.963	98.38
498.181	99.38
498.398	97.38
498.615	98.38
498.832	83.38
499.049	87.38
499.267	109.38
499.484	86.38
499.701	90.38
499.918	103.38
500.135	87.38
500.352	90.38
500.569	77.38
500.786	91.38
501.003	78.38
501.22	101.38
501.437	82.38
501.654	91.38
501.871	94.38
502.088	97.38
502.305	89.38
502.522	101.38
502.739	92.38
502.956	91.38
503.172	93.38
503.389	97.38
503.606	98.38
503.823	93.38
504.04	107.38
504.256	129.38
504.473	145.38
504.69	96.38
504.907	95.38
505.123	83.38
505.34	93.38
505.557	100.38
505.773	90.38
505.99	78.38
506.207	86.38
506.423	103.38
506.64	104.38
506.856	101.38
507.073	74.38
507.289	107.38
507.506	91.38
507.722	94.38
507.939	85.38
508.155	88.38
508.372	81.38
508.588	88.38
508.805	104.38
509.021	102.38
509.238	86.38
509.454	98.38
509.67	80.38
509.887	85.38
510.103	103.38
510.319	95.38
510.536	82.38
510.752	97.38
510.968	98.38
511.184	89.38
511.401	81.38
511.617	85.38
511.833	92.38
512.049	76.38
512.265	105.38
512.481	87.38
512.698	89.38
512.914	97.38
513.13	88.38
513.346	84.38
513.562	91.38
513.778	77.38
513.994	85.38
514.21	84.38
514.426	89.38
514.642	94.38
514.858	90.38
515.074	84.38
515.29	87.38
515.506	87.38
515.721	85.38
515.937	88.38
516.153	93.38
516.369	93.38
516.585	107.38
516.801	90.38
