Data from 15780_3_HRD10591_00005.txt Node
Date: Mon Jan 19 14:20:00 EST 2026
User: Yrep
Spectrometer: HR+D1059
Trigger mode: 1
Integration Time (sec): 1.000000E-1
Scans to average: 1
Electric dark correction enabled: true
Nonlinearity correction enabled: false
Boxcar width: 0
XAxis mode: Wavelengths
Number of Pixels in Spectrum: 2048
>>>>>Begin Spectral Data<<<<<
223.165	-8.5
223.4	-8.5
223.635	-8.5
223.869	-18.5
224.104	-22.5
224.338	-18.5
224.573	-18.5
224.808	-16.5
225.042	-7.5
225.277	-16.5
225.511	-2.5
225.746	0.5
225.98	8.5
226.215	3.5
226.449	23.5
226.683	32.5
226.918	33.5
227.152	27.5
227.387	32.5
227.621	40.5
227.856	32.5
228.09	35.5
228.324	55.5
228.559	48.5
228.793	49.5
229.027	68.5
229.262	71.5
229.496	57.5
229.73	81.5
229.964	52.5
230.199	63.5
230.433	71.5
230.667	62.5
230.901	73.5
231.136	67.5
231.37	67.5
231.604	85.5
231.838	75.5
232.072	75.5
232.306	63.5
232.541	85.5
232.775	70.5
233.009	86.5
233.243	78.5
233.477	74.5
233.711	73.5
233.945	75.5
234.179	68.5
234.413	79.5
234.647	74.5
234.881	89.5
235.115	78.5
235.349	71.5
235.583	73.5
235.817	82.5
236.051	66.5
236.285	72.5
236.519	73.5
236.753	80.5
236.987	63.5
237.221	71.5
237.455	62.5
237.689	76.5
237.922	66.5
238.156	54.5
238.39	87.5
238.624	74.5
238.858	77.5
239.091	71.5
239.325	61.5
239.559	69.5
239.793	81.5
240.027	72.5
240.26	71.5
240.494	78.5
240.728	68.5
240.961	71.5
241.195	72.5
241.429	74.5
241.662	75.5
241.896	69.5
242.13	73.5
242.363	71.5
242.597	63.5
242.83	81.5
243.064	68.5
243.298	77.5
243.531	69.5
243.765	62.5
243.998	81.5
244.232	85.5
244.465	86.5
244.699	70.5
244.932	70.5
245.166	84.5
245.399	77.5
245.633	65.5
245.866	77.5
246.099	73.5
246.333	57.5
246.566	58.5
246.8	69.5
247.033	67.5
247.266	70.5
247.5	89.5
247.733	65.5
247.966	76.5
248.2	67.5
248.433	79.5
248.666	89.5
248.899	78.5
249.133	69.5
249.366	87.5
249.599	77.5
249.832	76.5
250.066	77.5
250.299	76.5
250.532	79.5
250.765	88.5
250.998	72.5
251.231	68.5
251.465	76.5
251.698	70.5
251.931	71.5
252.164	74.5
252.397	75.5
252.63	70.5
252.863	68.5
253.096	79.5
253.329	65.5
253.562	60.5
253.795	69.5
254.028	79.5
254.261	97.5
254.494	71.5
254.727	72.5
254.96	78.5
255.193	73.5
255.426	73.5
255.659	80.5
255.892	86.5
256.124	84.5
256.357	83.5
256.59	75.5
256.823	84.5
257.056	88.5
257.289	78.5
257.521	89.5
257.754	81.5
257.987	72.5
258.22	84.5
258.452	76.5
258.685	85.5
258.918	71.5
259.151	73.5
259.383	80.5
259.616	71.5
259.849	74.5
260.081	72.5
260.314	77.5
260.547	79.5
260.779	79.5
261.012	74.5
261.244	74.5
261.477	74.5
261.71	79.5
261.942	62.5
262.175	80.5
262.407	83.5
262.64	77.5
262.872	93.5
263.105	83.5
263.337	75.5
263.57	67.5
263.802	79.5
264.035	89.5
264.267	64.5
264.499	76.5
264.732	83.5
264.964	89.5
265.197	92.5
265.429	93.5
265.661	84.5
265.894	72.5
266.126	70.5
266.358	91.5
266.591	75.5
266.823	75.5
267.055	67.5
267.287	75.5
267.52	79.5
267.752	78.5
267.984	72.5
268.216	74.5
268.448	75.5
268.681	88.5
268.913	71.5
269.145	81.5
269.377	79.5
269.609	72.5
269.841	78.5
270.073	91.5
270.306	95.5
270.538	85.5
270.77	85.5
271.002	85.5
271.234	85.5
271.466	91.5
271.698	71.5
271.93	91.5
272.162	81.5
272.394	80.5
272.626	80.5
272.858	84.5
273.09	83.5
273.322	79.5
273.553	68.5
273.785	78.5
274.017	65.5
274.249	95.5
274.481	72.5
274.713	79.5
274.945	69.5
275.176	61.5
275.408	71.5
275.64	89.5
275.872	78.5
276.104	74.5
276.335	80.5
276.567	79.5
276.799	74.5
277.031	86.5
277.262	83.5
277.494	92.5
277.726	91.5
277.957	89.5
278.189	70.5
278.421	79.5
278.652	90.5
278.884	92.5
279.115	80.5
279.347	85.5
279.579	82.5
279.81	81.5
280.042	73.5
280.273	85.5
280.505	89.5
280.736	87.5
280.968	80.5
281.199	78.5
281.431	81.5
281.662	86.5
281.894	93.5
282.125	79.5
282.356	77.5
282.588	88.5
282.819	68.5
283.051	87.5
283.282	77.5
283.513	81.5
283.745	68.5
283.976	85.5
284.207	79.5
284.439	73.5
284.67	84.5
284.901	70.5
285.132	81.5
285.364	88.5
285.595	83.5
285.826	89.5
286.057	83.5
286.288	87.5
286.52	77.5
286.751	79.5
286.982	81.5
287.213	86.5
287.444	85.5
287.675	79.5
287.906	72.5
288.138	87.5
288.369	91.5
288.6	84.5
288.831	83.5
289.062	77.5
289.293	84.5
289.524	76.5
289.755	86.5
289.986	76.5
290.217	91.5
290.448	79.5
290.679	80.5
290.91	92.5
291.141	85.5
291.371	78.5
291.602	75.5
291.833	72.5
292.064	87.5
292.295	94.5
292.526	69.5
292.757	75.5
292.987	68.5
293.218	81.5
293.449	81.5
293.68	85.5
293.91	85.5
294.141	84.5
294.372	78.5
294.603	68.5
294.833	76.5
295.064	69.5
295.295	87.5
295.525	81.5
295.756	93.5
295.987	60.5
296.217	87.5
296.448	81.5
296.679	86.5
296.909	79.5
297.14	91.5
297.37	87.5
297.601	90.5
297.831	79.5
298.062	75.5
298.292	74.5
298.523	83.5
298.753	81.5
298.984	71.5
299.214	95.5
299.445	81.5
299.675	88.5
299.905	91.5
300.136	95.5
300.366	99.5
300.597	107.5
300.827	86.5
301.057	90.5
301.288	85.5
301.518	88.5
301.748	77.5
301.979	82.5
302.209	87.5
302.439	83.5
302.669	83.5
302.9	84.5
303.13	87.5
303.36	91.5
303.59	74.5
303.82	82.5
304.051	81.5
304.281	79.5
304.511	90.5
304.741	72.5
304.971	77.5
305.201	92.5
305.431	87.5
305.661	81.5
305.891	86.5
306.121	79.5
306.352	72.5
306.582	81.5
306.812	75.5
307.042	79.5
307.272	86.5
307.502	76.5
307.731	88.5
307.961	83.5
308.191	89.5
308.421	86.5
308.651	95.5
308.881	83.5
309.111	98.5
309.341	99.5
309.571	89.5
309.8	83.5
310.03	84.5
310.26	92.5
310.49	81.5
310.72	86.5
310.949	79.5
311.179	78.5
311.409	73.5
311.639	83.5
311.868	87.5
312.098	77.5
312.328	89.5
312.557	90.5
312.787	75.5
313.017	84.5
313.246	78.5
313.476	75.5
313.706	83.5
313.935	68.5
314.165	90.5
314.394	88.5
314.624	95.5
314.853	91.5
315.083	73.5
315.312	83.5
315.542	92.5
315.771	83.5
316.001	75.5
316.23	71.5
316.46	83.5
316.689	86.5
316.919	74.5
317.148	90.5
317.377	92.5
317.607	90.5
317.836	84.5
318.065	87.5
318.295	88.5
318.524	84.5
318.753	86.5
318.983	91.5
319.212	82.5
319.441	85.5
319.67	96.5
319.9	75.5
320.129	75.5
320.358	73.5
320.587	71.5
320.816	84.5
321.046	96.5
321.275	99.5
321.504	86.5
321.733	79.5
321.962	92.5
322.191	86.5
322.42	79.5
322.649	79.5
322.878	82.5
323.108	91.5
323.337	75.5
323.566	79.5
323.795	82.5
324.024	89.5
324.253	79.5
324.482	79.5
324.71	72.5
324.939	83.5
325.168	77.5
325.397	75.5
325.626	77.5
325.855	84.5
326.084	73.5
326.313	83.5
326.542	81.5
326.77	93.5
326.999	99.5
327.228	75.5
327.457	69.5
327.686	86.5
327.914	79.5
328.143	83.5
328.372	81.5
328.6	87.5
328.829	74.5
329.058	62.5
329.287	91.5
329.515	78.5
329.744	85.5
329.972	91.5
330.201	74.5
330.43	100.5
330.658	91.5
330.887	76.5
331.115	76.5
331.344	65.5
331.572	83.5
331.801	69.5
332.03	87.5
332.258	77.5
332.486	67.5
332.715	70.5
332.943	91.5
333.172	83.5
333.4	76.5
333.629	79.5
333.857	88.5
334.085	88.5
334.314	93.5
334.542	89.5
334.771	94.5
334.999	88.5
335.227	94.5
335.455	95.5
335.684	101.5
335.912	99.5
336.14	95.5
336.369	87.5
336.597	88.5
336.825	85.5
337.053	97.5
337.281	88.5
337.51	78.5
337.738	80.5
337.966	98.5
338.194	89.5
338.422	80.5
338.65	80.5
338.878	110.5
339.106	84.5
339.334	93.5
339.562	83.5
339.79	87.5
340.018	69.5
340.246	75.5
340.474	80.5
340.702	82.5
340.93	74.5
341.158	80.5
341.386	81.5
341.614	74.5
341.842	71.5
342.07	88.5
342.298	72.5
342.526	76.5
342.754	87.5
342.981	92.5
343.209	90.5
343.437	95.5
343.665	88.5
343.893	83.5
344.12	85.5
344.348	73.5
344.576	85.5
344.804	88.5
345.031	79.5
345.259	72.5
345.487	79.5
345.714	55.5
345.942	81.5
346.17	85.5
346.397	78.5
346.625	65.5
346.853	87.5
347.08	69.5
347.308	79.5
347.535	87.5
347.763	76.5
347.99	91.5
348.218	81.5
348.445	81.5
348.673	91.5
348.9	92.5
349.128	94.5
349.355	66.5
349.583	97.5
349.81	88.5
350.037	83.5
350.265	94.5
350.492	75.5
350.72	77.5
350.947	85.5
351.174	93.5
351.402	91.5
351.629	81.5
351.856	88.5
352.083	82.5
352.311	83.5
352.538	80.5
352.765	75.5
352.992	80.5
353.22	85.5
353.447	72.5
353.674	81.5
353.901	93.5
354.128	87.5
354.355	73.5
354.583	66.5
354.81	81.5
355.037	71.5
355.264	68.5
355.491	77.5
355.718	74.5
355.945	95.5
356.172	94.5
356.399	93.5
356.626	69.5
356.853	84.5
357.08	85.5
357.307	100.5
357.534	97.5
357.761	99.5
357.988	89.5
358.215	87.5
358.441	92.5
358.668	71.5
358.895	86.5
359.122	88.5
359.349	73.5
359.576	80.5
359.802	87.5
360.029	89.5
360.256	82.5
360.483	107.5
360.709	97.5
360.936	99.5
361.163	104.5
361.39	84.5
361.616	82.5
361.843	91.5
362.07	81.5
362.296	105.5
362.523	101.5
362.749	88.5
362.976	99.5
363.203	115.5
363.429	115.5
363.656	93.5
363.882	107.5
364.109	103.5
364.335	112.5
364.562	129.5
364.788	107.5
365.015	87.5
365.241	92.5
365.468	83.5
365.694	86.5
365.92	82.5
366.147	94.5
366.373	72.5
366.599	86.5
366.826	89.5
367.052	80.5
367.278	90.5
367.505	97.5
367.731	70.5
367.957	74.5
368.184	88.5
368.41	85.5
368.636	77.5
368.862	90.5
369.089	79.5
369.315	77.5
369.541	80.5
369.767	83.5
369.993	91.5
370.219	95.5
370.445	81.5
370.672	95.5
370.898	80.5
371.124	91.5
371.35	89.5
371.576	83.5
371.802	82.5
372.028	93.5
372.254	105.5
372.48	91.5
372.706	80.5
372.932	87.5
373.158	96.5
373.384	98.5
373.61	99.5
373.835	103.5
374.061	91.5
374.287	87.5
374.513	100.5
374.739	102.5
374.965	108.5
375.191	89.5
375.416	85.5
375.642	96.5
375.868	96.5
376.094	92.5
376.319	85.5
376.545	88.5
376.771	87.5
376.997	85.5
377.222	97.5
377.448	82.5
377.674	81.5
377.899	71.5
378.125	100.5
378.35	81.5
378.576	87.5
378.802	89.5
379.027	84.5
379.253	91.5
379.478	75.5
379.704	85.5
379.929	85.5
380.155	79.5
380.38	67.5
380.606	91.5
380.831	84.5
381.057	92.5
381.282	83.5
381.507	77.5
381.733	92.5
381.958	95.5
382.184	97.5
382.409	95.5
382.634	102.5
382.86	92.5
383.085	95.5
383.31	93.5
383.535	98.5
383.761	97.5
383.986	91.5
384.211	96.5
384.436	78.5
384.662	96.5
384.887	95.5
385.112	85.5
385.337	87.5
385.562	94.5
385.787	101.5
386.013	103.5
386.238	104.5
386.463	86.5
386.688	97.5
386.913	79.5
387.138	99.5
387.363	95.5
387.588	96.5
387.813	100.5
388.038	98.5
388.263	93.5
388.488	97.5
388.713	88.5
388.938	95.5
389.163	86.5
389.387	81.5
389.612	77.5
389.837	84.5
390.062	98.5
390.287	96.5
390.512	90.5
390.736	87.5
390.961	70.5
391.186	80.5
391.411	81.5
391.636	97.5
391.86	73.5
392.085	92.5
392.31	88.5
392.534	103.5
392.759	114.5
392.984	132.5
393.208	187.5
393.433	256.5
393.658	194.5
393.882	126.5
394.107	92.5
394.331	109.5
394.556	132.5
394.78	107.5
395.005	98.5
395.229	88.5
395.454	95.5
395.678	94.5
395.903	137.5
396.127	135.5
396.352	146.5
396.576	150.5
396.801	200.5
397.025	227.5
397.249	141.5
397.474	111.5
397.698	103.5
397.922	79.5
398.147	73.5
398.371	77.5
398.595	100.5
398.82	95.5
399.044	87.5
399.268	75.5
399.492	80.5
399.717	85.5
399.941	99.5
400.165	86.5
400.389	95.5
400.613	85.5
400.837	79.5
401.062	91.5
401.286	80.5
401.51	79.5
401.734	74.5
401.958	94.5
402.182	88.5
402.406	84.5
402.63	96.5
402.854	85.5
403.078	75.5
403.302	76.5
403.526	98.5
403.75	96.5
403.974	86.5
404.198	100.5
404.422	118.5
404.645	127.5
404.869	98.5
405.093	79.5
405.317	92.5
405.541	81.5
405.765	88.5
405.988	90.5
406.212	92.5
406.436	71.5
406.66	91.5
406.883	88.5
407.107	97.5
407.331	107.5
407.555	93.5
407.778	102.5
408.002	96.5
408.226	84.5
408.449	85.5
408.673	74.5
408.896	77.5
409.12	76.5
409.344	75.5
409.567	88.5
409.791	95.5
410.014	93.5
410.238	96.5
410.461	85.5
410.685	84.5
410.908	89.5
411.132	88.5
411.355	87.5
411.578	83.5
411.802	82.5
412.025	92.5
412.249	83.5
412.472	61.5
412.695	77.5
412.919	73.5
413.142	89.5
413.365	84.5
413.589	80.5
413.812	79.5
414.035	83.5
414.258	80.5
414.482	77.5
414.705	77.5
414.928	90.5
415.151	76.5
415.374	86.5
415.597	81.5
415.821	79.5
416.044	95.5
416.267	69.5
416.49	81.5
416.713	78.5
416.936	94.5
417.159	75.5
417.382	74.5
417.605	72.5
417.828	99.5
418.051	101.5
418.274	81.5
418.497	73.5
418.72	63.5
418.943	86.5
419.166	92.5
419.389	100.5
419.611	78.5
419.834	95.5
420.057	79.5
420.28	86.5
420.503	87.5
420.726	93.5
420.948	86.5
421.171	102.5
421.394	100.5
421.617	116.5
421.839	132.5
422.062	131.5
422.285	171.5
422.507	273.5
422.73	356.5
422.953	344.5
423.175	245.5
423.398	153.5
423.621	123.5
423.843	109.5
424.066	98.5
424.288	89.5
424.511	89.5
424.733	82.5
424.956	79.5
425.178	85.5
425.401	91.5
425.623	87.5
425.846	94.5
426.068	99.5
426.291	84.5
426.513	90.5
426.735	89.5
426.958	80.5
427.18	87.5
427.402	99.5
427.625	100.5
427.847	93.5
428.069	110.5
428.292	125.5
428.514	138.5
428.736	114.5
428.958	125.5
429.181	136.5
429.403	95.5
429.625	99.5
429.847	124.5
430.069	153.5
430.292	187.5
430.514	157.5
430.736	131.5
430.958	135.5
431.18	110.5
431.402	100.5
431.624	103.5
431.846	99.5
432.068	143.5
432.29	102.5
432.512	86.5
432.734	95.5
432.956	89.5
433.178	88.5
433.4	95.5
433.622	79.5
433.844	79.5
434.066	100.5
434.287	88.5
434.509	86.5
434.731	89.5
434.953	84.5
435.175	91.5
435.397	80.5
435.618	87.5
435.84	88.5
436.062	86.5
436.284	91.5
436.505	75.5
436.727	78.5
436.949	82.5
437.17	85.5
437.392	92.5
437.614	87.5
437.835	87.5
438.057	82.5
438.278	91.5
438.5	104.5
438.721	82.5
438.943	94.5
439.165	81.5
439.386	94.5
439.608	97.5
439.829	86.5
440.05	63.5
440.272	79.5
440.493	101.5
440.715	89.5
440.936	91.5
441.158	94.5
441.379	78.5
441.6	67.5
441.822	111.5
442.043	90.5
442.264	116.5
442.486	130.5
442.707	160.5
442.928	117.5
443.149	97.5
443.371	153.5
443.592	244.5
443.813	207.5
444.034	105.5
444.255	94.5
444.476	81.5
444.698	94.5
444.919	104.5
445.14	154.5
445.361	191.5
445.582	280.5
445.803	253.5
446.024	124.5
446.245	88.5
446.466	81.5
446.687	71.5
446.908	88.5
447.129	93.5
447.35	77.5
447.571	82.5
447.792	79.5
448.013	80.5
448.234	94.5
448.455	77.5
448.675	83.5
448.896	89.5
449.117	72.5
449.338	93.5
449.559	98.5
449.779	87.5
450	91.5
450.221	79.5
450.442	80.5
450.662	84.5
450.883	94.5
451.104	88.5
451.324	94.5
451.545	81.5
451.766	85.5
451.986	74.5
452.207	91.5
452.428	88.5
452.648	96.5
452.869	100.5
453.089	87.5
453.31	95.5
453.53	111.5
453.751	109.5
453.971	86.5
454.192	93.5
454.412	75.5
454.633	84.5
454.853	87.5
455.073	91.5
455.294	81.5
455.514	77.5
455.734	89.5
455.955	90.5
456.175	77.5
456.395	73.5
456.616	90.5
456.836	91.5
457.056	63.5
457.276	78.5
457.497	89.5
457.717	95.5
457.937	103.5
458.157	124.5
458.377	120.5
458.598	127.5
458.818	123.5
459.038	92.5
459.258	100.5
459.478	84.5
459.698	76.5
459.918	92.5
460.138	89.5
460.358	81.5
460.578	108.5
460.798	125.5
461.018	115.5
461.238	83.5
461.458	79.5
461.678	97.5
461.898	83.5
462.118	98.5
462.338	83.5
462.558	58.5
462.777	67.5
462.997	69.5
463.217	87.5
463.437	87.5
463.657	77.5
463.876	81.5
464.096	83.5
464.316	79.5
464.536	73.5
464.755	92.5
464.975	87.5
465.195	73.5
465.414	83.5
465.634	91.5
465.854	81.5
466.073	79.5
466.293	83.5
466.512	70.5
466.732	77.5
466.951	77.5
467.171	88.5
467.391	76.5
467.61	77.5
467.829	94.5
468.049	71.5
468.268	97.5
468.488	87.5
468.707	95.5
468.927	83.5
469.146	77.5
469.365	91.5
469.585	79.5
469.804	93.5
470.023	91.5
470.243	81.5
470.462	73.5
470.681	92.5
470.901	66.5
471.12	83.5
471.339	91.5
471.558	90.5
471.777	87.5
471.997	91.5
472.216	89.5
472.435	73.5
472.654	86.5
472.873	87.5
473.092	78.5
473.311	69.5
473.53	79.5
473.749	78.5
473.968	103.5
474.187	73.5
474.406	86.5
474.625	78.5
474.844	81.5
475.063	67.5
475.282	83.5
475.501	82.5
475.72	93.5
475.939	89.5
476.158	97.5
476.377	97.5
476.596	84.5
476.814	73.5
477.033	83.5
477.252	88.5
477.471	85.5
477.69	85.5
477.908	93.5
478.127	87.5
478.346	77.5
478.564	79.5
478.783	85.5
479.002	93.5
479.22	95.5
479.439	85.5
479.658	97.5
479.876	90.5
480.095	92.5
480.313	101.5
480.532	98.5
480.751	72.5
480.969	83.5
481.188	79.5
481.406	85.5
481.624	97.5
481.843	93.5
482.061	81.5
482.28	98.5
482.498	81.5
482.717	83.5
482.935	78.5
483.153	99.5
483.372	103.5
483.59	86.5
483.808	90.5
484.027	74.5
484.245	99.5
484.463	91.5
484.681	88.5
484.9	95.5
485.118	95.5
485.336	95.5
485.554	89.5
485.772	92.5
485.99	97.5
486.209	95.5
486.427	96.5
486.645	86.5
486.863	100.5
487.081	89.5
487.299	97.5
487.517	109.5
487.735	121.5
487.953	186.5
488.171	171.5
488.389	110.5
488.607	83.5
488.825	79.5
489.043	81.5
489.261	106.5
489.479	92.5
489.696	87.5
489.914	95.5
490.132	94.5
490.35	90.5
490.568	63.5
490.786	87.5
491.003	62.5
491.221	68.5
491.439	93.5
491.657	100.5
491.874	86.5
492.092	83.5
492.31	85.5
492.527	80.5
492.745	79.5
492.963	83.5
493.18	89.5
493.398	95.5
493.615	92.5
493.833	85.5
494.05	81.5
494.268	94.5
494.485	101.5
494.703	88.5
494.92	85.5
495.138	100.5
495.355	82.5
495.573	90.5
495.79	96.5
496.008	90.5
496.225	86.5
496.442	103.5
496.66	91.5
496.877	85.5
497.094	96.5
497.312	81.5
497.529	82.5
497.746	84.5
497.963	77.5
498.181	97.5
498.398	120.5
498.615	83.5
498.832	89.5
499.049	95.5
499.267	94.5
499.484	107.5
499.701	98.5
499.918	95.5
500.135	96.5
500.352	95.5
500.569	96.5
500.786	100.5
501.003	97.5
501.22	76.5
501.437	106.5
501.654	104.5
501.871	88.5
502.088	82.5
502.305	77.5
502.522	85.5
502.739	88.5
502.956	103.5
503.172	85.5
503.389	99.5
503.606	98.5
503.823	100.5
504.04	113.5
504.256	135.5
504.473	140.5
504.69	95.5
504.907	85.5
505.123	88.5
505.34	84.5
505.557	90.5
505.773	96.5
505.99	90.5
506.207	93.5
506.423	85.5
506.64	96.5
506.856	103.5
507.073	88.5
507.289	81.5
507.506	85.5
507.722	73.5
507.939	78.5
508.155	104.5
508.372	99.5
508.588	97.5
508.805	89.5
509.021	91.5
509.238	91.5
509.454	105.5
509.67	86.5
509.887	78.5
510.103	79.5
510.319	87.5
510.536	72.5
510.752	87.5
510.968	78.5
511.184	87.5
511.401	96.5
511.617	93.5
511.833	84.5
512.049	95.5
512.265	92.5
512.481	77.5
512.698	100.5
512.914	90.5
513.13	92.5
513.346	84.5
513.562	80.5
513.778	97.5
513.994	91.5
514.21	104.5
514.426	85.5
514.642	87.5
514.858	84.5
515.074	98.5
515.29	85.5
515.506	83.5
515.721	80.5
515.937	98.5
516.153	99.5
516.369	88.5
516.585	98.5
516.801	90.5
517.016	98.5
517.232	98.5
517.448	94.5
517.664	101.5
517.879	82.5
518.095	84.5
518.311	81.5
518.527	112.5
518.742	110.5
518.958	145.5
519.173	160.5
519.389	124.5
519.605	97.5
519.82	90.5
520.036	98.5
520.251	87.5
520.467	78.5
520.682	109.5
520.898	89.5
521.113	95.5
521.329	96.5
521.544	95.5
521.76	100.5
521.975	91.5
522.19	85.5
522.406	84.5
522.621	100.5
522.836	75.5
523.052	92.5
523.267	99.5
523.482	85.5
523.698	97.5
523.913	89.5
524.128	100.5
524.343	83.5
524.559	70.5
524.774	85.5
524.989	92.5
525.204	122.5
525.419	111.5
525.634	100.5
525.849	107.5
526.064	131.5
526.28	229.5
526.495	314.5
526.71	340.5
526.925	221.5
527.14	279.5
527.355	258.5
527.57	117.5
527.785	98.5
527.999	92.5
528.214	96.5
528.429	85.5
528.644	91.5
528.859	77.5
529.074	91.5
529.289	93.5
529.503	92.5
529.718	96.5
529.933	94.5
530.148	100.5
530.363	94.5
530.577	79.5
530.792	92.5
531.007	96.5
531.221	93.5
531.436	91.5
531.651	107.5
531.865	107.5
532.08	102.5
532.295	95.5
532.509	94.5
532.724	96.5
532.938	112.5
533.153	94.5
533.367	95.5
533.582	101.5
533.796	91.5
534.011	103.5
534.225	107.5
534.44	117.5
534.654	104.5
534.868	106.5
535.083	160.5
535.297	132.5
535.511	109.5
535.726	104.5
535.94	94.5
536.154	107.5
536.369	103.5
536.583	111.5
536.797	103.5
537.011	91.5
537.225	101.5
537.44	104.5
537.654	99.5
537.868	99.5
