Data from 15780_3_HRD10591_00009.txt Node
Date: Mon Jan 19 14:20:02 EST 2026
User: Yrep
Spectrometer: HR+D1059
Trigger mode: 1
Integration Time (sec): 1.000000E-1
Scans to average: 1
Electric dark correction enabled: true
Nonlinearity correction enabled: false
Boxcar width: 0
XAxis mode: Wavelengths
Number of Pixels in Spectrum: 2048
>>>>>Begin Spectral Data<<<<<
223.165	-4.88
223.4	-4.88
223.635	-4.88
223.869	-11.88
224.104	-25.88
224.338	-10.88
224.573	-17.88
224.808	-11.88
225.042	-17.88
225.277	-3.88
225.511	1.12
225.746	10.12
225.98	-0.88
226.215	14.12
226.449	9.12
226.683	18.12
226.918	18.12
227.152	35.12
227.387	30.12
227.621	26.12
227.856	49.12
228.09	44.12
228.324	50.12
228.559	46.12
228.793	39.12
229.027	45.12
229.262	58.12
229.496	69.12
229.73	71.12
229.964	78.12
230.199	58.12
230.433	82.12
230.667	84.12
230.901	69.12
231.136	82.12
231.37	81.12
231.604	70.12
231.838	72.12
232.072	75.12
232.306	76.12
232.541	77.12
232.775	95.12
233.009	91.12
233.243	73.12
233.477	70.12
233.711	76.12
233.945	62.12
234.179	88.12
234.413	77.12
234.647	74.12
234.881	69.12
235.115	78.12
235.349	84.12
235.583	80.12
235.817	79.12
236.051	78.12
236.285	72.12
236.519	82.12
236.753	68.12
236.987	70.12
237.221	69.12
237.455	71.12
237.689	73.12
237.922	64.12
238.156	60.12
238.39	81.12
238.624	52.12
238.858	75.12
239.091	68.12
239.325	75.12
239.559	80.12
239.793	73.12
240.027	71.12
240.26	75.12
240.494	60.12
240.728	76.12
240.961	77.12
241.195	65.12
241.429	75.12
241.662	76.12
241.896	87.12
242.13	66.12
242.363	88.12
242.597	70.12
242.83	72.12
243.064	68.12
243.298	71.12
243.531	84.12
243.765	72.12
243.998	78.12
244.232	84.12
244.465	84.12
244.699	71.12
244.932	80.12
245.166	57.12
245.399	64.12
245.633	62.12
245.866	69.12
246.099	74.12
246.333	74.12
246.566	72.12
246.8	85.12
247.033	80.12
247.266	65.12
247.5	72.12
247.733	70.12
247.966	71.12
248.2	82.12
248.433	74.12
248.666	78.12
248.899	81.12
249.133	82.12
249.366	68.12
249.599	70.12
249.832	78.12
250.066	82.12
250.299	77.12
250.532	78.12
250.765	78.12
250.998	76.12
251.231	80.12
251.465	91.12
251.698	80.12
251.931	78.12
252.164	80.12
252.397	68.12
252.63	80.12
252.863	80.12
253.096	81.12
253.329	75.12
253.562	72.12
253.795	85.12
254.028	85.12
254.261	75.12
254.494	74.12
254.727	76.12
254.96	88.12
255.193	66.12
255.426	79.12
255.659	74.12
255.892	84.12
256.124	63.12
256.357	70.12
256.59	68.12
256.823	68.12
257.056	82.12
257.289	94.12
257.521	74.12
257.754	82.12
257.987	68.12
258.22	78.12
258.452	80.12
258.685	82.12
258.918	72.12
259.151	73.12
259.383	88.12
259.616	90.12
259.849	71.12
260.081	69.12
260.314	80.12
260.547	69.12
260.779	84.12
261.012	72.12
261.244	80.12
261.477	58.12
261.71	83.12
261.942	92.12
262.175	74.12
262.407	87.12
262.64	69.12
262.872	76.12
263.105	69.12
263.337	72.12
263.57	84.12
263.802	88.12
264.035	93.12
264.267	87.12
264.499	73.12
264.732	88.12
264.964	74.12
265.197	79.12
265.429	90.12
265.661	83.12
265.894	91.12
266.126	73.12
266.358	60.12
266.591	65.12
266.823	80.12
267.055	82.12
267.287	79.12
267.52	90.12
267.752	72.12
267.984	81.12
268.216	79.12
268.448	77.12
268.681	80.12
268.913	88.12
269.145	95.12
269.377	70.12
269.609	77.12
269.841	73.12
270.073	87.12
270.306	83.12
270.538	80.12
270.77	85.12
271.002	77.12
271.234	80.12
271.466	78.12
271.698	78.12
271.93	71.12
272.162	78.12
272.394	91.12
272.626	77.12
272.858	71.12
273.09	76.12
273.322	83.12
273.553	77.12
273.785	79.12
274.017	89.12
274.249	80.12
274.481	77.12
274.713	75.12
274.945	79.12
275.176	88.12
275.408	63.12
275.64	78.12
275.872	80.12
276.104	88.12
276.335	89.12
276.567	82.12
276.799	84.12
277.031	80.12
277.262	92.12
277.494	84.12
277.726	85.12
277.957	79.12
278.189	84.12
278.421	89.12
278.652	105.12
278.884	85.12
279.115	86.12
279.347	77.12
279.579	80.12
279.81	82.12
280.042	79.12
280.273	85.12
280.505	76.12
280.736	94.12
280.968	81.12
281.199	80.12
281.431	64.12
281.662	67.12
281.894	86.12
282.125	81.12
282.356	80.12
282.588	77.12
282.819	78.12
283.051	79.12
283.282	89.12
283.513	83.12
283.745	87.12
283.976	87.12
284.207	89.12
284.439	77.12
284.67	88.12
284.901	74.12
285.132	72.12
285.364	97.12
285.595	99.12
285.826	84.12
286.057	64.12
286.288	88.12
286.52	85.12
286.751	74.12
286.982	80.12
287.213	80.12
287.444	83.12
287.675	80.12
287.906	93.12
288.138	94.12
288.369	74.12
288.6	94.12
288.831	89.12
289.062	87.12
289.293	80.12
289.524	64.12
289.755	70.12
289.986	93.12
290.217	94.12
290.448	85.12
290.679	98.12
290.91	79.12
291.141	87.12
291.371	86.12
291.602	90.12
291.833	78.12
292.064	81.12
292.295	81.12
292.526	83.12
292.757	72.12
292.987	88.12
293.218	73.12
293.449	86.12
293.68	83.12
293.91	82.12
294.141	85.12
294.372	78.12
294.603	80.12
294.833	93.12
295.064	88.12
295.295	79.12
295.525	94.12
295.756	88.12
295.987	80.12
296.217	81.12
296.448	94.12
296.679	75.12
296.909	88.12
297.14	87.12
297.37	87.12
297.601	83.12
297.831	85.12
298.062	74.12
298.292	84.12
298.523	68.12
298.753	78.12
298.984	71.12
299.214	82.12
299.445	98.12
299.675	82.12
299.905	79.12
300.136	74.12
300.366	90.12
300.597	79.12
300.827	72.12
301.057	91.12
301.288	87.12
301.518	88.12
301.748	88.12
301.979	84.12
302.209	89.12
302.439	79.12
302.669	90.12
302.9	80.12
303.13	92.12
303.36	80.12
303.59	75.12
303.82	81.12
304.051	74.12
304.281	88.12
304.511	82.12
304.741	82.12
304.971	74.12
305.201	87.12
305.431	76.12
305.661	100.12
305.891	82.12
306.121	72.12
306.352	83.12
306.582	76.12
306.812	93.12
307.042	91.12
307.272	80.12
307.502	80.12
307.731	77.12
307.961	79.12
308.191	76.12
308.421	84.12
308.651	82.12
308.881	88.12
309.111	78.12
309.341	97.12
309.571	96.12
309.8	78.12
310.03	89.12
310.26	76.12
310.49	77.12
310.72	81.12
310.949	78.12
311.179	95.12
311.409	85.12
311.639	75.12
311.868	72.12
312.098	73.12
312.328	85.12
312.557	86.12
312.787	86.12
313.017	88.12
313.246	94.12
313.476	76.12
313.706	81.12
313.935	81.12
314.165	86.12
314.394	76.12
314.624	80.12
314.853	87.12
315.083	78.12
315.312	80.12
315.542	89.12
315.771	91.12
316.001	79.12
316.23	89.12
316.46	73.12
316.689	80.12
316.919	79.12
317.148	76.12
317.377	77.12
317.607	89.12
317.836	94.12
318.065	79.12
318.295	86.12
318.524	93.12
318.753	87.12
318.983	88.12
319.212	82.12
319.441	81.12
319.67	75.12
319.9	87.12
320.129	86.12
320.358	81.12
320.587	73.12
320.816	92.12
321.046	81.12
321.275	64.12
321.504	79.12
321.733	87.12
321.962	86.12
322.191	88.12
322.42	97.12
322.649	96.12
322.878	88.12
323.108	83.12
323.337	75.12
323.566	75.12
323.795	95.12
324.024	96.12
324.253	81.12
324.482	65.12
324.71	88.12
324.939	85.12
325.168	81.12
325.397	71.12
325.626	64.12
325.855	85.12
326.084	82.12
326.313	76.12
326.542	82.12
326.77	66.12
326.999	99.12
327.228	80.12
327.457	90.12
327.686	94.12
327.914	90.12
328.143	85.12
328.372	78.12
328.6	81.12
328.829	80.12
329.058	84.12
329.287	90.12
329.515	92.12
329.744	89.12
329.972	90.12
330.201	81.12
330.43	80.12
330.658	85.12
330.887	102.12
331.115	96.12
331.344	80.12
331.572	87.12
331.801	76.12
332.03	82.12
332.258	87.12
332.486	92.12
332.715	84.12
332.943	88.12
333.172	82.12
333.4	92.12
333.629	96.12
333.857	89.12
334.085	85.12
334.314	94.12
334.542	84.12
334.771	95.12
334.999	87.12
335.227	93.12
335.455	78.12
335.684	77.12
335.912	81.12
336.14	96.12
336.369	93.12
336.597	80.12
336.825	88.12
337.053	93.12
337.281	98.12
337.51	80.12
337.738	74.12
337.966	86.12
338.194	90.12
338.422	76.12
338.65	82.12
338.878	97.12
339.106	80.12
339.334	74.12
339.562	90.12
339.79	83.12
340.018	81.12
340.246	88.12
340.474	89.12
340.702	89.12
340.93	74.12
341.158	76.12
341.386	110.12
341.614	89.12
341.842	68.12
342.07	84.12
342.298	96.12
342.526	90.12
342.754	71.12
342.981	76.12
343.209	74.12
343.437	92.12
343.665	99.12
343.893	76.12
344.12	72.12
344.348	88.12
344.576	86.12
344.804	80.12
345.031	84.12
345.259	80.12
345.487	92.12
345.714	91.12
345.942	79.12
346.17	63.12
346.397	72.12
346.625	80.12
346.853	86.12
347.08	85.12
347.308	79.12
347.535	100.12
347.763	78.12
347.99	93.12
348.218	90.12
348.445	88.12
348.673	68.12
348.9	85.12
349.128	83.12
349.355	93.12
349.583	80.12
349.81	87.12
350.037	84.12
350.265	67.12
350.492	88.12
350.72	74.12
350.947	87.12
351.174	77.12
351.402	81.12
351.629	78.12
351.856	84.12
352.083	78.12
352.311	82.12
352.538	77.12
352.765	83.12
352.992	94.12
353.22	91.12
353.447	81.12
353.674	92.12
353.901	82.12
354.128	89.12
354.355	82.12
354.583	80.12
354.81	90.12
355.037	79.12
355.264	88.12
355.491	76.12
355.718	75.12
355.945	87.12
356.172	88.12
356.399	76.12
356.626	73.12
356.853	86.12
357.08	88.12
357.307	81.12
357.534	87.12
357.761	91.12
357.988	87.12
358.215	78.12
358.441	94.12
358.668	83.12
358.895	90.12
359.122	84.12
359.349	83.12
359.576	89.12
359.802	86.12
360.029	97.12
360.256	78.12
360.483	84.12
360.709	65.12
360.936	89.12
361.163	74.12
361.39	78.12
361.616	93.12
361.843	84.12
362.07	89.12
362.296	82.12
362.523	90.12
362.749	89.12
362.976	88.12
363.203	96.12
363.429	82.12
363.656	84.12
363.882	90.12
364.109	89.12
364.335	104.12
364.562	104.12
364.788	92.12
365.015	81.12
365.241	93.12
365.468	78.12
365.694	73.12
365.92	90.12
366.147	80.12
366.373	82.12
366.599	85.12
366.826	98.12
367.052	103.12
367.278	97.12
367.505	78.12
367.731	86.12
367.957	83.12
368.184	92.12
368.41	85.12
368.636	73.12
368.862	88.12
369.089	66.12
369.315	69.12
369.541	89.12
369.767	80.12
369.993	70.12
370.219	90.12
370.445	82.12
370.672	78.12
370.898	90.12
371.124	91.12
371.35	60.12
371.576	78.12
371.802	87.12
372.028	86.12
372.254	75.12
372.48	82.12
372.706	78.12
372.932	88.12
373.158	95.12
373.384	88.12
373.61	81.12
373.835	98.12
374.061	88.12
374.287	74.12
374.513	94.12
374.739	87.12
374.965	88.12
375.191	85.12
375.416	79.12
375.642	85.12
375.868	82.12
376.094	87.12
376.319	93.12
376.545	96.12
376.771	82.12
376.997	79.12
377.222	79.12
377.448	85.12
377.674	84.12
377.899	84.12
378.125	84.12
378.35	92.12
378.576	72.12
378.802	85.12
379.027	68.12
379.253	90.12
379.478	78.12
379.704	81.12
379.929	73.12
380.155	85.12
380.38	80.12
380.606	88.12
380.831	70.12
381.057	85.12
381.282	84.12
381.507	95.12
381.733	87.12
381.958	81.12
382.184	84.12
382.409	89.12
382.634	87.12
382.86	89.12
383.085	90.12
383.31	83.12
383.535	78.12
383.761	91.12
383.986	95.12
384.211	89.12
384.436	98.12
384.662	72.12
384.887	84.12
385.112	83.12
385.337	87.12
385.562	88.12
385.787	75.12
386.013	81.12
386.238	77.12
386.463	84.12
386.688	93.12
386.913	84.12
387.138	88.12
387.363	92.12
387.588	74.12
387.813	86.12
388.038	82.12
388.263	93.12
388.488	80.12
388.713	72.12
388.938	74.12
389.163	81.12
389.387	76.12
389.612	83.12
389.837	74.12
390.062	87.12
390.287	96.12
390.512	84.12
390.736	80.12
390.961	71.12
391.186	70.12
391.411	60.12
391.636	81.12
391.86	92.12
392.085	86.12
392.31	93.12
392.534	87.12
392.759	95.12
392.984	118.12
393.208	141.12
393.433	190.12
393.658	148.12
393.882	85.12
394.107	91.12
394.331	92.12
394.556	106.12
394.78	88.12
395.005	88.12
395.229	92.12
395.454	80.12
395.678	77.12
395.903	104.12
396.127	118.12
396.352	112.12
396.576	115.12
396.801	129.12
397.025	150.12
397.249	114.12
397.474	92.12
397.698	97.12
397.922	91.12
398.147	70.12
398.371	83.12
398.595	87.12
398.82	81.12
399.044	80.12
399.268	86.12
399.492	68.12
399.717	84.12
399.941	78.12
400.165	86.12
400.389	92.12
400.613	88.12
400.837	82.12
401.062	85.12
401.286	78.12
401.51	88.12
401.734	69.12
401.958	78.12
402.182	87.12
402.406	78.12
402.63	81.12
402.854	88.12
403.078	95.12
403.302	80.12
403.526	74.12
403.75	84.12
403.974	92.12
404.198	76.12
404.422	98.12
404.645	90.12
404.869	90.12
405.093	91.12
405.317	95.12
405.541	80.12
405.765	84.12
405.988	91.12
406.212	72.12
406.436	75.12
406.66	83.12
406.883	86.12
407.107	82.12
407.331	89.12
407.555	85.12
407.778	87.12
408.002	89.12
408.226	88.12
408.449	78.12
408.673	78.12
408.896	81.12
409.12	63.12
409.344	81.12
409.567	87.12
409.791	101.12
410.014	96.12
410.238	68.12
410.461	78.12
410.685	72.12
410.908	78.12
411.132	89.12
411.355	93.12
411.578	69.12
411.802	81.12
412.025	91.12
412.249	70.12
412.472	69.12
412.695	69.12
412.919	79.12
413.142	73.12
413.365	82.12
413.589	78.12
413.812	90.12
414.035	80.12
414.258	56.12
414.482	82.12
414.705	76.12
414.928	89.12
415.151	91.12
415.374	68.12
415.597	70.12
415.821	90.12
416.044	89.12
416.267	75.12
416.49	90.12
416.713	72.12
416.936	90.12
417.159	78.12
417.382	82.12
417.605	74.12
417.828	88.12
418.051	81.12
418.274	86.12
418.497	85.12
418.72	81.12
418.943	83.12
419.166	74.12
419.389	93.12
419.611	70.12
419.834	82.12
420.057	73.12
420.28	73.12
420.503	87.12
420.726	84.12
420.948	93.12
421.171	80.12
421.394	92.12
421.617	98.12
421.839	94.12
422.062	98.12
422.285	104.12
422.507	174.12
422.73	214.12
422.953	200.12
423.175	143.12
423.398	92.12
423.621	84.12
423.843	78.12
424.066	87.12
424.288	88.12
424.511	90.12
424.733	80.12
424.956	84.12
425.178	69.12
425.401	75.12
425.623	101.12
425.846	90.12
426.068	96.12
426.291	74.12
426.513	75.12
426.735	88.12
426.958	74.12
427.18	80.12
427.402	78.12
427.625	80.12
427.847	79.12
428.069	78.12
428.292	92.12
428.514	112.12
428.736	94.12
428.958	101.12
429.181	97.12
429.403	87.12
429.625	85.12
429.847	97.12
430.069	122.12
430.292	105.12
430.514	118.12
430.736	103.12
430.958	105.12
431.18	79.12
431.402	90.12
431.624	74.12
431.846	94.12
432.068	96.12
432.29	80.12
432.512	84.12
432.734	87.12
432.956	84.12
433.178	84.12
433.4	85.12
433.622	91.12
433.844	90.12
434.066	68.12
434.287	81.12
434.509	72.12
434.731	75.12
434.953	92.12
435.175	75.12
435.397	92.12
435.618	91.12
435.84	84.12
436.062	95.12
436.284	74.12
436.505	88.12
436.727	84.12
436.949	74.12
437.17	80.12
437.392	84.12
437.614	77.12
437.835	78.12
438.057	80.12
438.278	71.12
438.5	80.12
438.721	79.12
438.943	89.12
439.165	93.12
439.386	92.12
439.608	75.12
439.829	80.12
440.05	78.12
440.272	81.12
440.493	94.12
440.715	83.12
440.936	68.12
441.158	83.12
441.379	81.12
441.6	74.12
441.822	92.12
442.043	82.12
442.264	88.12
442.486	97.12
442.707	95.12
442.928	79.12
443.149	91.12
443.371	104.12
443.592	138.12
443.813	128.12
444.034	97.12
444.255	74.12
444.476	98.12
444.698	69.12
444.919	78.12
445.14	148.12
445.361	133.12
445.582	145.12
445.803	142.12
446.024	113.12
446.245	90.12
446.466	74.12
446.687	83.12
446.908	80.12
447.129	79.12
447.35	64.12
447.571	69.12
447.792	81.12
448.013	80.12
448.234	64.12
448.455	81.12
448.675	79.12
448.896	84.12
449.117	75.12
449.338	79.12
449.559	74.12
449.779	86.12
450	82.12
450.221	77.12
450.442	81.12
450.662	62.12
450.883	84.12
451.104	77.12
451.324	89.12
451.545	76.12
451.766	80.12
451.986	66.12
452.207	82.12
452.428	83.12
452.648	83.12
452.869	84.12
453.089	68.12
453.31	80.12
453.53	103.12
453.751	80.12
453.971	68.12
454.192	80.12
454.412	89.12
454.633	82.12
454.853	75.12
455.073	87.12
455.294	86.12
455.514	88.12
455.734	93.12
455.955	86.12
456.175	82.12
456.395	86.12
456.616	83.12
456.836	69.12
457.056	75.12
457.276	84.12
457.497	82.12
457.717	74.12
457.937	89.12
458.157	88.12
458.377	86.12
458.598	97.12
458.818	85.12
459.038	98.12
459.258	76.12
459.478	77.12
459.698	81.12
459.918	70.12
460.138	90.12
460.358	71.12
460.578	85.12
460.798	98.12
461.018	94.12
461.238	89.12
461.458	79.12
461.678	86.12
461.898	78.12
462.118	89.12
462.338	92.12
462.558	80.12
462.777	84.12
462.997	79.12
463.217	81.12
463.437	65.12
463.657	84.12
463.876	84.12
464.096	68.12
464.316	74.12
464.536	75.12
464.755	85.12
464.975	75.12
465.195	81.12
465.414	86.12
465.634	66.12
465.854	76.12
466.073	86.12
466.293	73.12
466.512	70.12
466.732	69.12
466.951	84.12
467.171	97.12
467.391	69.12
467.61	80.12
467.829	83.12
468.049	74.12
468.268	79.12
468.488	82.12
468.707	82.12
468.927	76.12
469.146	88.12
469.365	90.12
469.585	71.12
469.804	76.12
470.023	84.12
470.243	90.12
470.462	92.12
470.681	93.12
470.901	86.12
471.12	77.12
471.339	95.12
471.558	87.12
471.777	81.12
471.997	83.12
472.216	78.12
472.435	92.12
472.654	74.12
472.873	88.12
473.092	90.12
473.311	92.12
473.53	96.12
473.749	82.12
473.968	81.12
474.187	77.12
474.406	87.12
474.625	75.12
474.844	80.12
475.063	80.12
475.282	90.12
475.501	96.12
475.72	96.12
475.939	79.12
476.158	75.12
476.377	82.12
476.596	88.12
476.814	92.12
477.033	90.12
477.252	98.12
477.471	81.12
477.69	88.12
477.908	92.12
478.127	72.12
478.346	90.12
478.564	86.12
478.783	81.12
479.002	84.12
479.22	72.12
479.439	81.12
479.658	103.12
479.876	95.12
480.095	77.12
480.313	82.12
480.532	72.12
480.751	77.12
480.969	84.12
481.188	83.12
481.406	81.12
481.624	80.12
481.843	87.12
482.061	89.12
482.28	84.12
482.498	73.12
482.717	80.12
482.935	78.12
483.153	92.12
483.372	80.12
483.59	84.12
483.808	89.12
484.027	84.12
484.245	94.12
484.463	91.12
484.681	105.12
484.9	83.12
485.118	79.12
485.336	85.12
485.554	93.12
485.772	95.12
485.99	87.12
486.209	89.12
486.427	95.12
486.645	82.12
486.863	81.12
487.081	90.12
487.299	92.12
487.517	89.12
487.735	98.12
487.953	118.12
488.171	103.12
488.389	79.12
488.607	74.12
488.825	74.12
489.043	92.12
489.261	93.12
489.479	87.12
489.696	96.12
489.914	86.12
490.132	91.12
490.35	77.12
490.568	81.12
490.786	84.12
491.003	84.12
491.221	73.12
491.439	90.12
491.657	83.12
491.874	81.12
492.092	92.12
492.31	93.12
492.527	88.12
492.745	78.12
492.963	84.12
493.18	91.12
493.398	88.12
493.615	83.12
493.833	79.12
494.05	81.12
494.268	96.12
494.485	93.12
494.703	95.12
494.92	73.12
495.138	85.12
495.355	80.12
495.573	80.12
495.79	89.12
496.008	90.12
496.225	90.12
496.442	96.12
496.66	68.12
496.877	80.12
497.094	92.12
497.312	80.12
497.529	88.12
497.746	85.12
497.963	97.12
498.181	94.12
498.398	87.12
498.615	96.12
498.832	94.12
499.049	93.12
499.267	88.12
499.484	80.12
499.701	76.12
499.918	75.12
500.135	105.12
500.352	83.12
500.569	93.12
500.786	88.12
501.003	90.12
501.22	76.12
501.437	85.12
501.654	91.12
501.871	88.12
502.088	80.12
502.305	85.12
502.522	97.12
502.739	77.12
502.956	87.12
503.172	89.12
503.389	79.12
503.606	96.12
503.823	94.12
504.04	106.12
504.256	95.12
504.473	100.12
504.69	84.12
504.907	95.12
505.123	88.12
505.34	93.12
505.557	76.12
505.773	94.12
505.99	84.12
506.207	97.12
506.423	71.12
506.64	88.12
506.856	79.12
507.073	81.12
507.289	88.12
507.506	90.12
507.722	82.12
507.939	83.12
508.155	82.12
508.372	85.12
508.588	91.12
508.805	86.12
509.021	87.12
509.238	82.12
509.454	87.12
509.67	81.12
509.887	76.12
510.103	86.12
510.319	99.12
510.536	86.12
510.752	81.12
510.968	89.12
511.184	83.12
511.401	80.12
511.617	91.12
511.833	80.12
512.049	85.12
512.265	88.12
512.481	92.12
512.698	72.12
512.914	88.12
513.13	78.12
513.346	85.12
513.562	85.12
513.778	90.12
513.994	96.12
514.21	92.12
514.426	73.12
514.642	72.12
514.858	92.12
515.074	79.12
515.29	106.12
515.506	96.12
515.721	88.12
515.937	89.12
516.153	86.12
516.369	92.12
516.585	87.12
516.801	82.12
517.016	84.12
517.232	89.12
517.448	84.12
517.664	93.12
517.879	92.12
518.095	104.12
518.311	92.12
518.527	83.12
518.742	90.12
518.958	99.12
519.173	119.12
519.389	96.12
519.605	80.12
