Data from 15780_3_HRD10591_00010.txt Node
Date: Mon Jan 19 14:20:03 EST 2026
User: Yrep
Spectrometer: HR+D1059
Trigger mode: 1
Integration Time (sec): 1.000000E-1
Scans to average: 1
Electric dark correction enabled: true
Nonlinearity correction enabled: false
Boxcar width: 0
XAxis mode: Wavelengths
Number of Pixels in Spectrum: 2048
>>>>>Begin Spectral Data<<<<<
223.165	-13.56
223.4	-13.56
223.635	-13.56
223.869	-20.56
224.104	-21.56
224.338	-18.56
224.573	-22.56
224.808	-1.56
225.042	0.44
225.277	-10.56
225.511	-2.56
225.746	14.44
225.98	5.44
226.215	8.44
226.449	12.44
226.683	15.44
226.918	23.44
227.152	31.44
227.387	33.44
227.621	38.44
227.856	50.44
228.09	55.44
228.324	58.44
228.559	48.44
228.793	50.44
229.027	68.44
229.262	73.44
229.496	68.44
229.73	68.44
229.964	80.44
230.199	77.44
230.433	86.44
230.667	74.44
230.901	90.44
231.136	77.44
231.37	82.44
231.604	83.44
231.838	92.44
232.072	80.44
232.306	83.44
232.541	64.44
232.775	80.44
233.009	85.44
233.243	70.44
233.477	82.44
233.711	97.44
233.945	96.44
234.179	74.44
234.413	81.44
234.647	81.44
234.881	86.44
235.115	86.44
235.349	72.44
235.583	76.44
235.817	87.44
236.051	86.44
236.285	74.44
236.519	85.44
236.753	78.44
236.987	78.44
237.221	77.44
237.455	83.44
237.689	80.44
237.922	64.44
238.156	81.44
238.39	92.44
238.624	86.44
238.858	86.44
239.091	80.44
239.325	82.44
239.559	84.44
239.793	85.44
240.027	67.44
240.26	79.44
240.494	90.44
240.728	60.44
240.961	68.44
241.195	96.44
241.429	75.44
241.662	83.44
241.896	94.44
242.13	82.44
242.363	79.44
242.597	90.44
242.83	84.44
243.064	74.44
243.298	79.44
243.531	80.44
243.765	67.44
243.998	81.44
244.232	84.44
244.465	98.44
244.699	90.44
244.932	84.44
245.166	80.44
245.399	80.44
245.633	79.44
245.866	73.44
246.099	77.44
246.333	67.44
246.566	77.44
246.8	86.44
247.033	87.44
247.266	79.44
247.5	88.44
247.733	73.44
247.966	76.44
248.2	75.44
248.433	75.44
248.666	71.44
248.899	75.44
249.133	81.44
249.366	96.44
249.599	86.44
249.832	75.44
250.066	76.44
250.299	81.44
250.532	82.44
250.765	62.44
250.998	77.44
251.231	73.44
251.465	90.44
251.698	86.44
251.931	88.44
252.164	85.44
252.397	75.44
252.63	79.44
252.863	87.44
253.096	78.44
253.329	83.44
253.562	86.44
253.795	92.44
254.028	89.44
254.261	73.44
254.494	87.44
254.727	88.44
254.96	85.44
255.193	80.44
255.426	77.44
255.659	76.44
255.892	82.44
256.124	93.44
256.357	75.44
256.59	77.44
256.823	83.44
257.056	74.44
257.289	92.44
257.521	90.44
257.754	72.44
257.987	81.44
258.22	75.44
258.452	84.44
258.685	86.44
258.918	69.44
259.151	70.44
259.383	99.44
259.616	84.44
259.849	79.44
260.081	76.44
260.314	56.44
260.547	79.44
260.779	75.44
261.012	85.44
261.244	78.44
261.477	75.44
261.71	79.44
261.942	84.44
262.175	74.44
262.407	69.44
262.64	88.44
262.872	84.44
263.105	74.44
263.337	74.44
263.57	80.44
263.802	85.44
264.035	86.44
264.267	78.44
264.499	81.44
264.732	85.44
264.964	87.44
265.197	88.44
265.429	89.44
265.661	82.44
265.894	81.44
266.126	76.44
266.358	82.44
266.591	78.44
266.823	77.44
267.055	82.44
267.287	80.44
267.52	76.44
267.752	77.44
267.984	78.44
268.216	90.44
268.448	101.44
268.681	85.44
268.913	83.44
269.145	102.44
269.377	93.44
269.609	91.44
269.841	83.44
270.073	80.44
270.306	78.44
270.538	76.44
270.77	79.44
271.002	79.44
271.234	80.44
271.466	70.44
271.698	90.44
271.93	78.44
272.162	84.44
272.394	81.44
272.626	79.44
272.858	78.44
273.09	94.44
273.322	88.44
273.553	83.44
273.785	80.44
274.017	86.44
274.249	74.44
274.481	90.44
274.713	67.44
274.945	85.44
275.176	87.44
275.408	76.44
275.64	80.44
275.872	72.44
276.104	81.44
276.335	96.44
276.567	91.44
276.799	92.44
277.031	76.44
277.262	92.44
277.494	86.44
277.726	91.44
277.957	90.44
278.189	90.44
278.421	87.44
278.652	81.44
278.884	80.44
279.115	94.44
279.347	84.44
279.579	95.44
279.81	90.44
280.042	92.44
280.273	95.44
280.505	93.44
280.736	83.44
280.968	75.44
281.199	92.44
281.431	92.44
281.662	84.44
281.894	97.44
282.125	95.44
282.356	88.44
282.588	80.44
282.819	96.44
283.051	92.44
283.282	94.44
283.513	89.44
283.745	86.44
283.976	86.44
284.207	98.44
284.439	80.44
284.67	84.44
284.901	93.44
285.132	92.44
285.364	104.44
285.595	86.44
285.826	90.44
286.057	88.44
286.288	98.44
286.52	85.44
286.751	98.44
286.982	84.44
287.213	86.44
287.444	86.44
287.675	78.44
287.906	85.44
288.138	83.44
288.369	91.44
288.6	94.44
288.831	100.44
289.062	99.44
289.293	78.44
289.524	79.44
289.755	94.44
289.986	86.44
290.217	91.44
290.448	81.44
290.679	76.44
290.91	89.44
291.141	91.44
291.371	87.44
291.602	83.44
291.833	79.44
292.064	82.44
292.295	88.44
292.526	89.44
292.757	76.44
292.987	104.44
293.218	86.44
293.449	84.44
293.68	80.44
293.91	92.44
294.141	103.44
294.372	96.44
294.603	100.44
294.833	72.44
295.064	86.44
295.295	83.44
295.525	79.44
295.756	98.44
295.987	87.44
296.217	85.44
296.448	92.44
296.679	89.44
296.909	95.44
297.14	86.44
297.37	90.44
297.601	81.44
297.831	97.44
298.062	94.44
298.292	100.44
298.523	98.44
298.753	86.44
298.984	86.44
299.214	83.44
299.445	89.44
299.675	110.44
299.905	104.44
300.136	104.44
300.366	88.44
300.597	84.44
300.827	77.44
301.057	102.44
301.288	98.44
301.518	89.44
301.748	75.44
301.979	107.44
302.209	107.44
302.439	93.44
302.669	92.44
302.9	95.44
303.13	94.44
303.36	98.44
303.59	99.44
303.82	93.44
304.051	88.44
304.281	91.44
304.511	78.44
304.741	86.44
304.971	87.44
305.201	80.44
305.431	90.44
305.661	84.44
305.891	79.44
306.121	104.44
306.352	95.44
306.582	90.44
306.812	79.44
307.042	87.44
307.272	85.44
307.502	93.44
307.731	90.44
307.961	89.44
308.191	89.44
308.421	96.44
308.651	100.44
308.881	99.44
309.111	93.44
309.341	123.44
309.571	116.44
309.8	91.44
310.03	86.44
310.26	99.44
310.49	98.44
310.72	94.44
310.949	91.44
311.179	83.44
311.409	71.44
311.639	98.44
311.868	94.44
312.098	98.44
312.328	92.44
312.557	91.44
312.787	85.44
313.017	84.44
313.246	76.44
313.476	94.44
313.706	92.44
313.935	88.44
314.165	94.44
314.394	96.44
314.624	83.44
314.853	83.44
315.083	91.44
315.312	96.44
315.542	88.44
315.771	85.44
316.001	106.44
316.23	104.44
316.46	91.44
316.689	86.44
316.919	87.44
317.148	94.44
317.377	94.44
317.607	94.44
317.836	106.44
318.065	110.44
318.295	101.44
318.524	98.44
318.753	94.44
318.983	95.44
319.212	96.44
319.441	96.44
319.67	73.44
319.9	83.44
320.129	101.44
320.358	94.44
320.587	84.44
320.816	84.44
321.046	80.44
321.275	99.44
321.504	87.44
321.733	87.44
321.962	93.44
322.191	71.44
322.42	80.44
322.649	102.44
322.878	103.44
323.108	87.44
323.337	81.44
323.566	90.44
323.795	110.44
324.024	104.44
324.253	84.44
324.482	94.44
324.71	102.44
324.939	93.44
325.168	96.44
325.397	93.44
325.626	96.44
325.855	95.44
326.084	90.44
326.313	88.44
326.542	85.44
326.77	83.44
326.999	91.44
327.228	103.44
327.457	110.44
327.686	84.44
327.914	76.44
328.143	108.44
328.372	83.44
328.6	88.44
328.829	98.44
329.058	83.44
329.287	88.44
329.515	99.44
329.744	81.44
329.972	74.44
330.201	97.44
330.43	92.44
330.658	86.44
330.887	97.44
331.115	88.44
331.344	80.44
331.572	91.44
331.801	98.44
332.03	88.44
332.258	85.44
332.486	92.44
332.715	94.44
332.943	92.44
333.172	82.44
333.4	107.44
333.629	93.44
333.857	97.44
334.085	97.44
334.314	105.44
334.542	89.44
334.771	94.44
334.999	101.44
335.227	91.44
335.455	101.44
335.684	94.44
335.912	112.44
336.14	110.44
336.369	110.44
336.597	104.44
336.825	106.44
337.053	96.44
337.281	87.44
337.51	80.44
337.738	76.44
337.966	90.44
338.194	102.44
338.422	93.44
338.65	102.44
338.878	85.44
339.106	98.44
339.334	94.44
339.562	89.44
339.79	87.44
340.018	88.44
340.246	79.44
340.474	88.44
340.702	92.44
340.93	80.44
341.158	99.44
341.386	78.44
341.614	76.44
341.842	94.44
342.07	89.44
342.298	92.44
342.526	91.44
342.754	96.44
342.981	85.44
343.209	92.44
343.437	104.44
343.665	100.44
343.893	80.44
344.12	111.44
344.348	110.44
344.576	96.44
344.804	91.44
345.031	87.44
345.259	92.44
345.487	86.44
345.714	88.44
345.942	95.44
346.17	95.44
346.397	95.44
346.625	98.44
346.853	88.44
347.08	90.44
347.308	103.44
347.535	90.44
347.763	97.44
347.99	85.44
348.218	95.44
348.445	98.44
348.673	101.44
348.9	97.44
349.128	101.44
349.355	79.44
349.583	101.44
349.81	80.44
350.037	101.44
350.265	105.44
350.492	100.44
350.72	103.44
350.947	99.44
351.174	84.44
351.402	78.44
351.629	93.44
351.856	92.44
352.083	90.44
352.311	85.44
352.538	86.44
352.765	86.44
352.992	92.44
353.22	95.44
353.447	85.44
353.674	90.44
353.901	102.44
354.128	95.44
354.355	88.44
354.583	80.44
354.81	86.44
355.037	79.44
355.264	95.44
355.491	83.44
355.718	70.44
355.945	85.44
356.172	94.44
356.399	107.44
356.626	111.44
356.853	92.44
357.08	115.44
357.307	115.44
357.534	96.44
357.761	98.44
357.988	110.44
358.215	119.44
358.441	95.44
358.668	95.44
358.895	90.44
359.122	95.44
359.349	90.44
359.576	103.44
359.802	92.44
360.029	95.44
360.256	94.44
360.483	108.44
360.709	98.44
360.936	103.44
361.163	116.44
361.39	101.44
361.616	88.44
361.843	99.44
362.07	109.44
362.296	119.44
362.523	101.44
362.749	119.44
362.976	120.44
363.203	158.44
363.429	124.44
363.656	93.44
363.882	118.44
364.109	122.44
364.335	152.44
364.562	168.44
364.788	142.44
365.015	111.44
365.241	124.44
365.468	115.44
365.694	95.44
365.92	93.44
366.147	99.44
366.373	105.44
366.599	78.44
366.826	86.44
367.052	81.44
367.278	89.44
367.505	103.44
367.731	109.44
367.957	97.44
368.184	93.44
368.41	98.44
368.636	90.44
368.862	89.44
369.089	92.44
369.315	93.44
369.541	94.44
369.767	98.44
369.993	100.44
370.219	96.44
370.445	100.44
370.672	116.44
370.898	119.44
371.124	104.44
371.35	104.44
371.576	105.44
371.802	114.44
372.028	102.44
372.254	114.44
372.48	101.44
372.706	108.44
372.932	101.44
373.158	107.44
373.384	120.44
373.61	146.44
373.835	146.44
374.061	109.44
374.287	104.44
374.513	118.44
374.739	120.44
374.965	116.44
375.191	117.44
375.416	123.44
375.642	110.44
375.868	106.44
376.094	109.44
376.319	89.44
376.545	100.44
376.771	106.44
376.997	99.44
377.222	95.44
377.448	93.44
377.674	76.44
377.899	91.44
378.125	99.44
378.35	94.44
378.576	93.44
378.802	93.44
379.027	88.44
379.253	94.44
379.478	110.44
379.704	95.44
379.929	106.44
380.155	108.44
380.38	85.44
380.606	81.44
380.831	97.44
381.057	89.44
381.282	86.44
381.507	120.44
381.733	112.44
381.958	111.44
382.184	108.44
382.409	122.44
382.634	112.44
382.86	128.44
383.085	119.44
383.31	108.44
383.535	124.44
383.761	123.44
383.986	120.44
384.211	111.44
384.436	93.44
384.662	115.44
384.887	90.44
385.112	100.44
385.337	97.44
385.562	113.44
385.787	124.44
386.013	127.44
386.238	118.44
386.463	104.44
386.688	111.44
386.913	107.44
387.138	103.44
387.363	117.44
387.588	116.44
387.813	123.44
388.038	118.44
388.263	107.44
388.488	101.44
388.713	98.44
388.938	107.44
389.163	103.44
389.387	92.44
389.612	93.44
389.837	94.44
390.062	94.44
390.287	104.44
390.512	94.44
390.736	99.44
390.961	92.44
391.186	100.44
391.411	98.44
391.636	109.44
391.86	109.44
392.085	97.44
392.31	126.44
392.534	133.44
392.759	148.44
392.984	221.44
393.208	387.44
393.433	620.44
393.658	485.44
393.882	187.44
394.107	134.44
394.331	155.44
394.556	176.44
394.78	129.44
395.005	124.44
395.229	97.44
395.454	116.44
395.678	129.44
395.903	148.44
396.127	209.44
396.352	242.44
396.576	262.44
396.801	406.44
397.025	474.44
397.249	234.44
397.474	142.44
397.698	119.44
397.922	128.44
398.147	107.44
398.371	88.44
398.595	91.44
398.82	107.44
399.044	102.44
399.268	95.44
399.492	101.44
399.717	100.44
399.941	103.44
400.165	98.44
400.389	100.44
400.613	89.44
400.837	92.44
401.062	90.44
401.286	94.44
401.51	99.44
401.734	92.44
401.958	83.44
402.182	96.44
402.406	106.44
402.63	97.44
402.854	103.44
403.078	81.44
403.302	97.44
403.526	99.44
403.75	100.44
403.974	93.44
404.198	99.44
404.422	114.44
404.645	126.44
404.869	109.44
405.093	109.44
405.317	78.44
405.541	80.44
405.765	85.44
405.988	92.44
406.212	110.44
406.436	104.44
406.66	86.44
406.883	90.44
407.107	94.44
407.331	85.44
407.555	108.44
407.778	147.44
408.002	144.44
408.226	107.44
408.449	81.44
408.673	91.44
408.896	92.44
409.12	90.44
409.344	104.44
409.567	121.44
409.791	120.44
410.014	102.44
410.238	103.44
410.461	105.44
410.685	106.44
410.908	93.44
411.132	93.44
411.355	83.44
411.578	94.44
411.802	92.44
412.025	79.44
412.249	93.44
412.472	89.44
412.695	78.44
412.919	91.44
413.142	106.44
413.365	94.44
413.589	90.44
413.812	98.44
414.035	95.44
414.258	89.44
414.482	81.44
414.705	96.44
414.928	91.44
415.151	94.44
415.374	83.44
415.597	92.44
415.821	100.44
416.044	92.44
416.267	96.44
416.49	95.44
416.713	87.44
416.936	93.44
417.159	85.44
417.382	91.44
417.605	87.44
417.828	92.44
418.051	91.44
418.274	104.44
418.497	102.44
418.72	96.44
418.943	87.44
419.166	75.44
419.389	76.44
419.611	105.44
419.834	92.44
420.057	108.44
420.28	92.44
420.503	108.44
420.726	101.44
420.948	87.44
421.171	99.44
421.394	111.44
421.617	140.44
421.839	152.44
422.062	153.44
422.285	212.44
422.507	385.44
422.73	640.44
422.953	551.44
423.175	267.44
423.398	151.44
423.621	123.44
423.843	122.44
424.066	96.44
424.288	104.44
424.511	104.44
424.733	86.44
424.956	94.44
425.178	90.44
425.401	99.44
425.623	104.44
425.846	93.44
426.068	87.44
426.291	94.44
426.513	97.44
426.735	99.44
426.958	104.44
427.18	92.44
427.402	104.44
427.625	105.44
427.847	91.44
428.069	108.44
428.292	158.44
428.514	172.44
428.736	135.44
428.958	165.44
429.181	171.44
429.403	118.44
429.625	118.44
429.847	162.44
430.069	231.44
430.292	252.44
430.514	242.44
430.736	185.44
430.958	194.44
431.18	112.44
431.402	94.44
431.624	113.44
431.846	142.44
432.068	186.44
432.29	105.44
432.512	109.44
432.734	114.44
432.956	95.44
433.178	78.44
433.4	88.44
433.622	90.44
433.844	95.44
434.066	85.44
434.287	112.44
434.509	96.44
434.731	93.44
434.953	101.44
435.175	84.44
435.397	98.44
435.618	95.44
435.84	98.44
436.062	93.44
436.284	87.44
436.505	80.44
436.727	90.44
436.949	100.44
437.17	94.44
437.392	80.44
437.614	81.44
437.835	74.44
438.057	77.44
438.278	101.44
438.5	109.44
438.721	96.44
438.943	96.44
439.165	95.44
439.386	97.44
439.608	89.44
439.829	92.44
440.05	107.44
440.272	94.44
440.493	90.44
440.715	107.44
440.936	94.44
441.158	101.44
441.379	98.44
441.6	85.44
441.822	95.44
442.043	85.44
442.264	106.44
442.486	167.44
442.707	210.44
442.928	136.44
443.149	113.44
443.371	196.44
443.592	330.44
443.813	287.44
444.034	133.44
444.255	114.44
444.476	105.44
444.698	104.44
444.919	104.44
445.14	202.44
445.361	236.44
445.582	406.44
445.803	324.44
446.024	151.44
446.245	102.44
446.466	107.44
446.687	78.44
446.908	98.44
447.129	107.44
447.35	111.44
447.571	89.44
447.792	101.44
448.013	107.44
448.234	93.44
448.455	93.44
448.675	95.44
448.896	88.44
449.117	94.44
449.338	78.44
449.559	78.44
449.779	84.44
450	86.44
450.221	94.44
450.442	85.44
450.662	104.44
450.883	88.44
451.104	84.44
451.324	105.44
451.545	80.44
451.766	93.44
451.986	100.44
452.207	92.44
452.428	94.44
452.648	96.44
452.869	112.44
453.089	107.44
453.31	105.44
453.53	123.44
453.751	130.44
453.971	82.44
454.192	91.44
454.412	96.44
454.633	91.44
454.853	80.44
455.073	94.44
455.294	87.44
455.514	104.44
455.734	79.44
455.955	81.44
456.175	92.44
456.395	83.44
456.616	106.44
456.836	79.44
457.056	90.44
457.276	100.44
457.497	89.44
457.717	102.44
457.937	125.44
458.157	131.44
458.377	152.44
458.598	144.44
458.818	166.44
459.038	110.44
459.258	80.44
459.478	94.44
459.698	88.44
459.918	90.44
460.138	92.44
460.358	77.44
460.578	95.44
460.798	162.44
461.018	149.44
461.238	103.44
461.458	79.44
461.678	99.44
461.898	102.44
462.118	103.44
462.338	94.44
462.558	103.44
462.777	82.44
462.997	91.44
463.217	93.44
463.437	88.44
463.657	99.44
463.876	98.44
464.096	86.44
464.316	86.44
464.536	84.44
464.755	89.44
464.975	78.44
465.195	103.44
465.414	90.44
465.634	75.44
465.854	94.44
466.073	94.44
466.293	93.44
466.512	95.44
466.732	101.44
466.951	88.44
467.171	91.44
467.391	94.44
467.61	100.44
467.829	87.44
468.049	91.44
468.268	89.44
468.488	101.44
468.707	88.44
468.927	94.44
469.146	84.44
469.365	88.44
469.585	93.44
469.804	90.44
470.023	98.44
470.243	90.44
470.462	90.44
470.681	91.44
470.901	76.44
471.12	100.44
471.339	86.44
471.558	98.44
471.777	74.44
471.997	93.44
472.216	90.44
472.435	86.44
472.654	85.44
472.873	89.44
473.092	95.44
473.311	86.44
473.53	102.44
473.749	103.44
473.968	103.44
474.187	97.44
474.406	102.44
474.625	90.44
474.844	100.44
475.063	84.44
475.282	93.44
475.501	92.44
475.72	78.44
475.939	94.44
476.158	87.44
476.377	84.44
476.596	102.44
476.814	96.44
477.033	91.44
477.252	90.44
477.471	95.44
477.69	86.44
477.908	97.44
478.127	95.44
478.346	87.44
478.564	97.44
478.783	93.44
479.002	95.44
479.22	110.44
479.439	95.44
479.658	92.44
479.876	95.44
480.095	92.44
480.313	87.44
480.532	90.44
480.751	89.44
480.969	94.44
481.188	98.44
481.406	100.44
481.624	100.44
481.843	96.44
482.061	94.44
482.28	79.44
482.498	95.44
482.717	104.44
482.935	91.44
483.153	95.44
483.372	90.44
483.59	102.44
483.808	93.44
484.027	105.44
484.245	124.44
484.463	102.44
484.681	105.44
484.9	101.44
485.118	113.44
485.336	96.44
485.554	98.44
485.772	94.44
485.99	93.44
486.209	72.44
486.427	98.44
486.645	98.44
486.863	95.44
487.081	88.44
487.299	103.44
487.517	119.44
487.735	158.44
487.953	230.44
488.171	176.44
488.389	94.44
488.607	94.44
488.825	98.44
489.043	88.44
489.261	100.44
489.479	75.44
489.696	96.44
489.914	101.44
490.132	108.44
490.35	88.44
490.568	89.44
490.786	103.44
491.003	102.44
491.221	102.44
491.439	95.44
491.657	106.44
491.874	101.44
492.092	122.44
492.31	98.44
492.527	91.44
492.745	107.44
492.963	98.44
493.18	95.44
493.398	94.44
493.615	106.44
493.833	94.44
494.05	83.44
494.268	90.44
494.485	104.44
494.703	102.44
494.92	98.44
495.138	94.44
495.355	87.44
495.573	90.44
495.79	94.44
496.008	87.44
496.225	102.44
496.442	101.44
496.66	114.44
496.877	91.44
497.094	109.44
497.312	95.44
497.529	101.44
497.746	111.44
497.963	93.44
498.181	130.44
498.398	129.44
498.615	108.44
498.832	88.44
499.049	103.44
499.267	123.44
499.484	99.44
499.701	103.44
499.918	105.44
500.135	131.44
500.352	104.44
500.569	102.44
500.786	109.44
501.003	116.44
501.22	95.44
501.437	103.44
501.654	119.44
501.871	96.44
502.088	99.44
502.305	108.44
502.522	114.44
502.739	114.44
502.956	104.44
503.172	101.44
503.389	120.44
503.606	94.44
503.823	116.44
504.04	134.44
504.256	159.44
504.473	149.44
504.69	117.44
504.907	119.44
505.123	92.44
505.34	94.44
505.557	90.44
505.773	88.44
505.99	87.44
506.207	101.44
506.423	102.44
506.64	104.44
506.856	89.44
507.073	99.44
507.289	104.44
507.506	108.44
507.722	81.44
507.939	98.44
508.155	88.44
508.372	87.44
508.588	103.44
508.805	91.44
509.021	88.44
509.238	90.44
509.454	100.44
509.67	93.44
509.887	94.44
510.103	103.44
510.319	92.44
510.536	89.44
510.752	95.44
510.968	115.44
511.184	99.44
511.401	98.44
511.617	94.44
511.833	87.44
512.049	116.44
512.265	95.44
512.481	92.44
512.698	106.44
512.914	89.44
513.13	96.44
513.346	93.44
513.562	91.44
513.778	81.44
513.994	100.44
514.21	96.44
514.426	96.44
514.642	94.44
