Data from 15780_3_HRD10591_00048.txt Node
Date: Mon Jan 19 14:20:22 EST 2026
User: Yrep
Spectrometer: HR+D1059
Trigger mode: 1
Integration Time (sec): 1.000000E-1
Scans to average: 1
Electric dark correction enabled: true
Nonlinearity correction enabled: false
Boxcar width: 0
XAxis mode: Wavelengths
Number of Pixels in Spectrum: 2048
>>>>>Begin Spectral Data<<<<<
223.165	-14.44
223.4	-14.44
223.635	-14.44
223.869	-12.44
224.104	-31.44
224.338	-11.44
224.573	-24.44
224.808	-13.44
225.042	-11.44
225.277	-8.44
225.511	9.56
225.746	1.56
225.98	3.56
226.215	7.56
226.449	21.56
226.683	34.56
226.918	22.56
227.152	26.56
227.387	43.56
227.621	54.56
227.856	59.56
228.09	46.56
228.324	42.56
228.559	80.56
228.793	65.56
229.027	63.56
229.262	60.56
229.496	63.56
229.73	70.56
229.964	83.56
230.199	74.56
230.433	65.56
230.667	73.56
230.901	77.56
231.136	83.56
231.37	90.56
231.604	89.56
231.838	83.56
232.072	73.56
232.306	81.56
232.541	85.56
232.775	75.56
233.009	78.56
233.243	84.56
233.477	73.56
233.711	87.56
233.945	80.56
234.179	79.56
234.413	77.56
234.647	74.56
234.881	78.56
235.115	72.56
235.349	91.56
235.583	81.56
235.817	74.56
236.051	73.56
236.285	70.56
236.519	79.56
236.753	78.56
236.987	76.56
237.221	70.56
237.455	94.56
237.689	68.56
237.922	73.56
238.156	74.56
238.39	69.56
238.624	80.56
238.858	63.56
239.091	71.56
239.325	63.56
239.559	84.56
239.793	76.56
240.027	77.56
240.26	66.56
240.494	77.56
240.728	83.56
240.961	73.56
241.195	84.56
241.429	76.56
241.662	63.56
241.896	78.56
242.13	65.56
242.363	77.56
242.597	76.56
242.83	62.56
243.064	87.56
243.298	79.56
243.531	76.56
243.765	71.56
243.998	80.56
244.232	92.56
244.465	83.56
244.699	80.56
244.932	84.56
245.166	67.56
245.399	78.56
245.633	75.56
245.866	84.56
246.099	84.56
246.333	84.56
246.566	57.56
246.8	79.56
247.033	77.56
247.266	79.56
247.5	79.56
247.733	70.56
247.966	75.56
248.2	78.56
248.433	75.56
248.666	64.56
248.899	77.56
249.133	97.56
249.366	92.56
249.599	81.56
249.832	88.56
250.066	83.56
250.299	77.56
250.532	65.56
250.765	63.56
250.998	75.56
251.231	69.56
251.465	91.56
251.698	81.56
251.931	71.56
252.164	81.56
252.397	80.56
252.63	82.56
252.863	79.56
253.096	67.56
253.329	79.56
253.562	91.56
253.795	78.56
254.028	86.56
254.261	75.56
254.494	73.56
254.727	81.56
254.96	62.56
255.193	83.56
255.426	86.56
255.659	78.56
255.892	78.56
256.124	91.56
256.357	80.56
256.59	87.56
256.823	80.56
257.056	95.56
257.289	85.56
257.521	85.56
257.754	82.56
257.987	70.56
258.22	86.56
258.452	74.56
258.685	75.56
258.918	79.56
259.151	91.56
259.383	77.56
259.616	77.56
259.849	79.56
260.081	74.56
260.314	85.56
260.547	77.56
260.779	76.56
261.012	73.56
261.244	90.56
261.477	71.56
261.71	71.56
261.942	81.56
262.175	81.56
262.407	73.56
262.64	89.56
262.872	73.56
263.105	79.56
263.337	72.56
263.57	87.56
263.802	88.56
264.035	83.56
264.267	79.56
264.499	67.56
264.732	67.56
264.964	93.56
265.197	83.56
265.429	77.56
265.661	80.56
265.894	84.56
266.126	85.56
266.358	80.56
266.591	79.56
266.823	77.56
267.055	77.56
267.287	85.56
267.52	81.56
267.752	86.56
267.984	88.56
268.216	89.56
268.448	94.56
268.681	80.56
268.913	99.56
269.145	89.56
269.377	93.56
269.609	68.56
269.841	84.56
270.073	83.56
270.306	86.56
270.538	89.56
270.77	74.56
271.002	88.56
271.234	75.56
271.466	83.56
271.698	77.56
271.93	91.56
272.162	77.56
272.394	99.56
272.626	87.56
272.858	84.56
273.09	74.56
273.322	96.56
273.553	102.56
273.785	89.56
274.017	94.56
274.249	71.56
274.481	94.56
274.713	89.56
274.945	85.56
275.176	89.56
275.408	90.56
275.64	73.56
275.872	79.56
276.104	75.56
276.335	97.56
276.567	94.56
276.799	67.56
277.031	79.56
277.262	94.56
277.494	86.56
277.726	89.56
277.957	88.56
278.189	90.56
278.421	79.56
278.652	90.56
278.884	81.56
279.115	72.56
279.347	93.56
279.579	85.56
279.81	93.56
280.042	103.56
280.273	95.56
280.505	86.56
280.736	78.56
280.968	83.56
281.199	77.56
281.431	85.56
281.662	87.56
281.894	89.56
282.125	106.56
282.356	89.56
282.588	76.56
282.819	79.56
283.051	89.56
283.282	89.56
283.513	90.56
283.745	79.56
283.976	79.56
284.207	75.56
284.439	79.56
284.67	101.56
284.901	81.56
285.132	99.56
285.364	83.56
285.595	95.56
285.826	98.56
286.057	96.56
286.288	90.56
286.52	85.56
286.751	76.56
286.982	86.56
287.213	87.56
287.444	87.56
287.675	90.56
287.906	84.56
288.138	84.56
288.369	94.56
288.6	91.56
288.831	87.56
289.062	87.56
289.293	78.56
289.524	87.56
289.755	83.56
289.986	99.56
290.217	77.56
290.448	92.56
290.679	91.56
290.91	83.56
291.141	86.56
291.371	94.56
291.602	75.56
291.833	87.56
292.064	85.56
292.295	76.56
292.526	83.56
292.757	85.56
292.987	91.56
293.218	91.56
293.449	79.56
293.68	87.56
293.91	102.56
294.141	84.56
294.372	85.56
294.603	86.56
294.833	77.56
295.064	92.56
295.295	87.56
295.525	89.56
295.756	94.56
295.987	79.56
296.217	76.56
296.448	103.56
296.679	67.56
296.909	95.56
297.14	86.56
297.37	87.56
297.601	90.56
297.831	86.56
298.062	86.56
298.292	86.56
298.523	84.56
298.753	86.56
298.984	80.56
299.214	94.56
299.445	83.56
299.675	98.56
299.905	88.56
300.136	91.56
300.366	85.56
300.597	93.56
300.827	91.56
301.057	99.56
301.288	87.56
301.518	97.56
301.748	71.56
301.979	91.56
302.209	94.56
302.439	87.56
302.669	76.56
302.9	71.56
303.13	83.56
303.36	87.56
303.59	88.56
303.82	97.56
304.051	95.56
304.281	86.56
304.511	85.56
304.741	88.56
304.971	69.56
305.201	90.56
305.431	87.56
305.661	82.56
305.891	78.56
306.121	95.56
306.352	84.56
306.582	70.56
306.812	84.56
307.042	83.56
307.272	98.56
307.502	93.56
307.731	88.56
307.961	88.56
308.191	109.56
308.421	91.56
308.651	98.56
308.881	91.56
309.111	89.56
309.341	107.56
309.571	92.56
309.8	83.56
310.03	90.56
310.26	84.56
310.49	86.56
310.72	78.56
310.949	81.56
311.179	87.56
311.409	88.56
311.639	82.56
311.868	90.56
312.098	82.56
312.328	76.56
312.557	93.56
312.787	81.56
313.017	77.56
313.246	92.56
313.476	101.56
313.706	89.56
313.935	69.56
314.165	89.56
314.394	81.56
314.624	72.56
314.853	83.56
315.083	93.56
315.312	98.56
315.542	83.56
315.771	103.56
316.001	101.56
316.23	86.56
316.46	93.56
316.689	80.56
316.919	99.56
317.148	75.56
317.377	94.56
317.607	113.56
317.836	106.56
318.065	101.56
318.295	107.56
318.524	106.56
318.753	82.56
318.983	86.56
319.212	96.56
319.441	89.56
319.67	85.56
319.9	96.56
320.129	99.56
320.358	89.56
320.587	83.56
320.816	83.56
321.046	94.56
321.275	102.56
321.504	99.56
321.733	86.56
321.962	81.56
322.191	89.56
322.42	89.56
322.649	97.56
322.878	91.56
323.108	87.56
323.337	107.56
323.566	81.56
323.795	86.56
324.024	88.56
324.253	93.56
324.482	94.56
324.71	88.56
324.939	85.56
325.168	79.56
325.397	71.56
325.626	80.56
325.855	86.56
326.084	89.56
326.313	107.56
326.542	71.56
326.77	81.56
326.999	86.56
327.228	99.56
327.457	92.56
327.686	87.56
327.914	83.56
328.143	94.56
328.372	85.56
328.6	92.56
328.829	60.56
329.058	78.56
329.287	83.56
329.515	81.56
329.744	83.56
329.972	95.56
330.201	105.56
330.43	89.56
330.658	83.56
330.887	85.56
331.115	88.56
331.344	85.56
331.572	85.56
331.801	72.56
332.03	93.56
332.258	87.56
332.486	90.56
332.715	86.56
332.943	87.56
333.172	83.56
333.4	92.56
333.629	106.56
333.857	89.56
334.085	93.56
334.314	80.56
334.542	81.56
334.771	95.56
334.999	103.56
335.227	90.56
335.455	79.56
335.684	84.56
335.912	102.56
336.14	98.56
336.369	97.56
336.597	77.56
336.825	88.56
337.053	86.56
337.281	76.56
337.51	78.56
337.738	88.56
337.966	92.56
338.194	95.56
338.422	83.56
338.65	89.56
338.878	98.56
339.106	97.56
339.334	94.56
339.562	75.56
339.79	72.56
340.018	87.56
340.246	83.56
340.474	103.56
340.702	89.56
340.93	99.56
341.158	83.56
341.386	83.56
341.614	73.56
341.842	82.56
342.07	76.56
342.298	87.56
342.526	94.56
342.754	85.56
342.981	97.56
343.209	83.56
343.437	89.56
343.665	92.56
343.893	113.56
344.12	108.56
344.348	85.56
344.576	93.56
344.804	91.56
345.031	109.56
345.259	83.56
345.487	87.56
345.714	77.56
345.942	92.56
346.17	95.56
346.397	82.56
346.625	89.56
346.853	85.56
347.08	78.56
347.308	87.56
347.535	77.56
347.763	90.56
347.99	85.56
348.218	83.56
348.445	81.56
348.673	90.56
348.9	95.56
349.128	83.56
349.355	86.56
349.583	84.56
349.81	97.56
350.037	73.56
350.265	82.56
350.492	85.56
350.72	88.56
350.947	87.56
351.174	92.56
351.402	89.56
351.629	96.56
351.856	98.56
352.083	84.56
352.311	87.56
352.538	69.56
352.765	98.56
352.992	94.56
353.22	97.56
353.447	98.56
353.674	90.56
353.901	81.56
354.128	79.56
354.355	86.56
354.583	86.56
354.81	97.56
355.037	87.56
355.264	83.56
355.491	100.56
355.718	76.56
355.945	79.56
356.172	87.56
356.399	91.56
356.626	91.56
356.853	94.56
357.08	91.56
357.307	98.56
357.534	87.56
357.761	99.56
357.988	110.56
358.215	96.56
358.441	99.56
358.668	96.56
358.895	72.56
359.122	77.56
359.349	100.56
359.576	98.56
359.802	91.56
360.029	86.56
360.256	83.56
360.483	82.56
360.709	97.56
360.936	95.56
361.163	87.56
361.39	85.56
361.616	79.56
361.843	93.56
362.07	87.56
362.296	82.56
362.523	88.56
362.749	96.56
362.976	113.56
363.203	129.56
363.429	98.56
363.656	98.56
363.882	100.56
364.109	107.56
364.335	124.56
364.562	133.56
364.788	111.56
365.015	94.56
365.241	94.56
365.468	77.56
365.694	75.56
365.92	99.56
366.147	85.56
366.373	83.56
366.599	91.56
366.826	88.56
367.052	87.56
367.278	90.56
367.505	99.56
367.731	98.56
367.957	98.56
368.184	94.56
368.41	87.56
368.636	93.56
368.862	80.56
369.089	91.56
369.315	101.56
369.541	93.56
369.767	98.56
369.993	89.56
370.219	79.56
370.445	90.56
370.672	102.56
370.898	111.56
371.124	92.56
371.35	84.56
371.576	89.56
371.802	101.56
372.028	93.56
372.254	95.56
372.48	94.56
372.706	85.56
372.932	85.56
373.158	98.56
373.384	116.56
373.61	129.56
373.835	105.56
374.061	111.56
374.287	90.56
374.513	105.56
374.739	109.56
374.965	105.56
375.191	105.56
375.416	97.56
375.642	94.56
375.868	101.56
376.094	101.56
376.319	100.56
376.545	101.56
376.771	92.56
376.997	93.56
377.222	101.56
377.448	82.56
377.674	87.56
377.899	85.56
378.125	97.56
378.35	86.56
378.576	85.56
378.802	89.56
379.027	79.56
379.253	89.56
379.478	89.56
379.704	76.56
379.929	85.56
380.155	95.56
380.38	89.56
380.606	74.56
380.831	90.56
381.057	81.56
381.282	99.56
381.507	93.56
381.733	102.56
381.958	90.56
382.184	103.56
382.409	95.56
382.634	98.56
382.86	86.56
383.085	95.56
383.31	103.56
383.535	104.56
383.761	101.56
383.986	94.56
384.211	111.56
384.436	85.56
384.662	95.56
384.887	103.56
385.112	94.56
385.337	109.56
385.562	114.56
385.787	105.56
386.013	102.56
386.238	105.56
386.463	85.56
386.688	87.56
386.913	77.56
387.138	103.56
387.363	101.56
387.588	108.56
387.813	109.56
388.038	114.56
388.263	97.56
388.488	104.56
388.713	93.56
388.938	92.56
389.163	85.56
389.387	100.56
389.612	100.56
389.837	89.56
390.062	92.56
390.287	86.56
390.512	100.56
390.736	89.56
390.961	97.56
391.186	66.56
391.411	97.56
391.636	107.56
391.86	93.56
392.085	99.56
392.31	102.56
392.534	100.56
392.759	142.56
392.984	241.56
393.208	497.56
393.433	810.56
393.658	585.56
393.882	195.56
394.107	117.56
394.331	117.56
394.556	132.56
394.78	114.56
395.005	101.56
395.229	100.56
395.454	101.56
395.678	113.56
395.903	125.56
396.127	174.56
396.352	202.56
396.576	288.56
396.801	528.56
397.025	607.56
397.249	265.56
397.474	129.56
397.698	111.56
397.922	89.56
398.147	101.56
398.371	92.56
398.595	94.56
398.82	78.56
399.044	79.56
399.268	88.56
399.492	92.56
399.717	98.56
399.941	85.56
400.165	89.56
400.389	79.56
400.613	96.56
400.837	89.56
401.062	94.56
401.286	75.56
401.51	82.56
401.734	79.56
401.958	75.56
402.182	91.56
402.406	76.56
402.63	91.56
402.854	85.56
403.078	91.56
403.302	96.56
403.526	89.56
403.75	89.56
403.974	108.56
404.198	121.56
404.422	113.56
404.645	132.56
404.869	129.56
405.093	108.56
405.317	83.56
405.541	83.56
405.765	102.56
405.988	84.56
406.212	93.56
406.436	103.56
406.66	89.56
406.883	91.56
407.107	82.56
407.331	80.56
407.555	111.56
407.778	143.56
408.002	150.56
408.226	102.56
408.449	89.56
408.673	94.56
408.896	94.56
409.12	88.56
409.344	91.56
409.567	94.56
409.791	106.56
410.014	105.56
410.238	98.56
410.461	82.56
410.685	85.56
410.908	85.56
411.132	98.56
411.355	83.56
411.578	94.56
411.802	89.56
412.025	92.56
412.249	85.56
412.472	87.56
412.695	78.56
412.919	89.56
413.142	83.56
413.365	102.56
413.589	97.56
413.812	87.56
414.035	90.56
414.258	79.56
414.482	94.56
414.705	80.56
414.928	110.56
415.151	89.56
415.374	83.56
415.597	85.56
415.821	82.56
416.044	93.56
416.267	80.56
416.49	83.56
416.713	89.56
416.936	85.56
417.159	98.56
417.382	90.56
417.605	78.56
417.828	95.56
418.051	87.56
418.274	83.56
418.497	75.56
418.72	85.56
418.943	98.56
419.166	80.56
419.389	93.56
419.611	89.56
419.834	88.56
420.057	78.56
420.28	101.56
420.503	98.56
420.726	99.56
420.948	101.56
421.171	89.56
421.394	114.56
421.617	136.56
421.839	135.56
422.062	124.56
422.285	180.56
422.507	369.56
422.73	663.56
422.953	564.56
423.175	210.56
423.398	127.56
423.621	80.56
423.843	82.56
424.066	98.56
424.288	103.56
424.511	93.56
424.733	97.56
424.956	90.56
425.178	89.56
425.401	95.56
425.623	97.56
425.846	104.56
426.068	71.56
426.291	82.56
426.513	94.56
426.735	80.56
426.958	111.56
427.18	106.56
427.402	99.56
427.625	80.56
427.847	85.56
428.069	99.56
428.292	149.56
428.514	161.56
428.736	134.56
428.958	151.56
429.181	141.56
429.403	99.56
429.625	107.56
429.847	119.56
430.069	185.56
430.292	228.56
430.514	217.56
430.736	165.56
430.958	165.56
431.18	118.56
431.402	93.56
431.624	115.56
431.846	133.56
432.068	148.56
432.29	105.56
432.512	91.56
432.734	106.56
432.956	84.56
433.178	100.56
433.4	97.56
433.622	85.56
433.844	91.56
434.066	87.56
434.287	95.56
434.509	79.56
434.731	73.56
434.953	87.56
435.175	91.56
435.397	93.56
435.618	94.56
435.84	80.56
436.062	92.56
436.284	95.56
436.505	87.56
436.727	92.56
436.949	88.56
437.17	96.56
437.392	80.56
437.614	92.56
437.835	97.56
438.057	84.56
438.278	91.56
438.5	105.56
438.721	95.56
438.943	88.56
439.165	93.56
439.386	86.56
439.608	85.56
439.829	80.56
440.05	88.56
440.272	93.56
440.493	98.56
440.715	85.56
440.936	91.56
441.158	93.56
441.379	77.56
441.6	80.56
441.822	87.56
442.043	99.56
442.264	104.56
442.486	137.56
442.707	178.56
442.928	127.56
443.149	117.56
443.371	179.56
443.592	298.56
443.813	228.56
444.034	108.56
444.255	88.56
444.476	80.56
444.698	85.56
444.919	93.56
445.14	182.56
445.361	231.56
445.582	353.56
445.803	296.56
446.024	133.56
446.245	86.56
446.466	86.56
446.687	87.56
446.908	74.56
447.129	80.56
447.35	89.56
447.571	83.56
447.792	95.56
448.013	101.56
448.234	77.56
448.455	87.56
448.675	99.56
448.896	80.56
449.117	98.56
449.338	80.56
449.559	94.56
449.779	90.56
450	83.56
450.221	77.56
450.442	87.56
450.662	85.56
450.883	83.56
451.104	98.56
451.324	85.56
451.545	88.56
451.766	78.56
451.986	80.56
452.207	78.56
452.428	89.56
452.648	83.56
452.869	108.56
453.089	89.56
453.31	99.56
453.53	95.56
453.751	93.56
453.971	83.56
454.192	84.56
454.412	91.56
454.633	80.56
454.853	75.56
455.073	97.56
455.294	102.56
455.514	100.56
455.734	106.56
455.955	91.56
456.175	75.56
456.395	72.56
456.616	94.56
456.836	79.56
457.056	98.56
457.276	82.56
457.497	99.56
457.717	90.56
457.937	114.56
458.157	104.56
458.377	109.56
458.598	113.56
458.818	113.56
459.038	90.56
459.258	74.56
459.478	77.56
459.698	79.56
459.918	88.56
460.138	86.56
460.358	82.56
460.578	91.56
460.798	126.56
461.018	126.56
461.238	95.56
461.458	91.56
461.678	85.56
461.898	98.56
462.118	89.56
462.338	97.56
462.558	94.56
462.777	77.56
462.997	89.56
463.217	91.56
463.437	86.56
463.657	91.56
463.876	79.56
464.096	89.56
464.316	77.56
464.536	76.56
464.755	75.56
464.975	79.56
465.195	82.56
465.414	84.56
465.634	85.56
465.854	91.56
466.073	85.56
466.293	93.56
466.512	78.56
466.732	80.56
466.951	90.56
467.171	90.56
467.391	78.56
467.61	73.56
467.829	81.56
468.049	86.56
468.268	90.56
468.488	78.56
468.707	91.56
468.927	89.56
469.146	86.56
469.365	72.56
469.585	86.56
469.804	85.56
470.023	78.56
470.243	97.56
470.462	75.56
470.681	100.56
470.901	71.56
471.12	94.56
471.339	92.56
471.558	78.56
471.777	84.56
471.997	73.56
472.216	84.56
472.435	89.56
472.654	75.56
472.873	84.56
473.092	79.56
473.311	83.56
473.53	78.56
473.749	91.56
473.968	79.56
474.187	96.56
474.406	84.56
474.625	95.56
474.844	110.56
475.063	75.56
475.282	97.56
475.501	90.56
475.72	101.56
475.939	83.56
476.158	89.56
476.377	84.56
476.596	81.56
476.814	87.56
477.033	74.56
477.252	102.56
477.471	98.56
477.69	95.56
477.908	93.56
478.127	87.56
478.346	80.56
478.564	79.56
478.783	90.56
479.002	92.56
479.22	91.56
479.439	90.56
479.658	89.56
479.876	101.56
480.095	85.56
480.313	84.56
480.532	93.56
480.751	103.56
480.969	76.56
481.188	94.56
481.406	103.56
481.624	82.56
481.843	83.56
482.061	90.56
482.28	89.56
482.498	85.56
482.717	79.56
482.935	103.56
483.153	101.56
483.372	98.56
483.59	99.56
483.808	79.56
484.027	87.56
484.245	82.56
484.463	99.56
484.681	82.56
484.9	89.56
485.118	85.56
485.336	90.56
485.554	86.56
485.772	90.56
485.99	85.56
486.209	82.56
486.427	85.56
486.645	80.56
486.863	102.56
487.081	91.56
487.299	88.56
487.517	91.56
487.735	98.56
487.953	147.56
488.171	138.56
488.389	91.56
488.607	81.56
488.825	89.56
489.043	91.56
489.261	99.56
489.479	81.56
489.696	78.56
489.914	84.56
490.132	93.56
490.35	91.56
490.568	91.56
490.786	89.56
491.003	96.56
491.221	79.56
491.439	109.56
491.657	90.56
491.874	106.56
492.092	88.56
492.31	91.56
492.527	87.56
492.745	80.56
492.963	89.56
493.18	97.56
493.398	92.56
493.615	108.56
493.833	90.56
494.05	65.56
494.268	82.56
494.485	87.56
494.703	85.56
494.92	82.56
495.138	99.56
495.355	89.56
495.573	85.56
495.79	97.56
496.008	90.56
496.225	93.56
496.442	86.56
496.66	101.56
496.877	84.56
497.094	101.56
497.312	82.56
497.529	90.56
497.746	90.56
497.963	91.56
498.181	97.56
498.398	108.56
498.615	107.56
498.832	85.56
499.049	83.56
499.267	90.56
499.484	95.56
499.701	90.56
499.918	92.56
500.135	108.56
500.352	90.56
500.569	91.56
500.786	102.56
501.003	87.56
501.22	82.56
501.437	93.56
501.654	92.56
501.871	86.56
502.088	77.56
502.305	105.56
502.522	93.56
502.739	90.56
502.956	86.56
503.172	92.56
503.389	111.56
503.606	91.56
503.823	100.56
504.04	106.56
504.256	111.56
504.473	129.56
504.69	97.56
504.907	81.56
505.123	81.56
505.34	85.56
505.557	92.56
505.773	92.56
505.99	85.56
506.207	78.56
506.423	97.56
506.64	102.56
506.856	89.56
507.073	101.56
507.289	78.56
507.506	81.56
507.722	85.56
507.939	86.56
508.155	83.56
508.372	82.56
508.588	87.56
508.805	77.56
509.021	74.56
509.238	85.56
509.454	95.56
509.67	91.56
509.887	89.56
510.103	79.56
510.319	93.56
510.536	93.56
510.752	89.56
510.968	84.56
511.184	95.56
511.401	87.56
511.617	97.56
511.833	85.56
512.049	84.56
512.265	79.56
512.481	75.56
512.698	89.56
512.914	88.56
513.13	77.56
513.346	93.56
513.562	87.56
513.778	82.56
513.994	84.56
514.21	92.56
514.426	80.56
514.642	88.56
514.858	86.56
515.074	78.56
515.29	94.56
515.506	95.56
515.721	80.56
515.937	78.56
516.153	91.56
516.369	91.56
516.585	98.56
516.801	102.56
517.016	105.56
517.232	84.56
