Data from 15780_3_HRD10591_00008.txt Node
Date: Mon Jan 19 14:20:02 EST 2026
User: Yrep
Spectrometer: HR+D1059
Trigger mode: 1
Integration Time (sec): 1.000000E-1
Scans to average: 1
Electric dark correction enabled: true
Nonlinearity correction enabled: false
Boxcar width: 0
XAxis mode: Wavelengths
Number of Pixels in Spectrum: 2048
>>>>>Begin Spectral Data<<<<<
223.165	-20.19
223.4	-20.19
223.635	-20.19
223.869	-24.19
224.104	-5.19
224.338	-17.19
224.573	-20.19
224.808	-20.19
225.042	2.81
225.277	-1.19
225.511	6.81
225.746	4.81
225.98	0.81
226.215	4.81
226.449	8.81
226.683	15.81
226.918	30.81
227.152	32.81
227.387	36.81
227.621	40.81
227.856	36.81
228.09	54.81
228.324	48.81
228.559	44.81
228.793	64.81
229.027	59.81
229.262	56.81
229.496	69.81
229.73	85.81
229.964	75.81
230.199	68.81
230.433	72.81
230.667	80.81
230.901	72.81
231.136	83.81
231.37	81.81
231.604	87.81
231.838	76.81
232.072	79.81
232.306	68.81
232.541	74.81
232.775	73.81
233.009	82.81
233.243	83.81
233.477	72.81
233.711	88.81
233.945	76.81
234.179	79.81
234.413	79.81
234.647	74.81
234.881	72.81
235.115	75.81
235.349	73.81
235.583	82.81
235.817	81.81
236.051	66.81
236.285	66.81
236.519	74.81
236.753	76.81
236.987	78.81
237.221	71.81
237.455	80.81
237.689	73.81
237.922	66.81
238.156	67.81
238.39	64.81
238.624	75.81
238.858	68.81
239.091	68.81
239.325	71.81
239.559	62.81
239.793	80.81
240.027	70.81
240.26	70.81
240.494	73.81
240.728	62.81
240.961	75.81
241.195	79.81
241.429	70.81
241.662	75.81
241.896	73.81
242.13	72.81
242.363	71.81
242.597	76.81
242.83	86.81
243.064	84.81
243.298	79.81
243.531	71.81
243.765	70.81
243.998	67.81
244.232	81.81
244.465	86.81
244.699	69.81
244.932	82.81
245.166	82.81
245.399	65.81
245.633	66.81
245.866	80.81
246.099	71.81
246.333	84.81
246.566	78.81
246.8	79.81
247.033	77.81
247.266	83.81
247.5	76.81
247.733	80.81
247.966	64.81
248.2	65.81
248.433	84.81
248.666	77.81
248.899	65.81
249.133	82.81
249.366	81.81
249.599	67.81
249.832	77.81
250.066	96.81
250.299	88.81
250.532	79.81
250.765	83.81
250.998	83.81
251.231	73.81
251.465	75.81
251.698	59.81
251.931	76.81
252.164	76.81
252.397	87.81
252.63	84.81
252.863	74.81
253.096	66.81
253.329	86.81
253.562	76.81
253.795	74.81
254.028	76.81
254.261	68.81
254.494	76.81
254.727	77.81
254.96	91.81
255.193	75.81
255.426	74.81
255.659	77.81
255.892	86.81
256.124	80.81
256.357	80.81
256.59	94.81
256.823	74.81
257.056	75.81
257.289	86.81
257.521	85.81
257.754	72.81
257.987	75.81
258.22	84.81
258.452	82.81
258.685	76.81
258.918	73.81
259.151	73.81
259.383	85.81
259.616	84.81
259.849	85.81
260.081	87.81
260.314	83.81
260.547	79.81
260.779	89.81
261.012	74.81
261.244	76.81
261.477	76.81
261.71	92.81
261.942	80.81
262.175	89.81
262.407	75.81
262.64	77.81
262.872	78.81
263.105	82.81
263.337	96.81
263.57	74.81
263.802	82.81
264.035	83.81
264.267	78.81
264.499	82.81
264.732	80.81
264.964	70.81
265.197	88.81
265.429	81.81
265.661	93.81
265.894	64.81
266.126	94.81
266.358	102.81
266.591	66.81
266.823	69.81
267.055	64.81
267.287	74.81
267.52	79.81
267.752	69.81
267.984	89.81
268.216	83.81
268.448	82.81
268.681	83.81
268.913	70.81
269.145	84.81
269.377	80.81
269.609	75.81
269.841	87.81
270.073	72.81
270.306	79.81
270.538	88.81
270.77	82.81
271.002	82.81
271.234	79.81
271.466	92.81
271.698	76.81
271.93	74.81
272.162	76.81
272.394	96.81
272.626	81.81
272.858	75.81
273.09	77.81
273.322	84.81
273.553	93.81
273.785	84.81
274.017	88.81
274.249	78.81
274.481	79.81
274.713	77.81
274.945	91.81
275.176	90.81
275.408	79.81
275.64	75.81
275.872	94.81
276.104	78.81
276.335	95.81
276.567	82.81
276.799	78.81
277.031	93.81
277.262	88.81
277.494	98.81
277.726	83.81
277.957	74.81
278.189	86.81
278.421	86.81
278.652	91.81
278.884	89.81
279.115	85.81
279.347	87.81
279.579	86.81
279.81	88.81
280.042	80.81
280.273	82.81
280.505	90.81
280.736	96.81
280.968	81.81
281.199	85.81
281.431	74.81
281.662	78.81
281.894	85.81
282.125	78.81
282.356	84.81
282.588	83.81
282.819	80.81
283.051	98.81
283.282	76.81
283.513	96.81
283.745	76.81
283.976	82.81
284.207	95.81
284.439	84.81
284.67	81.81
284.901	82.81
285.132	95.81
285.364	90.81
285.595	90.81
285.826	98.81
286.057	75.81
286.288	77.81
286.52	87.81
286.751	90.81
286.982	78.81
287.213	83.81
287.444	83.81
287.675	89.81
287.906	84.81
288.138	98.81
288.369	79.81
288.6	82.81
288.831	74.81
289.062	71.81
289.293	94.81
289.524	94.81
289.755	87.81
289.986	76.81
290.217	80.81
290.448	82.81
290.679	74.81
290.91	86.81
291.141	78.81
291.371	89.81
291.602	88.81
291.833	80.81
292.064	88.81
292.295	86.81
292.526	85.81
292.757	83.81
292.987	82.81
293.218	81.81
293.449	88.81
293.68	85.81
293.91	88.81
294.141	90.81
294.372	95.81
294.603	83.81
294.833	96.81
295.064	105.81
295.295	84.81
295.525	83.81
295.756	75.81
295.987	93.81
296.217	92.81
296.448	95.81
296.679	100.81
296.909	85.81
297.14	82.81
297.37	94.81
297.601	72.81
297.831	85.81
298.062	77.81
298.292	83.81
298.523	83.81
298.753	88.81
298.984	75.81
299.214	87.81
299.445	84.81
299.675	96.81
299.905	86.81
300.136	88.81
300.366	108.81
300.597	80.81
300.827	106.81
301.057	104.81
301.288	94.81
301.518	92.81
301.748	84.81
301.979	99.81
302.209	95.81
302.439	96.81
302.669	74.81
302.9	73.81
303.13	88.81
303.36	72.81
303.59	88.81
303.82	98.81
304.051	100.81
304.281	95.81
304.511	96.81
304.741	87.81
304.971	90.81
305.201	92.81
305.431	80.81
305.661	95.81
305.891	96.81
306.121	87.81
306.352	92.81
306.582	88.81
306.812	83.81
307.042	81.81
307.272	73.81
307.502	94.81
307.731	100.81
307.961	94.81
308.191	92.81
308.421	111.81
308.651	90.81
308.881	90.81
309.111	106.81
309.341	120.81
309.571	121.81
309.8	92.81
310.03	88.81
310.26	100.81
310.49	91.81
310.72	88.81
310.949	86.81
311.179	82.81
311.409	81.81
311.639	71.81
311.868	90.81
312.098	92.81
312.328	92.81
312.557	102.81
312.787	88.81
313.017	72.81
313.246	88.81
313.476	75.81
313.706	66.81
313.935	85.81
314.165	91.81
314.394	99.81
314.624	97.81
314.853	86.81
315.083	90.81
315.312	89.81
315.542	101.81
315.771	90.81
316.001	76.81
316.23	87.81
316.46	75.81
316.689	95.81
316.919	90.81
317.148	88.81
317.377	96.81
317.607	99.81
317.836	104.81
318.065	130.81
318.295	98.81
318.524	88.81
318.753	99.81
318.983	107.81
319.212	94.81
319.441	82.81
319.67	83.81
319.9	91.81
320.129	100.81
320.358	96.81
320.587	91.81
320.816	80.81
321.046	87.81
321.275	91.81
321.504	93.81
321.733	85.81
321.962	92.81
322.191	105.81
322.42	87.81
322.649	82.81
322.878	95.81
323.108	102.81
323.337	76.81
323.566	94.81
323.795	97.81
324.024	83.81
324.253	95.81
324.482	102.81
324.71	87.81
324.939	103.81
325.168	92.81
325.397	82.81
325.626	87.81
325.855	91.81
326.084	89.81
326.313	83.81
326.542	80.81
326.77	82.81
326.999	92.81
327.228	64.81
327.457	100.81
327.686	83.81
327.914	92.81
328.143	90.81
328.372	83.81
328.6	93.81
328.829	87.81
329.058	72.81
329.287	86.81
329.515	81.81
329.744	80.81
329.972	80.81
330.201	102.81
330.43	88.81
330.658	88.81
330.887	72.81
331.115	98.81
331.344	91.81
331.572	86.81
331.801	86.81
332.03	67.81
332.258	105.81
332.486	80.81
332.715	95.81
332.943	94.81
333.172	71.81
333.4	96.81
333.629	90.81
333.857	85.81
334.085	98.81
334.314	95.81
334.542	98.81
334.771	99.81
334.999	112.81
335.227	96.81
335.455	81.81
335.684	104.81
335.912	118.81
336.14	116.81
336.369	112.81
336.597	107.81
336.825	89.81
337.053	101.81
337.281	110.81
337.51	97.81
337.738	102.81
337.966	89.81
338.194	98.81
338.422	98.81
338.65	104.81
338.878	102.81
339.106	90.81
339.334	94.81
339.562	84.81
339.79	96.81
340.018	80.81
340.246	81.81
340.474	89.81
340.702	87.81
340.93	90.81
341.158	89.81
341.386	82.81
341.614	84.81
341.842	92.81
342.07	91.81
342.298	74.81
342.526	80.81
342.754	82.81
342.981	79.81
343.209	88.81
343.437	103.81
343.665	95.81
343.893	89.81
344.12	82.81
344.348	102.81
344.576	80.81
344.804	82.81
345.031	96.81
345.259	88.81
345.487	81.81
345.714	84.81
345.942	96.81
346.17	74.81
346.397	88.81
346.625	84.81
346.853	82.81
347.08	71.81
347.308	95.81
347.535	106.81
347.763	104.81
347.99	92.81
348.218	86.81
348.445	83.81
348.673	92.81
348.9	103.81
349.128	98.81
349.355	102.81
349.583	68.81
349.81	90.81
350.037	80.81
350.265	91.81
350.492	82.81
350.72	83.81
350.947	94.81
351.174	102.81
351.402	96.81
351.629	81.81
351.856	94.81
352.083	88.81
352.311	86.81
352.538	81.81
352.765	98.81
352.992	97.81
353.22	80.81
353.447	80.81
353.674	94.81
353.901	85.81
354.128	76.81
354.355	99.81
354.583	97.81
354.81	81.81
355.037	84.81
355.264	76.81
355.491	87.81
355.718	97.81
355.945	94.81
356.172	107.81
356.399	88.81
356.626	104.81
356.853	96.81
357.08	116.81
357.307	103.81
357.534	86.81
357.761	91.81
357.988	112.81
358.215	114.81
358.441	104.81
358.668	100.81
358.895	108.81
359.122	87.81
359.349	110.81
359.576	97.81
359.802	91.81
360.029	93.81
360.256	86.81
360.483	105.81
360.709	105.81
360.936	103.81
361.163	93.81
361.39	107.81
361.616	98.81
361.843	101.81
362.07	115.81
362.296	119.81
362.523	96.81
362.749	139.81
362.976	153.81
363.203	157.81
363.429	124.81
363.656	114.81
363.882	110.81
364.109	148.81
364.335	160.81
364.562	190.81
364.788	160.81
365.015	106.81
365.241	91.81
365.468	106.81
365.694	99.81
365.92	83.81
366.147	84.81
366.373	90.81
366.599	87.81
366.826	87.81
367.052	77.81
367.278	86.81
367.505	100.81
367.731	97.81
367.957	88.81
368.184	92.81
368.41	95.81
368.636	103.81
368.862	91.81
369.089	92.81
369.315	89.81
369.541	95.81
369.767	93.81
369.993	83.81
370.219	85.81
370.445	102.81
370.672	111.81
370.898	116.81
371.124	109.81
371.35	94.81
371.576	93.81
371.802	98.81
372.028	110.81
372.254	120.81
372.48	89.81
372.706	96.81
372.932	108.81
373.158	97.81
373.384	133.81
373.61	136.81
373.835	140.81
374.061	117.81
374.287	113.81
374.513	128.81
374.739	131.81
374.965	130.81
375.191	107.81
375.416	115.81
375.642	104.81
375.868	112.81
376.094	105.81
376.319	107.81
376.545	104.81
376.771	114.81
376.997	112.81
377.222	94.81
377.448	100.81
377.674	77.81
377.899	90.81
378.125	67.81
378.35	95.81
378.576	90.81
378.802	91.81
379.027	87.81
379.253	95.81
379.478	98.81
379.704	98.81
379.929	76.81
380.155	94.81
380.38	90.81
380.606	81.81
380.831	107.81
381.057	108.81
381.282	108.81
381.507	114.81
381.733	122.81
381.958	100.81
382.184	112.81
382.409	122.81
382.634	120.81
382.86	124.81
383.085	124.81
383.31	127.81
383.535	128.81
383.761	138.81
383.986	118.81
384.211	123.81
384.436	103.81
384.662	112.81
384.887	106.81
385.112	94.81
385.337	118.81
385.562	105.81
385.787	122.81
386.013	118.81
386.238	113.81
386.463	114.81
386.688	115.81
386.913	103.81
387.138	116.81
387.363	123.81
387.588	117.81
387.813	119.81
388.038	126.81
388.263	138.81
388.488	108.81
388.713	115.81
388.938	105.81
389.163	76.81
389.387	89.81
389.612	90.81
389.837	105.81
390.062	107.81
390.287	99.81
390.512	105.81
390.736	86.81
390.961	91.81
391.186	106.81
391.411	97.81
391.636	100.81
391.86	107.81
392.085	104.81
392.31	126.81
392.534	124.81
392.759	152.81
392.984	223.81
393.208	403.81
393.433	617.81
393.658	485.81
393.882	194.81
394.107	140.81
394.331	169.81
394.556	194.81
394.78	131.81
395.005	107.81
395.229	112.81
395.454	131.81
395.678	136.81
395.903	168.81
396.127	214.81
396.352	243.81
396.576	240.81
396.801	400.81
397.025	481.81
397.249	258.81
397.474	167.81
397.698	111.81
397.922	91.81
398.147	102.81
398.371	116.81
398.595	97.81
398.82	99.81
399.044	101.81
399.268	88.81
399.492	92.81
399.717	90.81
399.941	117.81
400.165	108.81
400.389	80.81
400.613	102.81
400.837	97.81
401.062	98.81
401.286	90.81
401.51	86.81
401.734	93.81
401.958	75.81
402.182	95.81
402.406	81.81
402.63	90.81
402.854	93.81
403.078	86.81
403.302	115.81
403.526	105.81
403.75	102.81
403.974	97.81
404.198	84.81
404.422	100.81
404.645	118.81
404.869	107.81
405.093	97.81
405.317	85.81
405.541	95.81
405.765	76.81
405.988	89.81
406.212	84.81
406.436	96.81
406.66	99.81
406.883	85.81
407.107	99.81
407.331	106.81
407.555	106.81
407.778	148.81
408.002	145.81
408.226	101.81
408.449	92.81
408.673	85.81
408.896	104.81
409.12	85.81
409.344	100.81
409.567	112.81
409.791	130.81
410.014	117.81
410.238	109.81
410.461	91.81
410.685	88.81
410.908	94.81
411.132	108.81
411.355	95.81
411.578	100.81
411.802	87.81
412.025	100.81
412.249	85.81
412.472	89.81
412.695	77.81
412.919	96.81
413.142	89.81
413.365	82.81
413.589	90.81
413.812	99.81
414.035	80.81
414.258	106.81
414.482	112.81
414.705	90.81
414.928	86.81
415.151	101.81
415.374	71.81
415.597	78.81
415.821	92.81
416.044	87.81
416.267	85.81
416.49	72.81
416.713	84.81
416.936	98.81
417.159	82.81
417.382	95.81
417.605	79.81
417.828	105.81
418.051	98.81
418.274	97.81
418.497	85.81
418.72	94.81
418.943	95.81
419.166	106.81
419.389	86.81
419.611	89.81
419.834	94.81
420.057	95.81
420.28	111.81
420.503	95.81
420.726	95.81
420.948	93.81
421.171	107.81
421.394	131.81
421.617	163.81
421.839	153.81
422.062	154.81
422.285	232.81
422.507	414.81
422.73	622.81
422.953	572.81
423.175	309.81
423.398	169.81
423.621	143.81
423.843	115.81
424.066	118.81
424.288	113.81
424.511	98.81
424.733	102.81
424.956	93.81
425.178	96.81
425.401	96.81
425.623	96.81
425.846	89.81
426.068	99.81
426.291	94.81
426.513	108.81
426.735	90.81
426.958	115.81
427.18	96.81
427.402	97.81
427.625	117.81
427.847	105.81
428.069	105.81
428.292	159.81
428.514	178.81
428.736	142.81
428.958	162.81
429.181	173.81
429.403	114.81
429.625	115.81
429.847	154.81
430.069	228.81
430.292	283.81
430.514	242.81
430.736	186.81
430.958	204.81
431.18	115.81
431.402	108.81
431.624	114.81
431.846	146.81
432.068	189.81
432.29	125.81
432.512	88.81
432.734	110.81
432.956	97.81
433.178	93.81
433.4	93.81
433.622	82.81
433.844	93.81
434.066	83.81
434.287	93.81
434.509	92.81
434.731	82.81
434.953	82.81
435.175	65.81
435.397	103.81
435.618	96.81
435.84	112.81
436.062	91.81
436.284	82.81
436.505	98.81
436.727	82.81
436.949	94.81
437.17	71.81
437.392	71.81
437.614	84.81
437.835	94.81
438.057	84.81
438.278	99.81
438.5	119.81
438.721	99.81
438.943	91.81
439.165	95.81
439.386	88.81
439.608	89.81
439.829	79.81
440.05	80.81
440.272	79.81
440.493	92.81
440.715	101.81
440.936	72.81
441.158	86.81
441.379	92.81
441.6	87.81
441.822	94.81
442.043	98.81
442.264	112.81
442.486	183.81
442.707	240.81
442.928	182.81
443.149	134.81
443.371	217.81
443.592	393.81
443.813	328.81
444.034	139.81
444.255	98.81
444.476	99.81
444.698	103.81
444.919	100.81
445.14	193.81
445.361	259.81
445.582	451.81
445.803	395.81
446.024	135.81
446.245	94.81
446.466	101.81
446.687	98.81
446.908	84.81
447.129	71.81
447.35	76.81
447.571	75.81
447.792	74.81
448.013	84.81
448.234	79.81
448.455	72.81
448.675	98.81
448.896	73.81
449.117	88.81
449.338	76.81
449.559	84.81
449.779	110.81
450	88.81
450.221	88.81
450.442	83.81
450.662	99.81
450.883	91.81
451.104	81.81
451.324	98.81
451.545	82.81
451.766	84.81
451.986	82.81
452.207	87.81
452.428	77.81
452.648	106.81
452.869	125.81
453.089	110.81
453.31	106.81
453.53	126.81
453.751	117.81
453.971	88.81
454.192	82.81
454.412	97.81
454.633	88.81
454.853	98.81
455.073	100.81
455.294	100.81
455.514	105.81
455.734	95.81
455.955	80.81
456.175	87.81
456.395	75.81
456.616	93.81
456.836	87.81
457.056	83.81
457.276	76.81
457.497	88.81
457.717	104.81
457.937	142.81
458.157	153.81
458.377	183.81
458.598	143.81
458.818	174.81
459.038	99.81
459.258	97.81
459.478	86.81
459.698	92.81
459.918	92.81
460.138	80.81
460.358	93.81
460.578	111.81
460.798	139.81
461.018	134.81
461.238	94.81
461.458	76.81
461.678	80.81
461.898	82.81
462.118	87.81
462.338	77.81
462.558	96.81
462.777	84.81
462.997	75.81
463.217	95.81
463.437	70.81
463.657	97.81
463.876	78.81
464.096	82.81
464.316	94.81
464.536	80.81
464.755	87.81
464.975	87.81
465.195	99.81
465.414	78.81
465.634	93.81
465.854	89.81
466.073	91.81
466.293	82.81
466.512	88.81
466.732	87.81
466.951	96.81
467.171	73.81
467.391	66.81
467.61	92.81
467.829	86.81
468.049	86.81
468.268	90.81
468.488	80.81
468.707	88.81
468.927	87.81
469.146	84.81
469.365	98.81
469.585	90.81
469.804	96.81
470.023	82.81
470.243	90.81
470.462	88.81
470.681	91.81
470.901	89.81
471.12	84.81
471.339	94.81
471.558	86.81
471.777	91.81
471.997	99.81
472.216	85.81
472.435	96.81
472.654	94.81
472.873	87.81
473.092	74.81
473.311	83.81
473.53	77.81
473.749	79.81
473.968	88.81
474.187	92.81
474.406	102.81
474.625	99.81
474.844	94.81
475.063	92.81
475.282	97.81
475.501	85.81
475.72	84.81
475.939	95.81
476.158	98.81
476.377	102.81
476.596	93.81
476.814	87.81
477.033	106.81
477.252	96.81
477.471	95.81
477.69	87.81
477.908	76.81
478.127	96.81
478.346	95.81
478.564	90.81
478.783	84.81
479.002	90.81
479.22	96.81
479.439	109.81
479.658	93.81
479.876	91.81
480.095	83.81
480.313	95.81
480.532	80.81
480.751	100.81
480.969	96.81
481.188	107.81
481.406	103.81
481.624	85.81
481.843	86.81
482.061	85.81
482.28	97.81
482.498	91.81
482.717	98.81
482.935	84.81
483.153	101.81
483.372	97.81
483.59	87.81
483.808	91.81
484.027	85.81
484.245	84.81
484.463	104.81
484.681	93.81
484.9	91.81
485.118	98.81
485.336	110.81
485.554	95.81
485.772	85.81
485.99	85.81
486.209	116.81
486.427	94.81
486.645	107.81
486.863	98.81
487.081	98.81
487.299	114.81
487.517	124.81
487.735	154.81
487.953	264.81
488.171	195.81
488.389	99.81
488.607	90.81
488.825	93.81
489.043	92.81
489.261	118.81
489.479	86.81
489.696	98.81
489.914	88.81
490.132	95.81
490.35	106.81
490.568	96.81
490.786	81.81
491.003	84.81
491.221	87.81
491.439	93.81
491.657	104.81
491.874	92.81
492.092	114.81
492.31	98.81
492.527	90.81
492.745	77.81
492.963	87.81
493.18	107.81
493.398	97.81
493.615	108.81
493.833	103.81
494.05	91.81
494.268	99.81
494.485	106.81
494.703	94.81
494.92	77.81
495.138	91.81
495.355	92.81
495.573	100.81
495.79	95.81
496.008	94.81
496.225	98.81
496.442	103.81
496.66	86.81
496.877	93.81
497.094	86.81
497.312	72.81
497.529	93.81
497.746	95.81
497.963	94.81
498.181	122.81
498.398	153.81
498.615	110.81
498.832	91.81
499.049	104.81
499.267	119.81
499.484	113.81
499.701	103.81
499.918	97.81
500.135	130.81
500.352	105.81
500.569	103.81
500.786	112.81
501.003	122.81
501.22	86.81
501.437	90.81
501.654	120.81
501.871	110.81
502.088	94.81
502.305	101.81
502.522	98.81
502.739	112.81
502.956	110.81
503.172	84.81
503.389	114.81
503.606	89.81
503.823	121.81
504.04	136.81
504.256	204.81
504.473	191.81
504.69	114.81
504.907	101.81
505.123	90.81
505.34	100.81
505.557	96.81
505.773	91.81
505.99	101.81
506.207	98.81
506.423	91.81
506.64	101.81
506.856	84.81
507.073	82.81
507.289	88.81
507.506	87.81
507.722	83.81
507.939	90.81
508.155	95.81
508.372	94.81
508.588	99.81
508.805	93.81
509.021	84.81
509.238	73.81
509.454	82.81
509.67	78.81
509.887	88.81
510.103	99.81
510.319	82.81
510.536	100.81
510.752	79.81
510.968	86.81
511.184	85.81
511.401	97.81
511.617	90.81
511.833	95.81
512.049	96.81
512.265	107.81
512.481	90.81
512.698	84.81
512.914	102.81
513.13	96.81
513.346	91.81
513.562	82.81
513.778	97.81
513.994	93.81
514.21	85.81
514.426	94.81
514.642	92.81
514.858	87.81
515.074	93.81
515.29	89.81
515.506	103.81
