Data from 15780_3_HRD10591_00047.txt Node
Date: Mon Jan 19 14:20:21 EST 2026
User: Yrep
Spectrometer: HR+D1059
Trigger mode: 1
Integration Time (sec): 1.000000E-1
Scans to average: 1
Electric dark correction enabled: true
Nonlinearity correction enabled: false
Boxcar width: 0
XAxis mode: Wavelengths
Number of Pixels in Spectrum: 2048
>>>>>Begin Spectral Data<<<<<
223.165	-24.81
223.4	-24.81
223.635	-24.81
223.869	-24.81
224.104	-8.81
224.338	-0.81
224.573	-18.81
224.808	-13.81
225.042	-5.81
225.277	-15.81
225.511	-11.81
225.746	2.19
225.98	17.19
226.215	6.19
226.449	20.19
226.683	15.19
226.918	21.19
227.152	43.19
227.387	46.19
227.621	30.19
227.856	39.19
228.09	37.19
228.324	46.19
228.559	45.19
228.793	69.19
229.027	53.19
229.262	51.19
229.496	58.19
229.73	71.19
229.964	76.19
230.199	75.19
230.433	63.19
230.667	74.19
230.901	74.19
231.136	69.19
231.37	79.19
231.604	66.19
231.838	77.19
232.072	74.19
232.306	89.19
232.541	81.19
232.775	85.19
233.009	67.19
233.243	71.19
233.477	64.19
233.711	93.19
233.945	77.19
234.179	85.19
234.413	74.19
234.647	69.19
234.881	75.19
235.115	86.19
235.349	67.19
235.583	81.19
235.817	61.19
236.051	71.19
236.285	85.19
236.519	88.19
236.753	87.19
236.987	84.19
237.221	67.19
237.455	73.19
237.689	88.19
237.922	76.19
238.156	93.19
238.39	83.19
238.624	67.19
238.858	79.19
239.091	85.19
239.325	73.19
239.559	75.19
239.793	74.19
240.027	79.19
240.26	79.19
240.494	83.19
240.728	71.19
240.961	66.19
241.195	76.19
241.429	72.19
241.662	85.19
241.896	87.19
242.13	69.19
242.363	75.19
242.597	83.19
242.83	70.19
243.064	65.19
243.298	79.19
243.531	80.19
243.765	81.19
243.998	72.19
244.232	80.19
244.465	73.19
244.699	79.19
244.932	81.19
245.166	78.19
245.399	73.19
245.633	82.19
245.866	83.19
246.099	71.19
246.333	73.19
246.566	78.19
246.8	93.19
247.033	59.19
247.266	68.19
247.5	74.19
247.733	76.19
247.966	69.19
248.2	83.19
248.433	76.19
248.666	83.19
248.899	72.19
249.133	83.19
249.366	81.19
249.599	75.19
249.832	67.19
250.066	78.19
250.299	93.19
250.532	85.19
250.765	69.19
250.998	89.19
251.231	77.19
251.465	71.19
251.698	85.19
251.931	87.19
252.164	70.19
252.397	87.19
252.63	70.19
252.863	75.19
253.096	78.19
253.329	102.19
253.562	94.19
253.795	97.19
254.028	80.19
254.261	68.19
254.494	74.19
254.727	80.19
254.96	81.19
255.193	75.19
255.426	83.19
255.659	75.19
255.892	88.19
256.124	85.19
256.357	81.19
256.59	90.19
256.823	79.19
257.056	74.19
257.289	77.19
257.521	80.19
257.754	93.19
257.987	67.19
258.22	69.19
258.452	89.19
258.685	75.19
258.918	85.19
259.151	80.19
259.383	80.19
259.616	70.19
259.849	63.19
260.081	84.19
260.314	87.19
260.547	82.19
260.779	91.19
261.012	79.19
261.244	86.19
261.477	87.19
261.71	75.19
261.942	85.19
262.175	91.19
262.407	60.19
262.64	72.19
262.872	81.19
263.105	72.19
263.337	109.19
263.57	80.19
263.802	83.19
264.035	90.19
264.267	86.19
264.499	68.19
264.732	83.19
264.964	81.19
265.197	84.19
265.429	86.19
265.661	93.19
265.894	75.19
266.126	77.19
266.358	81.19
266.591	74.19
266.823	75.19
267.055	73.19
267.287	86.19
267.52	81.19
267.752	77.19
267.984	81.19
268.216	73.19
268.448	78.19
268.681	83.19
268.913	89.19
269.145	93.19
269.377	92.19
269.609	81.19
269.841	91.19
270.073	74.19
270.306	90.19
270.538	80.19
270.77	78.19
271.002	81.19
271.234	82.19
271.466	89.19
271.698	89.19
271.93	63.19
272.162	93.19
272.394	76.19
272.626	79.19
272.858	91.19
273.09	84.19
273.322	87.19
273.553	75.19
273.785	86.19
274.017	87.19
274.249	86.19
274.481	78.19
274.713	85.19
274.945	101.19
275.176	70.19
275.408	89.19
275.64	85.19
275.872	81.19
276.104	74.19
276.335	77.19
276.567	89.19
276.799	87.19
277.031	73.19
277.262	83.19
277.494	91.19
277.726	73.19
277.957	89.19
278.189	68.19
278.421	90.19
278.652	86.19
278.884	88.19
279.115	77.19
279.347	82.19
279.579	84.19
279.81	95.19
280.042	79.19
280.273	83.19
280.505	65.19
280.736	82.19
280.968	84.19
281.199	82.19
281.431	90.19
281.662	70.19
281.894	87.19
282.125	89.19
282.356	92.19
282.588	79.19
282.819	83.19
283.051	88.19
283.282	71.19
283.513	85.19
283.745	86.19
283.976	86.19
284.207	71.19
284.439	84.19
284.67	80.19
284.901	87.19
285.132	98.19
285.364	88.19
285.595	92.19
285.826	74.19
286.057	81.19
286.288	77.19
286.52	77.19
286.751	81.19
286.982	73.19
287.213	89.19
287.444	81.19
287.675	82.19
287.906	67.19
288.138	86.19
288.369	85.19
288.6	87.19
288.831	86.19
289.062	72.19
289.293	89.19
289.524	93.19
289.755	79.19
289.986	86.19
290.217	82.19
290.448	83.19
290.679	84.19
290.91	87.19
291.141	84.19
291.371	71.19
291.602	77.19
291.833	74.19
292.064	85.19
292.295	95.19
292.526	85.19
292.757	81.19
292.987	95.19
293.218	85.19
293.449	76.19
293.68	86.19
293.91	94.19
294.141	79.19
294.372	73.19
294.603	67.19
294.833	79.19
295.064	81.19
295.295	81.19
295.525	80.19
295.756	72.19
295.987	84.19
296.217	84.19
296.448	73.19
296.679	89.19
296.909	91.19
297.14	73.19
297.37	76.19
297.601	81.19
297.831	80.19
298.062	88.19
298.292	89.19
298.523	78.19
298.753	67.19
298.984	77.19
299.214	85.19
299.445	88.19
299.675	94.19
299.905	89.19
300.136	72.19
300.366	92.19
300.597	82.19
300.827	81.19
301.057	79.19
301.288	78.19
301.518	63.19
301.748	85.19
301.979	87.19
302.209	88.19
302.439	91.19
302.669	84.19
302.9	82.19
303.13	82.19
303.36	98.19
303.59	85.19
303.82	79.19
304.051	84.19
304.281	81.19
304.511	85.19
304.741	83.19
304.971	80.19
305.201	78.19
305.431	94.19
305.661	85.19
305.891	87.19
306.121	81.19
306.352	79.19
306.582	93.19
306.812	87.19
307.042	80.19
307.272	81.19
307.502	95.19
307.731	90.19
307.961	81.19
308.191	75.19
308.421	85.19
308.651	76.19
308.881	85.19
309.111	83.19
309.341	96.19
309.571	93.19
309.8	76.19
310.03	96.19
310.26	81.19
310.49	83.19
310.72	84.19
310.949	83.19
311.179	74.19
311.409	85.19
311.639	86.19
311.868	87.19
312.098	90.19
312.328	83.19
312.557	96.19
312.787	95.19
313.017	90.19
313.246	85.19
313.476	75.19
313.706	90.19
313.935	76.19
314.165	96.19
314.394	82.19
314.624	92.19
314.853	78.19
315.083	85.19
315.312	79.19
315.542	89.19
315.771	68.19
316.001	93.19
316.23	87.19
316.46	85.19
316.689	98.19
316.919	76.19
317.148	80.19
317.377	77.19
317.607	101.19
317.836	90.19
318.065	110.19
318.295	99.19
318.524	83.19
318.753	77.19
318.983	73.19
319.212	100.19
319.441	76.19
319.67	81.19
319.9	73.19
320.129	70.19
320.358	86.19
320.587	90.19
320.816	77.19
321.046	86.19
321.275	86.19
321.504	82.19
321.733	85.19
321.962	81.19
322.191	86.19
322.42	87.19
322.649	83.19
322.878	88.19
323.108	94.19
323.337	93.19
323.566	90.19
323.795	98.19
324.024	84.19
324.253	83.19
324.482	69.19
324.71	84.19
324.939	85.19
325.168	84.19
325.397	80.19
325.626	92.19
325.855	85.19
326.084	101.19
326.313	88.19
326.542	90.19
326.77	69.19
326.999	81.19
327.228	83.19
327.457	83.19
327.686	86.19
327.914	83.19
328.143	94.19
328.372	83.19
328.6	87.19
328.829	97.19
329.058	91.19
329.287	82.19
329.515	89.19
329.744	81.19
329.972	89.19
330.201	90.19
330.43	83.19
330.658	104.19
330.887	76.19
331.115	74.19
331.344	96.19
331.572	74.19
331.801	80.19
332.03	77.19
332.258	94.19
332.486	102.19
332.715	91.19
332.943	90.19
333.172	85.19
333.4	81.19
333.629	72.19
333.857	88.19
334.085	63.19
334.314	70.19
334.542	75.19
334.771	89.19
334.999	93.19
335.227	87.19
335.455	98.19
335.684	94.19
335.912	89.19
336.14	80.19
336.369	75.19
336.597	82.19
336.825	74.19
337.053	80.19
337.281	93.19
337.51	85.19
337.738	76.19
337.966	85.19
338.194	89.19
338.422	94.19
338.65	101.19
338.878	83.19
339.106	86.19
339.334	77.19
339.562	79.19
339.79	86.19
340.018	99.19
340.246	94.19
340.474	65.19
340.702	82.19
340.93	87.19
341.158	97.19
341.386	84.19
341.614	91.19
341.842	82.19
342.07	81.19
342.298	93.19
342.526	71.19
342.754	76.19
342.981	69.19
343.209	100.19
343.437	90.19
343.665	73.19
343.893	89.19
344.12	82.19
344.348	65.19
344.576	77.19
344.804	85.19
345.031	93.19
345.259	87.19
345.487	87.19
345.714	80.19
345.942	87.19
346.17	97.19
346.397	96.19
346.625	86.19
346.853	83.19
347.08	88.19
347.308	81.19
347.535	82.19
347.763	76.19
347.99	94.19
348.218	81.19
348.445	88.19
348.673	77.19
348.9	87.19
349.128	90.19
349.355	82.19
349.583	89.19
349.81	73.19
350.037	69.19
350.265	78.19
350.492	77.19
350.72	73.19
350.947	80.19
351.174	85.19
351.402	79.19
351.629	84.19
351.856	91.19
352.083	75.19
352.311	96.19
352.538	79.19
352.765	86.19
352.992	98.19
353.22	69.19
353.447	77.19
353.674	87.19
353.901	93.19
354.128	91.19
354.355	93.19
354.583	85.19
354.81	78.19
355.037	84.19
355.264	73.19
355.491	91.19
355.718	79.19
355.945	80.19
356.172	89.19
356.399	100.19
356.626	101.19
356.853	85.19
357.08	86.19
357.307	84.19
357.534	89.19
357.761	90.19
357.988	92.19
358.215	99.19
358.441	93.19
358.668	90.19
358.895	89.19
359.122	79.19
359.349	83.19
359.576	87.19
359.802	76.19
360.029	89.19
360.256	84.19
360.483	83.19
360.709	81.19
360.936	67.19
361.163	86.19
361.39	83.19
361.616	89.19
361.843	96.19
362.07	91.19
362.296	95.19
362.523	93.19
362.749	84.19
362.976	102.19
363.203	112.19
363.429	82.19
363.656	89.19
363.882	82.19
364.109	87.19
364.335	95.19
364.562	82.19
364.788	83.19
365.015	93.19
365.241	90.19
365.468	93.19
365.694	87.19
365.92	88.19
366.147	67.19
366.373	89.19
366.599	67.19
366.826	86.19
367.052	85.19
367.278	81.19
367.505	77.19
367.731	76.19
367.957	75.19
368.184	94.19
368.41	96.19
368.636	92.19
368.862	97.19
369.089	83.19
369.315	79.19
369.541	94.19
369.767	89.19
369.993	67.19
370.219	88.19
370.445	81.19
370.672	110.19
370.898	91.19
371.124	91.19
371.35	66.19
371.576	75.19
371.802	93.19
372.028	84.19
372.254	84.19
372.48	92.19
372.706	94.19
372.932	79.19
373.158	98.19
373.384	99.19
373.61	102.19
373.835	117.19
374.061	83.19
374.287	73.19
374.513	83.19
374.739	82.19
374.965	102.19
375.191	83.19
375.416	72.19
375.642	78.19
375.868	97.19
376.094	88.19
376.319	93.19
376.545	99.19
376.771	80.19
376.997	76.19
377.222	84.19
377.448	81.19
377.674	93.19
377.899	81.19
378.125	85.19
378.35	91.19
378.576	88.19
378.802	99.19
379.027	86.19
379.253	81.19
379.478	89.19
379.704	91.19
379.929	82.19
380.155	93.19
380.38	87.19
380.606	81.19
380.831	78.19
381.057	88.19
381.282	99.19
381.507	81.19
381.733	91.19
381.958	94.19
382.184	99.19
382.409	83.19
382.634	93.19
382.86	92.19
383.085	94.19
383.31	98.19
383.535	86.19
383.761	95.19
383.986	85.19
384.211	84.19
384.436	93.19
384.662	93.19
384.887	74.19
385.112	91.19
385.337	86.19
385.562	94.19
385.787	87.19
386.013	96.19
386.238	96.19
386.463	79.19
386.688	97.19
386.913	89.19
387.138	93.19
387.363	91.19
387.588	98.19
387.813	93.19
388.038	78.19
388.263	104.19
388.488	76.19
388.713	102.19
388.938	88.19
389.163	89.19
389.387	83.19
389.612	87.19
389.837	102.19
390.062	86.19
390.287	80.19
390.512	79.19
390.736	84.19
390.961	88.19
391.186	88.19
391.411	99.19
391.636	89.19
391.86	89.19
392.085	113.19
392.31	89.19
392.534	95.19
392.759	98.19
392.984	194.19
393.208	382.19
393.433	586.19
393.658	450.19
393.882	161.19
394.107	111.19
394.331	105.19
394.556	115.19
394.78	109.19
395.005	94.19
395.229	105.19
395.454	83.19
395.678	96.19
395.903	117.19
396.127	144.19
396.352	149.19
396.576	190.19
396.801	370.19
397.025	473.19
397.249	213.19
397.474	133.19
397.698	105.19
397.922	85.19
398.147	75.19
398.371	77.19
398.595	87.19
398.82	84.19
399.044	90.19
399.268	76.19
399.492	85.19
399.717	82.19
399.941	81.19
400.165	86.19
400.389	77.19
400.613	70.19
400.837	77.19
401.062	83.19
401.286	83.19
401.51	79.19
401.734	89.19
401.958	95.19
402.182	69.19
402.406	89.19
402.63	87.19
402.854	77.19
403.078	96.19
403.302	102.19
403.526	92.19
403.75	76.19
403.974	89.19
404.198	72.19
404.422	101.19
404.645	113.19
404.869	105.19
405.093	104.19
405.317	68.19
405.541	89.19
405.765	76.19
405.988	86.19
406.212	97.19
406.436	82.19
406.66	81.19
406.883	74.19
407.107	88.19
407.331	69.19
407.555	98.19
407.778	112.19
408.002	125.19
408.226	78.19
408.449	88.19
408.673	79.19
408.896	87.19
409.12	89.19
409.344	79.19
409.567	95.19
409.791	84.19
410.014	90.19
410.238	78.19
410.461	88.19
410.685	82.19
410.908	81.19
411.132	91.19
411.355	85.19
411.578	89.19
411.802	78.19
412.025	83.19
412.249	69.19
412.472	89.19
412.695	89.19
412.919	80.19
413.142	79.19
413.365	84.19
413.589	86.19
413.812	67.19
414.035	93.19
414.258	90.19
414.482	82.19
414.705	79.19
414.928	76.19
415.151	87.19
415.374	79.19
415.597	82.19
415.821	85.19
416.044	91.19
416.267	89.19
416.49	86.19
416.713	80.19
416.936	70.19
417.159	88.19
417.382	98.19
417.605	97.19
417.828	93.19
418.051	91.19
418.274	90.19
418.497	84.19
418.72	85.19
418.943	87.19
419.166	85.19
419.389	92.19
419.611	91.19
419.834	84.19
420.057	71.19
420.28	84.19
420.503	94.19
420.726	73.19
420.948	59.19
421.171	90.19
421.394	90.19
421.617	120.19
421.839	111.19
422.062	105.19
422.285	138.19
422.507	237.19
422.73	411.19
422.953	357.19
423.175	130.19
423.398	104.19
423.621	97.19
423.843	105.19
424.066	96.19
424.288	90.19
424.511	75.19
424.733	73.19
424.956	74.19
425.178	79.19
425.401	79.19
425.623	84.19
425.846	79.19
426.068	76.19
426.291	68.19
426.513	87.19
426.735	83.19
426.958	92.19
427.18	85.19
427.402	88.19
427.625	78.19
427.847	89.19
428.069	100.19
428.292	114.19
428.514	128.19
428.736	101.19
428.958	108.19
429.181	121.19
429.403	88.19
429.625	96.19
429.847	105.19
430.069	142.19
430.292	173.19
430.514	157.19
430.736	127.19
430.958	117.19
431.18	87.19
431.402	90.19
431.624	79.19
431.846	107.19
432.068	121.19
432.29	110.19
432.512	81.19
432.734	99.19
432.956	91.19
433.178	94.19
433.4	75.19
433.622	92.19
433.844	83.19
434.066	90.19
434.287	71.19
434.509	78.19
434.731	86.19
434.953	78.19
435.175	96.19
435.397	85.19
435.618	85.19
435.84	93.19
436.062	81.19
436.284	86.19
436.505	82.19
436.727	82.19
436.949	84.19
437.17	73.19
437.392	70.19
437.614	72.19
437.835	77.19
438.057	75.19
438.278	81.19
438.5	85.19
438.721	99.19
438.943	94.19
439.165	76.19
439.386	93.19
439.608	86.19
439.829	79.19
440.05	84.19
440.272	92.19
440.493	95.19
440.715	79.19
440.936	86.19
441.158	90.19
441.379	86.19
441.6	74.19
441.822	95.19
442.043	73.19
442.264	90.19
442.486	98.19
442.707	126.19
442.928	101.19
443.149	100.19
443.371	118.19
443.592	190.19
443.813	165.19
444.034	103.19
444.255	74.19
444.476	97.19
444.698	90.19
444.919	77.19
445.14	149.19
445.361	174.19
445.582	241.19
445.803	207.19
446.024	103.19
446.245	95.19
446.466	91.19
446.687	83.19
446.908	73.19
447.129	76.19
447.35	79.19
447.571	71.19
447.792	77.19
448.013	81.19
448.234	85.19
448.455	94.19
448.675	69.19
448.896	85.19
449.117	79.19
449.338	82.19
449.559	69.19
449.779	83.19
450	85.19
450.221	85.19
450.442	79.19
450.662	81.19
450.883	85.19
451.104	86.19
451.324	81.19
451.545	85.19
451.766	81.19
451.986	81.19
452.207	86.19
452.428	80.19
452.648	88.19
452.869	82.19
453.089	84.19
453.31	75.19
453.53	88.19
453.751	84.19
453.971	83.19
454.192	89.19
454.412	85.19
454.633	87.19
454.853	84.19
455.073	93.19
455.294	83.19
455.514	86.19
455.734	78.19
455.955	69.19
456.175	71.19
456.395	83.19
456.616	72.19
456.836	75.19
457.056	90.19
457.276	72.19
457.497	80.19
457.717	87.19
457.937	90.19
458.157	88.19
458.377	94.19
458.598	97.19
458.818	91.19
459.038	79.19
459.258	78.19
459.478	82.19
459.698	76.19
459.918	85.19
460.138	89.19
460.358	86.19
460.578	93.19
460.798	97.19
461.018	93.19
461.238	92.19
461.458	94.19
461.678	85.19
461.898	81.19
462.118	75.19
462.338	79.19
462.558	89.19
462.777	75.19
462.997	72.19
463.217	75.19
463.437	74.19
463.657	72.19
463.876	89.19
464.096	91.19
464.316	90.19
464.536	62.19
464.755	89.19
464.975	89.19
465.195	79.19
465.414	71.19
465.634	83.19
465.854	75.19
466.073	71.19
466.293	89.19
466.512	86.19
466.732	71.19
466.951	87.19
467.171	86.19
467.391	83.19
467.61	99.19
467.829	81.19
468.049	87.19
468.268	81.19
468.488	79.19
468.707	97.19
468.927	106.19
469.146	79.19
469.365	87.19
469.585	82.19
469.804	91.19
470.023	89.19
470.243	75.19
470.462	75.19
470.681	80.19
470.901	79.19
471.12	78.19
471.339	81.19
471.558	71.19
471.777	74.19
471.997	98.19
472.216	88.19
472.435	79.19
472.654	69.19
472.873	81.19
473.092	86.19
473.311	85.19
473.53	87.19
473.749	97.19
473.968	75.19
474.187	72.19
474.406	73.19
474.625	85.19
474.844	83.19
475.063	73.19
475.282	97.19
475.501	77.19
475.72	88.19
475.939	90.19
476.158	82.19
476.377	87.19
476.596	85.19
476.814	80.19
477.033	88.19
477.252	89.19
477.471	81.19
477.69	79.19
477.908	75.19
478.127	73.19
478.346	85.19
478.564	86.19
478.783	75.19
479.002	74.19
479.22	74.19
479.439	82.19
479.658	90.19
479.876	83.19
480.095	65.19
480.313	93.19
480.532	70.19
480.751	76.19
480.969	76.19
481.188	69.19
481.406	80.19
481.624	87.19
481.843	69.19
482.061	77.19
482.28	82.19
482.498	88.19
482.717	83.19
482.935	87.19
483.153	85.19
483.372	70.19
483.59	80.19
483.808	94.19
484.027	87.19
484.245	88.19
484.463	81.19
484.681	84.19
484.9	77.19
485.118	80.19
485.336	81.19
485.554	70.19
485.772	72.19
485.99	79.19
486.209	87.19
486.427	86.19
486.645	68.19
486.863	85.19
487.081	99.19
487.299	77.19
487.517	81.19
487.735	76.19
487.953	127.19
488.171	100.19
488.389	87.19
488.607	72.19
488.825	81.19
489.043	79.19
489.261	81.19
489.479	84.19
489.696	82.19
489.914	75.19
490.132	79.19
490.35	81.19
490.568	74.19
490.786	84.19
491.003	80.19
491.221	101.19
491.439	89.19
491.657	99.19
491.874	74.19
492.092	74.19
492.31	88.19
492.527	89.19
492.745	83.19
492.963	83.19
493.18	82.19
493.398	69.19
493.615	72.19
493.833	80.19
494.05	77.19
494.268	94.19
494.485	83.19
494.703	76.19
494.92	97.19
495.138	82.19
495.355	91.19
495.573	91.19
495.79	85.19
496.008	85.19
496.225	92.19
496.442	82.19
496.66	95.19
496.877	80.19
497.094	88.19
497.312	81.19
497.529	85.19
497.746	76.19
497.963	85.19
498.181	73.19
498.398	101.19
498.615	99.19
498.832	73.19
499.049	81.19
499.267	80.19
499.484	94.19
499.701	85.19
499.918	89.19
500.135	87.19
500.352	86.19
500.569	86.19
500.786	80.19
501.003	66.19
501.22	83.19
501.437	83.19
501.654	72.19
501.871	87.19
502.088	100.19
502.305	93.19
502.522	88.19
502.739	95.19
502.956	87.19
503.172	91.19
503.389	73.19
503.606	87.19
503.823	91.19
504.04	95.19
504.256	102.19
504.473	108.19
504.69	96.19
504.907	97.19
505.123	84.19
505.34	87.19
505.557	82.19
505.773	95.19
505.99	87.19
506.207	81.19
506.423	76.19
506.64	77.19
506.856	92.19
507.073	101.19
507.289	62.19
507.506	88.19
507.722	80.19
507.939	78.19
508.155	82.19
508.372	94.19
508.588	81.19
508.805	79.19
509.021	97.19
509.238	76.19
509.454	90.19
509.67	67.19
509.887	73.19
510.103	86.19
510.319	85.19
510.536	90.19
510.752	71.19
510.968	96.19
511.184	86.19
511.401	86.19
511.617	88.19
511.833	94.19
512.049	81.19
512.265	74.19
512.481	81.19
512.698	79.19
512.914	87.19
513.13	101.19
513.346	81.19
513.562	69.19
513.778	73.19
513.994	80.19
514.21	90.19
514.426	80.19
514.642	93.19
514.858	78.19
515.074	84.19
515.29	80.19
515.506	83.19
515.721	87.19
515.937	89.19
516.153	98.19
516.369	79.19
516.585	102.19
516.801	89.19
517.016	91.19
517.232	82.19
517.448	102.19
517.664	85.19
517.879	89.19
518.095	94.19
518.311	80.19
518.527	89.19
518.742	81.19
518.958	115.19
