Data from 15780_3_HRD10591_00002.txt Node
Date: Mon Jan 19 14:19:59 EST 2026
User: Yrep
Spectrometer: HR+D1059
Trigger mode: 1
Integration Time (sec): 1.000000E-1
Scans to average: 1
Electric dark correction enabled: true
Nonlinearity correction enabled: false
Boxcar width: 0
XAxis mode: Wavelengths
Number of Pixels in Spectrum: 2048
>>>>>Begin Spectral Data<<<<<
223.165	-26.38
223.4	-26.38
223.635	-26.38
223.869	-15.38
224.104	-9.38
224.338	-21.38
224.573	-17.38
224.808	-10.38
225.042	1.62
225.277	-9.38
225.511	-13.38
225.746	-6.38
225.98	2.62
226.215	13.62
226.449	24.62
226.683	22.62
226.918	29.62
227.152	34.62
227.387	26.62
227.621	24.62
227.856	36.62
228.09	56.62
228.324	25.62
228.559	53.62
228.793	55.62
229.027	54.62
229.262	62.62
229.496	73.62
229.73	57.62
229.964	61.62
230.199	78.62
230.433	65.62
230.667	69.62
230.901	78.62
231.136	75.62
231.37	85.62
231.604	70.62
231.838	64.62
232.072	70.62
232.306	80.62
232.541	73.62
232.775	87.62
233.009	79.62
233.243	82.62
233.477	77.62
233.711	85.62
233.945	72.62
234.179	88.62
234.413	75.62
234.647	70.62
234.881	60.62
235.115	83.62
235.349	80.62
235.583	79.62
235.817	78.62
236.051	82.62
236.285	70.62
236.519	69.62
236.753	79.62
236.987	73.62
237.221	75.62
237.455	65.62
237.689	67.62
237.922	88.62
238.156	68.62
238.39	60.62
238.624	58.62
238.858	71.62
239.091	86.62
239.325	68.62
239.559	72.62
239.793	73.62
240.027	84.62
240.26	66.62
240.494	74.62
240.728	74.62
240.961	67.62
241.195	64.62
241.429	71.62
241.662	59.62
241.896	74.62
242.13	65.62
242.363	70.62
242.597	74.62
242.83	77.62
243.064	62.62
243.298	68.62
243.531	79.62
243.765	78.62
243.998	74.62
244.232	80.62
244.465	58.62
244.699	64.62
244.932	57.62
245.166	84.62
245.399	70.62
245.633	73.62
245.866	73.62
246.099	82.62
246.333	74.62
246.566	89.62
246.8	80.62
247.033	82.62
247.266	77.62
247.5	75.62
247.733	83.62
247.966	81.62
248.2	82.62
248.433	83.62
248.666	57.62
248.899	76.62
249.133	72.62
249.366	63.62
249.599	67.62
249.832	72.62
250.066	64.62
250.299	79.62
250.532	72.62
250.765	60.62
250.998	73.62
251.231	76.62
251.465	92.62
251.698	67.62
251.931	72.62
252.164	72.62
252.397	76.62
252.63	79.62
252.863	71.62
253.096	79.62
253.329	85.62
253.562	87.62
253.795	71.62
254.028	89.62
254.261	77.62
254.494	67.62
254.727	83.62
254.96	76.62
255.193	69.62
255.426	69.62
255.659	70.62
255.892	60.62
256.124	77.62
256.357	78.62
256.59	82.62
256.823	74.62
257.056	84.62
257.289	92.62
257.521	75.62
257.754	84.62
257.987	75.62
258.22	79.62
258.452	69.62
258.685	84.62
258.918	85.62
259.151	82.62
259.383	85.62
259.616	78.62
259.849	69.62
260.081	87.62
260.314	65.62
260.547	86.62
260.779	97.62
261.012	83.62
261.244	71.62
261.477	91.62
261.71	98.62
261.942	72.62
262.175	86.62
262.407	68.62
262.64	71.62
262.872	84.62
263.105	69.62
263.337	92.62
263.57	73.62
263.802	78.62
264.035	84.62
264.267	68.62
264.499	68.62
264.732	85.62
264.964	88.62
265.197	66.62
265.429	68.62
265.661	83.62
265.894	80.62
266.126	89.62
266.358	80.62
266.591	60.62
266.823	80.62
267.055	91.62
267.287	82.62
267.52	74.62
267.752	80.62
267.984	65.62
268.216	80.62
268.448	87.62
268.681	78.62
268.913	73.62
269.145	86.62
269.377	76.62
269.609	78.62
269.841	77.62
270.073	85.62
270.306	99.62
270.538	71.62
270.77	87.62
271.002	73.62
271.234	65.62
271.466	64.62
271.698	68.62
271.93	82.62
272.162	82.62
272.394	78.62
272.626	87.62
272.858	84.62
273.09	86.62
273.322	86.62
273.553	84.62
273.785	101.62
274.017	97.62
274.249	87.62
274.481	70.62
274.713	97.62
274.945	81.62
275.176	77.62
275.408	83.62
275.64	82.62
275.872	78.62
276.104	84.62
276.335	83.62
276.567	85.62
276.799	61.62
277.031	80.62
277.262	79.62
277.494	74.62
277.726	83.62
277.957	78.62
278.189	71.62
278.421	73.62
278.652	86.62
278.884	80.62
279.115	81.62
279.347	87.62
279.579	68.62
279.81	71.62
280.042	81.62
280.273	77.62
280.505	83.62
280.736	81.62
280.968	73.62
281.199	84.62
281.431	86.62
281.662	80.62
281.894	65.62
282.125	85.62
282.356	85.62
282.588	77.62
282.819	81.62
283.051	93.62
283.282	82.62
283.513	71.62
283.745	81.62
283.976	86.62
284.207	73.62
284.439	84.62
284.67	88.62
284.901	79.62
285.132	88.62
285.364	77.62
285.595	86.62
285.826	71.62
286.057	87.62
286.288	76.62
286.52	71.62
286.751	92.62
286.982	87.62
287.213	80.62
287.444	83.62
287.675	80.62
287.906	84.62
288.138	81.62
288.369	82.62
288.6	72.62
288.831	72.62
289.062	83.62
289.293	92.62
289.524	81.62
289.755	84.62
289.986	71.62
290.217	84.62
290.448	78.62
290.679	79.62
290.91	94.62
291.141	74.62
291.371	73.62
291.602	97.62
291.833	69.62
292.064	78.62
292.295	83.62
292.526	86.62
292.757	89.62
292.987	74.62
293.218	85.62
293.449	76.62
293.68	78.62
293.91	78.62
294.141	65.62
294.372	69.62
294.603	83.62
294.833	89.62
295.064	85.62
295.295	80.62
295.525	72.62
295.756	79.62
295.987	79.62
296.217	73.62
296.448	90.62
296.679	89.62
296.909	82.62
297.14	80.62
297.37	75.62
297.601	87.62
297.831	90.62
298.062	71.62
298.292	75.62
298.523	89.62
298.753	81.62
298.984	87.62
299.214	79.62
299.445	75.62
299.675	71.62
299.905	90.62
300.136	94.62
300.366	97.62
300.597	78.62
300.827	84.62
301.057	81.62
301.288	87.62
301.518	84.62
301.748	76.62
301.979	100.62
302.209	86.62
302.439	94.62
302.669	85.62
302.9	84.62
303.13	68.62
303.36	82.62
303.59	92.62
303.82	86.62
304.051	88.62
304.281	74.62
304.511	92.62
304.741	78.62
304.971	79.62
305.201	85.62
305.431	96.62
305.661	88.62
305.891	88.62
306.121	75.62
306.352	73.62
306.582	89.62
306.812	81.62
307.042	70.62
307.272	91.62
307.502	86.62
307.731	69.62
307.961	80.62
308.191	95.62
308.421	96.62
308.651	81.62
308.881	83.62
309.111	94.62
309.341	88.62
309.571	75.62
309.8	81.62
310.03	94.62
310.26	96.62
310.49	91.62
310.72	69.62
310.949	92.62
311.179	81.62
311.409	74.62
311.639	82.62
311.868	72.62
312.098	86.62
312.328	83.62
312.557	82.62
312.787	85.62
313.017	81.62
313.246	83.62
313.476	88.62
313.706	98.62
313.935	85.62
314.165	84.62
314.394	89.62
314.624	87.62
314.853	91.62
315.083	90.62
315.312	84.62
315.542	87.62
315.771	81.62
316.001	81.62
316.23	83.62
316.46	82.62
316.689	82.62
316.919	78.62
317.148	85.62
317.377	85.62
317.607	82.62
317.836	89.62
318.065	85.62
318.295	83.62
318.524	80.62
318.753	72.62
318.983	73.62
319.212	83.62
319.441	80.62
319.67	82.62
319.9	86.62
320.129	85.62
320.358	76.62
320.587	72.62
320.816	91.62
321.046	74.62
321.275	74.62
321.504	74.62
321.733	83.62
321.962	86.62
322.191	90.62
322.42	68.62
322.649	72.62
322.878	90.62
323.108	70.62
323.337	81.62
323.566	80.62
323.795	77.62
324.024	88.62
324.253	80.62
324.482	84.62
324.71	92.62
324.939	99.62
325.168	84.62
325.397	71.62
325.626	81.62
325.855	77.62
326.084	64.62
326.313	71.62
326.542	94.62
326.77	73.62
326.999	86.62
327.228	89.62
327.457	78.62
327.686	90.62
327.914	72.62
328.143	91.62
328.372	74.62
328.6	92.62
328.829	88.62
329.058	85.62
329.287	88.62
329.515	65.62
329.744	70.62
329.972	69.62
330.201	63.62
330.43	80.62
330.658	89.62
330.887	97.62
331.115	73.62
331.344	98.62
331.572	84.62
331.801	76.62
332.03	67.62
332.258	94.62
332.486	86.62
332.715	92.62
332.943	74.62
333.172	92.62
333.4	88.62
333.629	82.62
333.857	90.62
334.085	83.62
334.314	70.62
334.542	77.62
334.771	78.62
334.999	82.62
335.227	100.62
335.455	85.62
335.684	88.62
335.912	77.62
336.14	98.62
336.369	74.62
336.597	81.62
336.825	92.62
337.053	84.62
337.281	78.62
337.51	78.62
337.738	72.62
337.966	81.62
338.194	80.62
338.422	78.62
338.65	81.62
338.878	91.62
339.106	85.62
339.334	82.62
339.562	75.62
339.79	80.62
340.018	77.62
340.246	74.62
340.474	81.62
340.702	79.62
340.93	80.62
341.158	82.62
341.386	81.62
341.614	94.62
341.842	89.62
342.07	91.62
342.298	86.62
342.526	76.62
342.754	72.62
342.981	81.62
343.209	80.62
343.437	83.62
343.665	102.62
343.893	93.62
344.12	101.62
344.348	95.62
344.576	90.62
344.804	89.62
345.031	80.62
345.259	72.62
345.487	101.62
345.714	88.62
345.942	80.62
346.17	84.62
346.397	72.62
346.625	85.62
346.853	84.62
347.08	81.62
347.308	92.62
347.535	69.62
347.763	77.62
347.99	80.62
348.218	91.62
348.445	82.62
348.673	75.62
348.9	84.62
349.128	72.62
349.355	90.62
349.583	77.62
349.81	75.62
350.037	75.62
350.265	94.62
350.492	85.62
350.72	87.62
350.947	90.62
351.174	86.62
351.402	85.62
351.629	85.62
351.856	85.62
352.083	84.62
352.311	78.62
352.538	75.62
352.765	78.62
352.992	89.62
353.22	84.62
353.447	92.62
353.674	88.62
353.901	89.62
354.128	85.62
354.355	80.62
354.583	74.62
354.81	66.62
355.037	87.62
355.264	78.62
355.491	76.62
355.718	80.62
355.945	93.62
356.172	81.62
356.399	90.62
356.626	89.62
356.853	73.62
357.08	78.62
357.307	89.62
357.534	76.62
357.761	84.62
357.988	96.62
358.215	89.62
358.441	92.62
358.668	80.62
358.895	81.62
359.122	94.62
359.349	90.62
359.576	76.62
359.802	75.62
360.029	82.62
360.256	80.62
360.483	95.62
360.709	85.62
360.936	82.62
361.163	86.62
361.39	72.62
361.616	82.62
361.843	80.62
362.07	76.62
362.296	90.62
362.523	76.62
362.749	84.62
362.976	95.62
363.203	112.62
363.429	94.62
363.656	93.62
363.882	88.62
364.109	95.62
364.335	105.62
364.562	118.62
364.788	93.62
365.015	85.62
365.241	81.62
365.468	73.62
365.694	76.62
365.92	71.62
366.147	93.62
366.373	84.62
366.599	88.62
366.826	78.62
367.052	77.62
367.278	85.62
367.505	85.62
367.731	89.62
367.957	87.62
368.184	99.62
368.41	80.62
368.636	86.62
368.862	65.62
369.089	73.62
369.315	68.62
369.541	84.62
369.767	93.62
369.993	73.62
370.219	83.62
370.445	94.62
370.672	82.62
370.898	82.62
371.124	71.62
371.35	80.62
371.576	79.62
371.802	79.62
372.028	89.62
372.254	80.62
372.48	87.62
372.706	88.62
372.932	87.62
373.158	91.62
373.384	98.62
373.61	97.62
373.835	97.62
374.061	73.62
374.287	85.62
374.513	89.62
374.739	101.62
374.965	87.62
375.191	80.62
375.416	84.62
375.642	82.62
375.868	88.62
376.094	88.62
376.319	90.62
376.545	78.62
376.771	85.62
376.997	69.62
377.222	80.62
377.448	85.62
377.674	78.62
377.899	81.62
378.125	77.62
378.35	81.62
378.576	80.62
378.802	75.62
379.027	84.62
379.253	90.62
379.478	89.62
379.704	73.62
379.929	80.62
380.155	86.62
380.38	77.62
380.606	83.62
380.831	72.62
381.057	78.62
381.282	90.62
381.507	88.62
381.733	89.62
381.958	80.62
382.184	82.62
382.409	77.62
382.634	88.62
382.86	84.62
383.085	94.62
383.31	63.62
383.535	86.62
383.761	86.62
383.986	84.62
384.211	76.62
384.436	85.62
384.662	80.62
384.887	88.62
385.112	75.62
385.337	76.62
385.562	85.62
385.787	89.62
386.013	96.62
386.238	87.62
386.463	86.62
386.688	89.62
386.913	82.62
387.138	71.62
387.363	76.62
387.588	81.62
387.813	78.62
388.038	82.62
388.263	89.62
388.488	99.62
388.713	95.62
388.938	96.62
389.163	76.62
389.387	75.62
389.612	83.62
389.837	67.62
390.062	87.62
390.287	81.62
390.512	90.62
390.736	95.62
390.961	86.62
391.186	78.62
391.411	62.62
391.636	88.62
391.86	84.62
392.085	85.62
392.31	80.62
392.534	82.62
392.759	94.62
392.984	110.62
393.208	147.62
393.433	174.62
393.658	164.62
393.882	120.62
394.107	99.62
394.331	97.62
394.556	106.62
394.78	84.62
395.005	81.62
395.229	86.62
395.454	79.62
395.678	88.62
395.903	95.62
396.127	110.62
396.352	129.62
396.576	130.62
396.801	149.62
397.025	160.62
397.249	112.62
397.474	103.62
397.698	96.62
397.922	82.62
398.147	84.62
398.371	81.62
398.595	93.62
398.82	91.62
399.044	83.62
399.268	81.62
399.492	74.62
399.717	84.62
399.941	76.62
400.165	85.62
400.389	73.62
400.613	71.62
400.837	82.62
401.062	92.62
401.286	63.62
401.51	82.62
401.734	64.62
401.958	69.62
402.182	74.62
402.406	90.62
402.63	86.62
402.854	85.62
403.078	98.62
403.302	97.62
403.526	85.62
403.75	83.62
403.974	78.62
404.198	86.62
404.422	75.62
404.645	93.62
404.869	92.62
405.093	90.62
405.317	75.62
405.541	78.62
405.765	81.62
405.988	77.62
406.212	89.62
406.436	96.62
406.66	103.62
406.883	68.62
407.107	82.62
407.331	82.62
407.555	81.62
407.778	69.62
408.002	82.62
408.226	87.62
408.449	85.62
408.673	83.62
408.896	94.62
409.12	80.62
409.344	66.62
409.567	85.62
409.791	88.62
410.014	83.62
410.238	97.62
410.461	62.62
410.685	96.62
410.908	78.62
411.132	85.62
411.355	77.62
411.578	72.62
411.802	85.62
412.025	90.62
412.249	87.62
412.472	78.62
412.695	78.62
412.919	85.62
413.142	98.62
413.365	84.62
413.589	81.62
413.812	90.62
414.035	99.62
414.258	87.62
414.482	70.62
414.705	78.62
414.928	65.62
415.151	93.62
415.374	79.62
415.597	83.62
415.821	79.62
416.044	84.62
416.267	74.62
416.49	89.62
416.713	73.62
416.936	69.62
417.159	70.62
417.382	83.62
417.605	63.62
417.828	88.62
418.051	92.62
418.274	85.62
418.497	85.62
418.72	78.62
418.943	80.62
419.166	74.62
419.389	86.62
419.611	81.62
419.834	82.62
420.057	82.62
420.28	79.62
420.503	81.62
420.726	81.62
420.948	87.62
421.171	73.62
421.394	111.62
421.617	106.62
421.839	100.62
422.062	104.62
422.285	115.62
422.507	173.62
422.73	228.62
422.953	199.62
423.175	152.62
423.398	119.62
423.621	86.62
423.843	85.62
424.066	76.62
424.288	91.62
424.511	87.62
424.733	62.62
424.956	91.62
425.178	92.62
425.401	96.62
425.623	85.62
425.846	84.62
426.068	67.62
426.291	90.62
426.513	87.62
426.735	79.62
426.958	83.62
427.18	89.62
427.402	90.62
427.625	87.62
427.847	79.62
428.069	93.62
428.292	89.62
428.514	94.62
428.736	87.62
428.958	92.62
429.181	114.62
429.403	94.62
429.625	89.62
429.847	87.62
430.069	127.62
430.292	117.62
430.514	105.62
430.736	104.62
430.958	115.62
431.18	102.62
431.402	101.62
431.624	110.62
431.846	96.62
432.068	109.62
432.29	92.62
432.512	75.62
432.734	80.62
432.956	73.62
433.178	88.62
433.4	85.62
433.622	87.62
433.844	71.62
434.066	72.62
434.287	78.62
434.509	80.62
434.731	82.62
434.953	84.62
435.175	84.62
435.397	69.62
435.618	84.62
435.84	86.62
436.062	100.62
436.284	79.62
436.505	84.62
436.727	71.62
436.949	72.62
437.17	71.62
437.392	67.62
437.614	89.62
437.835	83.62
438.057	82.62
438.278	72.62
438.5	79.62
438.721	75.62
438.943	80.62
439.165	80.62
439.386	89.62
439.608	75.62
439.829	66.62
440.05	59.62
440.272	72.62
440.493	72.62
440.715	84.62
440.936	72.62
441.158	83.62
441.379	75.62
441.6	79.62
441.822	85.62
442.043	96.62
442.264	90.62
442.486	103.62
442.707	113.62
442.928	95.62
443.149	97.62
443.371	116.62
443.592	131.62
443.813	146.62
444.034	108.62
444.255	99.62
444.476	87.62
444.698	92.62
444.919	73.62
445.14	141.62
445.361	149.62
445.582	179.62
445.803	155.62
446.024	100.62
446.245	88.62
446.466	95.62
446.687	67.62
446.908	82.62
447.129	76.62
447.35	80.62
447.571	77.62
447.792	88.62
448.013	76.62
448.234	79.62
448.455	92.62
448.675	76.62
448.896	86.62
449.117	70.62
449.338	70.62
449.559	79.62
449.779	84.62
450	86.62
450.221	81.62
450.442	69.62
450.662	88.62
450.883	93.62
451.104	78.62
451.324	90.62
451.545	72.62
451.766	80.62
451.986	77.62
452.207	86.62
452.428	94.62
452.648	80.62
452.869	89.62
453.089	93.62
453.31	88.62
453.53	91.62
453.751	90.62
453.971	94.62
454.192	76.62
454.412	74.62
454.633	80.62
454.853	82.62
455.073	74.62
455.294	88.62
455.514	75.62
455.734	79.62
455.955	86.62
456.175	76.62
456.395	84.62
456.616	74.62
456.836	88.62
457.056	102.62
457.276	64.62
457.497	74.62
457.717	87.62
457.937	86.62
458.157	86.62
458.377	107.62
458.598	93.62
458.818	82.62
459.038	96.62
459.258	88.62
459.478	85.62
459.698	74.62
459.918	86.62
460.138	81.62
460.358	79.62
460.578	66.62
460.798	102.62
461.018	97.62
461.238	75.62
461.458	74.62
461.678	88.62
461.898	88.62
462.118	80.62
462.338	83.62
462.558	88.62
462.777	80.62
462.997	75.62
463.217	78.62
463.437	69.62
463.657	82.62
463.876	73.62
464.096	80.62
464.316	71.62
464.536	72.62
464.755	70.62
464.975	87.62
465.195	74.62
465.414	69.62
465.634	82.62
465.854	89.62
466.073	77.62
466.293	70.62
466.512	73.62
466.732	95.62
466.951	73.62
467.171	63.62
467.391	73.62
467.61	93.62
467.829	95.62
468.049	96.62
468.268	95.62
468.488	81.62
468.707	77.62
468.927	72.62
469.146	78.62
469.365	98.62
469.585	78.62
469.804	75.62
470.023	70.62
470.243	86.62
470.462	80.62
470.681	93.62
470.901	76.62
471.12	78.62
471.339	84.62
471.558	89.62
471.777	79.62
471.997	90.62
472.216	86.62
472.435	74.62
472.654	89.62
472.873	87.62
473.092	95.62
473.311	90.62
473.53	81.62
473.749	88.62
473.968	91.62
474.187	100.62
474.406	76.62
474.625	81.62
474.844	86.62
475.063	86.62
475.282	80.62
475.501	85.62
475.72	80.62
475.939	76.62
476.158	88.62
476.377	82.62
476.596	74.62
476.814	82.62
477.033	90.62
477.252	78.62
477.471	81.62
477.69	85.62
477.908	83.62
478.127	86.62
478.346	85.62
478.564	82.62
478.783	92.62
479.002	81.62
479.22	92.62
479.439	97.62
479.658	78.62
479.876	70.62
480.095	83.62
480.313	93.62
480.532	87.62
480.751	78.62
480.969	75.62
481.188	77.62
481.406	74.62
481.624	81.62
481.843	71.62
482.061	78.62
482.28	88.62
482.498	88.62
482.717	75.62
482.935	84.62
483.153	91.62
483.372	88.62
483.59	83.62
483.808	86.62
484.027	83.62
484.245	88.62
484.463	74.62
484.681	93.62
484.9	86.62
485.118	77.62
485.336	102.62
485.554	87.62
485.772	80.62
485.99	85.62
486.209	77.62
486.427	80.62
486.645	82.62
486.863	86.62
487.081	83.62
487.299	95.62
487.517	88.62
487.735	104.62
487.953	122.62
488.171	98.62
488.389	94.62
488.607	89.62
488.825	87.62
489.043	86.62
489.261	82.62
489.479	78.62
489.696	88.62
489.914	89.62
490.132	90.62
490.35	97.62
490.568	97.62
490.786	73.62
491.003	84.62
491.221	97.62
491.439	85.62
491.657	84.62
491.874	86.62
492.092	99.62
492.31	98.62
492.527	93.62
492.745	73.62
492.963	82.62
493.18	92.62
493.398	82.62
493.615	80.62
493.833	92.62
494.05	102.62
494.268	101.62
494.485	84.62
494.703	79.62
494.92	89.62
495.138	85.62
495.355	71.62
495.573	89.62
495.79	80.62
496.008	91.62
496.225	86.62
496.442	76.62
496.66	94.62
496.877	89.62
497.094	80.62
497.312	79.62
497.529	94.62
497.746	83.62
497.963	89.62
498.181	108.62
498.398	107.62
498.615	82.62
498.832	93.62
499.049	93.62
499.267	102.62
499.484	100.62
499.701	84.62
499.918	93.62
500.135	108.62
500.352	91.62
500.569	96.62
500.786	91.62
501.003	88.62
501.22	77.62
501.437	81.62
501.654	74.62
501.871	92.62
502.088	98.62
502.305	86.62
502.522	87.62
502.739	83.62
502.956	79.62
503.172	79.62
503.389	87.62
503.606	76.62
503.823	106.62
504.04	112.62
504.256	100.62
504.473	95.62
504.69	91.62
504.907	81.62
505.123	78.62
505.34	91.62
505.557	89.62
505.773	93.62
505.99	97.62
506.207	80.62
506.423	80.62
506.64	85.62
506.856	78.62
507.073	72.62
507.289	88.62
507.506	89.62
507.722	83.62
507.939	81.62
508.155	91.62
508.372	94.62
508.588	98.62
508.805	82.62
509.021	75.62
509.238	80.62
509.454	71.62
509.67	87.62
509.887	94.62
510.103	81.62
510.319	101.62
510.536	77.62
510.752	76.62
510.968	76.62
511.184	87.62
511.401	79.62
511.617	93.62
511.833	87.62
512.049	87.62
512.265	109.62
512.481	78.62
512.698	84.62
512.914	79.62
513.13	80.62
513.346	91.62
513.562	77.62
513.778	81.62
513.994	79.62
514.21	90.62
514.426	89.62
514.642	82.62
514.858	78.62
515.074	91.62
515.29	81.62
515.506	86.62
515.721	87.62
515.937	87.62
516.153	89.62
516.369	86.62
516.585	83.62
516.801	84.62
517.016	86.62
517.232	103.62
517.448	105.62
517.664	112.62
517.879	78.62
518.095	90.62
518.311	77.62
518.527	104.62
518.742	91.62
518.958	111.62
519.173	110.62
