Data from 15780_3_HRD10591_00039.txt Node
Date: Mon Jan 19 14:20:17 EST 2026
User: Yrep
Spectrometer: HR+D1059
Trigger mode: 1
Integration Time (sec): 1.000000E-1
Scans to average: 1
Electric dark correction enabled: true
Nonlinearity correction enabled: false
Boxcar width: 0
XAxis mode: Wavelengths
Number of Pixels in Spectrum: 2048
>>>>>Begin Spectral Data<<<<<
223.165	-13
223.4	-13
223.635	-13
223.869	-28
224.104	-14
224.338	-22
224.573	-23
224.808	-15
225.042	-1
225.277	-6
225.511	15
225.746	-5
225.98	8
226.215	19
226.449	23
226.683	24
226.918	13
227.152	25
227.387	26
227.621	46
227.856	38
228.09	39
228.324	50
228.559	61
228.793	67
229.027	55
229.262	65
229.496	82
229.73	64
229.964	69
230.199	68
230.433	82
230.667	78
230.901	70
231.136	77
231.37	84
231.604	85
231.838	86
232.072	75
232.306	77
232.541	86
232.775	83
233.009	90
233.243	84
233.477	72
233.711	86
233.945	92
234.179	73
234.413	90
234.647	78
234.881	77
235.115	86
235.349	80
235.583	86
235.817	72
236.051	80
236.285	82
236.519	90
236.753	77
236.987	69
237.221	98
237.455	80
237.689	76
237.922	92
238.156	83
238.39	77
238.624	78
238.858	75
239.091	66
239.325	76
239.559	70
239.793	70
240.027	82
240.26	68
240.494	76
240.728	79
240.961	78
241.195	82
241.429	72
241.662	66
241.896	76
242.13	82
242.363	72
242.597	77
242.83	64
243.064	85
243.298	68
243.531	88
243.765	70
243.998	67
244.232	86
244.465	81
244.699	90
244.932	86
245.166	86
245.399	92
245.633	89
245.866	69
246.099	68
246.333	75
246.566	85
246.8	82
247.033	92
247.266	85
247.5	72
247.733	75
247.966	74
248.2	73
248.433	65
248.666	80
248.899	83
249.133	73
249.366	82
249.599	76
249.832	69
250.066	73
250.299	89
250.532	87
250.765	85
250.998	87
251.231	87
251.465	78
251.698	82
251.931	77
252.164	68
252.397	83
252.63	82
252.863	93
253.096	82
253.329	89
253.562	84
253.795	72
254.028	71
254.261	67
254.494	86
254.727	80
254.96	75
255.193	75
255.426	74
255.659	78
255.892	77
256.124	82
256.357	69
256.59	72
256.823	77
257.056	73
257.289	82
257.521	80
257.754	74
257.987	86
258.22	87
258.452	80
258.685	83
258.918	78
259.151	74
259.383	74
259.616	89
259.849	80
260.081	65
260.314	90
260.547	74
260.779	77
261.012	95
261.244	79
261.477	93
261.71	82
261.942	96
262.175	75
262.407	92
262.64	76
262.872	83
263.105	89
263.337	89
263.57	87
263.802	89
264.035	83
264.267	76
264.499	86
264.732	88
264.964	88
265.197	87
265.429	92
265.661	87
265.894	91
266.126	78
266.358	85
266.591	72
266.823	88
267.055	72
267.287	78
267.52	89
267.752	98
267.984	80
268.216	75
268.448	74
268.681	80
268.913	74
269.145	77
269.377	92
269.609	82
269.841	82
270.073	82
270.306	79
270.538	87
270.77	90
271.002	74
271.234	81
271.466	75
271.698	86
271.93	86
272.162	84
272.394	91
272.626	79
272.858	85
273.09	80
273.322	77
273.553	67
273.785	76
274.017	85
274.249	92
274.481	93
274.713	68
274.945	91
275.176	88
275.408	88
275.64	96
275.872	74
276.104	90
276.335	92
276.567	81
276.799	84
277.031	85
277.262	70
277.494	80
277.726	78
277.957	68
278.189	83
278.421	87
278.652	81
278.884	85
279.115	98
279.347	89
279.579	90
279.81	84
280.042	78
280.273	89
280.505	88
280.736	101
280.968	84
281.199	78
281.431	83
281.662	93
281.894	73
282.125	92
282.356	97
282.588	92
282.819	89
283.051	93
283.282	98
283.513	87
283.745	88
283.976	79
284.207	84
284.439	93
284.67	91
284.901	80
285.132	89
285.364	90
285.595	92
285.826	86
286.057	83
286.288	75
286.52	76
286.751	76
286.982	101
287.213	87
287.444	93
287.675	74
287.906	91
288.138	77
288.369	78
288.6	80
288.831	76
289.062	80
289.293	80
289.524	69
289.755	76
289.986	79
290.217	88
290.448	92
290.679	78
290.91	84
291.141	86
291.371	84
291.602	91
291.833	86
292.064	92
292.295	67
292.526	82
292.757	72
292.987	75
293.218	79
293.449	86
293.68	90
293.91	98
294.141	76
294.372	88
294.603	89
294.833	71
295.064	76
295.295	100
295.525	97
295.756	95
295.987	86
296.217	92
296.448	93
296.679	90
296.909	85
297.14	85
297.37	88
297.601	98
297.831	76
298.062	93
298.292	87
298.523	92
298.753	91
298.984	86
299.214	79
299.445	80
299.675	88
299.905	98
300.136	73
300.366	89
300.597	84
300.827	92
301.057	84
301.288	84
301.518	91
301.748	92
301.979	101
302.209	86
302.439	95
302.669	93
302.9	86
303.13	85
303.36	82
303.59	87
303.82	85
304.051	106
304.281	91
304.511	81
304.741	95
304.971	91
305.201	88
305.431	93
305.661	88
305.891	71
306.121	85
306.352	82
306.582	98
306.812	81
307.042	93
307.272	87
307.502	76
307.731	81
307.961	84
308.191	90
308.421	82
308.651	100
308.881	95
309.111	82
309.341	80
309.571	86
309.8	78
310.03	92
310.26	84
310.49	84
310.72	97
310.949	90
311.179	76
311.409	88
311.639	87
311.868	74
312.098	92
312.328	86
312.557	74
312.787	82
313.017	94
313.246	87
313.476	88
313.706	88
313.935	91
314.165	89
314.394	99
314.624	88
314.853	86
315.083	96
315.312	101
315.542	84
315.771	84
316.001	91
316.23	104
316.46	85
316.689	79
316.919	102
317.148	98
317.377	90
317.607	79
317.836	90
318.065	92
318.295	100
318.524	101
318.753	100
318.983	87
319.212	78
319.441	80
319.67	96
319.9	89
320.129	94
320.358	93
320.587	90
320.816	92
321.046	90
321.275	97
321.504	88
321.733	64
321.962	80
322.191	96
322.42	93
322.649	99
322.878	86
323.108	86
323.337	84
323.566	79
323.795	71
324.024	76
324.253	85
324.482	82
324.71	84
324.939	84
325.168	86
325.397	84
325.626	85
325.855	85
326.084	86
326.313	86
326.542	99
326.77	84
326.999	92
327.228	81
327.457	92
327.686	87
327.914	77
328.143	90
328.372	88
328.6	86
328.829	96
329.058	82
329.287	84
329.515	87
329.744	85
329.972	102
330.201	91
330.43	98
330.658	90
330.887	91
331.115	92
331.344	89
331.572	90
331.801	102
332.03	93
332.258	86
332.486	72
332.715	84
332.943	86
333.172	87
333.4	76
333.629	84
333.857	97
334.085	90
334.314	78
334.542	84
334.771	82
334.999	93
335.227	90
335.455	95
335.684	98
335.912	89
336.14	98
336.369	78
336.597	73
336.825	78
337.053	93
337.281	85
337.51	83
337.738	89
337.966	84
338.194	92
338.422	88
338.65	98
338.878	97
339.106	74
339.334	85
339.562	92
339.79	83
340.018	78
340.246	84
340.474	98
340.702	85
340.93	99
341.158	93
341.386	89
341.614	91
341.842	95
342.07	103
342.298	81
342.526	88
342.754	91
342.981	93
343.209	86
343.437	97
343.665	89
343.893	103
344.12	86
344.348	94
344.576	76
344.804	87
345.031	102
345.259	89
345.487	75
345.714	78
345.942	85
346.17	95
346.397	86
346.625	97
346.853	62
347.08	80
347.308	75
347.535	94
347.763	91
347.99	88
348.218	91
348.445	69
348.673	93
348.9	96
349.128	78
349.355	86
349.583	81
349.81	68
350.037	88
350.265	72
350.492	84
350.72	77
350.947	78
351.174	78
351.402	87
351.629	89
351.856	100
352.083	77
352.311	90
352.538	84
352.765	92
352.992	87
353.22	89
353.447	92
353.674	85
353.901	90
354.128	79
354.355	74
354.583	84
354.81	90
355.037	88
355.264	94
355.491	90
355.718	77
355.945	96
356.172	80
356.399	84
356.626	94
356.853	77
357.08	87
357.307	87
357.534	88
357.761	78
357.988	103
358.215	90
358.441	88
358.668	82
358.895	84
359.122	83
359.349	93
359.576	83
359.802	93
360.029	76
360.256	84
360.483	94
360.709	76
360.936	82
361.163	85
361.39	91
361.616	85
361.843	79
362.07	91
362.296	89
362.523	83
362.749	94
362.976	81
363.203	89
363.429	84
363.656	89
363.882	88
364.109	78
364.335	93
364.562	86
364.788	82
365.015	85
365.241	73
365.468	92
365.694	91
365.92	76
366.147	88
366.373	74
366.599	84
366.826	72
367.052	90
367.278	92
367.505	90
367.731	86
367.957	88
368.184	62
368.41	84
368.636	82
368.862	80
369.089	83
369.315	68
369.541	89
369.767	72
369.993	81
370.219	81
370.445	79
370.672	88
370.898	97
371.124	84
371.35	98
371.576	94
371.802	95
372.028	88
372.254	103
372.48	88
372.706	81
372.932	88
373.158	83
373.384	87
373.61	85
373.835	76
374.061	90
374.287	83
374.513	86
374.739	91
374.965	89
375.191	82
375.416	93
375.642	80
375.868	76
376.094	101
376.319	81
376.545	86
376.771	91
376.997	83
377.222	90
377.448	90
377.674	91
377.899	76
378.125	84
378.35	66
378.576	74
378.802	86
379.027	84
379.253	80
379.478	102
379.704	88
379.929	79
380.155	84
380.38	72
380.606	80
380.831	94
381.057	85
381.282	101
381.507	92
381.733	90
381.958	81
382.184	91
382.409	98
382.634	90
382.86	90
383.085	97
383.31	79
383.535	93
383.761	100
383.986	98
384.211	91
384.436	88
384.662	90
384.887	71
385.112	82
385.337	83
385.562	85
385.787	88
386.013	83
386.238	88
386.463	87
386.688	109
386.913	89
387.138	83
387.363	106
387.588	89
387.813	73
388.038	106
388.263	86
388.488	92
388.713	85
388.938	94
389.163	82
389.387	77
389.612	72
389.837	93
390.062	93
390.287	78
390.512	78
390.736	76
390.961	82
391.186	82
391.411	96
391.636	79
391.86	86
392.085	95
392.31	92
392.534	93
392.759	90
392.984	90
393.208	106
393.433	140
393.658	127
393.882	107
394.107	86
394.331	94
394.556	89
394.78	85
395.005	88
395.229	93
395.454	86
395.678	85
395.903	88
396.127	94
396.352	79
396.576	91
396.801	119
397.025	129
397.249	96
397.474	81
397.698	94
397.922	80
398.147	84
398.371	92
398.595	96
398.82	83
399.044	89
399.268	77
399.492	86
399.717	86
399.941	78
400.165	85
400.389	87
400.613	68
400.837	102
401.062	84
401.286	92
401.51	94
401.734	96
401.958	80
402.182	96
402.406	98
402.63	86
402.854	91
403.078	85
403.302	84
403.526	84
403.75	74
403.974	95
404.198	98
404.422	104
404.645	74
404.869	96
405.093	96
405.317	86
405.541	81
405.765	88
405.988	86
406.212	87
406.436	89
406.66	77
406.883	74
407.107	84
407.331	89
407.555	97
407.778	91
408.002	79
408.226	80
408.449	80
408.673	91
408.896	88
409.12	80
409.344	95
409.567	82
409.791	87
410.014	86
410.238	92
410.461	99
410.685	77
410.908	89
411.132	87
411.355	84
411.578	89
411.802	87
412.025	73
412.249	83
412.472	87
412.695	79
412.919	93
413.142	87
413.365	81
413.589	90
413.812	82
414.035	92
414.258	91
414.482	82
414.705	86
414.928	86
415.151	85
415.374	75
415.597	85
415.821	85
416.044	83
416.267	83
416.49	97
416.713	68
416.936	83
417.159	79
417.382	86
417.605	84
417.828	78
418.051	84
418.274	93
418.497	87
418.72	77
418.943	88
419.166	94
419.389	86
419.611	70
419.834	78
420.057	85
420.28	86
420.503	89
420.726	85
420.948	92
421.171	81
421.394	81
421.617	94
421.839	96
422.062	89
422.285	104
422.507	120
422.73	181
422.953	143
423.175	107
423.398	71
423.621	94
423.843	78
424.066	78
424.288	69
424.511	79
424.733	94
424.956	89
425.178	87
425.401	87
425.623	94
425.846	80
426.068	91
426.291	76
426.513	82
426.735	70
426.958	82
427.18	86
427.402	90
427.625	57
427.847	88
428.069	87
428.292	96
428.514	98
428.736	94
428.958	94
429.181	81
429.403	80
429.625	91
429.847	94
430.069	106
430.292	122
430.514	96
430.736	112
430.958	105
431.18	68
431.402	83
431.624	86
431.846	82
432.068	103
432.29	84
432.512	75
432.734	76
432.956	84
433.178	82
433.4	79
433.622	89
433.844	76
434.066	77
434.287	93
434.509	78
434.731	82
434.953	84
435.175	77
435.397	86
435.618	72
435.84	96
436.062	80
436.284	83
436.505	69
436.727	74
436.949	74
437.17	74
437.392	76
437.614	86
437.835	96
438.057	98
438.278	91
438.5	87
438.721	87
438.943	90
439.165	79
439.386	81
439.608	81
439.829	73
440.05	86
440.272	86
440.493	79
440.715	80
440.936	74
441.158	88
441.379	83
441.6	74
441.822	87
442.043	81
442.264	79
442.486	101
442.707	104
442.928	84
443.149	92
443.371	105
443.592	114
443.813	112
444.034	83
444.255	77
444.476	82
444.698	91
444.919	74
445.14	143
445.361	141
445.582	133
445.803	118
446.024	101
446.245	89
446.466	85
446.687	92
446.908	80
447.129	86
447.35	81
447.571	82
447.792	70
448.013	81
448.234	75
448.455	85
448.675	79
448.896	91
449.117	84
449.338	91
449.559	86
449.779	82
450	77
450.221	86
450.442	78
450.662	93
450.883	82
451.104	78
451.324	74
451.545	82
451.766	83
451.986	82
452.207	87
452.428	96
452.648	77
452.869	81
453.089	88
453.31	77
453.53	73
453.751	100
453.971	91
454.192	91
454.412	88
454.633	94
454.853	84
455.073	87
455.294	78
455.514	88
455.734	86
455.955	79
456.175	86
456.395	80
456.616	96
456.836	76
457.056	88
457.276	86
457.497	73
457.717	72
457.937	90
458.157	82
458.377	78
458.598	79
458.818	86
459.038	98
459.258	81
459.478	90
459.698	82
459.918	79
460.138	94
460.358	89
460.578	92
460.798	106
461.018	93
461.238	82
461.458	62
461.678	92
461.898	70
462.118	75
462.338	93
462.558	79
462.777	83
462.997	76
463.217	72
463.437	83
463.657	82
463.876	91
464.096	90
464.316	89
464.536	98
464.755	75
464.975	93
465.195	76
465.414	86
465.634	81
465.854	77
466.073	79
466.293	91
466.512	83
466.732	79
466.951	80
467.171	88
467.391	99
467.61	82
467.829	82
468.049	93
468.268	96
468.488	87
468.707	72
468.927	102
469.146	75
469.365	84
469.585	80
469.804	79
470.023	83
470.243	86
470.462	74
470.681	86
470.901	90
471.12	94
471.339	86
471.558	89
471.777	89
471.997	85
472.216	89
472.435	76
472.654	92
472.873	78
473.092	76
473.311	79
473.53	66
473.749	71
473.968	84
474.187	89
474.406	96
474.625	71
474.844	100
475.063	82
475.282	95
475.501	82
475.72	92
475.939	85
476.158	88
476.377	78
476.596	91
476.814	72
477.033	76
477.252	92
477.471	86
477.69	70
477.908	78
478.127	82
478.346	88
478.564	62
478.783	90
479.002	92
479.22	72
479.439	100
479.658	72
479.876	73
480.095	89
480.313	81
480.532	88
480.751	82
480.969	103
481.188	87
481.406	79
481.624	85
481.843	79
482.061	86
482.28	76
482.498	85
482.717	83
482.935	83
483.153	83
483.372	66
483.59	82
483.808	89
484.027	90
484.245	88
484.463	84
484.681	88
484.9	88
485.118	94
485.336	89
485.554	84
485.772	79
485.99	79
486.209	83
486.427	78
486.645	84
486.863	77
487.081	98
487.299	81
487.517	90
487.735	77
487.953	93
488.171	82
488.389	86
488.607	74
488.825	76
489.043	89
489.261	73
489.479	88
489.696	85
489.914	80
490.132	85
490.35	88
490.568	66
490.786	87
491.003	80
491.221	85
491.439	74
491.657	96
491.874	82
492.092	87
492.31	84
492.527	84
492.745	71
492.963	82
493.18	84
493.398	82
493.615	72
493.833	78
494.05	80
494.268	92
494.485	102
494.703	78
494.92	84
495.138	84
495.355	84
495.573	91
495.79	78
496.008	76
496.225	85
496.442	98
496.66	75
496.877	82
497.094	89
497.312	80
497.529	92
497.746	69
497.963	94
498.181	78
498.398	87
498.615	76
498.832	77
499.049	94
499.267	84
499.484	80
499.701	93
499.918	76
500.135	89
500.352	90
500.569	72
500.786	94
501.003	100
501.22	91
501.437	92
501.654	71
501.871	91
502.088	70
502.305	86
502.522	90
502.739	101
502.956	88
503.172	79
503.389	78
503.606	82
503.823	84
504.04	93
504.256	92
504.473	89
504.69	86
504.907	104
505.123	86
505.34	79
505.557	77
505.773	81
505.99	75
506.207	79
506.423	90
506.64	89
506.856	81
507.073	77
507.289	84
507.506	86
507.722	75
507.939	98
508.155	84
508.372	78
508.588	82
508.805	78
509.021	83
509.238	95
509.454	83
509.67	85
509.887	94
510.103	80
510.319	84
510.536	92
510.752	87
510.968	82
511.184	84
511.401	75
511.617	77
511.833	82
512.049	72
512.265	83
512.481	84
512.698	94
512.914	81
513.13	78
513.346	74
513.562	84
513.778	79
513.994	78
514.21	94
514.426	85
514.642	91
514.858	101
515.074	73
515.29	91
515.506	89
515.721	85
515.937	86
516.153	87
516.369	78
516.585	88
516.801	77
517.016	89
517.232	81
517.448	84
517.664	81
517.879	87
518.095	95
518.311	84
518.527	84
518.742	90
518.958	88
519.173	88
519.389	97
519.605	94
519.82	84
520.036	94
520.251	88
520.467	103
520.682	100
520.898	90
521.113	92
521.329	90
521.544	85
521.76	84
521.975	92
522.19	84
522.406	80
522.621	71
522.836	89
523.052	81
523.267	90
523.482	96
523.698	83
523.913	81
524.128	90
524.343	91
524.559	75
524.774	91
524.989	90
525.204	88
525.419	97
525.634	87
525.849	93
526.064	88
526.28	109
526.495	106
526.71	142
526.925	96
527.14	133
527.355	109
527.57	89
527.785	88
527.999	91
528.214	93
528.429	93
528.644	79
528.859	100
529.074	83
529.289	85
529.503	97
529.718	88
529.933	83
530.148	81
530.363	85
530.577	85
530.792	93
531.007	85
531.221	96
531.436	74
531.651	85
531.865	88
532.08	89
532.295	89
532.509	86
532.724	70
532.938	89
533.153	73
533.367	81
533.582	89
533.796	85
534.011	84
534.225	95
534.44	84
534.654	89
534.868	88
535.083	98
535.297	100
535.511	91
535.726	88
535.94	84
536.154	90
536.369	88
536.583	105
536.797	89
537.011	92
537.225	86
537.44	103
537.654	82
537.868	83
538.082	98
538.296	93
538.51	103
538.724	86
538.938	83
539.153	93
539.367	97
539.581	90
539.795	76
540.009	95
540.222	112
540.436	72
540.65	82
540.864	94
541.078	88
541.292	88
541.506	83
541.72	84
541.934	93
542.147	92
542.361	87
542.575	78
542.789	89
543.002	75
543.216	94
543.43	77
543.644	94
543.857	88
544.071	86
544.285	84
544.498	88
544.712	84
544.925	92
545.139	86
545.352	75
545.566	84
545.779	81
545.993	92
546.206	77
546.42	92
546.633	93
546.847	91
547.06	92
547.274	97
547.487	101
547.7	91
547.914	94
548.127	96
548.34	97
548.554	97
548.767	94
548.98	90
549.193	92
549.407	88
549.62	93
549.833	96
550.046	92
550.259	96
550.473	92
550.686	102
550.899	100
551.112	93
551.325	100
551.538	100
551.751	93
551.964	117
552.177	106
552.39	100
552.603	90
552.816	116
553.029	97
553.242	94
553.455	107
553.667	102
553.88	121
554.093	108
554.306	107
554.519	104
554.732	106
554.944	98
555.157	107
555.37	94
555.583	88
555.795	107
556.008	90
556.221	109
556.433	91
556.646	89
556.859	105
557.071	90
557.284	88
557.496	97
557.709	94
557.921	88
558.134	97
558.346	114
558.559	96
558.771	97
558.984	135
559.196	145
559.409	104
559.621	128
559.833	106
560.046	123
560.258	118
560.47	114
560.683	90
560.895	88
561.107	94
561.32	95
561.532	102
561.744	100
561.956	89
562.168	80
562.381	77
562.593	97
562.805	90
563.017	86
563.229	90
563.441	89
563.653	92
563.865	84
564.077	81
564.289	93
564.501	63
564.713	84
564.925	91
565.137	91
565.349	90
565.561	84
565.773	74
565.985	103
566.197	92
566.408	85
566.62	100
566.832	100
567.044	87
567.255	102
567.467	88
567.679	84
567.891	74
568.102	75
568.314	77
568.526	92
568.737	90
568.949	86
569.161	97
569.372	82
569.584	88
569.795	100
570.007	88
570.218	100
570.43	86
570.641	85
570.853	91
571.064	104
571.276	86
571.487	96
571.698	85
571.91	82
572.121	100
572.333	82
572.544	79
572.755	82
572.966	88
573.178	90
573.389	91
573.6	89
573.811	79
574.023	88
574.234	91
574.445	94
574.656	99
574.867	88
575.078	86
575.289	82
575.501	106
575.712	78
575.923	90
576.134	90
576.345	96
576.556	91
576.767	90
576.978	78
577.188	83
577.399	92
577.61	88
577.821	93
578.032	93
578.243	100
578.454	88
578.665	93
578.875	91
579.086	97
579.297	92
579.508	70
579.718	104
579.929	89
580.14	84
580.35	91
580.561	85
580.772	91
580.982	97
581.193	76
581.403	90
581.614	84
581.825	90
582.035	82
582.246	94
582.456	87
582.667	88
582.877	91
583.087	76
583.298	96
583.508	90
583.719	84
583.929	96
584.139	78
584.35	93
584.56	89
584.77	87
584.981	86
585.191	86
585.401	78
585.611	77
585.821	101
586.032	110
586.242	88
586.452	84
586.662	79
586.872	85
587.082	83
587.292	88
587.502	73
587.713	90
587.923	92
588.133	84
588.343	95
588.553	97
588.762	98
588.972	124
