Data from 15780_3_HRD10591_00020.txt Node
Date: Mon Jan 19 14:20:08 EST 2026
User: Yrep
Spectrometer: HR+D1059
Trigger mode: 1
Integration Time (sec): 1.000000E-1
Scans to average: 1
Electric dark correction enabled: true
Nonlinearity correction enabled: false
Boxcar width: 0
XAxis mode: Wavelengths
Number of Pixels in Spectrum: 2048
>>>>>Begin Spectral Data<<<<<
223.165	-25.31
223.4	-25.31
223.635	-25.31
223.869	-5.31
224.104	-15.31
224.338	-20.31
224.573	-1.31
224.808	-6.31
225.042	-1.31
225.277	-2.31
225.511	-6.31
225.746	-10.31
225.98	7.69
226.215	4.69
226.449	12.69
226.683	12.69
226.918	21.69
227.152	34.69
227.387	28.69
227.621	40.69
227.856	28.69
228.09	53.69
228.324	54.69
228.559	51.69
228.793	42.69
229.027	62.69
229.262	59.69
229.496	53.69
229.73	80.69
229.964	51.69
230.199	59.69
230.433	65.69
230.667	74.69
230.901	92.69
231.136	80.69
231.37	76.69
231.604	88.69
231.838	78.69
232.072	82.69
232.306	72.69
232.541	81.69
232.775	87.69
233.009	86.69
233.243	68.69
233.477	78.69
233.711	68.69
233.945	72.69
234.179	80.69
234.413	79.69
234.647	92.69
234.881	83.69
235.115	86.69
235.349	82.69
235.583	65.69
235.817	58.69
236.051	73.69
236.285	90.69
236.519	72.69
236.753	71.69
236.987	62.69
237.221	92.69
237.455	76.69
237.689	82.69
237.922	69.69
238.156	79.69
238.39	55.69
238.624	70.69
238.858	73.69
239.091	84.69
239.325	67.69
239.559	65.69
239.793	72.69
240.027	80.69
240.26	82.69
240.494	71.69
240.728	84.69
240.961	82.69
241.195	82.69
241.429	72.69
241.662	76.69
241.896	75.69
242.13	74.69
242.363	71.69
242.597	68.69
242.83	61.69
243.064	52.69
243.298	72.69
243.531	73.69
243.765	64.69
243.998	74.69
244.232	70.69
244.465	74.69
244.699	82.69
244.932	62.69
245.166	65.69
245.399	75.69
245.633	70.69
245.866	78.69
246.099	71.69
246.333	77.69
246.566	80.69
246.8	81.69
247.033	75.69
247.266	81.69
247.5	75.69
247.733	66.69
247.966	86.69
248.2	68.69
248.433	67.69
248.666	69.69
248.899	70.69
249.133	74.69
249.366	74.69
249.599	65.69
249.832	87.69
250.066	73.69
250.299	70.69
250.532	70.69
250.765	71.69
250.998	81.69
251.231	80.69
251.465	68.69
251.698	87.69
251.931	81.69
252.164	78.69
252.397	75.69
252.63	93.69
252.863	95.69
253.096	75.69
253.329	74.69
253.562	62.69
253.795	69.69
254.028	78.69
254.261	78.69
254.494	73.69
254.727	97.69
254.96	84.69
255.193	75.69
255.426	64.69
255.659	71.69
255.892	92.69
256.124	84.69
256.357	64.69
256.59	76.69
256.823	88.69
257.056	83.69
257.289	67.69
257.521	73.69
257.754	70.69
257.987	65.69
258.22	70.69
258.452	84.69
258.685	89.69
258.918	88.69
259.151	92.69
259.383	78.69
259.616	74.69
259.849	68.69
260.081	76.69
260.314	84.69
260.547	81.69
260.779	58.69
261.012	94.69
261.244	97.69
261.477	79.69
261.71	86.69
261.942	76.69
262.175	75.69
262.407	83.69
262.64	69.69
262.872	73.69
263.105	81.69
263.337	81.69
263.57	86.69
263.802	84.69
264.035	76.69
264.267	82.69
264.499	77.69
264.732	69.69
264.964	82.69
265.197	93.69
265.429	66.69
265.661	75.69
265.894	68.69
266.126	87.69
266.358	85.69
266.591	85.69
266.823	81.69
267.055	88.69
267.287	89.69
267.52	70.69
267.752	60.69
267.984	78.69
268.216	95.69
268.448	71.69
268.681	77.69
268.913	95.69
269.145	90.69
269.377	85.69
269.609	82.69
269.841	88.69
270.073	93.69
270.306	82.69
270.538	86.69
270.77	82.69
271.002	86.69
271.234	92.69
271.466	78.69
271.698	90.69
271.93	100.69
272.162	82.69
272.394	83.69
272.626	74.69
272.858	76.69
273.09	84.69
273.322	99.69
273.553	88.69
273.785	82.69
274.017	64.69
274.249	83.69
274.481	76.69
274.713	98.69
274.945	74.69
275.176	93.69
275.408	88.69
275.64	88.69
275.872	68.69
276.104	79.69
276.335	81.69
276.567	85.69
276.799	80.69
277.031	96.69
277.262	86.69
277.494	101.69
277.726	89.69
277.957	74.69
278.189	94.69
278.421	84.69
278.652	84.69
278.884	84.69
279.115	72.69
279.347	89.69
279.579	90.69
279.81	94.69
280.042	79.69
280.273	82.69
280.505	84.69
280.736	89.69
280.968	84.69
281.199	72.69
281.431	93.69
281.662	85.69
281.894	81.69
282.125	87.69
282.356	76.69
282.588	80.69
282.819	80.69
283.051	88.69
283.282	79.69
283.513	94.69
283.745	85.69
283.976	88.69
284.207	92.69
284.439	83.69
284.67	82.69
284.901	88.69
285.132	74.69
285.364	86.69
285.595	80.69
285.826	93.69
286.057	86.69
286.288	77.69
286.52	82.69
286.751	83.69
286.982	90.69
287.213	81.69
287.444	89.69
287.675	73.69
287.906	81.69
288.138	77.69
288.369	77.69
288.6	85.69
288.831	70.69
289.062	72.69
289.293	74.69
289.524	77.69
289.755	77.69
289.986	76.69
290.217	80.69
290.448	82.69
290.679	84.69
290.91	97.69
291.141	87.69
291.371	85.69
291.602	78.69
291.833	89.69
292.064	79.69
292.295	83.69
292.526	81.69
292.757	70.69
292.987	76.69
293.218	75.69
293.449	78.69
293.68	84.69
293.91	79.69
294.141	82.69
294.372	87.69
294.603	90.69
294.833	92.69
295.064	101.69
295.295	80.69
295.525	73.69
295.756	80.69
295.987	96.69
296.217	88.69
296.448	87.69
296.679	97.69
296.909	84.69
297.14	80.69
297.37	92.69
297.601	82.69
297.831	71.69
298.062	86.69
298.292	93.69
298.523	85.69
298.753	92.69
298.984	94.69
299.214	87.69
299.445	91.69
299.675	93.69
299.905	70.69
300.136	91.69
300.366	80.69
300.597	87.69
300.827	70.69
301.057	101.69
301.288	82.69
301.518	76.69
301.748	81.69
301.979	102.69
302.209	92.69
302.439	74.69
302.669	81.69
302.9	81.69
303.13	90.69
303.36	84.69
303.59	94.69
303.82	89.69
304.051	93.69
304.281	76.69
304.511	78.69
304.741	88.69
304.971	96.69
305.201	83.69
305.431	76.69
305.661	89.69
305.891	84.69
306.121	73.69
306.352	90.69
306.582	78.69
306.812	84.69
307.042	77.69
307.272	79.69
307.502	98.69
307.731	85.69
307.961	80.69
308.191	94.69
308.421	89.69
308.651	84.69
308.881	87.69
309.111	81.69
309.341	88.69
309.571	82.69
309.8	85.69
310.03	82.69
310.26	86.69
310.49	89.69
310.72	95.69
310.949	92.69
311.179	86.69
311.409	83.69
311.639	67.69
311.868	71.69
312.098	76.69
312.328	73.69
312.557	82.69
312.787	85.69
313.017	86.69
313.246	87.69
313.476	82.69
313.706	81.69
313.935	86.69
314.165	88.69
314.394	79.69
314.624	64.69
314.853	80.69
315.083	101.69
315.312	102.69
315.542	96.69
315.771	86.69
316.001	92.69
316.23	90.69
316.46	80.69
316.689	79.69
316.919	83.69
317.148	90.69
317.377	92.69
317.607	102.69
317.836	89.69
318.065	84.69
318.295	90.69
318.524	91.69
318.753	101.69
318.983	78.69
319.212	95.69
319.441	85.69
319.67	78.69
319.9	95.69
320.129	95.69
320.358	72.69
320.587	69.69
320.816	96.69
321.046	84.69
321.275	87.69
321.504	96.69
321.733	75.69
321.962	83.69
322.191	73.69
322.42	80.69
322.649	87.69
322.878	73.69
323.108	92.69
323.337	80.69
323.566	89.69
323.795	95.69
324.024	80.69
324.253	78.69
324.482	89.69
324.71	86.69
324.939	86.69
325.168	63.69
325.397	96.69
325.626	82.69
325.855	85.69
326.084	86.69
326.313	72.69
326.542	70.69
326.77	73.69
326.999	73.69
327.228	88.69
327.457	85.69
327.686	82.69
327.914	98.69
328.143	105.69
328.372	89.69
328.6	76.69
328.829	74.69
329.058	83.69
329.287	74.69
329.515	73.69
329.744	90.69
329.972	91.69
330.201	97.69
330.43	100.69
330.658	72.69
330.887	80.69
331.115	95.69
331.344	90.69
331.572	92.69
331.801	72.69
332.03	81.69
332.258	88.69
332.486	84.69
332.715	98.69
332.943	96.69
333.172	85.69
333.4	73.69
333.629	86.69
333.857	78.69
334.085	89.69
334.314	82.69
334.542	78.69
334.771	93.69
334.999	100.69
335.227	87.69
335.455	84.69
335.684	84.69
335.912	82.69
336.14	83.69
336.369	87.69
336.597	91.69
336.825	90.69
337.053	89.69
337.281	93.69
337.51	101.69
337.738	75.69
337.966	87.69
338.194	77.69
338.422	88.69
338.65	98.69
338.878	98.69
339.106	85.69
339.334	93.69
339.562	90.69
339.79	85.69
340.018	71.69
340.246	72.69
340.474	96.69
340.702	75.69
340.93	87.69
341.158	93.69
341.386	87.69
341.614	87.69
341.842	80.69
342.07	84.69
342.298	89.69
342.526	67.69
342.754	87.69
342.981	74.69
343.209	73.69
343.437	93.69
343.665	94.69
343.893	92.69
344.12	85.69
344.348	82.69
344.576	72.69
344.804	87.69
345.031	92.69
345.259	102.69
345.487	91.69
345.714	77.69
345.942	79.69
346.17	90.69
346.397	82.69
346.625	89.69
346.853	86.69
347.08	78.69
347.308	83.69
347.535	90.69
347.763	82.69
347.99	92.69
348.218	78.69
348.445	69.69
348.673	96.69
348.9	79.69
349.128	90.69
349.355	88.69
349.583	75.69
349.81	84.69
350.037	87.69
350.265	84.69
350.492	79.69
350.72	76.69
350.947	83.69
351.174	89.69
351.402	73.69
351.629	89.69
351.856	87.69
352.083	77.69
352.311	78.69
352.538	97.69
352.765	91.69
352.992	85.69
353.22	94.69
353.447	86.69
353.674	94.69
353.901	86.69
354.128	85.69
354.355	74.69
354.583	92.69
354.81	80.69
355.037	92.69
355.264	96.69
355.491	89.69
355.718	100.69
355.945	82.69
356.172	90.69
356.399	86.69
356.626	82.69
356.853	80.69
357.08	82.69
357.307	90.69
357.534	89.69
357.761	93.69
357.988	92.69
358.215	96.69
358.441	86.69
358.668	85.69
358.895	89.69
359.122	92.69
359.349	82.69
359.576	95.69
359.802	81.69
360.029	81.69
360.256	82.69
360.483	75.69
360.709	93.69
360.936	88.69
361.163	98.69
361.39	90.69
361.616	79.69
361.843	81.69
362.07	98.69
362.296	87.69
362.523	78.69
362.749	95.69
362.976	99.69
363.203	81.69
363.429	83.69
363.656	105.69
363.882	88.69
364.109	106.69
364.335	109.69
364.562	112.69
364.788	93.69
365.015	76.69
365.241	102.69
365.468	76.69
365.694	77.69
365.92	80.69
366.147	74.69
366.373	74.69
366.599	87.69
366.826	80.69
367.052	84.69
367.278	84.69
367.505	80.69
367.731	92.69
367.957	75.69
368.184	80.69
368.41	95.69
368.636	93.69
368.862	80.69
369.089	82.69
369.315	69.69
369.541	83.69
369.767	88.69
369.993	86.69
370.219	92.69
370.445	86.69
370.672	73.69
370.898	91.69
371.124	94.69
371.35	81.69
371.576	84.69
371.802	80.69
372.028	96.69
372.254	85.69
372.48	89.69
372.706	90.69
372.932	84.69
373.158	86.69
373.384	109.69
373.61	105.69
373.835	102.69
374.061	98.69
374.287	87.69
374.513	90.69
374.739	97.69
374.965	105.69
375.191	88.69
375.416	80.69
375.642	89.69
375.868	105.69
376.094	93.69
376.319	81.69
376.545	79.69
376.771	85.69
376.997	74.69
377.222	103.69
377.448	85.69
377.674	77.69
377.899	86.69
378.125	89.69
378.35	78.69
378.576	76.69
378.802	82.69
379.027	95.69
379.253	78.69
379.478	80.69
379.704	78.69
379.929	82.69
380.155	69.69
380.38	87.69
380.606	81.69
380.831	75.69
381.057	96.69
381.282	88.69
381.507	91.69
381.733	100.69
381.958	88.69
382.184	93.69
382.409	88.69
382.634	95.69
382.86	91.69
383.085	89.69
383.31	77.69
383.535	95.69
383.761	75.69
383.986	79.69
384.211	85.69
384.436	89.69
384.662	88.69
384.887	98.69
385.112	103.69
385.337	96.69
385.562	87.69
385.787	90.69
386.013	106.69
386.238	99.69
386.463	73.69
386.688	94.69
386.913	92.69
387.138	92.69
387.363	82.69
387.588	86.69
387.813	94.69
388.038	87.69
388.263	105.69
388.488	95.69
388.713	86.69
388.938	83.69
389.163	90.69
389.387	92.69
389.612	86.69
389.837	90.69
390.062	89.69
390.287	92.69
390.512	84.69
390.736	106.69
390.961	92.69
391.186	80.69
391.411	81.69
391.636	73.69
391.86	85.69
392.085	108.69
392.31	108.69
392.534	96.69
392.759	105.69
392.984	148.69
393.208	246.69
393.433	369.69
393.658	282.69
393.882	116.69
394.107	98.69
394.331	110.69
394.556	98.69
394.78	91.69
395.005	70.69
395.229	83.69
395.454	75.69
395.678	89.69
395.903	103.69
396.127	124.69
396.352	136.69
396.576	166.69
396.801	263.69
397.025	292.69
397.249	144.69
397.474	103.69
397.698	105.69
397.922	82.69
398.147	95.69
398.371	70.69
398.595	88.69
398.82	85.69
399.044	78.69
399.268	82.69
399.492	80.69
399.717	73.69
399.941	67.69
400.165	87.69
400.389	68.69
400.613	86.69
400.837	85.69
401.062	90.69
401.286	78.69
401.51	78.69
401.734	89.69
401.958	92.69
402.182	81.69
402.406	81.69
402.63	76.69
402.854	97.69
403.078	84.69
403.302	82.69
403.526	80.69
403.75	88.69
403.974	79.69
404.198	75.69
404.422	103.69
404.645	85.69
404.869	88.69
405.093	78.69
405.317	79.69
405.541	70.69
405.765	86.69
405.988	77.69
406.212	78.69
406.436	82.69
406.66	93.69
406.883	65.69
407.107	82.69
407.331	69.69
407.555	83.69
407.778	102.69
408.002	102.69
408.226	83.69
408.449	88.69
408.673	88.69
408.896	80.69
409.12	90.69
409.344	82.69
409.567	74.69
409.791	95.69
410.014	78.69
410.238	75.69
410.461	73.69
410.685	75.69
410.908	83.69
411.132	80.69
411.355	76.69
411.578	85.69
411.802	86.69
412.025	79.69
412.249	70.69
412.472	80.69
412.695	89.69
412.919	90.69
413.142	93.69
413.365	82.69
413.589	84.69
413.812	75.69
414.035	73.69
414.258	86.69
414.482	97.69
414.705	92.69
414.928	87.69
415.151	79.69
415.374	86.69
415.597	76.69
415.821	88.69
416.044	87.69
416.267	83.69
416.49	72.69
416.713	78.69
416.936	84.69
417.159	93.69
417.382	85.69
417.605	83.69
417.828	80.69
418.051	73.69
418.274	86.69
418.497	84.69
418.72	90.69
418.943	90.69
419.166	85.69
419.389	81.69
419.611	93.69
419.834	85.69
420.057	82.69
420.28	90.69
420.503	84.69
420.726	78.69
420.948	75.69
421.171	87.69
421.394	93.69
421.617	98.69
421.839	110.69
422.062	94.69
422.285	104.69
422.507	226.69
422.73	343.69
422.953	306.69
423.175	135.69
423.398	92.69
423.621	91.69
423.843	89.69
424.066	98.69
424.288	84.69
424.511	65.69
424.733	71.69
424.956	83.69
425.178	82.69
425.401	86.69
425.623	92.69
425.846	74.69
426.068	74.69
426.291	72.69
426.513	82.69
426.735	84.69
426.958	74.69
427.18	78.69
427.402	82.69
427.625	79.69
427.847	85.69
428.069	93.69
428.292	100.69
428.514	112.69
428.736	94.69
428.958	125.69
429.181	112.69
429.403	95.69
429.625	84.69
429.847	88.69
430.069	138.69
430.292	152.69
430.514	137.69
430.736	112.69
430.958	112.69
431.18	94.69
431.402	80.69
431.624	81.69
431.846	117.69
432.068	117.69
432.29	97.69
432.512	91.69
432.734	68.69
432.956	73.69
433.178	89.69
433.4	84.69
433.622	89.69
433.844	64.69
434.066	84.69
434.287	80.69
434.509	79.69
434.731	78.69
434.953	88.69
435.175	98.69
435.397	86.69
435.618	99.69
435.84	89.69
436.062	83.69
436.284	78.69
436.505	74.69
436.727	82.69
436.949	81.69
437.17	73.69
437.392	72.69
437.614	79.69
437.835	77.69
438.057	77.69
438.278	74.69
438.5	86.69
438.721	93.69
438.943	76.69
439.165	76.69
439.386	82.69
439.608	84.69
439.829	83.69
440.05	86.69
440.272	82.69
440.493	77.69
440.715	75.69
440.936	68.69
441.158	86.69
441.379	76.69
441.6	85.69
441.822	88.69
442.043	85.69
442.264	84.69
442.486	100.69
442.707	121.69
442.928	102.69
443.149	86.69
443.371	117.69
443.592	177.69
443.813	169.69
444.034	89.69
444.255	68.69
444.476	80.69
444.698	74.69
444.919	88.69
445.14	144.69
445.361	156.69
445.582	195.69
445.803	156.69
446.024	89.69
446.245	75.69
446.466	67.69
446.687	78.69
446.908	68.69
447.129	92.69
447.35	92.69
447.571	79.69
447.792	87.69
448.013	84.69
448.234	78.69
448.455	69.69
448.675	88.69
448.896	92.69
449.117	88.69
449.338	95.69
449.559	77.69
449.779	71.69
450	84.69
450.221	84.69
450.442	61.69
450.662	85.69
450.883	86.69
451.104	79.69
451.324	102.69
451.545	96.69
451.766	84.69
451.986	87.69
452.207	76.69
452.428	95.69
452.648	92.69
452.869	82.69
453.089	98.69
453.31	100.69
453.53	90.69
453.751	77.69
453.971	77.69
454.192	84.69
454.412	70.69
454.633	86.69
454.853	80.69
455.073	80.69
455.294	69.69
455.514	104.69
455.734	84.69
455.955	77.69
456.175	73.69
456.395	74.69
456.616	90.69
456.836	80.69
457.056	70.69
457.276	78.69
457.497	77.69
457.717	81.69
457.937	88.69
458.157	93.69
458.377	106.69
458.598	94.69
458.818	92.69
459.038	84.69
459.258	82.69
459.478	76.69
459.698	76.69
459.918	74.69
460.138	73.69
460.358	78.69
460.578	101.69
460.798	103.69
461.018	106.69
461.238	82.69
461.458	88.69
461.678	81.69
461.898	93.69
462.118	100.69
462.338	82.69
462.558	87.69
462.777	70.69
462.997	80.69
463.217	88.69
463.437	82.69
463.657	89.69
463.876	101.69
464.096	74.69
464.316	67.69
464.536	87.69
464.755	80.69
464.975	80.69
465.195	77.69
465.414	87.69
465.634	69.69
465.854	87.69
466.073	94.69
466.293	79.69
466.512	88.69
466.732	85.69
466.951	74.69
467.171	82.69
467.391	72.69
467.61	81.69
467.829	70.69
468.049	73.69
468.268	88.69
468.488	80.69
468.707	82.69
468.927	77.69
469.146	74.69
469.365	80.69
469.585	84.69
469.804	88.69
470.023	79.69
470.243	82.69
470.462	88.69
470.681	61.69
470.901	84.69
471.12	70.69
471.339	94.69
471.558	75.69
471.777	87.69
471.997	93.69
472.216	82.69
472.435	76.69
472.654	92.69
472.873	83.69
473.092	78.69
473.311	81.69
473.53	72.69
473.749	80.69
473.968	74.69
474.187	96.69
474.406	78.69
474.625	80.69
474.844	85.69
475.063	89.69
475.282	83.69
475.501	84.69
475.72	81.69
475.939	89.69
476.158	93.69
476.377	75.69
476.596	80.69
476.814	92.69
477.033	85.69
477.252	72.69
477.471	85.69
477.69	95.69
477.908	83.69
478.127	86.69
478.346	71.69
478.564	79.69
478.783	71.69
479.002	70.69
479.22	79.69
479.439	78.69
479.658	77.69
479.876	70.69
480.095	59.69
480.313	84.69
480.532	87.69
480.751	69.69
480.969	84.69
481.188	74.69
481.406	101.69
481.624	80.69
481.843	75.69
482.061	80.69
482.28	85.69
482.498	86.69
482.717	98.69
482.935	76.69
483.153	93.69
483.372	83.69
483.59	84.69
483.808	82.69
484.027	88.69
484.245	83.69
484.463	91.69
484.681	97.69
484.9	92.69
485.118	97.69
485.336	82.69
485.554	103.69
485.772	96.69
485.99	86.69
486.209	73.69
486.427	82.69
486.645	81.69
486.863	80.69
487.081	93.69
487.299	93.69
487.517	87.69
487.735	89.69
487.953	131.69
488.171	110.69
488.389	84.69
488.607	94.69
488.825	84.69
489.043	85.69
489.261	80.69
489.479	88.69
489.696	87.69
489.914	81.69
490.132	73.69
490.35	84.69
490.568	89.69
490.786	73.69
491.003	81.69
491.221	82.69
491.439	80.69
491.657	86.69
491.874	89.69
492.092	75.69
492.31	82.69
492.527	76.69
492.745	88.69
492.963	81.69
493.18	69.69
493.398	87.69
493.615	95.69
493.833	97.69
494.05	81.69
494.268	79.69
494.485	73.69
494.703	72.69
494.92	93.69
495.138	74.69
495.355	73.69
495.573	84.69
495.79	84.69
496.008	96.69
496.225	83.69
496.442	91.69
496.66	85.69
496.877	85.69
497.094	85.69
497.312	87.69
497.529	80.69
497.746	87.69
497.963	81.69
498.181	88.69
498.398	95.69
498.615	93.69
498.832	81.69
499.049	95.69
499.267	94.69
499.484	87.69
499.701	80.69
499.918	79.69
500.135	87.69
500.352	91.69
500.569	82.69
500.786	82.69
501.003	97.69
501.22	96.69
501.437	101.69
501.654	90.69
501.871	88.69
502.088	104.69
502.305	89.69
502.522	70.69
502.739	88.69
502.956	77.69
503.172	81.69
503.389	76.69
503.606	90.69
503.823	85.69
504.04	117.69
504.256	110.69
504.473	95.69
504.69	90.69
504.907	92.69
505.123	95.69
505.34	99.69
505.557	84.69
505.773	90.69
505.99	88.69
506.207	88.69
506.423	88.69
506.64	83.69
506.856	95.69
507.073	97.69
507.289	88.69
507.506	95.69
507.722	87.69
507.939	88.69
508.155	98.69
508.372	61.69
508.588	84.69
508.805	84.69
509.021	96.69
509.238	98.69
509.454	98.69
509.67	92.69
509.887	89.69
510.103	83.69
510.319	111.69
510.536	75.69
510.752	79.69
510.968	87.69
511.184	89.69
511.401	92.69
511.617	98.69
511.833	84.69
512.049	85.69
512.265	78.69
512.481	94.69
512.698	81.69
512.914	90.69
513.13	88.69
513.346	88.69
513.562	78.69
513.778	86.69
513.994	111.69
514.21	94.69
514.426	95.69
514.642	95.69
514.858	87.69
515.074	88.69
515.29	95.69
515.506	90.69
515.721	88.69
515.937	97.69
516.153	84.69
516.369	80.69
516.585	95.69
516.801	84.69
517.016	87.69
517.232	77.69
517.448	83.69
517.664	87.69
517.879	80.69
518.095	80.69
518.311	92.69
518.527	103.69
518.742	98.69
518.958	118.69
