Data from 15780_3_HRD10591_00001.txt Node
Date: Mon Jan 19 14:19:58 EST 2026
User: Yrep
Spectrometer: HR+D1059
Trigger mode: 1
Integration Time (sec): 1.000000E-1
Scans to average: 1
Electric dark correction enabled: true
Nonlinearity correction enabled: false
Boxcar width: 0
XAxis mode: Wavelengths
Number of Pixels in Spectrum: 2048
>>>>>Begin Spectral Data<<<<<
223.165	-15.62
223.4	-15.62
223.635	-15.62
223.869	-11.62
224.104	-16.62
224.338	-0.62
224.573	-6.62
224.808	-23.62
225.042	-17.62
225.277	-10.62
225.511	-5.62
225.746	0.38
225.98	-5.62
226.215	8.38
226.449	30.38
226.683	21.38
226.918	33.38
227.152	20.38
227.387	36.38
227.621	53.38
227.856	41.38
228.09	53.38
228.324	55.38
228.559	40.38
228.793	63.38
229.027	59.38
229.262	63.38
229.496	67.38
229.73	72.38
229.964	69.38
230.199	66.38
230.433	67.38
230.667	75.38
230.901	67.38
231.136	76.38
231.37	79.38
231.604	79.38
231.838	76.38
232.072	81.38
232.306	67.38
232.541	83.38
232.775	85.38
233.009	90.38
233.243	97.38
233.477	93.38
233.711	67.38
233.945	85.38
234.179	89.38
234.413	88.38
234.647	89.38
234.881	87.38
235.115	86.38
235.349	83.38
235.583	85.38
235.817	87.38
236.051	79.38
236.285	76.38
236.519	65.38
236.753	67.38
236.987	82.38
237.221	74.38
237.455	73.38
237.689	65.38
237.922	68.38
238.156	77.38
238.39	74.38
238.624	69.38
238.858	77.38
239.091	73.38
239.325	72.38
239.559	70.38
239.793	90.38
240.027	73.38
240.26	69.38
240.494	77.38
240.728	74.38
240.961	67.38
241.195	75.38
241.429	77.38
241.662	67.38
241.896	79.38
242.13	66.38
242.363	63.38
242.597	81.38
242.83	89.38
243.064	91.38
243.298	67.38
243.531	79.38
243.765	76.38
243.998	83.38
244.232	79.38
244.465	68.38
244.699	76.38
244.932	81.38
245.166	71.38
245.399	76.38
245.633	61.38
245.866	85.38
246.099	74.38
246.333	83.38
246.566	73.38
246.8	71.38
247.033	75.38
247.266	81.38
247.5	81.38
247.733	65.38
247.966	85.38
248.2	83.38
248.433	73.38
248.666	80.38
248.899	65.38
249.133	75.38
249.366	79.38
249.599	79.38
249.832	89.38
250.066	82.38
250.299	69.38
250.532	76.38
250.765	74.38
250.998	72.38
251.231	73.38
251.465	78.38
251.698	80.38
251.931	77.38
252.164	89.38
252.397	92.38
252.63	81.38
252.863	90.38
253.096	74.38
253.329	73.38
253.562	71.38
253.795	96.38
254.028	77.38
254.261	89.38
254.494	84.38
254.727	87.38
254.96	71.38
255.193	70.38
255.426	88.38
255.659	91.38
255.892	83.38
256.124	81.38
256.357	75.38
256.59	86.38
256.823	97.38
257.056	76.38
257.289	83.38
257.521	71.38
257.754	76.38
257.987	81.38
258.22	77.38
258.452	72.38
258.685	80.38
258.918	82.38
259.151	69.38
259.383	91.38
259.616	81.38
259.849	76.38
260.081	83.38
260.314	64.38
260.547	83.38
260.779	87.38
261.012	91.38
261.244	81.38
261.477	96.38
261.71	69.38
261.942	85.38
262.175	83.38
262.407	84.38
262.64	79.38
262.872	82.38
263.105	69.38
263.337	72.38
263.57	89.38
263.802	97.38
264.035	88.38
264.267	92.38
264.499	70.38
264.732	86.38
264.964	83.38
265.197	88.38
265.429	66.38
265.661	79.38
265.894	86.38
266.126	98.38
266.358	87.38
266.591	68.38
266.823	83.38
267.055	86.38
267.287	94.38
267.52	83.38
267.752	75.38
267.984	90.38
268.216	83.38
268.448	75.38
268.681	101.38
268.913	93.38
269.145	88.38
269.377	82.38
269.609	88.38
269.841	95.38
270.073	87.38
270.306	81.38
270.538	93.38
270.77	73.38
271.002	68.38
271.234	81.38
271.466	75.38
271.698	76.38
271.93	63.38
272.162	79.38
272.394	84.38
272.626	82.38
272.858	85.38
273.09	80.38
273.322	75.38
273.553	89.38
273.785	78.38
274.017	68.38
274.249	74.38
274.481	77.38
274.713	75.38
274.945	85.38
275.176	76.38
275.408	85.38
275.64	83.38
275.872	77.38
276.104	86.38
276.335	91.38
276.567	75.38
276.799	92.38
277.031	73.38
277.262	90.38
277.494	83.38
277.726	80.38
277.957	75.38
278.189	80.38
278.421	83.38
278.652	87.38
278.884	81.38
279.115	73.38
279.347	81.38
279.579	71.38
279.81	80.38
280.042	98.38
280.273	105.38
280.505	91.38
280.736	68.38
280.968	89.38
281.199	87.38
281.431	80.38
281.662	83.38
281.894	96.38
282.125	88.38
282.356	91.38
282.588	91.38
282.819	84.38
283.051	85.38
283.282	98.38
283.513	81.38
283.745	93.38
283.976	91.38
284.207	86.38
284.439	77.38
284.67	100.38
284.901	83.38
285.132	84.38
285.364	82.38
285.595	80.38
285.826	82.38
286.057	75.38
286.288	87.38
286.52	91.38
286.751	70.38
286.982	83.38
287.213	86.38
287.444	85.38
287.675	92.38
287.906	85.38
288.138	97.38
288.369	67.38
288.6	78.38
288.831	77.38
289.062	87.38
289.293	91.38
289.524	85.38
289.755	84.38
289.986	76.38
290.217	90.38
290.448	77.38
290.679	93.38
290.91	93.38
291.141	104.38
291.371	87.38
291.602	84.38
291.833	95.38
292.064	84.38
292.295	94.38
292.526	83.38
292.757	99.38
292.987	72.38
293.218	87.38
293.449	83.38
293.68	81.38
293.91	77.38
294.141	95.38
294.372	87.38
294.603	80.38
294.833	99.38
295.064	79.38
295.295	92.38
295.525	90.38
295.756	77.38
295.987	81.38
296.217	90.38
296.448	91.38
296.679	85.38
296.909	93.38
297.14	93.38
297.37	87.38
297.601	73.38
297.831	83.38
298.062	92.38
298.292	87.38
298.523	85.38
298.753	95.38
298.984	89.38
299.214	85.38
299.445	80.38
299.675	84.38
299.905	81.38
300.136	81.38
300.366	84.38
300.597	86.38
300.827	85.38
301.057	97.38
301.288	93.38
301.518	83.38
301.748	87.38
301.979	99.38
302.209	88.38
302.439	102.38
302.669	101.38
302.9	78.38
303.13	99.38
303.36	85.38
303.59	84.38
303.82	89.38
304.051	75.38
304.281	89.38
304.511	88.38
304.741	81.38
304.971	87.38
305.201	91.38
305.431	84.38
305.661	85.38
305.891	93.38
306.121	93.38
306.352	73.38
306.582	92.38
306.812	76.38
307.042	86.38
307.272	76.38
307.502	96.38
307.731	85.38
307.961	85.38
308.191	92.38
308.421	87.38
308.651	88.38
308.881	85.38
309.111	88.38
309.341	86.38
309.571	80.38
309.8	89.38
310.03	84.38
310.26	93.38
310.49	81.38
310.72	101.38
310.949	76.38
311.179	87.38
311.409	85.38
311.639	84.38
311.868	81.38
312.098	85.38
312.328	74.38
312.557	93.38
312.787	75.38
313.017	71.38
313.246	79.38
313.476	91.38
313.706	83.38
313.935	83.38
314.165	93.38
314.394	88.38
314.624	79.38
314.853	76.38
315.083	77.38
315.312	112.38
315.542	83.38
315.771	95.38
316.001	86.38
316.23	89.38
316.46	81.38
316.689	81.38
316.919	86.38
317.148	92.38
317.377	92.38
317.607	88.38
317.836	90.38
318.065	87.38
318.295	93.38
318.524	75.38
318.753	76.38
318.983	86.38
319.212	80.38
319.441	78.38
319.67	87.38
319.9	83.38
320.129	93.38
320.358	82.38
320.587	93.38
320.816	70.38
321.046	74.38
321.275	96.38
321.504	95.38
321.733	97.38
321.962	92.38
322.191	91.38
322.42	94.38
322.649	96.38
322.878	99.38
323.108	98.38
323.337	93.38
323.566	91.38
323.795	87.38
324.024	87.38
324.253	94.38
324.482	83.38
324.71	82.38
324.939	90.38
325.168	74.38
325.397	85.38
325.626	87.38
325.855	81.38
326.084	83.38
326.313	84.38
326.542	99.38
326.77	83.38
326.999	90.38
327.228	99.38
327.457	97.38
327.686	94.38
327.914	97.38
328.143	76.38
328.372	87.38
328.6	83.38
328.829	93.38
329.058	80.38
329.287	91.38
329.515	95.38
329.744	82.38
329.972	79.38
330.201	101.38
330.43	95.38
330.658	88.38
330.887	88.38
331.115	77.38
331.344	89.38
331.572	83.38
331.801	68.38
332.03	83.38
332.258	88.38
332.486	86.38
332.715	84.38
332.943	79.38
333.172	87.38
333.4	85.38
333.629	90.38
333.857	93.38
334.085	87.38
334.314	75.38
334.542	95.38
334.771	86.38
334.999	80.38
335.227	105.38
335.455	85.38
335.684	98.38
335.912	107.38
336.14	96.38
336.369	99.38
336.597	91.38
336.825	91.38
337.053	95.38
337.281	101.38
337.51	96.38
337.738	86.38
337.966	92.38
338.194	63.38
338.422	87.38
338.65	91.38
338.878	98.38
339.106	92.38
339.334	96.38
339.562	85.38
339.79	78.38
340.018	69.38
340.246	67.38
340.474	88.38
340.702	91.38
340.93	85.38
341.158	81.38
341.386	92.38
341.614	78.38
341.842	101.38
342.07	77.38
342.298	84.38
342.526	85.38
342.754	98.38
342.981	91.38
343.209	78.38
343.437	92.38
343.665	92.38
343.893	86.38
344.12	99.38
344.348	90.38
344.576	88.38
344.804	96.38
345.031	88.38
345.259	70.38
345.487	90.38
345.714	87.38
345.942	93.38
346.17	88.38
346.397	81.38
346.625	84.38
346.853	73.38
347.08	83.38
347.308	99.38
347.535	84.38
347.763	72.38
347.99	80.38
348.218	84.38
348.445	93.38
348.673	90.38
348.9	80.38
349.128	91.38
349.355	93.38
349.583	86.38
349.81	84.38
350.037	93.38
350.265	92.38
350.492	95.38
350.72	89.38
350.947	87.38
351.174	91.38
351.402	71.38
351.629	78.38
351.856	83.38
352.083	89.38
352.311	95.38
352.538	95.38
352.765	97.38
352.992	89.38
353.22	80.38
353.447	96.38
353.674	94.38
353.901	88.38
354.128	92.38
354.355	82.38
354.583	98.38
354.81	83.38
355.037	87.38
355.264	100.38
355.491	87.38
355.718	77.38
355.945	79.38
356.172	95.38
356.399	89.38
356.626	80.38
356.853	115.38
357.08	95.38
357.307	87.38
357.534	89.38
357.761	96.38
357.988	95.38
358.215	83.38
358.441	78.38
358.668	95.38
358.895	97.38
359.122	87.38
359.349	89.38
359.576	96.38
359.802	71.38
360.029	84.38
360.256	96.38
360.483	87.38
360.709	90.38
360.936	95.38
361.163	103.38
361.39	91.38
361.616	101.38
361.843	83.38
362.07	95.38
362.296	94.38
362.523	81.38
362.749	104.38
362.976	104.38
363.203	120.38
363.429	101.38
363.656	107.38
363.882	104.38
364.109	112.38
364.335	121.38
364.562	139.38
364.788	116.38
365.015	95.38
365.241	92.38
365.468	92.38
365.694	84.38
365.92	81.38
366.147	78.38
366.373	85.38
366.599	71.38
366.826	79.38
367.052	84.38
367.278	90.38
367.505	92.38
367.731	99.38
367.957	93.38
368.184	97.38
368.41	98.38
368.636	95.38
368.862	99.38
369.089	88.38
369.315	85.38
369.541	92.38
369.767	95.38
369.993	79.38
370.219	101.38
370.445	105.38
370.672	76.38
370.898	97.38
371.124	87.38
371.35	79.38
371.576	83.38
371.802	96.38
372.028	99.38
372.254	92.38
372.48	95.38
372.706	96.38
372.932	81.38
373.158	85.38
373.384	109.38
373.61	111.38
373.835	99.38
374.061	108.38
374.287	98.38
374.513	103.38
374.739	98.38
374.965	100.38
375.191	95.38
375.416	81.38
375.642	92.38
375.868	102.38
376.094	106.38
376.319	93.38
376.545	83.38
376.771	86.38
376.997	89.38
377.222	93.38
377.448	89.38
377.674	89.38
377.899	90.38
378.125	84.38
378.35	83.38
378.576	77.38
378.802	85.38
379.027	90.38
379.253	83.38
379.478	90.38
379.704	87.38
379.929	97.38
380.155	88.38
380.38	83.38
380.606	79.38
380.831	75.38
381.057	100.38
381.282	82.38
381.507	85.38
381.733	85.38
381.958	96.38
382.184	106.38
382.409	103.38
382.634	100.38
382.86	108.38
383.085	116.38
383.31	95.38
383.535	104.38
383.761	102.38
383.986	113.38
384.211	96.38
384.436	89.38
384.662	91.38
384.887	92.38
385.112	71.38
385.337	95.38
385.562	102.38
385.787	99.38
386.013	95.38
386.238	100.38
386.463	95.38
386.688	98.38
386.913	99.38
387.138	92.38
387.363	92.38
387.588	96.38
387.813	100.38
388.038	95.38
388.263	110.38
388.488	90.38
388.713	98.38
388.938	89.38
389.163	103.38
389.387	79.38
389.612	88.38
389.837	100.38
390.062	99.38
390.287	89.38
390.512	95.38
390.736	84.38
390.961	97.38
391.186	87.38
391.411	78.38
391.636	95.38
391.86	99.38
392.085	100.38
392.31	91.38
392.534	101.38
392.759	116.38
392.984	134.38
393.208	208.38
393.433	274.38
393.658	216.38
393.882	115.38
394.107	99.38
394.331	118.38
394.556	123.38
394.78	104.38
395.005	93.38
395.229	98.38
395.454	99.38
395.678	120.38
395.903	122.38
396.127	144.38
396.352	168.38
396.576	142.38
396.801	191.38
397.025	214.38
397.249	148.38
397.474	93.38
397.698	84.38
397.922	102.38
398.147	80.38
398.371	99.38
398.595	84.38
398.82	98.38
399.044	103.38
399.268	83.38
399.492	91.38
399.717	89.38
399.941	107.38
400.165	100.38
400.389	93.38
400.613	89.38
400.837	89.38
401.062	85.38
401.286	77.38
401.51	89.38
401.734	90.38
401.958	87.38
402.182	85.38
402.406	93.38
402.63	71.38
402.854	85.38
403.078	105.38
403.302	91.38
403.526	89.38
403.75	95.38
403.974	82.38
404.198	83.38
404.422	92.38
404.645	100.38
404.869	93.38
405.093	92.38
405.317	88.38
405.541	89.38
405.765	104.38
405.988	97.38
406.212	88.38
406.436	93.38
406.66	95.38
406.883	85.38
407.107	88.38
407.331	92.38
407.555	95.38
407.778	101.38
408.002	113.38
408.226	82.38
408.449	89.38
408.673	82.38
408.896	97.38
409.12	67.38
409.344	111.38
409.567	99.38
409.791	97.38
410.014	89.38
410.238	91.38
410.461	93.38
410.685	80.38
410.908	75.38
411.132	96.38
411.355	106.38
411.578	86.38
411.802	91.38
412.025	68.38
412.249	97.38
412.472	89.38
412.695	87.38
412.919	87.38
413.142	80.38
413.365	80.38
413.589	86.38
413.812	90.38
414.035	87.38
414.258	85.38
414.482	80.38
414.705	83.38
414.928	75.38
415.151	89.38
415.374	73.38
415.597	77.38
415.821	91.38
416.044	73.38
416.267	69.38
416.49	75.38
416.713	98.38
416.936	88.38
417.159	72.38
417.382	84.38
417.605	87.38
417.828	90.38
418.051	95.38
418.274	93.38
418.497	91.38
418.72	77.38
418.943	90.38
419.166	77.38
419.389	102.38
419.611	91.38
419.834	87.38
420.057	78.38
420.28	83.38
420.503	78.38
420.726	79.38
420.948	81.38
421.171	76.38
421.394	99.38
421.617	111.38
421.839	114.38
422.062	120.38
422.285	146.38
422.507	211.38
422.73	283.38
422.953	291.38
423.175	181.38
423.398	112.38
423.621	104.38
423.843	89.38
424.066	90.38
424.288	93.38
424.511	71.38
424.733	81.38
424.956	83.38
425.178	99.38
425.401	92.38
425.623	99.38
425.846	83.38
426.068	85.38
426.291	96.38
426.513	90.38
426.735	107.38
426.958	92.38
427.18	96.38
427.402	100.38
427.625	101.38
427.847	89.38
428.069	95.38
428.292	111.38
428.514	137.38
428.736	102.38
428.958	113.38
429.181	130.38
429.403	92.38
429.625	91.38
429.847	99.38
430.069	144.38
430.292	161.38
430.514	158.38
430.736	133.38
430.958	132.38
431.18	105.38
431.402	74.38
431.624	99.38
431.846	109.38
432.068	112.38
432.29	87.38
432.512	95.38
432.734	90.38
432.956	91.38
433.178	90.38
433.4	78.38
433.622	96.38
433.844	98.38
434.066	90.38
434.287	97.38
434.509	81.38
434.731	82.38
434.953	83.38
435.175	93.38
435.397	91.38
435.618	89.38
435.84	96.38
436.062	98.38
436.284	89.38
436.505	83.38
436.727	84.38
436.949	74.38
437.17	93.38
437.392	84.38
437.614	92.38
437.835	96.38
438.057	82.38
438.278	98.38
438.5	105.38
438.721	97.38
438.943	93.38
439.165	82.38
439.386	92.38
439.608	92.38
439.829	76.38
440.05	85.38
440.272	78.38
440.493	89.38
440.715	95.38
440.936	83.38
441.158	84.38
441.379	88.38
441.6	101.38
441.822	91.38
442.043	100.38
442.264	99.38
442.486	130.38
442.707	155.38
442.928	125.38
443.149	100.38
443.371	132.38
443.592	212.38
443.813	163.38
444.034	107.38
444.255	96.38
444.476	94.38
444.698	85.38
444.919	101.38
445.14	163.38
445.361	181.38
445.582	226.38
445.803	235.38
446.024	118.38
446.245	87.38
446.466	63.38
446.687	91.38
446.908	89.38
447.129	90.38
447.35	84.38
447.571	86.38
447.792	87.38
448.013	94.38
448.234	85.38
448.455	94.38
448.675	88.38
448.896	87.38
449.117	87.38
449.338	84.38
449.559	83.38
449.779	79.38
450	87.38
450.221	77.38
450.442	65.38
450.662	73.38
450.883	98.38
451.104	88.38
451.324	93.38
451.545	82.38
451.766	88.38
451.986	80.38
452.207	83.38
452.428	93.38
452.648	110.38
452.869	100.38
453.089	108.38
453.31	131.38
453.53	112.38
453.751	117.38
453.971	85.38
454.192	94.38
454.412	82.38
454.633	97.38
454.853	92.38
455.073	104.38
455.294	91.38
455.514	105.38
455.734	72.38
455.955	99.38
456.175	99.38
456.395	84.38
456.616	89.38
456.836	78.38
457.056	97.38
457.276	96.38
457.497	90.38
457.717	82.38
457.937	109.38
458.157	137.38
458.377	109.38
458.598	105.38
458.818	116.38
459.038	104.38
459.258	88.38
459.478	84.38
459.698	85.38
459.918	88.38
460.138	85.38
460.358	78.38
460.578	91.38
460.798	116.38
461.018	118.38
461.238	100.38
461.458	93.38
461.678	77.38
461.898	81.38
462.118	75.38
462.338	85.38
462.558	99.38
462.777	90.38
462.997	88.38
463.217	87.38
463.437	75.38
463.657	89.38
463.876	83.38
464.096	89.38
464.316	83.38
464.536	88.38
464.755	79.38
464.975	92.38
465.195	85.38
465.414	95.38
465.634	98.38
465.854	77.38
466.073	85.38
466.293	86.38
466.512	84.38
466.732	77.38
466.951	93.38
467.171	95.38
467.391	77.38
467.61	73.38
467.829	82.38
468.049	95.38
468.268	87.38
468.488	73.38
468.707	96.38
468.927	90.38
469.146	93.38
469.365	95.38
469.585	85.38
469.804	77.38
470.023	81.38
470.243	73.38
470.462	78.38
470.681	80.38
470.901	95.38
471.12	89.38
471.339	91.38
471.558	76.38
471.777	85.38
471.997	93.38
472.216	98.38
472.435	95.38
472.654	81.38
472.873	77.38
473.092	90.38
473.311	87.38
473.53	80.38
473.749	77.38
473.968	89.38
474.187	104.38
474.406	88.38
474.625	75.38
474.844	97.38
475.063	89.38
475.282	91.38
475.501	85.38
475.72	92.38
475.939	97.38
476.158	97.38
476.377	101.38
476.596	80.38
476.814	81.38
477.033	84.38
477.252	95.38
477.471	81.38
477.69	83.38
477.908	85.38
478.127	97.38
478.346	95.38
478.564	85.38
478.783	94.38
479.002	101.38
479.22	96.38
479.439	89.38
479.658	90.38
479.876	83.38
480.095	86.38
480.313	79.38
480.532	91.38
480.751	98.38
480.969	77.38
481.188	83.38
481.406	91.38
481.624	76.38
481.843	88.38
482.061	79.38
482.28	95.38
482.498	79.38
482.717	80.38
482.935	93.38
483.153	93.38
483.372	94.38
483.59	92.38
483.808	107.38
484.027	99.38
484.245	102.38
484.463	92.38
484.681	101.38
484.9	93.38
485.118	75.38
485.336	87.38
485.554	100.38
485.772	89.38
485.99	111.38
486.209	97.38
486.427	85.38
486.645	92.38
486.863	106.38
487.081	99.38
487.299	97.38
487.517	91.38
487.735	109.38
487.953	153.38
488.171	129.38
488.389	98.38
488.607	96.38
488.825	120.38
489.043	94.38
489.261	111.38
489.479	100.38
489.696	92.38
489.914	95.38
490.132	99.38
490.35	86.38
490.568	88.38
490.786	86.38
491.003	101.38
491.221	94.38
491.439	102.38
491.657	89.38
491.874	95.38
492.092	102.38
492.31	92.38
492.527	102.38
492.745	83.38
492.963	104.38
493.18	93.38
493.398	102.38
493.615	111.38
493.833	81.38
494.05	85.38
494.268	83.38
494.485	86.38
494.703	84.38
494.92	99.38
495.138	89.38
495.355	105.38
495.573	91.38
495.79	97.38
496.008	93.38
496.225	98.38
496.442	108.38
496.66	92.38
496.877	92.38
497.094	114.38
497.312	85.38
497.529	94.38
497.746	97.38
497.963	89.38
498.181	128.38
498.398	129.38
498.615	97.38
498.832	99.38
499.049	91.38
499.267	126.38
499.484	124.38
499.701	97.38
499.918	109.38
500.135	131.38
500.352	115.38
500.569	95.38
500.786	114.38
501.003	114.38
501.22	87.38
501.437	103.38
501.654	128.38
501.871	100.38
502.088	99.38
502.305	97.38
502.522	113.38
502.739	99.38
502.956	88.38
503.172	93.38
503.389	99.38
503.606	121.38
503.823	128.38
504.04	133.38
504.256	149.38
504.473	120.38
504.69	118.38
504.907	111.38
505.123	93.38
505.34	101.38
505.557	83.38
505.773	99.38
505.99	101.38
506.207	104.38
506.423	98.38
506.64	109.38
506.856	100.38
507.073	88.38
507.289	103.38
507.506	88.38
507.722	84.38
507.939	96.38
508.155	99.38
508.372	92.38
508.588	90.38
508.805	97.38
509.021	87.38
509.238	102.38
509.454	99.38
509.67	104.38
509.887	94.38
510.103	101.38
510.319	97.38
510.536	97.38
510.752	85.38
510.968	86.38
511.184	89.38
511.401	93.38
511.617	91.38
511.833	95.38
512.049	95.38
512.265	87.38
512.481	100.38
512.698	94.38
512.914	94.38
513.13	111.38
513.346	85.38
513.562	89.38
513.778	96.38
513.994	85.38
514.21	97.38
514.426	92.38
514.642	97.38
514.858	89.38
515.074	115.38
515.29	104.38
515.506	106.38
515.721	85.38
515.937	88.38
516.153	102.38
516.369	87.38
516.585	98.38
516.801	95.38
517.016	102.38
517.232	105.38
517.448	97.38
