Data from 15780_3_HRD10591_00033.txt Node
Date: Mon Jan 19 14:20:14 EST 2026
User: Yrep
Spectrometer: HR+D1059
Trigger mode: 1
Integration Time (sec): 1.000000E-1
Scans to average: 1
Electric dark correction enabled: true
Nonlinearity correction enabled: false
Boxcar width: 0
XAxis mode: Wavelengths
Number of Pixels in Spectrum: 2048
>>>>>Begin Spectral Data<<<<<
223.165	-30.88
223.4	-30.88
223.635	-30.88
223.869	-15.88
224.104	-13.88
224.338	-12.88
224.573	-13.88
224.808	-8.88
225.042	-3.88
225.277	-1.88
225.511	-8.88
225.746	6.12
225.98	3.12
226.215	18.12
226.449	11.12
226.683	11.12
226.918	27.12
227.152	34.12
227.387	41.12
227.621	62.12
227.856	48.12
228.09	54.12
228.324	53.12
228.559	67.12
228.793	47.12
229.027	62.12
229.262	66.12
229.496	80.12
229.73	77.12
229.964	67.12
230.199	83.12
230.433	80.12
230.667	82.12
230.901	79.12
231.136	85.12
231.37	87.12
231.604	87.12
231.838	94.12
232.072	80.12
232.306	94.12
232.541	83.12
232.775	74.12
233.009	86.12
233.243	84.12
233.477	90.12
233.711	101.12
233.945	80.12
234.179	83.12
234.413	92.12
234.647	98.12
234.881	85.12
235.115	90.12
235.349	88.12
235.583	85.12
235.817	90.12
236.051	74.12
236.285	82.12
236.519	78.12
236.753	66.12
236.987	52.12
237.221	91.12
237.455	66.12
237.689	85.12
237.922	69.12
238.156	66.12
238.39	79.12
238.624	71.12
238.858	71.12
239.091	79.12
239.325	71.12
239.559	89.12
239.793	84.12
240.027	81.12
240.26	79.12
240.494	84.12
240.728	70.12
240.961	73.12
241.195	73.12
241.429	83.12
241.662	89.12
241.896	83.12
242.13	81.12
242.363	58.12
242.597	84.12
242.83	76.12
243.064	86.12
243.298	62.12
243.531	74.12
243.765	76.12
243.998	81.12
244.232	85.12
244.465	69.12
244.699	83.12
244.932	84.12
245.166	88.12
245.399	66.12
245.633	61.12
245.866	98.12
246.099	78.12
246.333	72.12
246.566	90.12
246.8	80.12
247.033	76.12
247.266	84.12
247.5	80.12
247.733	86.12
247.966	74.12
248.2	74.12
248.433	83.12
248.666	78.12
248.899	86.12
249.133	80.12
249.366	80.12
249.599	73.12
249.832	71.12
250.066	85.12
250.299	84.12
250.532	90.12
250.765	77.12
250.998	77.12
251.231	89.12
251.465	88.12
251.698	74.12
251.931	99.12
252.164	84.12
252.397	84.12
252.63	87.12
252.863	92.12
253.096	81.12
253.329	95.12
253.562	89.12
253.795	75.12
254.028	87.12
254.261	86.12
254.494	75.12
254.727	80.12
254.96	80.12
255.193	85.12
255.426	88.12
255.659	80.12
255.892	77.12
256.124	84.12
256.357	80.12
256.59	76.12
256.823	75.12
257.056	80.12
257.289	74.12
257.521	91.12
257.754	84.12
257.987	78.12
258.22	89.12
258.452	77.12
258.685	84.12
258.918	79.12
259.151	85.12
259.383	100.12
259.616	86.12
259.849	92.12
260.081	79.12
260.314	76.12
260.547	71.12
260.779	96.12
261.012	89.12
261.244	100.12
261.477	84.12
261.71	80.12
261.942	88.12
262.175	98.12
262.407	72.12
262.64	81.12
262.872	73.12
263.105	87.12
263.337	69.12
263.57	78.12
263.802	83.12
264.035	92.12
264.267	80.12
264.499	86.12
264.732	77.12
264.964	85.12
265.197	99.12
265.429	77.12
265.661	77.12
265.894	85.12
266.126	75.12
266.358	95.12
266.591	88.12
266.823	80.12
267.055	78.12
267.287	91.12
267.52	71.12
267.752	77.12
267.984	87.12
268.216	87.12
268.448	87.12
268.681	91.12
268.913	90.12
269.145	88.12
269.377	91.12
269.609	81.12
269.841	105.12
270.073	76.12
270.306	90.12
270.538	86.12
270.77	93.12
271.002	79.12
271.234	83.12
271.466	94.12
271.698	100.12
271.93	86.12
272.162	89.12
272.394	84.12
272.626	93.12
272.858	94.12
273.09	68.12
273.322	79.12
273.553	74.12
273.785	91.12
274.017	90.12
274.249	76.12
274.481	93.12
274.713	100.12
274.945	85.12
275.176	80.12
275.408	95.12
275.64	86.12
275.872	86.12
276.104	76.12
276.335	82.12
276.567	75.12
276.799	78.12
277.031	81.12
277.262	79.12
277.494	94.12
277.726	84.12
277.957	87.12
278.189	85.12
278.421	76.12
278.652	93.12
278.884	87.12
279.115	79.12
279.347	94.12
279.579	91.12
279.81	95.12
280.042	97.12
280.273	80.12
280.505	107.12
280.736	88.12
280.968	98.12
281.199	98.12
281.431	84.12
281.662	99.12
281.894	82.12
282.125	78.12
282.356	77.12
282.588	80.12
282.819	73.12
283.051	86.12
283.282	92.12
283.513	80.12
283.745	90.12
283.976	95.12
284.207	77.12
284.439	84.12
284.67	98.12
284.901	88.12
285.132	86.12
285.364	77.12
285.595	101.12
285.826	85.12
286.057	94.12
286.288	101.12
286.52	95.12
286.751	93.12
286.982	79.12
287.213	76.12
287.444	84.12
287.675	102.12
287.906	106.12
288.138	74.12
288.369	78.12
288.6	79.12
288.831	97.12
289.062	96.12
289.293	93.12
289.524	96.12
289.755	92.12
289.986	77.12
290.217	98.12
290.448	104.12
290.679	89.12
290.91	92.12
291.141	77.12
291.371	88.12
291.602	91.12
291.833	89.12
292.064	85.12
292.295	91.12
292.526	108.12
292.757	91.12
292.987	87.12
293.218	89.12
293.449	92.12
293.68	85.12
293.91	86.12
294.141	90.12
294.372	91.12
294.603	79.12
294.833	83.12
295.064	80.12
295.295	94.12
295.525	77.12
295.756	93.12
295.987	80.12
296.217	84.12
296.448	84.12
296.679	89.12
296.909	82.12
297.14	99.12
297.37	81.12
297.601	88.12
297.831	71.12
298.062	98.12
298.292	94.12
298.523	96.12
298.753	81.12
298.984	81.12
299.214	99.12
299.445	80.12
299.675	74.12
299.905	95.12
300.136	76.12
300.366	89.12
300.597	86.12
300.827	86.12
301.057	80.12
301.288	80.12
301.518	92.12
301.748	97.12
301.979	100.12
302.209	88.12
302.439	93.12
302.669	86.12
302.9	86.12
303.13	76.12
303.36	84.12
303.59	93.12
303.82	89.12
304.051	95.12
304.281	88.12
304.511	95.12
304.741	94.12
304.971	80.12
305.201	86.12
305.431	86.12
305.661	94.12
305.891	81.12
306.121	68.12
306.352	95.12
306.582	87.12
306.812	75.12
307.042	88.12
307.272	103.12
307.502	84.12
307.731	99.12
307.961	95.12
308.191	102.12
308.421	87.12
308.651	89.12
308.881	88.12
309.111	95.12
309.341	86.12
309.571	84.12
309.8	81.12
310.03	89.12
310.26	75.12
310.49	93.12
310.72	95.12
310.949	84.12
311.179	104.12
311.409	89.12
311.639	86.12
311.868	88.12
312.098	81.12
312.328	95.12
312.557	98.12
312.787	101.12
313.017	87.12
313.246	86.12
313.476	82.12
313.706	83.12
313.935	98.12
314.165	78.12
314.394	92.12
314.624	72.12
314.853	88.12
315.083	95.12
315.312	81.12
315.542	89.12
315.771	104.12
316.001	104.12
316.23	100.12
316.46	107.12
316.689	89.12
316.919	88.12
317.148	98.12
317.377	89.12
317.607	103.12
317.836	96.12
318.065	99.12
318.295	105.12
318.524	99.12
318.753	88.12
318.983	94.12
319.212	91.12
319.441	91.12
319.67	87.12
319.9	86.12
320.129	97.12
320.358	87.12
320.587	95.12
320.816	91.12
321.046	88.12
321.275	93.12
321.504	98.12
321.733	89.12
321.962	88.12
322.191	99.12
322.42	82.12
322.649	90.12
322.878	83.12
323.108	100.12
323.337	100.12
323.566	105.12
323.795	84.12
324.024	86.12
324.253	86.12
324.482	100.12
324.71	98.12
324.939	84.12
325.168	99.12
325.397	95.12
325.626	99.12
325.855	92.12
326.084	93.12
326.313	85.12
326.542	86.12
326.77	104.12
326.999	80.12
327.228	76.12
327.457	87.12
327.686	102.12
327.914	77.12
328.143	94.12
328.372	77.12
328.6	85.12
328.829	88.12
329.058	85.12
329.287	83.12
329.515	87.12
329.744	89.12
329.972	94.12
330.201	78.12
330.43	90.12
330.658	90.12
330.887	86.12
331.115	81.12
331.344	81.12
331.572	104.12
331.801	81.12
332.03	82.12
332.258	97.12
332.486	91.12
332.715	99.12
332.943	100.12
333.172	85.12
333.4	82.12
333.629	91.12
333.857	89.12
334.085	90.12
334.314	86.12
334.542	87.12
334.771	105.12
334.999	92.12
335.227	95.12
335.455	100.12
335.684	88.12
335.912	95.12
336.14	88.12
336.369	90.12
336.597	84.12
336.825	88.12
337.053	84.12
337.281	94.12
337.51	84.12
337.738	94.12
337.966	97.12
338.194	88.12
338.422	87.12
338.65	99.12
338.878	94.12
339.106	90.12
339.334	95.12
339.562	99.12
339.79	89.12
340.018	85.12
340.246	95.12
340.474	87.12
340.702	95.12
340.93	86.12
341.158	86.12
341.386	88.12
341.614	99.12
341.842	87.12
342.07	94.12
342.298	80.12
342.526	87.12
342.754	82.12
342.981	87.12
343.209	89.12
343.437	105.12
343.665	90.12
343.893	97.12
344.12	92.12
344.348	92.12
344.576	98.12
344.804	74.12
345.031	91.12
345.259	98.12
345.487	84.12
345.714	90.12
345.942	82.12
346.17	104.12
346.397	69.12
346.625	83.12
346.853	77.12
347.08	81.12
347.308	95.12
347.535	87.12
347.763	89.12
347.99	97.12
348.218	84.12
348.445	92.12
348.673	83.12
348.9	84.12
349.128	88.12
349.355	86.12
349.583	85.12
349.81	79.12
350.037	91.12
350.265	98.12
350.492	77.12
350.72	86.12
350.947	75.12
351.174	87.12
351.402	71.12
351.629	90.12
351.856	96.12
352.083	73.12
352.311	95.12
352.538	87.12
352.765	91.12
352.992	107.12
353.22	86.12
353.447	82.12
353.674	92.12
353.901	85.12
354.128	96.12
354.355	86.12
354.583	88.12
354.81	104.12
355.037	89.12
355.264	86.12
355.491	83.12
355.718	88.12
355.945	86.12
356.172	99.12
356.399	85.12
356.626	96.12
356.853	74.12
357.08	100.12
357.307	95.12
357.534	76.12
357.761	96.12
357.988	106.12
358.215	90.12
358.441	90.12
358.668	88.12
358.895	78.12
359.122	79.12
359.349	86.12
359.576	97.12
359.802	87.12
360.029	94.12
360.256	80.12
360.483	77.12
360.709	84.12
360.936	83.12
361.163	83.12
361.39	92.12
361.616	80.12
361.843	81.12
362.07	88.12
362.296	105.12
362.523	88.12
362.749	107.12
362.976	86.12
363.203	112.12
363.429	90.12
363.656	90.12
363.882	91.12
364.109	88.12
364.335	108.12
364.562	104.12
364.788	102.12
365.015	91.12
365.241	87.12
365.468	85.12
365.694	86.12
365.92	85.12
366.147	86.12
366.373	79.12
366.599	96.12
366.826	87.12
367.052	68.12
367.278	80.12
367.505	84.12
367.731	84.12
367.957	94.12
368.184	90.12
368.41	93.12
368.636	90.12
368.862	88.12
369.089	93.12
369.315	74.12
369.541	74.12
369.767	88.12
369.993	93.12
370.219	95.12
370.445	85.12
370.672	88.12
370.898	86.12
371.124	85.12
371.35	86.12
371.576	94.12
371.802	96.12
372.028	100.12
372.254	86.12
372.48	96.12
372.706	80.12
372.932	88.12
373.158	80.12
373.384	102.12
373.61	111.12
373.835	106.12
374.061	79.12
374.287	95.12
374.513	96.12
374.739	95.12
374.965	95.12
375.191	98.12
375.416	92.12
375.642	85.12
375.868	90.12
376.094	93.12
376.319	84.12
376.545	103.12
376.771	74.12
376.997	85.12
377.222	83.12
377.448	76.12
377.674	79.12
377.899	79.12
378.125	88.12
378.35	82.12
378.576	78.12
378.802	90.12
379.027	87.12
379.253	99.12
379.478	86.12
379.704	74.12
379.929	78.12
380.155	99.12
380.38	86.12
380.606	81.12
380.831	92.12
381.057	101.12
381.282	94.12
381.507	84.12
381.733	95.12
381.958	75.12
382.184	77.12
382.409	90.12
382.634	108.12
382.86	88.12
383.085	82.12
383.31	104.12
383.535	93.12
383.761	98.12
383.986	98.12
384.211	97.12
384.436	87.12
384.662	83.12
384.887	102.12
385.112	101.12
385.337	87.12
385.562	93.12
385.787	90.12
386.013	88.12
386.238	92.12
386.463	83.12
386.688	104.12
386.913	97.12
387.138	88.12
387.363	76.12
387.588	86.12
387.813	92.12
388.038	100.12
388.263	90.12
388.488	98.12
388.713	95.12
388.938	96.12
389.163	84.12
389.387	90.12
389.612	99.12
389.837	96.12
390.062	96.12
390.287	74.12
390.512	76.12
390.736	91.12
390.961	86.12
391.186	88.12
391.411	81.12
391.636	83.12
391.86	102.12
392.085	95.12
392.31	90.12
392.534	104.12
392.759	116.12
392.984	160.12
393.208	254.12
393.433	372.12
393.658	301.12
393.882	134.12
394.107	102.12
394.331	103.12
394.556	99.12
394.78	90.12
395.005	96.12
395.229	90.12
395.454	84.12
395.678	91.12
395.903	120.12
396.127	109.12
396.352	145.12
396.576	159.12
396.801	275.12
397.025	317.12
397.249	154.12
397.474	105.12
397.698	87.12
397.922	71.12
398.147	84.12
398.371	96.12
398.595	85.12
398.82	86.12
399.044	91.12
399.268	87.12
399.492	76.12
399.717	68.12
399.941	91.12
400.165	88.12
400.389	92.12
400.613	89.12
400.837	85.12
401.062	92.12
401.286	80.12
401.51	83.12
401.734	84.12
401.958	96.12
402.182	78.12
402.406	91.12
402.63	81.12
402.854	80.12
403.078	104.12
403.302	75.12
403.526	77.12
403.75	97.12
403.974	89.12
404.198	89.12
404.422	108.12
404.645	86.12
404.869	95.12
405.093	88.12
405.317	84.12
405.541	92.12
405.765	86.12
405.988	87.12
406.212	84.12
406.436	76.12
406.66	86.12
406.883	90.12
407.107	86.12
407.331	86.12
407.555	98.12
407.778	119.12
408.002	123.12
408.226	97.12
408.449	80.12
408.673	83.12
408.896	85.12
409.12	79.12
409.344	94.12
409.567	78.12
409.791	81.12
410.014	93.12
410.238	84.12
410.461	86.12
410.685	85.12
410.908	86.12
411.132	89.12
411.355	90.12
411.578	94.12
411.802	74.12
412.025	84.12
412.249	91.12
412.472	86.12
412.695	81.12
412.919	70.12
413.142	74.12
413.365	91.12
413.589	84.12
413.812	83.12
414.035	89.12
414.258	81.12
414.482	79.12
414.705	103.12
414.928	94.12
415.151	83.12
415.374	80.12
415.597	91.12
415.821	98.12
416.044	90.12
416.267	91.12
416.49	77.12
416.713	86.12
416.936	83.12
417.159	98.12
417.382	81.12
417.605	88.12
417.828	88.12
418.051	80.12
418.274	89.12
418.497	79.12
418.72	83.12
418.943	88.12
419.166	86.12
419.389	87.12
419.611	86.12
419.834	86.12
420.057	85.12
420.28	89.12
420.503	88.12
420.726	87.12
420.948	91.12
421.171	97.12
421.394	103.12
421.617	108.12
421.839	103.12
422.062	95.12
422.285	123.12
422.507	184.12
422.73	303.12
422.953	274.12
423.175	125.12
423.398	99.12
423.621	86.12
423.843	84.12
424.066	79.12
424.288	83.12
424.511	92.12
424.733	72.12
424.956	86.12
425.178	86.12
425.401	80.12
425.623	95.12
425.846	87.12
426.068	78.12
426.291	99.12
426.513	96.12
426.735	88.12
426.958	83.12
427.18	86.12
427.402	87.12
427.625	82.12
427.847	79.12
428.069	95.12
428.292	114.12
428.514	132.12
428.736	108.12
428.958	114.12
429.181	109.12
429.403	88.12
429.625	84.12
429.847	106.12
430.069	115.12
430.292	124.12
430.514	149.12
430.736	98.12
430.958	106.12
431.18	100.12
431.402	91.12
431.624	88.12
431.846	102.12
432.068	120.12
432.29	90.12
432.512	88.12
432.734	86.12
432.956	73.12
433.178	90.12
433.4	85.12
433.622	84.12
433.844	95.12
434.066	94.12
434.287	89.12
434.509	86.12
434.731	88.12
434.953	85.12
435.175	76.12
435.397	86.12
435.618	99.12
435.84	92.12
436.062	74.12
436.284	83.12
436.505	71.12
436.727	80.12
436.949	80.12
437.17	82.12
437.392	83.12
437.614	96.12
437.835	89.12
438.057	89.12
438.278	89.12
438.5	94.12
438.721	102.12
438.943	79.12
439.165	75.12
439.386	86.12
439.608	98.12
439.829	86.12
440.05	91.12
440.272	72.12
440.493	78.12
440.715	80.12
440.936	75.12
441.158	77.12
441.379	76.12
441.6	83.12
441.822	84.12
442.043	94.12
442.264	104.12
442.486	99.12
442.707	109.12
442.928	103.12
443.149	99.12
443.371	108.12
443.592	146.12
443.813	142.12
444.034	98.12
444.255	100.12
444.476	87.12
444.698	88.12
444.919	71.12
445.14	161.12
445.361	152.12
445.582	188.12
445.803	152.12
446.024	98.12
446.245	86.12
446.466	91.12
446.687	78.12
446.908	89.12
447.129	76.12
447.35	67.12
447.571	79.12
447.792	88.12
448.013	76.12
448.234	78.12
448.455	69.12
448.675	74.12
448.896	84.12
449.117	86.12
449.338	88.12
449.559	90.12
449.779	86.12
450	81.12
450.221	96.12
450.442	86.12
450.662	81.12
450.883	69.12
451.104	87.12
451.324	99.12
451.545	92.12
451.766	79.12
451.986	63.12
452.207	82.12
452.428	73.12
452.648	87.12
452.869	86.12
453.089	87.12
453.31	88.12
453.53	71.12
453.751	85.12
453.971	84.12
454.192	92.12
454.412	91.12
454.633	92.12
454.853	82.12
455.073	80.12
455.294	82.12
455.514	86.12
455.734	88.12
455.955	83.12
456.175	81.12
456.395	85.12
456.616	90.12
456.836	92.12
457.056	67.12
457.276	86.12
457.497	84.12
457.717	84.12
457.937	83.12
458.157	98.12
458.377	103.12
458.598	88.12
458.818	84.12
459.038	74.12
459.258	98.12
459.478	84.12
459.698	90.12
459.918	91.12
460.138	81.12
460.358	87.12
460.578	95.12
460.798	102.12
461.018	100.12
461.238	83.12
461.458	78.12
461.678	89.12
461.898	86.12
462.118	86.12
462.338	95.12
462.558	77.12
462.777	88.12
462.997	92.12
463.217	78.12
463.437	80.12
463.657	101.12
463.876	85.12
464.096	96.12
464.316	72.12
464.536	84.12
464.755	87.12
464.975	90.12
465.195	86.12
465.414	74.12
465.634	96.12
465.854	79.12
466.073	85.12
466.293	92.12
466.512	79.12
466.732	78.12
466.951	89.12
467.171	98.12
467.391	87.12
467.61	86.12
467.829	88.12
468.049	79.12
468.268	80.12
468.488	87.12
468.707	73.12
468.927	67.12
469.146	66.12
469.365	74.12
469.585	85.12
469.804	84.12
470.023	79.12
470.243	102.12
470.462	97.12
470.681	81.12
470.901	83.12
471.12	91.12
471.339	96.12
471.558	87.12
471.777	86.12
471.997	87.12
472.216	98.12
472.435	90.12
472.654	84.12
472.873	94.12
473.092	104.12
473.311	79.12
473.53	99.12
473.749	85.12
473.968	91.12
474.187	87.12
474.406	77.12
474.625	89.12
474.844	88.12
475.063	87.12
475.282	90.12
475.501	86.12
475.72	71.12
475.939	88.12
476.158	97.12
476.377	86.12
476.596	97.12
476.814	98.12
477.033	103.12
477.252	69.12
477.471	77.12
477.69	90.12
477.908	69.12
478.127	100.12
478.346	99.12
478.564	95.12
478.783	96.12
479.002	78.12
479.22	71.12
479.439	87.12
479.658	84.12
479.876	83.12
480.095	87.12
480.313	91.12
480.532	86.12
480.751	76.12
480.969	91.12
481.188	95.12
481.406	85.12
481.624	93.12
481.843	75.12
482.061	83.12
482.28	78.12
482.498	89.12
482.717	77.12
482.935	82.12
483.153	80.12
483.372	106.12
483.59	83.12
483.808	84.12
484.027	99.12
484.245	78.12
484.463	83.12
484.681	102.12
484.9	84.12
485.118	100.12
485.336	71.12
485.554	87.12
485.772	93.12
485.99	94.12
486.209	85.12
486.427	88.12
486.645	84.12
486.863	92.12
487.081	83.12
487.299	75.12
487.517	89.12
487.735	85.12
487.953	107.12
488.171	107.12
488.389	78.12
488.607	87.12
488.825	92.12
489.043	91.12
489.261	91.12
489.479	78.12
489.696	85.12
489.914	100.12
490.132	83.12
490.35	83.12
490.568	102.12
490.786	82.12
491.003	87.12
491.221	81.12
491.439	63.12
491.657	81.12
491.874	87.12
492.092	97.12
492.31	96.12
492.527	82.12
492.745	84.12
492.963	96.12
493.18	90.12
493.398	90.12
493.615	79.12
493.833	108.12
494.05	80.12
494.268	91.12
494.485	82.12
494.703	87.12
494.92	78.12
495.138	92.12
495.355	94.12
495.573	86.12
495.79	90.12
496.008	84.12
496.225	87.12
496.442	87.12
496.66	102.12
496.877	92.12
497.094	96.12
497.312	91.12
497.529	98.12
497.746	90.12
497.963	99.12
498.181	87.12
498.398	101.12
498.615	100.12
498.832	91.12
499.049	93.12
499.267	91.12
499.484	93.12
499.701	72.12
499.918	87.12
500.135	95.12
500.352	78.12
500.569	88.12
500.786	80.12
501.003	92.12
501.22	84.12
501.437	80.12
501.654	82.12
501.871	79.12
502.088	97.12
502.305	101.12
502.522	70.12
502.739	104.12
502.956	86.12
503.172	82.12
503.389	90.12
503.606	93.12
503.823	95.12
504.04	92.12
504.256	91.12
504.473	95.12
504.69	90.12
504.907	87.12
505.123	94.12
505.34	88.12
505.557	93.12
505.773	84.12
505.99	86.12
506.207	82.12
506.423	80.12
506.64	88.12
506.856	82.12
507.073	76.12
507.289	96.12
507.506	87.12
507.722	86.12
507.939	78.12
508.155	93.12
508.372	95.12
508.588	84.12
508.805	90.12
509.021	89.12
509.238	89.12
509.454	83.12
509.67	81.12
509.887	85.12
510.103	93.12
510.319	98.12
510.536	83.12
510.752	84.12
510.968	92.12
511.184	80.12
511.401	87.12
511.617	88.12
511.833	79.12
512.049	83.12
512.265	78.12
512.481	73.12
512.698	85.12
512.914	84.12
513.13	90.12
513.346	74.12
513.562	109.12
513.778	88.12
513.994	84.12
514.21	95.12
514.426	99.12
514.642	83.12
514.858	79.12
515.074	93.12
515.29	90.12
515.506	88.12
515.721	94.12
515.937	86.12
516.153	87.12
516.369	68.12
516.585	88.12
516.801	91.12
517.016	88.12
517.232	77.12
517.448	90.12
517.664	86.12
517.879	82.12
518.095	105.12
518.311	82.12
