Data from 15780_3_HRD10591_00022.txt Node
Date: Mon Jan 19 14:20:09 EST 2026
User: Yrep
Spectrometer: HR+D1059
Trigger mode: 1
Integration Time (sec): 1.000000E-1
Scans to average: 1
Electric dark correction enabled: true
Nonlinearity correction enabled: false
Boxcar width: 0
XAxis mode: Wavelengths
Number of Pixels in Spectrum: 2048
>>>>>Begin Spectral Data<<<<<
223.165	-8.12
223.4	-8.12
223.635	-8.12
223.869	-16.12
224.104	-12.12
224.338	-15.12
224.573	-13.12
224.808	-17.12
225.042	-21.12
225.277	1.88
225.511	-1.12
225.746	0.88
225.98	4.88
226.215	22.88
226.449	11.88
226.683	22.88
226.918	21.88
227.152	16.88
227.387	39.88
227.621	30.88
227.856	42.88
228.09	32.88
228.324	47.88
228.559	56.88
228.793	74.88
229.027	59.88
229.262	56.88
229.496	76.88
229.73	68.88
229.964	75.88
230.199	67.88
230.433	69.88
230.667	72.88
230.901	66.88
231.136	66.88
231.37	62.88
231.604	79.88
231.838	66.88
232.072	85.88
232.306	72.88
232.541	72.88
232.775	73.88
233.009	83.88
233.243	77.88
233.477	70.88
233.711	78.88
233.945	68.88
234.179	73.88
234.413	90.88
234.647	78.88
234.881	79.88
235.115	84.88
235.349	70.88
235.583	60.88
235.817	73.88
236.051	68.88
236.285	62.88
236.519	80.88
236.753	75.88
236.987	72.88
237.221	80.88
237.455	82.88
237.689	66.88
237.922	66.88
238.156	70.88
238.39	66.88
238.624	66.88
238.858	78.88
239.091	72.88
239.325	74.88
239.559	76.88
239.793	59.88
240.027	75.88
240.26	58.88
240.494	69.88
240.728	71.88
240.961	68.88
241.195	72.88
241.429	83.88
241.662	65.88
241.896	64.88
242.13	58.88
242.363	60.88
242.597	72.88
242.83	61.88
243.064	74.88
243.298	75.88
243.531	78.88
243.765	58.88
243.998	83.88
244.232	78.88
244.465	70.88
244.699	76.88
244.932	67.88
245.166	69.88
245.399	59.88
245.633	91.88
245.866	87.88
246.099	60.88
246.333	70.88
246.566	61.88
246.8	78.88
247.033	73.88
247.266	80.88
247.5	74.88
247.733	73.88
247.966	64.88
248.2	63.88
248.433	81.88
248.666	86.88
248.899	71.88
249.133	71.88
249.366	77.88
249.599	70.88
249.832	72.88
250.066	80.88
250.299	74.88
250.532	77.88
250.765	67.88
250.998	67.88
251.231	67.88
251.465	69.88
251.698	87.88
251.931	74.88
252.164	77.88
252.397	72.88
252.63	76.88
252.863	72.88
253.096	67.88
253.329	88.88
253.562	86.88
253.795	78.88
254.028	73.88
254.261	74.88
254.494	72.88
254.727	78.88
254.96	74.88
255.193	82.88
255.426	65.88
255.659	71.88
255.892	83.88
256.124	83.88
256.357	83.88
256.59	71.88
256.823	67.88
257.056	72.88
257.289	80.88
257.521	78.88
257.754	79.88
257.987	66.88
258.22	79.88
258.452	65.88
258.685	82.88
258.918	77.88
259.151	64.88
259.383	76.88
259.616	61.88
259.849	71.88
260.081	82.88
260.314	71.88
260.547	77.88
260.779	88.88
261.012	69.88
261.244	74.88
261.477	80.88
261.71	77.88
261.942	62.88
262.175	79.88
262.407	71.88
262.64	86.88
262.872	90.88
263.105	74.88
263.337	75.88
263.57	81.88
263.802	86.88
264.035	72.88
264.267	75.88
264.499	68.88
264.732	94.88
264.964	71.88
265.197	88.88
265.429	61.88
265.661	94.88
265.894	62.88
266.126	65.88
266.358	76.88
266.591	76.88
266.823	72.88
267.055	84.88
267.287	87.88
267.52	67.88
267.752	83.88
267.984	92.88
268.216	81.88
268.448	66.88
268.681	74.88
268.913	88.88
269.145	68.88
269.377	66.88
269.609	89.88
269.841	72.88
270.073	58.88
270.306	83.88
270.538	75.88
270.77	92.88
271.002	87.88
271.234	94.88
271.466	80.88
271.698	64.88
271.93	70.88
272.162	91.88
272.394	86.88
272.626	81.88
272.858	85.88
273.09	82.88
273.322	71.88
273.553	70.88
273.785	83.88
274.017	78.88
274.249	70.88
274.481	72.88
274.713	71.88
274.945	75.88
275.176	78.88
275.408	94.88
275.64	82.88
275.872	70.88
276.104	70.88
276.335	80.88
276.567	57.88
276.799	80.88
277.031	74.88
277.262	91.88
277.494	74.88
277.726	84.88
277.957	76.88
278.189	79.88
278.421	78.88
278.652	86.88
278.884	81.88
279.115	80.88
279.347	78.88
279.579	71.88
279.81	78.88
280.042	82.88
280.273	83.88
280.505	84.88
280.736	77.88
280.968	68.88
281.199	79.88
281.431	72.88
281.662	72.88
281.894	87.88
282.125	75.88
282.356	91.88
282.588	90.88
282.819	81.88
283.051	86.88
283.282	72.88
283.513	82.88
283.745	89.88
283.976	79.88
284.207	83.88
284.439	92.88
284.67	82.88
284.901	92.88
285.132	89.88
285.364	83.88
285.595	67.88
285.826	63.88
286.057	72.88
286.288	82.88
286.52	51.88
286.751	77.88
286.982	66.88
287.213	65.88
287.444	80.88
287.675	93.88
287.906	83.88
288.138	84.88
288.369	82.88
288.6	93.88
288.831	78.88
289.062	80.88
289.293	86.88
289.524	75.88
289.755	77.88
289.986	72.88
290.217	66.88
290.448	96.88
290.679	100.88
290.91	85.88
291.141	66.88
291.371	69.88
291.602	76.88
291.833	88.88
292.064	71.88
292.295	86.88
292.526	79.88
292.757	77.88
292.987	79.88
293.218	70.88
293.449	81.88
293.68	78.88
293.91	72.88
294.141	91.88
294.372	88.88
294.603	89.88
294.833	80.88
295.064	73.88
295.295	87.88
295.525	72.88
295.756	82.88
295.987	82.88
296.217	92.88
296.448	81.88
296.679	93.88
296.909	82.88
297.14	78.88
297.37	102.88
297.601	76.88
297.831	84.88
298.062	81.88
298.292	85.88
298.523	69.88
298.753	87.88
298.984	77.88
299.214	82.88
299.445	83.88
299.675	84.88
299.905	86.88
300.136	80.88
300.366	77.88
300.597	79.88
300.827	81.88
301.057	87.88
301.288	78.88
301.518	79.88
301.748	79.88
301.979	92.88
302.209	78.88
302.439	85.88
302.669	70.88
302.9	76.88
303.13	82.88
303.36	93.88
303.59	94.88
303.82	92.88
304.051	72.88
304.281	80.88
304.511	89.88
304.741	71.88
304.971	71.88
305.201	87.88
305.431	82.88
305.661	87.88
305.891	78.88
306.121	84.88
306.352	83.88
306.582	82.88
306.812	75.88
307.042	73.88
307.272	67.88
307.502	89.88
307.731	79.88
307.961	65.88
308.191	78.88
308.421	73.88
308.651	71.88
308.881	69.88
309.111	91.88
309.341	84.88
309.571	69.88
309.8	85.88
310.03	69.88
310.26	66.88
310.49	86.88
310.72	78.88
310.949	79.88
311.179	65.88
311.409	84.88
311.639	71.88
311.868	82.88
312.098	72.88
312.328	82.88
312.557	69.88
312.787	87.88
313.017	86.88
313.246	93.88
313.476	84.88
313.706	88.88
313.935	80.88
314.165	79.88
314.394	83.88
314.624	63.88
314.853	78.88
315.083	77.88
315.312	83.88
315.542	76.88
315.771	87.88
316.001	79.88
316.23	70.88
316.46	74.88
316.689	81.88
316.919	85.88
317.148	78.88
317.377	86.88
317.607	70.88
317.836	85.88
318.065	99.88
318.295	82.88
318.524	90.88
318.753	77.88
318.983	76.88
319.212	82.88
319.441	79.88
319.67	89.88
319.9	93.88
320.129	79.88
320.358	82.88
320.587	76.88
320.816	84.88
321.046	75.88
321.275	83.88
321.504	91.88
321.733	79.88
321.962	85.88
322.191	66.88
322.42	82.88
322.649	86.88
322.878	80.88
323.108	79.88
323.337	100.88
323.566	78.88
323.795	78.88
324.024	78.88
324.253	87.88
324.482	87.88
324.71	81.88
324.939	80.88
325.168	82.88
325.397	73.88
325.626	93.88
325.855	81.88
326.084	76.88
326.313	90.88
326.542	73.88
326.77	76.88
326.999	68.88
327.228	79.88
327.457	80.88
327.686	84.88
327.914	88.88
328.143	99.88
328.372	73.88
328.6	87.88
328.829	81.88
329.058	92.88
329.287	64.88
329.515	87.88
329.744	77.88
329.972	80.88
330.201	78.88
330.43	80.88
330.658	81.88
330.887	82.88
331.115	78.88
331.344	76.88
331.572	91.88
331.801	85.88
332.03	75.88
332.258	88.88
332.486	77.88
332.715	78.88
332.943	88.88
333.172	90.88
333.4	73.88
333.629	78.88
333.857	89.88
334.085	86.88
334.314	71.88
334.542	86.88
334.771	80.88
334.999	85.88
335.227	86.88
335.455	77.88
335.684	92.88
335.912	84.88
336.14	73.88
336.369	90.88
336.597	86.88
336.825	78.88
337.053	89.88
337.281	62.88
337.51	85.88
337.738	73.88
337.966	87.88
338.194	78.88
338.422	83.88
338.65	87.88
338.878	94.88
339.106	89.88
339.334	86.88
339.562	93.88
339.79	89.88
340.018	94.88
340.246	82.88
340.474	77.88
340.702	82.88
340.93	67.88
341.158	67.88
341.386	98.88
341.614	74.88
341.842	85.88
342.07	81.88
342.298	84.88
342.526	78.88
342.754	71.88
342.981	75.88
343.209	74.88
343.437	75.88
343.665	88.88
343.893	94.88
344.12	96.88
344.348	98.88
344.576	79.88
344.804	79.88
345.031	75.88
345.259	80.88
345.487	86.88
345.714	88.88
345.942	78.88
346.17	86.88
346.397	92.88
346.625	79.88
346.853	88.88
347.08	86.88
347.308	68.88
347.535	88.88
347.763	78.88
347.99	76.88
348.218	78.88
348.445	77.88
348.673	75.88
348.9	78.88
349.128	78.88
349.355	74.88
349.583	68.88
349.81	66.88
350.037	81.88
350.265	87.88
350.492	66.88
350.72	71.88
350.947	86.88
351.174	81.88
351.402	70.88
351.629	75.88
351.856	78.88
352.083	63.88
352.311	93.88
352.538	78.88
352.765	77.88
352.992	92.88
353.22	78.88
353.447	70.88
353.674	83.88
353.901	82.88
354.128	76.88
354.355	85.88
354.583	97.88
354.81	83.88
355.037	85.88
355.264	78.88
355.491	83.88
355.718	84.88
355.945	86.88
356.172	82.88
356.399	85.88
356.626	81.88
356.853	89.88
357.08	75.88
357.307	81.88
357.534	69.88
357.761	86.88
357.988	97.88
358.215	92.88
358.441	94.88
358.668	81.88
358.895	85.88
359.122	76.88
359.349	65.88
359.576	95.88
359.802	84.88
360.029	78.88
360.256	87.88
360.483	71.88
360.709	83.88
360.936	96.88
361.163	84.88
361.39	79.88
361.616	92.88
361.843	74.88
362.07	72.88
362.296	80.88
362.523	78.88
362.749	74.88
362.976	95.88
363.203	101.88
363.429	82.88
363.656	80.88
363.882	72.88
364.109	84.88
364.335	70.88
364.562	115.88
364.788	86.88
365.015	80.88
365.241	70.88
365.468	94.88
365.694	85.88
365.92	80.88
366.147	70.88
366.373	84.88
366.599	86.88
366.826	72.88
367.052	94.88
367.278	83.88
367.505	80.88
367.731	81.88
367.957	85.88
368.184	76.88
368.41	76.88
368.636	76.88
368.862	76.88
369.089	72.88
369.315	89.88
369.541	78.88
369.767	70.88
369.993	89.88
370.219	75.88
370.445	67.88
370.672	85.88
370.898	94.88
371.124	78.88
371.35	90.88
371.576	73.88
371.802	87.88
372.028	94.88
372.254	95.88
372.48	73.88
372.706	78.88
372.932	88.88
373.158	74.88
373.384	86.88
373.61	84.88
373.835	92.88
374.061	103.88
374.287	94.88
374.513	74.88
374.739	70.88
374.965	99.88
375.191	77.88
375.416	74.88
375.642	83.88
375.868	86.88
376.094	83.88
376.319	80.88
376.545	71.88
376.771	72.88
376.997	77.88
377.222	82.88
377.448	82.88
377.674	78.88
377.899	92.88
378.125	76.88
378.35	92.88
378.576	79.88
378.802	79.88
379.027	87.88
379.253	79.88
379.478	77.88
379.704	91.88
379.929	90.88
380.155	66.88
380.38	82.88
380.606	81.88
380.831	78.88
381.057	82.88
381.282	94.88
381.507	93.88
381.733	80.88
381.958	80.88
382.184	90.88
382.409	82.88
382.634	91.88
382.86	92.88
383.085	82.88
383.31	79.88
383.535	79.88
383.761	83.88
383.986	100.88
384.211	82.88
384.436	64.88
384.662	76.88
384.887	81.88
385.112	72.88
385.337	71.88
385.562	87.88
385.787	90.88
386.013	90.88
386.238	84.88
386.463	82.88
386.688	80.88
386.913	78.88
387.138	87.88
387.363	87.88
387.588	74.88
387.813	87.88
388.038	76.88
388.263	92.88
388.488	85.88
388.713	74.88
388.938	78.88
389.163	80.88
389.387	91.88
389.612	94.88
389.837	96.88
390.062	87.88
390.287	82.88
390.512	79.88
390.736	87.88
390.961	99.88
391.186	69.88
391.411	91.88
391.636	84.88
391.86	94.88
392.085	81.88
392.31	72.88
392.534	93.88
392.759	86.88
392.984	103.88
393.208	153.88
393.433	257.88
393.658	202.88
393.882	101.88
394.107	74.88
394.331	88.88
394.556	88.88
394.78	82.88
395.005	84.88
395.229	81.88
395.454	98.88
395.678	76.88
395.903	100.88
396.127	114.88
396.352	110.88
396.576	127.88
396.801	176.88
397.025	196.88
397.249	117.88
397.474	96.88
397.698	83.88
397.922	80.88
398.147	71.88
398.371	76.88
398.595	96.88
398.82	96.88
399.044	75.88
399.268	82.88
399.492	73.88
399.717	80.88
399.941	80.88
400.165	78.88
400.389	72.88
400.613	75.88
400.837	78.88
401.062	72.88
401.286	67.88
401.51	72.88
401.734	78.88
401.958	71.88
402.182	87.88
402.406	70.88
402.63	81.88
402.854	89.88
403.078	88.88
403.302	76.88
403.526	82.88
403.75	83.88
403.974	78.88
404.198	80.88
404.422	76.88
404.645	79.88
404.869	79.88
405.093	75.88
405.317	75.88
405.541	78.88
405.765	80.88
405.988	87.88
406.212	76.88
406.436	79.88
406.66	85.88
406.883	79.88
407.107	78.88
407.331	80.88
407.555	99.88
407.778	82.88
408.002	91.88
408.226	78.88
408.449	76.88
408.673	79.88
408.896	73.88
409.12	76.88
409.344	70.88
409.567	85.88
409.791	63.88
410.014	71.88
410.238	83.88
410.461	62.88
410.685	81.88
410.908	66.88
411.132	87.88
411.355	79.88
411.578	79.88
411.802	82.88
412.025	88.88
412.249	78.88
412.472	97.88
412.695	73.88
412.919	63.88
413.142	68.88
413.365	86.88
413.589	77.88
413.812	78.88
414.035	72.88
414.258	90.88
414.482	79.88
414.705	75.88
414.928	75.88
415.151	71.88
415.374	76.88
415.597	76.88
415.821	67.88
416.044	72.88
416.267	78.88
416.49	73.88
416.713	72.88
416.936	72.88
417.159	79.88
417.382	76.88
417.605	90.88
417.828	78.88
418.051	70.88
418.274	90.88
418.497	99.88
418.72	97.88
418.943	82.88
419.166	74.88
419.389	72.88
419.611	88.88
419.834	75.88
420.057	73.88
420.28	92.88
420.503	82.88
420.726	67.88
420.948	80.88
421.171	79.88
421.394	81.88
421.617	87.88
421.839	86.88
422.062	96.88
422.285	101.88
422.507	152.88
422.73	269.88
422.953	222.88
423.175	132.88
423.398	106.88
423.621	101.88
423.843	84.88
424.066	83.88
424.288	79.88
424.511	83.88
424.733	88.88
424.956	81.88
425.178	71.88
425.401	75.88
425.623	78.88
425.846	64.88
426.068	83.88
426.291	85.88
426.513	98.88
426.735	88.88
426.958	81.88
427.18	86.88
427.402	92.88
427.625	92.88
427.847	76.88
428.069	79.88
428.292	109.88
428.514	106.88
428.736	82.88
428.958	101.88
429.181	96.88
429.403	85.88
429.625	81.88
429.847	105.88
430.069	108.88
430.292	125.88
430.514	120.88
430.736	94.88
430.958	92.88
431.18	87.88
431.402	76.88
431.624	77.88
431.846	86.88
432.068	102.88
432.29	89.88
432.512	79.88
432.734	90.88
432.956	85.88
433.178	75.88
433.4	82.88
433.622	72.88
433.844	75.88
434.066	88.88
434.287	72.88
434.509	79.88
434.731	63.88
434.953	65.88
435.175	67.88
435.397	72.88
435.618	86.88
435.84	83.88
436.062	88.88
436.284	78.88
436.505	93.88
436.727	81.88
436.949	80.88
437.17	63.88
437.392	84.88
437.614	90.88
437.835	84.88
438.057	82.88
438.278	81.88
438.5	86.88
438.721	80.88
438.943	73.88
439.165	94.88
439.386	78.88
439.608	77.88
439.829	76.88
440.05	81.88
440.272	72.88
440.493	71.88
440.715	83.88
440.936	98.88
441.158	71.88
441.379	80.88
441.6	81.88
441.822	77.88
442.043	80.88
442.264	79.88
442.486	90.88
442.707	103.88
442.928	94.88
443.149	62.88
443.371	99.88
443.592	110.88
443.813	116.88
444.034	84.88
444.255	72.88
444.476	77.88
444.698	102.88
444.919	71.88
445.14	152.88
445.361	143.88
445.582	149.88
445.803	136.88
446.024	90.88
446.245	85.88
446.466	74.88
446.687	76.88
446.908	77.88
447.129	86.88
447.35	61.88
447.571	80.88
447.792	72.88
448.013	79.88
448.234	56.88
448.455	82.88
448.675	83.88
448.896	75.88
449.117	84.88
449.338	70.88
449.559	72.88
449.779	84.88
450	70.88
450.221	86.88
450.442	90.88
450.662	65.88
450.883	69.88
451.104	72.88
451.324	84.88
451.545	78.88
451.766	73.88
451.986	62.88
452.207	72.88
452.428	90.88
452.648	76.88
452.869	85.88
453.089	68.88
453.31	80.88
453.53	80.88
453.751	97.88
453.971	78.88
454.192	79.88
454.412	80.88
454.633	89.88
454.853	82.88
455.073	86.88
455.294	66.88
455.514	80.88
455.734	86.88
455.955	79.88
456.175	85.88
456.395	79.88
456.616	95.88
456.836	76.88
457.056	70.88
457.276	70.88
457.497	81.88
457.717	84.88
457.937	93.88
458.157	86.88
458.377	87.88
458.598	88.88
458.818	77.88
459.038	89.88
459.258	91.88
459.478	95.88
459.698	67.88
459.918	72.88
460.138	65.88
460.358	71.88
460.578	87.88
460.798	94.88
461.018	98.88
461.238	86.88
461.458	80.88
461.678	92.88
461.898	79.88
462.118	89.88
462.338	74.88
462.558	78.88
462.777	65.88
462.997	72.88
463.217	77.88
463.437	80.88
463.657	84.88
463.876	71.88
464.096	83.88
464.316	93.88
464.536	78.88
464.755	82.88
464.975	77.88
465.195	83.88
465.414	64.88
465.634	70.88
465.854	83.88
466.073	82.88
466.293	87.88
466.512	71.88
466.732	77.88
466.951	78.88
467.171	85.88
467.391	67.88
467.61	77.88
467.829	76.88
468.049	80.88
468.268	71.88
468.488	68.88
468.707	84.88
468.927	71.88
469.146	74.88
469.365	79.88
469.585	75.88
469.804	87.88
470.023	73.88
470.243	80.88
470.462	90.88
470.681	77.88
470.901	80.88
471.12	82.88
471.339	82.88
471.558	78.88
471.777	75.88
471.997	76.88
472.216	70.88
472.435	90.88
472.654	72.88
472.873	74.88
473.092	80.88
473.311	88.88
473.53	78.88
473.749	69.88
473.968	90.88
474.187	88.88
474.406	70.88
474.625	78.88
474.844	86.88
475.063	92.88
475.282	80.88
475.501	71.88
475.72	89.88
475.939	73.88
476.158	74.88
476.377	75.88
476.596	86.88
476.814	78.88
477.033	79.88
477.252	82.88
477.471	86.88
477.69	76.88
477.908	84.88
478.127	95.88
478.346	80.88
478.564	73.88
478.783	82.88
479.002	76.88
479.22	75.88
479.439	65.88
479.658	68.88
479.876	82.88
480.095	69.88
480.313	93.88
480.532	88.88
480.751	80.88
480.969	72.88
481.188	75.88
481.406	92.88
481.624	98.88
481.843	75.88
482.061	86.88
482.28	60.88
482.498	73.88
482.717	69.88
482.935	82.88
483.153	70.88
483.372	86.88
483.59	74.88
483.808	78.88
484.027	71.88
484.245	88.88
484.463	87.88
484.681	93.88
484.9	78.88
485.118	86.88
485.336	68.88
485.554	87.88
485.772	77.88
485.99	68.88
486.209	79.88
486.427	74.88
486.645	82.88
486.863	75.88
487.081	88.88
487.299	86.88
487.517	77.88
487.735	89.88
487.953	90.88
488.171	89.88
488.389	82.88
488.607	74.88
488.825	83.88
489.043	87.88
489.261	79.88
489.479	80.88
489.696	75.88
489.914	84.88
490.132	75.88
490.35	82.88
490.568	75.88
490.786	74.88
491.003	86.88
491.221	90.88
491.439	78.88
491.657	83.88
491.874	74.88
492.092	77.88
492.31	66.88
492.527	83.88
492.745	83.88
492.963	99.88
493.18	81.88
493.398	103.88
493.615	81.88
493.833	75.88
494.05	74.88
494.268	93.88
494.485	84.88
494.703	76.88
494.92	77.88
495.138	82.88
495.355	79.88
495.573	87.88
495.79	91.88
496.008	75.88
496.225	72.88
496.442	72.88
496.66	72.88
496.877	83.88
497.094	90.88
497.312	72.88
497.529	78.88
497.746	79.88
497.963	81.88
498.181	78.88
498.398	87.88
498.615	77.88
498.832	89.88
499.049	79.88
499.267	84.88
499.484	92.88
499.701	71.88
499.918	90.88
500.135	81.88
500.352	81.88
500.569	79.88
500.786	78.88
501.003	80.88
501.22	78.88
501.437	94.88
501.654	75.88
501.871	83.88
502.088	88.88
502.305	87.88
502.522	99.88
502.739	84.88
502.956	84.88
503.172	87.88
503.389	78.88
503.606	79.88
503.823	77.88
504.04	113.88
504.256	74.88
504.473	87.88
504.69	82.88
504.907	80.88
505.123	81.88
505.34	82.88
505.557	76.88
505.773	84.88
505.99	74.88
506.207	80.88
506.423	84.88
506.64	70.88
506.856	79.88
507.073	82.88
507.289	77.88
507.506	76.88
507.722	88.88
507.939	83.88
508.155	81.88
508.372	98.88
508.588	78.88
508.805	79.88
509.021	90.88
509.238	72.88
509.454	83.88
509.67	78.88
509.887	77.88
510.103	85.88
510.319	86.88
510.536	79.88
510.752	77.88
510.968	84.88
511.184	80.88
511.401	75.88
511.617	83.88
511.833	82.88
512.049	84.88
512.265	82.88
512.481	69.88
512.698	83.88
512.914	79.88
513.13	86.88
513.346	86.88
513.562	82.88
513.778	90.88
513.994	67.88
514.21	78.88
514.426	78.88
514.642	76.88
514.858	80.88
515.074	72.88
515.29	74.88
515.506	72.88
515.721	83.88
515.937	71.88
516.153	71.88
516.369	79.88
516.585	77.88
516.801	76.88
517.016	84.88
517.232	72.88
517.448	84.88
517.664	88.88
517.879	83.88
518.095	71.88
518.311	88.88
518.527	91.88
518.742	82.88
518.958	91.88
519.173	102.88
519.389	84.88
519.605	79.88
