Data from 15780_3_HRD10591_00035.txt Node
Date: Mon Jan 19 14:20:15 EST 2026
User: Yrep
Spectrometer: HR+D1059
Trigger mode: 1
Integration Time (sec): 1.000000E-1
Scans to average: 1
Electric dark correction enabled: true
Nonlinearity correction enabled: false
Boxcar width: 0
XAxis mode: Wavelengths
Number of Pixels in Spectrum: 2048
>>>>>Begin Spectral Data<<<<<
223.165	-23
223.4	-23
223.635	-23
223.869	-9
224.104	-25
224.338	-13
224.573	-8
224.808	-26
225.042	-10
225.277	-6
225.511	-15
225.746	17
225.98	5
226.215	4
226.449	15
226.683	12
226.918	29
227.152	53
227.387	38
227.621	52
227.856	41
228.09	52
228.324	46
228.559	60
228.793	65
229.027	56
229.262	70
229.496	63
229.73	59
229.964	62
230.199	87
230.433	74
230.667	72
230.901	64
231.136	83
231.37	69
231.604	86
231.838	70
232.072	81
232.306	88
232.541	65
232.775	92
233.009	89
233.243	86
233.477	84
233.711	75
233.945	88
234.179	87
234.413	78
234.647	93
234.881	75
235.115	85
235.349	74
235.583	84
235.817	66
236.051	74
236.285	83
236.519	80
236.753	91
236.987	73
237.221	73
237.455	58
237.689	85
237.922	74
238.156	84
238.39	80
238.624	77
238.858	77
239.091	78
239.325	62
239.559	77
239.793	75
240.027	83
240.26	74
240.494	83
240.728	71
240.961	83
241.195	83
241.429	63
241.662	74
241.896	74
242.13	74
242.363	84
242.597	78
242.83	66
243.064	76
243.298	82
243.531	86
243.765	72
243.998	83
244.232	86
244.465	79
244.699	64
244.932	71
245.166	76
245.399	84
245.633	86
245.866	90
246.099	86
246.333	85
246.566	91
246.8	80
247.033	76
247.266	80
247.5	68
247.733	74
247.966	74
248.2	71
248.433	62
248.666	76
248.899	86
249.133	79
249.366	80
249.599	74
249.832	75
250.066	70
250.299	72
250.532	86
250.765	71
250.998	74
251.231	67
251.465	80
251.698	84
251.931	80
252.164	78
252.397	80
252.63	89
252.863	75
253.096	91
253.329	79
253.562	68
253.795	71
254.028	75
254.261	76
254.494	83
254.727	75
254.96	66
255.193	73
255.426	80
255.659	88
255.892	73
256.124	75
256.357	76
256.59	84
256.823	80
257.056	87
257.289	77
257.521	86
257.754	74
257.987	76
258.22	82
258.452	67
258.685	89
258.918	76
259.151	84
259.383	74
259.616	85
259.849	66
260.081	76
260.314	84
260.547	85
260.779	84
261.012	65
261.244	84
261.477	83
261.71	80
261.942	79
262.175	79
262.407	78
262.64	64
262.872	90
263.105	80
263.337	92
263.57	76
263.802	75
264.035	86
264.267	79
264.499	90
264.732	77
264.964	81
265.197	75
265.429	92
265.661	83
265.894	65
266.126	81
266.358	71
266.591	85
266.823	72
267.055	75
267.287	85
267.52	91
267.752	91
267.984	81
268.216	85
268.448	76
268.681	60
268.913	91
269.145	74
269.377	62
269.609	84
269.841	101
270.073	77
270.306	69
270.538	67
270.77	73
271.002	60
271.234	73
271.466	68
271.698	91
271.93	79
272.162	74
272.394	86
272.626	98
272.858	67
273.09	76
273.322	81
273.553	69
273.785	88
274.017	78
274.249	86
274.481	77
274.713	94
274.945	77
275.176	88
275.408	95
275.64	87
275.872	84
276.104	94
276.335	87
276.567	95
276.799	75
277.031	104
277.262	71
277.494	80
277.726	87
277.957	78
278.189	76
278.421	84
278.652	83
278.884	74
279.115	76
279.347	86
279.579	88
279.81	94
280.042	87
280.273	83
280.505	86
280.736	86
280.968	80
281.199	69
281.431	86
281.662	72
281.894	70
282.125	79
282.356	72
282.588	77
282.819	72
283.051	96
283.282	77
283.513	88
283.745	85
283.976	80
284.207	86
284.439	93
284.67	100
284.901	89
285.132	91
285.364	86
285.595	87
285.826	64
286.057	83
286.288	91
286.52	78
286.751	81
286.982	90
287.213	85
287.444	73
287.675	78
287.906	98
288.138	74
288.369	96
288.6	81
288.831	72
289.062	90
289.293	72
289.524	76
289.755	92
289.986	77
290.217	73
290.448	84
290.679	90
290.91	67
291.141	78
291.371	80
291.602	91
291.833	90
292.064	79
292.295	84
292.526	87
292.757	89
292.987	100
293.218	82
293.449	88
293.68	77
293.91	94
294.141	85
294.372	73
294.603	77
294.833	99
295.064	98
295.295	90
295.525	80
295.756	91
295.987	79
296.217	68
296.448	70
296.679	88
296.909	77
297.14	68
297.37	95
297.601	80
297.831	91
298.062	85
298.292	83
298.523	84
298.753	84
298.984	81
299.214	79
299.445	96
299.675	83
299.905	88
300.136	77
300.366	86
300.597	72
300.827	96
301.057	93
301.288	90
301.518	92
301.748	95
301.979	106
302.209	78
302.439	88
302.669	94
302.9	84
303.13	79
303.36	91
303.59	86
303.82	89
304.051	82
304.281	74
304.511	78
304.741	89
304.971	70
305.201	75
305.431	85
305.661	82
305.891	81
306.121	82
306.352	74
306.582	71
306.812	86
307.042	83
307.272	82
307.502	82
307.731	85
307.961	95
308.191	92
308.421	90
308.651	83
308.881	87
309.111	100
309.341	95
309.571	86
309.8	94
310.03	70
310.26	95
310.49	80
310.72	86
310.949	74
311.179	76
311.409	81
311.639	79
311.868	97
312.098	80
312.328	96
312.557	94
312.787	87
313.017	77
313.246	62
313.476	81
313.706	75
313.935	69
314.165	79
314.394	98
314.624	86
314.853	93
315.083	86
315.312	88
315.542	83
315.771	100
316.001	78
316.23	80
316.46	87
316.689	75
316.919	83
317.148	92
317.377	88
317.607	90
317.836	90
318.065	98
318.295	102
318.524	89
318.753	79
318.983	81
319.212	85
319.441	96
319.67	83
319.9	76
320.129	82
320.358	78
320.587	85
320.816	81
321.046	79
321.275	70
321.504	70
321.733	79
321.962	71
322.191	96
322.42	88
322.649	87
322.878	72
323.108	99
323.337	78
323.566	82
323.795	92
324.024	79
324.253	96
324.482	84
324.71	73
324.939	96
325.168	90
325.397	81
325.626	91
325.855	95
326.084	89
326.313	75
326.542	90
326.77	92
326.999	91
327.228	75
327.457	81
327.686	78
327.914	80
328.143	96
328.372	86
328.6	88
328.829	87
329.058	82
329.287	81
329.515	72
329.744	80
329.972	78
330.201	94
330.43	77
330.658	86
330.887	84
331.115	80
331.344	82
331.572	74
331.801	77
332.03	88
332.258	83
332.486	73
332.715	90
332.943	72
333.172	84
333.4	100
333.629	87
333.857	82
334.085	94
334.314	102
334.542	89
334.771	81
334.999	87
335.227	85
335.455	86
335.684	94
335.912	98
336.14	106
336.369	71
336.597	93
336.825	74
337.053	96
337.281	88
337.51	85
337.738	90
337.966	69
338.194	84
338.422	82
338.65	94
338.878	92
339.106	86
339.334	83
339.562	82
339.79	84
340.018	80
340.246	81
340.474	76
340.702	91
340.93	73
341.158	86
341.386	73
341.614	79
341.842	80
342.07	73
342.298	86
342.526	88
342.754	90
342.981	80
343.209	70
343.437	100
343.665	81
343.893	88
344.12	88
344.348	94
344.576	72
344.804	85
345.031	73
345.259	88
345.487	88
345.714	87
345.942	89
346.17	90
346.397	76
346.625	78
346.853	89
347.08	76
347.308	82
347.535	80
347.763	78
347.99	79
348.218	92
348.445	88
348.673	79
348.9	92
349.128	82
349.355	90
349.583	85
349.81	73
350.037	81
350.265	84
350.492	68
350.72	77
350.947	78
351.174	82
351.402	66
351.629	74
351.856	65
352.083	85
352.311	72
352.538	80
352.765	72
352.992	82
353.22	76
353.447	81
353.674	75
353.901	94
354.128	86
354.355	79
354.583	82
354.81	84
355.037	74
355.264	94
355.491	96
355.718	77
355.945	81
356.172	87
356.399	88
356.626	84
356.853	81
357.08	82
357.307	83
357.534	93
357.761	88
357.988	78
358.215	72
358.441	86
358.668	84
358.895	74
359.122	87
359.349	80
359.576	81
359.802	75
360.029	75
360.256	85
360.483	90
360.709	72
360.936	99
361.163	87
361.39	96
361.616	82
361.843	96
362.07	99
362.296	95
362.523	73
362.749	94
362.976	84
363.203	97
363.429	88
363.656	98
363.882	99
364.109	82
364.335	94
364.562	106
364.788	97
365.015	82
365.241	90
365.468	81
365.694	98
365.92	91
366.147	76
366.373	88
366.599	83
366.826	85
367.052	89
367.278	85
367.505	81
367.731	84
367.957	78
368.184	86
368.41	89
368.636	83
368.862	81
369.089	80
369.315	79
369.541	82
369.767	80
369.993	86
370.219	71
370.445	88
370.672	92
370.898	91
371.124	99
371.35	89
371.576	79
371.802	94
372.028	79
372.254	101
372.48	90
372.706	93
372.932	68
373.158	97
373.384	94
373.61	119
373.835	98
374.061	90
374.287	87
374.513	100
374.739	91
374.965	97
375.191	92
375.416	82
375.642	78
375.868	84
376.094	75
376.319	76
376.545	93
376.771	83
376.997	94
377.222	94
377.448	79
377.674	83
377.899	87
378.125	77
378.35	80
378.576	85
378.802	86
379.027	84
379.253	85
379.478	84
379.704	86
379.929	85
380.155	82
380.38	79
380.606	78
380.831	82
381.057	84
381.282	88
381.507	69
381.733	81
381.958	94
382.184	92
382.409	97
382.634	66
382.86	84
383.085	87
383.31	74
383.535	89
383.761	91
383.986	94
384.211	82
384.436	91
384.662	86
384.887	89
385.112	84
385.337	90
385.562	89
385.787	87
386.013	114
386.238	86
386.463	74
386.688	94
386.913	102
387.138	97
387.363	93
387.588	77
387.813	87
388.038	99
388.263	88
388.488	86
388.713	88
388.938	99
389.163	88
389.387	87
389.612	82
389.837	71
390.062	88
390.287	73
390.512	92
390.736	74
390.961	94
391.186	81
391.411	85
391.636	87
391.86	90
392.085	90
392.31	82
392.534	81
392.759	100
392.984	142
393.208	265
393.433	372
393.658	246
393.882	127
394.107	98
394.331	103
394.556	108
394.78	102
395.005	93
395.229	89
395.454	92
395.678	91
395.903	112
396.127	129
396.352	130
396.576	149
396.801	244
397.025	276
397.249	169
397.474	104
397.698	91
397.922	85
398.147	99
398.371	67
398.595	81
398.82	81
399.044	82
399.268	92
399.492	70
399.717	95
399.941	82
400.165	84
400.389	88
400.613	86
400.837	74
401.062	75
401.286	81
401.51	74
401.734	73
401.958	89
402.182	89
402.406	65
402.63	89
402.854	81
403.078	77
403.302	60
403.526	70
403.75	81
403.974	84
404.198	79
404.422	94
404.645	106
404.869	101
405.093	87
405.317	81
405.541	77
405.765	81
405.988	77
406.212	86
406.436	87
406.66	87
406.883	90
407.107	98
407.331	92
407.555	107
407.778	91
408.002	113
408.226	95
408.449	84
408.673	81
408.896	84
409.12	71
409.344	75
409.567	91
409.791	88
410.014	104
410.238	80
410.461	87
410.685	90
410.908	85
411.132	82
411.355	74
411.578	92
411.802	99
412.025	85
412.249	91
412.472	73
412.695	88
412.919	72
413.142	90
413.365	99
413.589	98
413.812	76
414.035	86
414.258	84
414.482	86
414.705	80
414.928	78
415.151	92
415.374	88
415.597	86
415.821	76
416.044	76
416.267	80
416.49	76
416.713	81
416.936	88
417.159	80
417.382	86
417.605	89
417.828	94
418.051	92
418.274	87
418.497	89
418.72	99
418.943	78
419.166	91
419.389	76
419.611	100
419.834	79
420.057	91
420.28	76
420.503	83
420.726	90
420.948	94
421.171	93
421.394	98
421.617	117
421.839	96
422.062	106
422.285	121
422.507	194
422.73	314
422.953	290
423.175	154
423.398	95
423.621	77
423.843	90
424.066	85
424.288	92
424.511	88
424.733	81
424.956	65
425.178	91
425.401	68
425.623	82
425.846	80
426.068	98
426.291	85
426.513	72
426.735	96
426.958	74
427.18	75
427.402	83
427.625	71
427.847	82
428.069	89
428.292	118
428.514	125
428.736	93
428.958	115
429.181	108
429.403	87
429.625	80
429.847	100
430.069	131
430.292	151
430.514	157
430.736	123
430.958	127
431.18	78
431.402	86
431.624	79
431.846	118
432.068	130
432.29	82
432.512	79
432.734	87
432.956	83
433.178	87
433.4	79
433.622	93
433.844	73
434.066	68
434.287	82
434.509	89
434.731	85
434.953	77
435.175	93
435.397	95
435.618	88
435.84	94
436.062	68
436.284	82
436.505	78
436.727	91
436.949	83
437.17	89
437.392	71
437.614	87
437.835	83
438.057	79
438.278	96
438.5	91
438.721	96
438.943	85
439.165	92
439.386	74
439.608	74
439.829	95
440.05	77
440.272	92
440.493	84
440.715	76
440.936	78
441.158	77
441.379	81
441.6	77
441.822	86
442.043	68
442.264	90
442.486	120
442.707	136
442.928	82
443.149	96
443.371	130
443.592	190
443.813	166
444.034	88
444.255	98
444.476	94
444.698	97
444.919	85
445.14	154
445.361	164
445.582	238
445.803	204
446.024	96
446.245	87
446.466	74
446.687	87
446.908	84
447.129	71
447.35	82
447.571	88
447.792	81
448.013	78
448.234	98
448.455	86
448.675	76
448.896	91
449.117	88
449.338	80
449.559	77
449.779	85
450	91
450.221	80
450.442	87
450.662	88
450.883	78
451.104	98
451.324	63
451.545	84
451.766	83
451.986	74
452.207	72
452.428	105
452.648	86
452.869	89
453.089	82
453.31	91
453.53	79
453.751	88
453.971	83
454.192	86
454.412	98
454.633	91
454.853	81
455.073	74
455.294	74
455.514	98
455.734	79
455.955	90
456.175	76
456.395	82
456.616	86
456.836	86
457.056	84
457.276	83
457.497	70
457.717	89
457.937	97
458.157	81
458.377	99
458.598	115
458.818	114
459.038	96
459.258	75
459.478	77
459.698	78
459.918	75
460.138	86
460.358	84
460.578	79
460.798	101
461.018	83
461.238	96
461.458	86
461.678	80
461.898	82
462.118	93
462.338	84
462.558	76
462.777	83
462.997	79
463.217	86
463.437	83
463.657	99
463.876	81
464.096	74
464.316	81
464.536	88
464.755	95
464.975	92
465.195	91
465.414	94
465.634	80
465.854	81
466.073	82
466.293	84
466.512	76
466.732	75
466.951	84
467.171	85
467.391	84
467.61	91
467.829	80
468.049	95
468.268	88
468.488	87
468.707	78
468.927	91
469.146	91
469.365	83
469.585	65
469.804	83
470.023	85
470.243	85
470.462	89
470.681	86
470.901	86
471.12	85
471.339	93
471.558	70
471.777	83
471.997	93
472.216	81
472.435	82
472.654	82
472.873	80
473.092	62
473.311	90
473.53	69
473.749	71
473.968	83
474.187	78
474.406	88
474.625	79
474.844	69
475.063	70
475.282	75
475.501	68
475.72	82
475.939	87
476.158	94
476.377	81
476.596	70
476.814	83
477.033	82
477.252	81
477.471	78
477.69	71
477.908	83
478.127	82
478.346	89
478.564	87
478.783	86
479.002	74
479.22	78
479.439	79
479.658	90
479.876	87
480.095	76
480.313	82
480.532	91
480.751	98
480.969	76
481.188	90
481.406	83
481.624	84
481.843	64
482.061	83
482.28	82
482.498	73
482.717	75
482.935	94
483.153	82
483.372	83
483.59	88
483.808	88
484.027	79
484.245	91
484.463	77
484.681	89
484.9	72
485.118	84
485.336	71
485.554	84
485.772	77
485.99	88
486.209	86
486.427	76
486.645	89
486.863	89
487.081	89
487.299	92
487.517	94
487.735	93
487.953	138
488.171	117
488.389	98
488.607	89
488.825	86
489.043	72
489.261	91
489.479	89
489.696	86
489.914	82
490.132	88
490.35	108
490.568	70
490.786	70
491.003	75
491.221	79
491.439	86
491.657	82
491.874	91
492.092	80
492.31	91
492.527	97
492.745	86
492.963	87
493.18	91
493.398	84
493.615	80
493.833	96
494.05	83
494.268	75
494.485	87
494.703	84
494.92	86
495.138	81
495.355	88
495.573	66
495.79	84
496.008	89
496.225	79
496.442	86
496.66	83
496.877	82
497.094	76
497.312	94
497.529	97
497.746	92
497.963	75
498.181	91
498.398	87
498.615	98
498.832	78
499.049	100
499.267	86
499.484	88
499.701	91
499.918	83
500.135	92
500.352	86
500.569	85
500.786	99
501.003	86
501.22	82
501.437	78
501.654	97
501.871	95
502.088	79
502.305	87
502.522	77
502.739	92
502.956	78
503.172	77
503.389	92
503.606	91
503.823	87
504.04	106
504.256	101
504.473	107
504.69	75
504.907	82
505.123	88
505.34	94
505.557	80
505.773	96
505.99	88
506.207	82
506.423	87
506.64	85
506.856	92
507.073	81
507.289	73
507.506	100
507.722	74
507.939	75
508.155	94
508.372	82
508.588	81
508.805	80
509.021	90
509.238	82
509.454	71
509.67	87
509.887	93
510.103	91
510.319	63
510.536	104
510.752	79
510.968	94
511.184	68
511.401	94
511.617	79
511.833	93
512.049	91
512.265	74
512.481	83
512.698	87
512.914	100
513.13	89
513.346	90
513.562	90
513.778	81
513.994	94
514.21	72
514.426	85
514.642	81
514.858	87
515.074	84
515.29	81
515.506	79
515.721	89
515.937	89
516.153	67
516.369	83
516.585	89
516.801	86
517.016	88
517.232	88
517.448	97
517.664	76
517.879	98
518.095	94
518.311	88
518.527	88
518.742	93
518.958	110
519.173	129
519.389	102
519.605	82
519.82	90
520.036	79
520.251	93
520.467	86
520.682	94
520.898	96
521.113	89
521.329	86
521.544	63
521.76	82
521.975	80
522.19	90
522.406	95
522.621	82
522.836	82
523.052	89
523.267	82
523.482	82
523.698	80
523.913	82
524.128	89
524.343	92
524.559	100
524.774	84
524.989	87
525.204	73
525.419	72
525.634	82
525.849	98
526.064	99
526.28	154
526.495	187
526.71	213
526.925	163
527.14	192
527.355	196
527.57	104
527.785	72
527.999	91
528.214	81
528.429	91
528.644	84
528.859	85
529.074	82
529.289	85
529.503	68
529.718	82
529.933	87
530.148	89
530.363	88
530.577	94
530.792	90
531.007	82
531.221	93
531.436	87
531.651	100
531.865	102
532.08	94
532.295	99
532.509	94
532.724	89
532.938	87
533.153	74
533.367	98
533.582	96
533.796	97
534.011	105
534.225	78
534.44	79
534.654	81
534.868	84
535.083	122
535.297	116
535.511	103
535.726	82
535.94	96
536.154	88
536.369	98
536.583	86
536.797	75
537.011	84
537.225	74
537.44	82
537.654	78
537.868	91
538.082	72
538.296	92
538.51	80
538.724	87
538.938	94
539.153	103
539.367	90
539.581	111
539.795	88
540.009	98
540.222	91
540.436	95
540.65	82
540.864	83
541.078	80
541.292	80
541.506	87
541.72	88
541.934	92
542.147	93
542.361	92
542.575	94
542.789	86
543.002	89
543.216	87
543.43	78
543.644	92
543.857	96
544.071	88
544.285	100
544.498	89
544.712	90
544.925	82
545.139	84
545.352	83
545.566	97
545.779	88
545.993	94
546.206	95
546.42	98
546.633	105
546.847	100
547.06	113
547.274	105
547.487	112
547.7	120
547.914	118
548.127	124
548.34	118
548.554	117
548.767	98
548.98	130
549.193	111
549.407	118
549.62	106
549.833	118
550.046	136
550.259	131
550.473	134
550.686	137
550.899	142
551.112	139
551.325	150
551.538	156
551.751	149
551.964	134
552.177	122
552.39	137
552.603	147
552.816	141
553.029	130
553.242	130
553.455	122
553.667	134
553.88	137
554.093	140
554.306	144
554.519	140
554.732	152
554.944	145
555.157	143
555.37	140
555.583	131
555.795	134
556.008	132
556.221	118
556.433	117
556.646	114
556.859	115
557.071	107
557.284	103
557.496	96
557.709	94
557.921	107
558.134	113
558.346	140
558.559	124
558.771	121
558.984	238
559.196	258
559.409	142
559.621	204
559.833	164
560.046	198
560.258	158
560.47	152
560.683	112
560.895	103
561.107	95
561.32	100
561.532	99
561.744	81
561.956	84
562.168	92
562.381	96
562.593	97
562.805	85
563.017	99
563.229	91
563.441	80
563.653	87
563.865	87
564.077	83
564.289	96
564.501	102
564.713	82
564.925	95
565.137	94
565.349	86
565.561	92
565.773	86
565.985	79
566.197	80
566.408	91
566.62	81
566.832	94
567.044	82
567.255	88
567.467	84
567.679	96
567.891	93
568.102	74
568.314	70
568.526	94
568.737	74
568.949	96
569.161	94
569.372	87
569.584	96
569.795	96
570.007	76
570.218	95
570.43	91
570.641	86
570.853	98
571.064	68
571.276	100
571.487	91
571.698	100
571.91	90
572.121	69
572.333	100
572.544	86
572.755	93
572.966	86
573.178	94
573.389	85
573.6	82
573.811	87
574.023	73
574.234	88
574.445	88
574.656	90
574.867	74
575.078	72
575.289	80
575.501	81
575.712	86
575.923	75
576.134	85
576.345	99
576.556	85
576.767	76
576.978	102
577.188	84
577.399	79
577.61	84
577.821	82
578.032	74
578.243	100
578.454	88
578.665	94
578.875	89
579.086	93
579.297	80
579.508	71
579.718	73
579.929	84
580.14	92
580.35	96
580.561	93
580.772	100
580.982	85
581.193	96
581.403	87
581.614	84
581.825	84
582.035	93
582.246	78
582.456	84
582.667	87
582.877	77
583.087	76
583.298	88
583.508	94
583.719	82
583.929	83
584.139	72
584.35	87
584.56	90
584.77	76
584.981	77
585.191	86
585.401	98
585.611	85
585.821	128
586.032	163
586.242	104
586.452	91
586.662	96
586.872	79
587.082	91
587.292	79
587.502	87
587.713	93
587.923	100
