Data from KBrHeat2_HRD10591_00013.txt Node
Date: Fri Dec 27 14:54:53 EST 2024
User: Yrep
Spectrometer: HR+D1059
Trigger mode: 1
Integration Time (sec): 1.000000E-1
Scans to average: 1
Electric dark correction enabled: true
Nonlinearity correction enabled: false
Boxcar width: 0
XAxis mode: Wavelengths
Number of Pixels in Spectrum: 2048
>>>>>Begin Spectral Data<<<<<
223.165	-9.44
223.4	-9.44
223.635	-9.44
223.869	-22.44
224.104	-14.44
224.338	-11.44
224.573	-13.44
224.808	-18.44
225.042	-11.44
225.277	-2.44
225.511	3.56
225.746	3.56
225.98	-3.44
226.215	15.56
226.449	23.56
226.683	22.56
226.918	18.56
227.152	19.56
227.387	38.56
227.621	33.56
227.856	40.56
228.09	47.56
228.324	49.56
228.559	55.56
228.793	55.56
229.027	47.56
229.262	65.56
229.496	56.56
229.73	59.56
229.964	75.56
230.199	60.56
230.433	57.56
230.667	85.56
230.901	77.56
231.136	74.56
231.37	75.56
231.604	71.56
231.838	72.56
232.072	82.56
232.306	79.56
232.541	82.56
232.775	81.56
233.009	67.56
233.243	72.56
233.477	87.56
233.711	83.56
233.945	86.56
234.179	82.56
234.413	80.56
234.647	82.56
234.881	67.56
235.115	57.56
235.349	73.56
235.583	74.56
235.817	81.56
236.051	72.56
236.285	63.56
236.519	71.56
236.753	80.56
236.987	83.56
237.221	75.56
237.455	80.56
237.689	88.56
237.922	89.56
238.156	72.56
238.39	62.56
238.624	62.56
238.858	72.56
239.091	79.56
239.325	71.56
239.559	72.56
239.793	82.56
240.027	82.56
240.26	62.56
240.494	79.56
240.728	78.56
240.961	68.56
241.195	78.56
241.429	79.56
241.662	78.56
241.896	79.56
242.13	67.56
242.363	70.56
242.597	82.56
242.83	67.56
243.064	84.56
243.298	80.56
243.531	85.56
243.765	71.56
243.998	77.56
244.232	66.56
244.465	79.56
244.699	71.56
244.932	77.56
245.166	68.56
245.399	85.56
245.633	82.56
245.866	83.56
246.099	73.56
246.333	71.56
246.566	83.56
246.8	90.56
247.033	86.56
247.266	74.56
247.5	76.56
247.733	82.56
247.966	85.56
248.2	72.56
248.433	69.56
248.666	83.56
248.899	78.56
249.133	81.56
249.366	87.56
249.599	73.56
249.832	80.56
250.066	81.56
250.299	74.56
250.532	67.56
250.765	77.56
250.998	66.56
251.231	74.56
251.465	74.56
251.698	63.56
251.931	80.56
252.164	78.56
252.397	82.56
252.63	81.56
252.863	74.56
253.096	69.56
253.329	63.56
253.562	71.56
253.795	79.56
254.028	88.56
254.261	81.56
254.494	75.56
254.727	81.56
254.96	87.56
255.193	86.56
255.426	88.56
255.659	70.56
255.892	74.56
256.124	69.56
256.357	93.56
256.59	71.56
256.823	99.56
257.056	81.56
257.289	75.56
257.521	80.56
257.754	61.56
257.987	74.56
258.22	72.56
258.452	82.56
258.685	76.56
258.918	84.56
259.151	83.56
259.383	88.56
259.616	78.56
259.849	82.56
260.081	81.56
260.314	84.56
260.547	74.56
260.779	85.56
261.012	72.56
261.244	80.56
261.477	98.56
261.71	82.56
261.942	73.56
262.175	83.56
262.407	89.56
262.64	72.56
262.872	63.56
263.105	64.56
263.337	77.56
263.57	62.56
263.802	71.56
264.035	68.56
264.267	64.56
264.499	81.56
264.732	83.56
264.964	99.56
265.197	72.56
265.429	73.56
265.661	74.56
265.894	90.56
266.126	82.56
266.358	81.56
266.591	79.56
266.823	71.56
267.055	77.56
267.287	74.56
267.52	75.56
267.752	78.56
267.984	93.56
268.216	82.56
268.448	81.56
268.681	83.56
268.913	87.56
269.145	63.56
269.377	72.56
269.609	81.56
269.841	83.56
270.073	90.56
270.306	79.56
270.538	80.56
270.77	85.56
271.002	80.56
271.234	81.56
271.466	88.56
271.698	86.56
271.93	86.56
272.162	86.56
272.394	97.56
272.626	84.56
272.858	68.56
273.09	78.56
273.322	85.56
273.553	67.56
273.785	79.56
274.017	82.56
274.249	74.56
274.481	70.56
274.713	81.56
274.945	81.56
275.176	74.56
275.408	62.56
275.64	78.56
275.872	85.56
276.104	93.56
276.335	81.56
276.567	77.56
276.799	80.56
277.031	62.56
277.262	85.56
277.494	77.56
277.726	77.56
277.957	79.56
278.189	89.56
278.421	72.56
278.652	82.56
278.884	75.56
279.115	86.56
279.347	81.56
279.579	82.56
279.81	81.56
280.042	90.56
280.273	76.56
280.505	68.56
280.736	77.56
280.968	88.56
281.199	83.56
281.431	81.56
281.662	89.56
281.894	79.56
282.125	72.56
282.356	82.56
282.588	81.56
282.819	82.56
283.051	83.56
283.282	84.56
283.513	78.56
283.745	101.56
283.976	93.56
284.207	87.56
284.439	83.56
284.67	80.56
284.901	88.56
285.132	88.56
285.364	87.56
285.595	104.56
285.826	77.56
286.057	84.56
286.288	86.56
286.52	79.56
286.751	75.56
286.982	73.56
287.213	71.56
287.444	71.56
287.675	75.56
287.906	84.56
288.138	97.56
288.369	86.56
288.6	82.56
288.831	76.56
289.062	77.56
289.293	90.56
289.524	84.56
289.755	90.56
289.986	78.56
290.217	68.56
290.448	79.56
290.679	84.56
290.91	105.56
291.141	81.56
291.371	93.56
291.602	70.56
291.833	71.56
292.064	83.56
292.295	78.56
292.526	87.56
292.757	71.56
292.987	81.56
293.218	93.56
293.449	70.56
293.68	81.56
293.91	95.56
294.141	86.56
294.372	96.56
294.603	85.56
294.833	100.56
295.064	75.56
295.295	88.56
295.525	94.56
295.756	76.56
295.987	79.56
296.217	87.56
296.448	75.56
296.679	88.56
296.909	86.56
297.14	86.56
297.37	82.56
297.601	82.56
297.831	77.56
298.062	86.56
298.292	87.56
298.523	87.56
298.753	87.56
298.984	83.56
299.214	77.56
299.445	96.56
299.675	80.56
299.905	87.56
300.136	101.56
300.366	73.56
300.597	80.56
300.827	88.56
301.057	96.56
301.288	97.56
301.518	98.56
301.748	87.56
301.979	88.56
302.209	87.56
302.439	78.56
302.669	72.56
302.9	91.56
303.13	84.56
303.36	82.56
303.59	89.56
303.82	89.56
304.051	81.56
304.281	87.56
304.511	79.56
304.741	89.56
304.971	80.56
305.201	71.56
305.431	81.56
305.661	83.56
305.891	71.56
306.121	84.56
306.352	73.56
306.582	93.56
306.812	75.56
307.042	69.56
307.272	77.56
307.502	91.56
307.731	81.56
307.961	88.56
308.191	98.56
308.421	78.56
308.651	68.56
308.881	89.56
309.111	74.56
309.341	85.56
309.571	83.56
309.8	73.56
310.03	65.56
310.26	80.56
310.49	77.56
310.72	87.56
310.949	73.56
311.179	82.56
311.409	83.56
311.639	81.56
311.868	88.56
312.098	95.56
312.328	82.56
312.557	89.56
312.787	66.56
313.017	93.56
313.246	83.56
313.476	97.56
313.706	77.56
313.935	83.56
314.165	91.56
314.394	88.56
314.624	76.56
314.853	92.56
315.083	86.56
315.312	79.56
315.542	78.56
315.771	83.56
316.001	80.56
316.23	83.56
316.46	85.56
316.689	78.56
316.919	92.56
317.148	88.56
317.377	90.56
317.607	85.56
317.836	89.56
318.065	71.56
318.295	89.56
318.524	84.56
318.753	88.56
318.983	95.56
319.212	73.56
319.441	85.56
319.67	91.56
319.9	75.56
320.129	73.56
320.358	86.56
320.587	82.56
320.816	78.56
321.046	104.56
321.275	97.56
321.504	77.56
321.733	72.56
321.962	73.56
322.191	102.56
322.42	91.56
322.649	97.56
322.878	97.56
323.108	78.56
323.337	91.56
323.566	89.56
323.795	84.56
324.024	71.56
324.253	94.56
324.482	73.56
324.71	70.56
324.939	91.56
325.168	84.56
325.397	81.56
325.626	84.56
325.855	88.56
326.084	94.56
326.313	90.56
326.542	89.56
326.77	85.56
326.999	85.56
327.228	77.56
327.457	79.56
327.686	89.56
327.914	91.56
328.143	71.56
328.372	78.56
328.6	90.56
328.829	72.56
329.058	70.56
329.287	85.56
329.515	85.56
329.744	80.56
329.972	82.56
330.201	86.56
330.43	83.56
330.658	81.56
330.887	98.56
331.115	90.56
331.344	78.56
331.572	94.56
331.801	80.56
332.03	88.56
332.258	90.56
332.486	88.56
332.715	88.56
332.943	88.56
333.172	78.56
333.4	68.56
333.629	83.56
333.857	98.56
334.085	86.56
334.314	95.56
334.542	86.56
334.771	90.56
334.999	87.56
335.227	80.56
335.455	82.56
335.684	84.56
335.912	80.56
336.14	91.56
336.369	70.56
336.597	81.56
336.825	81.56
337.053	84.56
337.281	98.56
337.51	90.56
337.738	72.56
337.966	76.56
338.194	68.56
338.422	88.56
338.65	86.56
338.878	80.56
339.106	86.56
339.334	69.56
339.562	84.56
339.79	84.56
340.018	79.56
340.246	91.56
340.474	100.56
340.702	74.56
340.93	82.56
341.158	82.56
341.386	69.56
341.614	80.56
341.842	72.56
342.07	75.56
342.298	98.56
342.526	82.56
342.754	85.56
342.981	81.56
343.209	93.56
343.437	107.56
343.665	92.56
343.893	89.56
344.12	93.56
344.348	84.56
344.576	98.56
344.804	95.56
345.031	89.56
345.259	85.56
345.487	78.56
345.714	87.56
345.942	94.56
346.17	78.56
346.397	92.56
346.625	85.56
346.853	83.56
347.08	76.56
347.308	87.56
347.535	81.56
347.763	79.56
347.99	78.56
348.218	86.56
348.445	83.56
348.673	71.56
348.9	88.56
349.128	72.56
349.355	73.56
349.583	95.56
349.81	100.56
350.037	80.56
350.265	83.56
350.492	77.56
350.72	79.56
350.947	89.56
351.174	89.56
351.402	70.56
351.629	89.56
351.856	80.56
352.083	87.56
352.311	84.56
352.538	86.56
352.765	75.56
352.992	85.56
353.22	94.56
353.447	85.56
353.674	95.56
353.901	81.56
354.128	85.56
354.355	92.56
354.583	87.56
354.81	93.56
355.037	98.56
355.264	82.56
355.491	89.56
355.718	88.56
355.945	81.56
356.172	89.56
356.399	82.56
356.626	85.56
356.853	88.56
357.08	84.56
357.307	87.56
357.534	83.56
357.761	78.56
357.988	94.56
358.215	89.56
358.441	85.56
358.668	66.56
358.895	84.56
359.122	94.56
359.349	81.56
359.576	69.56
359.802	76.56
360.029	89.56
360.256	94.56
360.483	82.56
360.709	85.56
360.936	98.56
361.163	89.56
361.39	84.56
361.616	85.56
361.843	73.56
362.07	87.56
362.296	78.56
362.523	74.56
362.749	57.56
362.976	82.56
363.203	93.56
363.429	92.56
363.656	93.56
363.882	81.56
364.109	83.56
364.335	82.56
364.562	78.56
364.788	91.56
365.015	81.56
365.241	88.56
365.468	90.56
365.694	69.56
365.92	75.56
366.147	94.56
366.373	83.56
366.599	80.56
366.826	82.56
367.052	108.56
367.278	83.56
367.505	90.56
367.731	85.56
367.957	79.56
368.184	80.56
368.41	86.56
368.636	74.56
368.862	80.56
369.089	67.56
369.315	75.56
369.541	85.56
369.767	80.56
369.993	76.56
370.219	86.56
370.445	76.56
370.672	79.56
370.898	94.56
371.124	86.56
371.35	87.56
371.576	78.56
371.802	90.56
372.028	74.56
372.254	92.56
372.48	88.56
372.706	82.56
372.932	84.56
373.158	80.56
373.384	93.56
373.61	83.56
373.835	82.56
374.061	75.56
374.287	86.56
374.513	90.56
374.739	82.56
374.965	88.56
375.191	82.56
375.416	84.56
375.642	76.56
375.868	80.56
376.094	82.56
376.319	71.56
376.545	77.56
376.771	81.56
376.997	96.56
377.222	64.56
377.448	78.56
377.674	78.56
377.899	78.56
378.125	67.56
378.35	91.56
378.576	96.56
378.802	85.56
379.027	85.56
379.253	82.56
379.478	97.56
379.704	89.56
379.929	78.56
380.155	88.56
380.38	79.56
380.606	85.56
380.831	94.56
381.057	102.56
381.282	89.56
381.507	88.56
381.733	85.56
381.958	86.56
382.184	88.56
382.409	78.56
382.634	90.56
382.86	90.56
383.085	89.56
383.31	92.56
383.535	97.56
383.761	74.56
383.986	93.56
384.211	81.56
384.436	68.56
384.662	81.56
384.887	75.56
385.112	99.56
385.337	90.56
385.562	87.56
385.787	79.56
386.013	77.56
386.238	74.56
386.463	80.56
386.688	111.56
386.913	97.56
387.138	83.56
387.363	68.56
387.588	86.56
387.813	85.56
388.038	78.56
388.263	90.56
388.488	87.56
388.713	79.56
388.938	80.56
389.163	88.56
389.387	81.56
389.612	79.56
389.837	101.56
390.062	78.56
390.287	89.56
390.512	80.56
390.736	90.56
390.961	88.56
391.186	86.56
391.411	70.56
391.636	82.56
391.86	79.56
392.085	73.56
392.31	68.56
392.534	86.56
392.759	94.56
392.984	97.56
393.208	85.56
393.433	78.56
393.658	91.56
393.882	93.56
394.107	89.56
394.331	87.56
394.556	88.56
394.78	82.56
395.005	72.56
395.229	92.56
395.454	85.56
395.678	83.56
395.903	82.56
396.127	94.56
396.352	85.56
396.576	84.56
396.801	88.56
397.025	98.56
397.249	85.56
397.474	70.56
397.698	96.56
397.922	80.56
398.147	82.56
398.371	79.56
398.595	90.56
398.82	85.56
399.044	87.56
399.268	86.56
399.492	84.56
399.717	86.56
399.941	85.56
400.165	97.56
400.389	94.56
400.613	85.56
400.837	83.56
401.062	93.56
401.286	100.56
401.51	87.56
401.734	76.56
401.958	94.56
402.182	104.56
402.406	77.56
402.63	89.56
402.854	82.56
403.078	97.56
403.302	91.56
403.526	84.56
403.75	101.56
403.974	90.56
404.198	129.56
404.422	159.56
404.645	194.56
404.869	176.56
405.093	139.56
405.317	81.56
405.541	93.56
405.765	93.56
405.988	101.56
406.212	97.56
406.436	101.56
406.66	77.56
406.883	92.56
407.107	82.56
407.331	80.56
407.555	82.56
407.778	77.56
408.002	86.56
408.226	80.56
408.449	80.56
408.673	80.56
408.896	69.56
409.12	87.56
409.344	94.56
409.567	82.56
409.791	99.56
410.014	71.56
410.238	73.56
410.461	85.56
410.685	87.56
410.908	88.56
411.132	90.56
411.355	74.56
411.578	81.56
411.802	67.56
412.025	81.56
412.249	77.56
412.472	77.56
412.695	85.56
412.919	90.56
413.142	72.56
413.365	79.56
413.589	74.56
413.812	67.56
414.035	83.56
414.258	86.56
414.482	105.56
414.705	76.56
414.928	79.56
415.151	79.56
415.374	81.56
415.597	101.56
415.821	96.56
416.044	81.56
416.267	76.56
416.49	77.56
416.713	75.56
416.936	84.56
417.159	87.56
417.382	86.56
417.605	75.56
417.828	93.56
418.051	79.56
418.274	103.56
418.497	81.56
418.72	75.56
418.943	81.56
419.166	87.56
419.389	88.56
419.611	74.56
419.834	81.56
420.057	87.56
420.28	89.56
420.503	89.56
420.726	83.56
420.948	70.56
421.171	95.56
421.394	79.56
421.617	85.56
421.839	69.56
422.062	75.56
422.285	81.56
422.507	89.56
422.73	90.56
422.953	94.56
423.175	91.56
423.398	77.56
423.621	70.56
423.843	81.56
424.066	84.56
424.288	90.56
424.511	90.56
424.733	91.56
424.956	79.56
425.178	93.56
425.401	86.56
425.623	83.56
425.846	72.56
426.068	80.56
426.291	82.56
426.513	78.56
426.735	89.56
426.958	80.56
427.18	90.56
427.402	86.56
427.625	86.56
427.847	93.56
428.069	97.56
428.292	82.56
428.514	86.56
428.736	98.56
428.958	92.56
429.181	97.56
429.403	89.56
429.625	95.56
429.847	98.56
430.069	83.56
430.292	95.56
430.514	77.56
430.736	86.56
430.958	91.56
431.18	79.56
431.402	89.56
431.624	88.56
431.846	78.56
432.068	72.56
432.29	84.56
432.512	83.56
432.734	82.56
432.956	83.56
433.178	94.56
433.4	87.56
433.622	94.56
433.844	87.56
434.066	87.56
434.287	86.56
434.509	96.56
434.731	86.56
434.953	78.56
435.175	85.56
435.397	82.56
435.618	82.56
435.84	90.56
436.062	76.56
436.284	73.56
436.505	88.56
436.727	82.56
436.949	83.56
437.17	81.56
437.392	86.56
437.614	99.56
437.835	79.56
438.057	69.56
438.278	94.56
438.5	98.56
438.721	82.56
438.943	93.56
439.165	85.56
439.386	93.56
439.608	93.56
439.829	84.56
440.05	82.56
440.272	70.56
440.493	93.56
440.715	88.56
440.936	83.56
441.158	85.56
441.379	87.56
441.6	100.56
441.822	74.56
442.043	87.56
442.264	89.56
442.486	89.56
442.707	83.56
442.928	95.56
443.149	78.56
443.371	88.56
443.592	84.56
443.813	82.56
444.034	81.56
444.255	93.56
444.476	84.56
444.698	83.56
444.919	83.56
445.14	140.56
445.361	107.56
445.582	90.56
445.803	89.56
446.024	86.56
446.245	78.56
446.466	69.56
446.687	80.56
446.908	78.56
447.129	77.56
447.35	86.56
447.571	98.56
447.792	93.56
448.013	75.56
448.234	79.56
448.455	78.56
448.675	84.56
448.896	104.56
449.117	86.56
449.338	73.56
449.559	75.56
449.779	88.56
450	81.56
450.221	103.56
450.442	99.56
450.662	101.56
450.883	76.56
451.104	88.56
451.324	81.56
451.545	77.56
451.766	85.56
451.986	75.56
452.207	88.56
452.428	82.56
452.648	96.56
452.869	88.56
453.089	88.56
453.31	79.56
453.53	73.56
453.751	96.56
453.971	76.56
454.192	77.56
454.412	95.56
454.633	101.56
454.853	92.56
455.073	74.56
455.294	85.56
455.514	100.56
455.734	84.56
455.955	86.56
456.175	86.56
456.395	83.56
456.616	88.56
456.836	77.56
457.056	87.56
457.276	80.56
457.497	78.56
457.717	83.56
457.937	89.56
458.157	86.56
458.377	87.56
458.598	83.56
458.818	97.56
459.038	73.56
459.258	76.56
459.478	96.56
459.698	80.56
459.918	91.56
460.138	78.56
460.358	96.56
460.578	89.56
460.798	90.56
461.018	76.56
461.238	65.56
461.458	79.56
461.678	78.56
461.898	86.56
462.118	88.56
462.338	86.56
462.558	85.56
462.777	76.56
462.997	72.56
463.217	91.56
463.437	80.56
463.657	88.56
463.876	98.56
464.096	82.56
464.316	82.56
464.536	79.56
464.755	90.56
464.975	81.56
465.195	93.56
465.414	103.56
465.634	73.56
465.854	78.56
466.073	85.56
466.293	90.56
466.512	80.56
466.732	77.56
466.951	86.56
467.171	83.56
467.391	88.56
467.61	98.56
467.829	93.56
468.049	82.56
468.268	76.56
468.488	97.56
468.707	83.56
468.927	85.56
469.146	78.56
469.365	84.56
469.585	87.56
469.804	97.56
470.023	83.56
470.243	79.56
470.462	95.56
470.681	92.56
470.901	77.56
471.12	84.56
471.339	74.56
471.558	90.56
471.777	77.56
471.997	79.56
472.216	92.56
472.435	89.56
472.654	81.56
472.873	97.56
473.092	91.56
473.311	90.56
473.53	91.56
473.749	84.56
473.968	95.56
474.187	75.56
474.406	78.56
474.625	86.56
474.844	90.56
475.063	85.56
475.282	72.56
475.501	76.56
475.72	94.56
475.939	89.56
476.158	85.56
476.377	73.56
476.596	89.56
476.814	108.56
477.033	89.56
477.252	87.56
477.471	82.56
477.69	102.56
477.908	87.56
478.127	92.56
478.346	89.56
478.564	83.56
478.783	78.56
479.002	106.56
479.22	85.56
479.439	86.56
479.658	85.56
479.876	87.56
480.095	86.56
480.313	94.56
480.532	85.56
480.751	74.56
480.969	86.56
481.188	81.56
481.406	89.56
481.624	84.56
481.843	86.56
482.061	75.56
482.28	82.56
482.498	86.56
482.717	70.56
482.935	78.56
483.153	86.56
483.372	102.56
483.59	99.56
483.808	95.56
484.027	93.56
484.245	93.56
484.463	100.56
484.681	104.56
484.9	69.56
485.118	88.56
485.336	79.56
485.554	81.56
485.772	92.56
485.99	79.56
486.209	93.56
486.427	88.56
486.645	85.56
486.863	77.56
487.081	77.56
487.299	101.56
487.517	94.56
487.735	87.56
487.953	93.56
488.171	97.56
488.389	93.56
488.607	94.56
488.825	101.56
489.043	90.56
489.261	87.56
489.479	87.56
489.696	79.56
489.914	87.56
490.132	110.56
490.35	91.56
490.568	93.56
490.786	81.56
491.003	81.56
491.221	86.56
491.439	73.56
491.657	79.56
491.874	97.56
492.092	83.56
492.31	87.56
492.527	102.56
492.745	100.56
492.963	90.56
493.18	99.56
493.398	75.56
493.615	104.56
493.833	93.56
494.05	93.56
494.268	93.56
494.485	102.56
494.703	82.56
494.92	103.56
495.138	89.56
495.355	102.56
495.573	82.56
495.79	101.56
496.008	97.56
496.225	96.56
496.442	90.56
496.66	90.56
496.877	79.56
497.094	98.56
497.312	82.56
497.529	102.56
497.746	97.56
497.963	63.56
498.181	82.56
498.398	76.56
498.615	80.56
498.832	85.56
499.049	84.56
499.267	90.56
499.484	86.56
499.701	102.56
499.918	105.56
500.135	94.56
500.352	96.56
500.569	101.56
500.786	91.56
501.003	87.56
501.22	85.56
501.437	89.56
501.654	101.56
501.871	107.56
502.088	86.56
502.305	101.56
502.522	98.56
502.739	75.56
502.956	85.56
503.172	86.56
503.389	89.56
503.606	83.56
503.823	81.56
504.04	96.56
504.256	104.56
504.473	84.56
504.69	89.56
504.907	104.56
505.123	93.56
505.34	93.56
505.557	81.56
505.773	79.56
505.99	82.56
506.207	93.56
506.423	82.56
506.64	80.56
506.856	93.56
507.073	84.56
507.289	85.56
507.506	89.56
507.722	107.56
507.939	92.56
508.155	85.56
508.372	82.56
508.588	84.56
508.805	85.56
509.021	103.56
509.238	82.56
509.454	83.56
509.67	93.56
509.887	83.56
510.103	81.56
510.319	73.56
510.536	86.56
510.752	82.56
510.968	107.56
511.184	85.56
511.401	95.56
511.617	99.56
511.833	99.56
512.049	98.56
512.265	89.56
512.481	95.56
512.698	91.56
512.914	87.56
513.13	90.56
513.346	93.56
513.562	89.56
513.778	95.56
513.994	90.56
514.21	80.56
514.426	91.56
514.642	109.56
514.858	82.56
515.074	71.56
515.29	97.56
515.506	89.56
515.721	97.56
515.937	84.56
516.153	55.56
516.369	78.56
516.585	81.56
516.801	79.56
517.016	90.56
517.232	88.56
517.448	81.56
517.664	83.56
517.879	86.56
518.095	89.56
518.311	80.56
518.527	79.56
518.742	83.56
518.958	93.56
519.173	101.56
519.389	87.56
