Data from KBrHeat2_HRD10591_00019.txt Node
Date: Fri Dec 27 14:54:59 EST 2024
User: Yrep
Spectrometer: HR+D1059
Trigger mode: 1
Integration Time (sec): 1.000000E-1
Scans to average: 1
Electric dark correction enabled: true
Nonlinearity correction enabled: false
Boxcar width: 0
XAxis mode: Wavelengths
Number of Pixels in Spectrum: 2048
>>>>>Begin Spectral Data<<<<<
223.165	-25.44
223.4	-25.44
223.635	-25.44
223.869	-18.44
224.104	-29.44
224.338	-19.44
224.573	-18.44
224.808	-4.44
225.042	-3.44
225.277	-0.44
225.511	6.56
225.746	-7.44
225.98	27.56
226.215	9.56
226.449	14.56
226.683	22.56
226.918	23.56
227.152	22.56
227.387	40.56
227.621	39.56
227.856	39.56
228.09	48.56
228.324	66.56
228.559	65.56
228.793	61.56
229.027	61.56
229.262	73.56
229.496	78.56
229.73	70.56
229.964	79.56
230.199	82.56
230.433	80.56
230.667	82.56
230.901	78.56
231.136	79.56
231.37	83.56
231.604	97.56
231.838	99.56
232.072	72.56
232.306	83.56
232.541	92.56
232.775	102.56
233.009	89.56
233.243	85.56
233.477	88.56
233.711	95.56
233.945	71.56
234.179	73.56
234.413	72.56
234.647	87.56
234.881	76.56
235.115	102.56
235.349	77.56
235.583	84.56
235.817	101.56
236.051	73.56
236.285	85.56
236.519	78.56
236.753	64.56
236.987	71.56
237.221	77.56
237.455	80.56
237.689	86.56
237.922	72.56
238.156	78.56
238.39	77.56
238.624	74.56
238.858	77.56
239.091	77.56
239.325	86.56
239.559	87.56
239.793	86.56
240.027	87.56
240.26	70.56
240.494	90.56
240.728	79.56
240.961	85.56
241.195	90.56
241.429	93.56
241.662	74.56
241.896	80.56
242.13	74.56
242.363	75.56
242.597	82.56
242.83	92.56
243.064	98.56
243.298	77.56
243.531	74.56
243.765	85.56
243.998	83.56
244.232	79.56
244.465	75.56
244.699	74.56
244.932	75.56
245.166	77.56
245.399	94.56
245.633	77.56
245.866	75.56
246.099	78.56
246.333	82.56
246.566	85.56
246.8	94.56
247.033	80.56
247.266	81.56
247.5	86.56
247.733	78.56
247.966	71.56
248.2	77.56
248.433	79.56
248.666	74.56
248.899	86.56
249.133	88.56
249.366	90.56
249.599	78.56
249.832	88.56
250.066	83.56
250.299	89.56
250.532	85.56
250.765	82.56
250.998	90.56
251.231	94.56
251.465	78.56
251.698	88.56
251.931	85.56
252.164	74.56
252.397	91.56
252.63	82.56
252.863	95.56
253.096	70.56
253.329	93.56
253.562	90.56
253.795	77.56
254.028	82.56
254.261	71.56
254.494	75.56
254.727	99.56
254.96	95.56
255.193	76.56
255.426	82.56
255.659	87.56
255.892	85.56
256.124	81.56
256.357	99.56
256.59	80.56
256.823	67.56
257.056	86.56
257.289	88.56
257.521	94.56
257.754	85.56
257.987	80.56
258.22	84.56
258.452	80.56
258.685	73.56
258.918	81.56
259.151	82.56
259.383	79.56
259.616	81.56
259.849	82.56
260.081	82.56
260.314	86.56
260.547	73.56
260.779	77.56
261.012	84.56
261.244	67.56
261.477	88.56
261.71	77.56
261.942	82.56
262.175	101.56
262.407	72.56
262.64	87.56
262.872	93.56
263.105	89.56
263.337	96.56
263.57	94.56
263.802	84.56
264.035	81.56
264.267	71.56
264.499	97.56
264.732	89.56
264.964	87.56
265.197	82.56
265.429	83.56
265.661	90.56
265.894	95.56
266.126	74.56
266.358	94.56
266.591	71.56
266.823	85.56
267.055	80.56
267.287	91.56
267.52	86.56
267.752	87.56
267.984	81.56
268.216	73.56
268.448	86.56
268.681	79.56
268.913	83.56
269.145	88.56
269.377	87.56
269.609	95.56
269.841	84.56
270.073	96.56
270.306	81.56
270.538	88.56
270.77	90.56
271.002	102.56
271.234	101.56
271.466	91.56
271.698	85.56
271.93	91.56
272.162	99.56
272.394	91.56
272.626	90.56
272.858	96.56
273.09	104.56
273.322	83.56
273.553	75.56
273.785	95.56
274.017	78.56
274.249	83.56
274.481	104.56
274.713	80.56
274.945	87.56
275.176	83.56
275.408	87.56
275.64	91.56
275.872	98.56
276.104	91.56
276.335	86.56
276.567	98.56
276.799	76.56
277.031	92.56
277.262	87.56
277.494	83.56
277.726	74.56
277.957	83.56
278.189	104.56
278.421	93.56
278.652	92.56
278.884	70.56
279.115	85.56
279.347	85.56
279.579	88.56
279.81	94.56
280.042	91.56
280.273	97.56
280.505	73.56
280.736	91.56
280.968	81.56
281.199	99.56
281.431	73.56
281.662	92.56
281.894	88.56
282.125	92.56
282.356	90.56
282.588	88.56
282.819	86.56
283.051	95.56
283.282	93.56
283.513	89.56
283.745	81.56
283.976	93.56
284.207	95.56
284.439	84.56
284.67	90.56
284.901	87.56
285.132	87.56
285.364	85.56
285.595	79.56
285.826	98.56
286.057	88.56
286.288	97.56
286.52	70.56
286.751	99.56
286.982	79.56
287.213	86.56
287.444	95.56
287.675	88.56
287.906	102.56
288.138	86.56
288.369	96.56
288.6	91.56
288.831	93.56
289.062	96.56
289.293	76.56
289.524	93.56
289.755	98.56
289.986	94.56
290.217	102.56
290.448	84.56
290.679	92.56
290.91	91.56
291.141	87.56
291.371	99.56
291.602	75.56
291.833	87.56
292.064	92.56
292.295	89.56
292.526	78.56
292.757	93.56
292.987	89.56
293.218	89.56
293.449	96.56
293.68	90.56
293.91	87.56
294.141	99.56
294.372	96.56
294.603	93.56
294.833	92.56
295.064	76.56
295.295	89.56
295.525	84.56
295.756	94.56
295.987	87.56
296.217	82.56
296.448	69.56
296.679	83.56
296.909	99.56
297.14	95.56
297.37	99.56
297.601	93.56
297.831	92.56
298.062	98.56
298.292	85.56
298.523	90.56
298.753	85.56
298.984	80.56
299.214	92.56
299.445	95.56
299.675	87.56
299.905	98.56
300.136	104.56
300.366	104.56
300.597	90.56
300.827	104.56
301.057	86.56
301.288	95.56
301.518	103.56
301.748	88.56
301.979	107.56
302.209	103.56
302.439	93.56
302.669	88.56
302.9	90.56
303.13	88.56
303.36	97.56
303.59	98.56
303.82	90.56
304.051	100.56
304.281	90.56
304.511	87.56
304.741	70.56
304.971	92.56
305.201	87.56
305.431	81.56
305.661	97.56
305.891	80.56
306.121	91.56
306.352	85.56
306.582	83.56
306.812	111.56
307.042	80.56
307.272	77.56
307.502	106.56
307.731	78.56
307.961	97.56
308.191	87.56
308.421	103.56
308.651	96.56
308.881	91.56
309.111	90.56
309.341	88.56
309.571	93.56
309.8	80.56
310.03	91.56
310.26	98.56
310.49	90.56
310.72	94.56
310.949	80.56
311.179	89.56
311.409	82.56
311.639	92.56
311.868	103.56
312.098	91.56
312.328	94.56
312.557	96.56
312.787	88.56
313.017	91.56
313.246	83.56
313.476	98.56
313.706	83.56
313.935	87.56
314.165	98.56
314.394	98.56
314.624	88.56
314.853	88.56
315.083	86.56
315.312	104.56
315.542	93.56
315.771	89.56
316.001	99.56
316.23	97.56
316.46	86.56
316.689	93.56
316.919	93.56
317.148	87.56
317.377	111.56
317.607	98.56
317.836	86.56
318.065	100.56
318.295	78.56
318.524	92.56
318.753	89.56
318.983	105.56
319.212	98.56
319.441	99.56
319.67	84.56
319.9	93.56
320.129	87.56
320.358	85.56
320.587	79.56
320.816	85.56
321.046	86.56
321.275	94.56
321.504	99.56
321.733	90.56
321.962	89.56
322.191	102.56
322.42	97.56
322.649	98.56
322.878	97.56
323.108	90.56
323.337	94.56
323.566	77.56
323.795	82.56
324.024	90.56
324.253	81.56
324.482	83.56
324.71	79.56
324.939	81.56
325.168	95.56
325.397	107.56
325.626	77.56
325.855	75.56
326.084	97.56
326.313	89.56
326.542	106.56
326.77	81.56
326.999	107.56
327.228	75.56
327.457	97.56
327.686	87.56
327.914	104.56
328.143	93.56
328.372	91.56
328.6	88.56
328.829	97.56
329.058	109.56
329.287	89.56
329.515	87.56
329.744	103.56
329.972	88.56
330.201	89.56
330.43	101.56
330.658	93.56
330.887	95.56
331.115	93.56
331.344	68.56
331.572	81.56
331.801	79.56
332.03	96.56
332.258	97.56
332.486	97.56
332.715	85.56
332.943	86.56
333.172	96.56
333.4	99.56
333.629	85.56
333.857	90.56
334.085	85.56
334.314	94.56
334.542	88.56
334.771	85.56
334.999	85.56
335.227	90.56
335.455	94.56
335.684	98.56
335.912	84.56
336.14	93.56
336.369	90.56
336.597	72.56
336.825	98.56
337.053	87.56
337.281	105.56
337.51	85.56
337.738	93.56
337.966	77.56
338.194	77.56
338.422	88.56
338.65	98.56
338.878	94.56
339.106	105.56
339.334	95.56
339.562	97.56
339.79	96.56
340.018	81.56
340.246	101.56
340.474	84.56
340.702	86.56
340.93	87.56
341.158	99.56
341.386	96.56
341.614	106.56
341.842	93.56
342.07	92.56
342.298	75.56
342.526	93.56
342.754	83.56
342.981	85.56
343.209	80.56
343.437	105.56
343.665	82.56
343.893	87.56
344.12	101.56
344.348	97.56
344.576	89.56
344.804	108.56
345.031	105.56
345.259	107.56
345.487	88.56
345.714	76.56
345.942	93.56
346.17	90.56
346.397	101.56
346.625	74.56
346.853	85.56
347.08	98.56
347.308	94.56
347.535	94.56
347.763	80.56
347.99	97.56
348.218	94.56
348.445	97.56
348.673	90.56
348.9	93.56
349.128	81.56
349.355	83.56
349.583	77.56
349.81	98.56
350.037	97.56
350.265	111.56
350.492	82.56
350.72	92.56
350.947	89.56
351.174	87.56
351.402	90.56
351.629	82.56
351.856	84.56
352.083	80.56
352.311	88.56
352.538	95.56
352.765	101.56
352.992	108.56
353.22	102.56
353.447	98.56
353.674	101.56
353.901	89.56
354.128	103.56
354.355	97.56
354.583	85.56
354.81	86.56
355.037	83.56
355.264	96.56
355.491	91.56
355.718	108.56
355.945	95.56
356.172	85.56
356.399	87.56
356.626	92.56
356.853	87.56
357.08	99.56
357.307	104.56
357.534	98.56
357.761	90.56
357.988	78.56
358.215	91.56
358.441	101.56
358.668	96.56
358.895	87.56
359.122	84.56
359.349	81.56
359.576	96.56
359.802	97.56
360.029	89.56
360.256	96.56
360.483	103.56
360.709	86.56
360.936	101.56
361.163	84.56
361.39	101.56
361.616	88.56
361.843	87.56
362.07	82.56
362.296	92.56
362.523	99.56
362.749	91.56
362.976	90.56
363.203	101.56
363.429	96.56
363.656	103.56
363.882	71.56
364.109	101.56
364.335	98.56
364.562	87.56
364.788	89.56
365.015	88.56
365.241	85.56
365.468	91.56
365.694	87.56
365.92	80.56
366.147	82.56
366.373	74.56
366.599	90.56
366.826	96.56
367.052	78.56
367.278	103.56
367.505	95.56
367.731	79.56
367.957	81.56
368.184	79.56
368.41	80.56
368.636	83.56
368.862	109.56
369.089	94.56
369.315	92.56
369.541	96.56
369.767	85.56
369.993	95.56
370.219	84.56
370.445	82.56
370.672	85.56
370.898	99.56
371.124	101.56
371.35	83.56
371.576	89.56
371.802	90.56
372.028	104.56
372.254	85.56
372.48	73.56
372.706	85.56
372.932	77.56
373.158	85.56
373.384	104.56
373.61	101.56
373.835	88.56
374.061	91.56
374.287	83.56
374.513	92.56
374.739	89.56
374.965	82.56
375.191	86.56
375.416	89.56
375.642	104.56
375.868	107.56
376.094	95.56
376.319	95.56
376.545	106.56
376.771	77.56
376.997	77.56
377.222	81.56
377.448	86.56
377.674	88.56
377.899	88.56
378.125	95.56
378.35	105.56
378.576	101.56
378.802	99.56
379.027	94.56
379.253	98.56
379.478	85.56
379.704	101.56
379.929	102.56
380.155	93.56
380.38	81.56
380.606	92.56
380.831	85.56
381.057	104.56
381.282	96.56
381.507	100.56
381.733	88.56
381.958	103.56
382.184	78.56
382.409	95.56
382.634	107.56
382.86	93.56
383.085	86.56
383.31	78.56
383.535	86.56
383.761	86.56
383.986	96.56
384.211	86.56
384.436	93.56
384.662	94.56
384.887	85.56
385.112	98.56
385.337	95.56
385.562	75.56
385.787	87.56
386.013	96.56
386.238	85.56
386.463	92.56
386.688	99.56
386.913	96.56
387.138	92.56
387.363	90.56
387.588	102.56
387.813	94.56
388.038	93.56
388.263	101.56
388.488	97.56
388.713	95.56
388.938	84.56
389.163	105.56
389.387	119.56
389.612	95.56
389.837	94.56
390.062	92.56
390.287	89.56
390.512	94.56
390.736	80.56
390.961	96.56
391.186	88.56
391.411	70.56
391.636	79.56
391.86	94.56
392.085	102.56
392.31	92.56
392.534	67.56
392.759	91.56
392.984	84.56
393.208	91.56
393.433	88.56
393.658	91.56
393.882	93.56
394.107	90.56
394.331	97.56
394.556	90.56
394.78	98.56
395.005	101.56
395.229	101.56
395.454	97.56
395.678	101.56
395.903	98.56
396.127	99.56
396.352	94.56
396.576	98.56
396.801	104.56
397.025	105.56
397.249	85.56
397.474	101.56
397.698	86.56
397.922	78.56
398.147	87.56
398.371	73.56
398.595	83.56
398.82	98.56
399.044	80.56
399.268	89.56
399.492	103.56
399.717	82.56
399.941	97.56
400.165	92.56
400.389	95.56
400.613	88.56
400.837	97.56
401.062	102.56
401.286	87.56
401.51	82.56
401.734	92.56
401.958	90.56
402.182	95.56
402.406	83.56
402.63	82.56
402.854	82.56
403.078	82.56
403.302	91.56
403.526	96.56
403.75	96.56
403.974	94.56
404.198	131.56
404.422	190.56
404.645	201.56
404.869	179.56
405.093	137.56
405.317	101.56
405.541	107.56
405.765	107.56
405.988	94.56
406.212	80.56
406.436	82.56
406.66	101.56
406.883	103.56
407.107	95.56
407.331	97.56
407.555	105.56
407.778	93.56
408.002	96.56
408.226	91.56
408.449	93.56
408.673	91.56
408.896	80.56
409.12	73.56
409.344	92.56
409.567	96.56
409.791	88.56
410.014	82.56
410.238	88.56
410.461	96.56
410.685	79.56
410.908	94.56
411.132	100.56
411.355	99.56
411.578	98.56
411.802	83.56
412.025	104.56
412.249	93.56
412.472	90.56
412.695	85.56
412.919	82.56
413.142	90.56
413.365	106.56
413.589	97.56
413.812	90.56
414.035	95.56
414.258	91.56
414.482	71.56
414.705	87.56
414.928	97.56
415.151	98.56
415.374	89.56
415.597	81.56
415.821	70.56
416.044	87.56
416.267	85.56
416.49	108.56
416.713	93.56
416.936	95.56
417.159	99.56
417.382	88.56
417.605	96.56
417.828	104.56
418.051	100.56
418.274	82.56
418.497	85.56
418.72	97.56
418.943	95.56
419.166	76.56
419.389	83.56
419.611	85.56
419.834	87.56
420.057	90.56
420.28	89.56
420.503	96.56
420.726	90.56
420.948	88.56
421.171	84.56
421.394	101.56
421.617	85.56
421.839	107.56
422.062	79.56
422.285	83.56
422.507	112.56
422.73	101.56
422.953	97.56
423.175	98.56
423.398	98.56
423.621	87.56
423.843	111.56
424.066	85.56
424.288	85.56
424.511	93.56
424.733	90.56
424.956	88.56
425.178	99.56
425.401	97.56
425.623	78.56
425.846	101.56
426.068	73.56
426.291	77.56
426.513	74.56
426.735	92.56
426.958	100.56
427.18	93.56
427.402	95.56
427.625	93.56
427.847	88.56
428.069	103.56
428.292	87.56
428.514	90.56
428.736	91.56
428.958	99.56
429.181	99.56
429.403	85.56
429.625	97.56
429.847	101.56
430.069	92.56
430.292	94.56
430.514	87.56
430.736	82.56
430.958	97.56
431.18	102.56
431.402	103.56
431.624	97.56
431.846	94.56
432.068	93.56
432.29	97.56
432.512	85.56
432.734	91.56
432.956	97.56
433.178	105.56
433.4	94.56
433.622	92.56
433.844	89.56
434.066	87.56
434.287	93.56
434.509	87.56
434.731	105.56
434.953	96.56
435.175	88.56
435.397	96.56
435.618	101.56
435.84	85.56
436.062	97.56
436.284	87.56
436.505	95.56
436.727	104.56
436.949	77.56
437.17	92.56
437.392	96.56
437.614	88.56
437.835	91.56
438.057	92.56
438.278	71.56
438.5	87.56
438.721	86.56
438.943	94.56
439.165	96.56
439.386	89.56
439.608	89.56
439.829	74.56
440.05	80.56
440.272	103.56
440.493	93.56
440.715	81.56
440.936	88.56
441.158	102.56
441.379	96.56
441.6	88.56
441.822	103.56
442.043	84.56
442.264	91.56
442.486	73.56
442.707	79.56
442.928	69.56
443.149	89.56
443.371	107.56
443.592	82.56
443.813	85.56
444.034	91.56
444.255	90.56
444.476	92.56
444.698	84.56
444.919	84.56
445.14	156.56
445.361	115.56
445.582	88.56
445.803	88.56
446.024	96.56
446.245	103.56
446.466	91.56
446.687	79.56
446.908	91.56
447.129	85.56
447.35	91.56
447.571	100.56
447.792	97.56
448.013	96.56
448.234	93.56
448.455	102.56
448.675	95.56
448.896	95.56
449.117	86.56
449.338	96.56
449.559	98.56
449.779	73.56
450	98.56
450.221	79.56
450.442	94.56
450.662	89.56
450.883	85.56
451.104	90.56
451.324	90.56
451.545	84.56
451.766	85.56
451.986	88.56
452.207	87.56
452.428	93.56
452.648	98.56
452.869	80.56
453.089	91.56
453.31	97.56
453.53	95.56
453.751	81.56
453.971	87.56
454.192	77.56
454.412	85.56
454.633	84.56
454.853	98.56
455.073	91.56
455.294	92.56
455.514	109.56
455.734	87.56
455.955	94.56
456.175	81.56
456.395	103.56
456.616	83.56
456.836	92.56
457.056	82.56
457.276	92.56
457.497	102.56
457.717	94.56
457.937	88.56
458.157	76.56
458.377	76.56
458.598	92.56
458.818	94.56
459.038	102.56
459.258	91.56
459.478	71.56
459.698	96.56
459.918	87.56
460.138	91.56
460.358	87.56
460.578	93.56
460.798	98.56
461.018	95.56
461.238	79.56
461.458	83.56
461.678	98.56
461.898	97.56
462.118	85.56
462.338	83.56
462.558	70.56
462.777	94.56
462.997	105.56
463.217	94.56
463.437	80.56
463.657	98.56
463.876	79.56
464.096	88.56
464.316	83.56
464.536	100.56
464.755	86.56
464.975	99.56
465.195	94.56
465.414	92.56
465.634	83.56
465.854	85.56
466.073	85.56
466.293	94.56
466.512	83.56
466.732	94.56
466.951	92.56
467.171	93.56
467.391	85.56
467.61	86.56
467.829	88.56
468.049	101.56
468.268	86.56
468.488	99.56
468.707	85.56
468.927	95.56
469.146	83.56
469.365	90.56
469.585	99.56
469.804	102.56
470.023	90.56
470.243	98.56
470.462	91.56
470.681	83.56
470.901	101.56
471.12	83.56
471.339	93.56
471.558	93.56
471.777	95.56
471.997	87.56
472.216	89.56
472.435	82.56
472.654	90.56
472.873	95.56
473.092	93.56
473.311	86.56
473.53	86.56
473.749	93.56
473.968	105.56
474.187	98.56
474.406	80.56
474.625	86.56
474.844	90.56
475.063	89.56
475.282	84.56
475.501	93.56
475.72	96.56
475.939	77.56
476.158	86.56
476.377	79.56
476.596	80.56
476.814	87.56
477.033	78.56
477.252	99.56
477.471	92.56
477.69	90.56
477.908	91.56
478.127	94.56
478.346	93.56
478.564	98.56
478.783	100.56
479.002	91.56
479.22	88.56
479.439	101.56
479.658	95.56
479.876	99.56
480.095	93.56
480.313	108.56
480.532	87.56
480.751	85.56
480.969	85.56
481.188	99.56
481.406	97.56
481.624	86.56
481.843	101.56
482.061	94.56
482.28	83.56
482.498	99.56
482.717	86.56
482.935	83.56
483.153	103.56
483.372	103.56
483.59	93.56
483.808	97.56
484.027	102.56
484.245	89.56
484.463	91.56
484.681	101.56
484.9	97.56
485.118	105.56
485.336	86.56
485.554	111.56
485.772	83.56
485.99	89.56
486.209	98.56
486.427	86.56
486.645	91.56
486.863	93.56
487.081	104.56
487.299	100.56
487.517	97.56
487.735	84.56
487.953	102.56
488.171	110.56
488.389	99.56
488.607	92.56
488.825	90.56
489.043	95.56
489.261	109.56
489.479	85.56
489.696	95.56
489.914	93.56
490.132	94.56
490.35	90.56
490.568	94.56
490.786	96.56
491.003	93.56
491.221	118.56
491.439	108.56
491.657	96.56
491.874	113.56
492.092	95.56
492.31	82.56
492.527	94.56
492.745	100.56
492.963	93.56
493.18	95.56
493.398	92.56
493.615	92.56
493.833	103.56
494.05	97.56
494.268	94.56
494.485	103.56
494.703	101.56
494.92	103.56
495.138	93.56
495.355	97.56
495.573	96.56
495.79	97.56
496.008	90.56
496.225	98.56
496.442	98.56
496.66	96.56
496.877	92.56
497.094	103.56
497.312	87.56
497.529	86.56
497.746	101.56
497.963	97.56
498.181	76.56
498.398	81.56
498.615	98.56
498.832	96.56
499.049	93.56
499.267	86.56
499.484	99.56
499.701	106.56
499.918	92.56
500.135	89.56
500.352	98.56
500.569	96.56
500.786	91.56
501.003	103.56
501.22	104.56
501.437	94.56
501.654	82.56
501.871	91.56
502.088	90.56
502.305	99.56
502.522	82.56
502.739	95.56
502.956	95.56
503.172	93.56
503.389	103.56
503.606	96.56
503.823	103.56
504.04	105.56
504.256	86.56
504.473	94.56
504.69	89.56
504.907	101.56
505.123	98.56
505.34	102.56
505.557	93.56
505.773	110.56
505.99	99.56
506.207	92.56
506.423	94.56
506.64	104.56
506.856	94.56
507.073	91.56
507.289	93.56
507.506	88.56
507.722	93.56
507.939	99.56
508.155	94.56
508.372	94.56
508.588	103.56
508.805	107.56
509.021	98.56
509.238	99.56
509.454	79.56
509.67	92.56
509.887	88.56
510.103	110.56
510.319	98.56
510.536	91.56
510.752	91.56
510.968	86.56
511.184	96.56
511.401	88.56
511.617	102.56
511.833	95.56
512.049	108.56
512.265	83.56
512.481	94.56
512.698	94.56
512.914	93.56
513.13	72.56
513.346	91.56
513.562	86.56
513.778	101.56
513.994	105.56
514.21	98.56
514.426	101.56
514.642	99.56
514.858	101.56
515.074	83.56
515.29	96.56
515.506	76.56
515.721	72.56
515.937	85.56
516.153	89.56
516.369	98.56
516.585	99.56
516.801	82.56
517.016	99.56
517.232	89.56
517.448	89.56
517.664	78.56
