Data from Circ_2011_H10_HRD10591_00092.txt Node
Date: Wed Jan 03 10:08:17 EST 2024
User: Yrep
Spectrometer: HR+D1059
Trigger mode: 1
Integration Time (sec): 1.000000E-1
Scans to average: 1
Electric dark correction enabled: true
Nonlinearity correction enabled: false
Boxcar width: 0
XAxis mode: Wavelengths
Number of Pixels in Spectrum: 2048
>>>>>Begin Spectral Data<<<<<
223.165	-8.75
223.4	-8.75
223.635	-8.75
223.869	-8.75
224.104	-24.75
224.338	-8.75
224.573	-2.75
224.808	-7.75
225.042	-11.75
225.277	-7.75
225.511	-10.75
225.746	2.25
225.98	-2.75
226.215	1.25
226.449	10.25
226.683	23.25
226.918	21.25
227.152	36.25
227.387	38.25
227.621	24.25
227.856	54.25
228.09	44.25
228.324	51.25
228.559	48.25
228.793	68.25
229.027	63.25
229.262	73.25
229.496	74.25
229.73	78.25
229.964	90.25
230.199	66.25
230.433	74.25
230.667	80.25
230.901	88.25
231.136	73.25
231.37	92.25
231.604	83.25
231.838	86.25
232.072	83.25
232.306	79.25
232.541	84.25
232.775	69.25
233.009	87.25
233.243	84.25
233.477	80.25
233.711	88.25
233.945	81.25
234.179	85.25
234.413	79.25
234.647	73.25
234.881	87.25
235.115	88.25
235.349	81.25
235.583	73.25
235.817	74.25
236.051	84.25
236.285	73.25
236.519	84.25
236.753	101.25
236.987	77.25
237.221	99.25
237.455	94.25
237.689	84.25
237.922	68.25
238.156	70.25
238.39	70.25
238.624	77.25
238.858	84.25
239.091	85.25
239.325	69.25
239.559	89.25
239.793	73.25
240.027	63.25
240.26	81.25
240.494	79.25
240.728	75.25
240.961	72.25
241.195	81.25
241.429	73.25
241.662	80.25
241.896	72.25
242.13	79.25
242.363	68.25
242.597	70.25
242.83	88.25
243.064	93.25
243.298	88.25
243.531	73.25
243.765	100.25
243.998	91.25
244.232	75.25
244.465	78.25
244.699	92.25
244.932	88.25
245.166	85.25
245.399	73.25
245.633	81.25
245.866	80.25
246.099	90.25
246.333	67.25
246.566	71.25
246.8	81.25
247.033	85.25
247.266	85.25
247.5	81.25
247.733	90.25
247.966	78.25
248.2	83.25
248.433	72.25
248.666	73.25
248.899	83.25
249.133	83.25
249.366	103.25
249.599	100.25
249.832	74.25
250.066	89.25
250.299	75.25
250.532	77.25
250.765	77.25
250.998	79.25
251.231	85.25
251.465	85.25
251.698	72.25
251.931	83.25
252.164	74.25
252.397	82.25
252.63	80.25
252.863	84.25
253.096	85.25
253.329	74.25
253.562	83.25
253.795	85.25
254.028	94.25
254.261	90.25
254.494	78.25
254.727	93.25
254.96	87.25
255.193	71.25
255.426	86.25
255.659	84.25
255.892	86.25
256.124	87.25
256.357	82.25
256.59	71.25
256.823	80.25
257.056	74.25
257.289	79.25
257.521	77.25
257.754	81.25
257.987	85.25
258.22	85.25
258.452	93.25
258.685	88.25
258.918	83.25
259.151	80.25
259.383	85.25
259.616	93.25
259.849	82.25
260.081	76.25
260.314	85.25
260.547	83.25
260.779	101.25
261.012	85.25
261.244	89.25
261.477	82.25
261.71	89.25
261.942	110.25
262.175	117.25
262.407	93.25
262.64	89.25
262.872	74.25
263.105	87.25
263.337	88.25
263.57	83.25
263.802	94.25
264.035	70.25
264.267	81.25
264.499	85.25
264.732	87.25
264.964	91.25
265.197	98.25
265.429	106.25
265.661	96.25
265.894	91.25
266.126	88.25
266.358	87.25
266.591	88.25
266.823	83.25
267.055	84.25
267.287	80.25
267.52	84.25
267.752	82.25
267.984	69.25
268.216	88.25
268.448	89.25
268.681	94.25
268.913	84.25
269.145	82.25
269.377	81.25
269.609	64.25
269.841	87.25
270.073	72.25
270.306	95.25
270.538	90.25
270.77	87.25
271.002	80.25
271.234	87.25
271.466	87.25
271.698	89.25
271.93	92.25
272.162	92.25
272.394	92.25
272.626	73.25
272.858	77.25
273.09	91.25
273.322	88.25
273.553	90.25
273.785	82.25
274.017	77.25
274.249	87.25
274.481	79.25
274.713	71.25
274.945	99.25
275.176	86.25
275.408	88.25
275.64	93.25
275.872	96.25
276.104	81.25
276.335	79.25
276.567	105.25
276.799	132.25
277.031	118.25
277.262	116.25
277.494	86.25
277.726	93.25
277.957	86.25
278.189	76.25
278.421	87.25
278.652	83.25
278.884	97.25
279.115	87.25
279.347	78.25
279.579	93.25
279.81	82.25
280.042	97.25
280.273	103.25
280.505	87.25
280.736	79.25
280.968	91.25
281.199	84.25
281.431	78.25
281.662	94.25
281.894	89.25
282.125	108.25
282.356	110.25
282.588	150.25
282.819	103.25
283.051	80.25
283.282	80.25
283.513	86.25
283.745	87.25
283.976	80.25
284.207	65.25
284.439	110.25
284.67	80.25
284.901	79.25
285.132	68.25
285.364	87.25
285.595	77.25
285.826	86.25
286.057	85.25
286.288	91.25
286.52	87.25
286.751	94.25
286.982	94.25
287.213	91.25
287.444	93.25
287.675	93.25
287.906	84.25
288.138	85.25
288.369	86.25
288.6	94.25
288.831	93.25
289.062	103.25
289.293	73.25
289.524	87.25
289.755	90.25
289.986	87.25
290.217	86.25
290.448	85.25
290.679	75.25
290.91	93.25
291.141	84.25
291.371	89.25
291.602	74.25
291.833	104.25
292.064	72.25
292.295	98.25
292.526	95.25
292.757	81.25
292.987	82.25
293.218	83.25
293.449	86.25
293.68	79.25
293.91	83.25
294.141	107.25
294.372	92.25
294.603	93.25
294.833	105.25
295.064	92.25
295.295	88.25
295.525	93.25
295.756	97.25
295.987	117.25
296.217	135.25
296.448	133.25
296.679	97.25
296.909	93.25
297.14	94.25
297.37	87.25
297.601	89.25
297.831	81.25
298.062	86.25
298.292	91.25
298.523	78.25
298.753	99.25
298.984	103.25
299.214	91.25
299.445	96.25
299.675	102.25
299.905	93.25
300.136	97.25
300.366	91.25
300.597	98.25
300.827	81.25
301.057	91.25
301.288	108.25
301.518	83.25
301.748	89.25
301.979	107.25
302.209	99.25
302.439	90.25
302.669	91.25
302.9	96.25
303.13	108.25
303.36	95.25
303.59	104.25
303.82	120.25
304.051	91.25
304.281	104.25
304.511	80.25
304.741	72.25
304.971	88.25
305.201	97.25
305.431	106.25
305.661	79.25
305.891	84.25
306.121	94.25
306.352	103.25
306.582	110.25
306.812	102.25
307.042	102.25
307.272	113.25
307.502	108.25
307.731	110.25
307.961	84.25
308.191	96.25
308.421	108.25
308.651	91.25
308.881	97.25
309.111	98.25
309.341	106.25
309.571	99.25
309.8	103.25
310.03	95.25
310.26	99.25
310.49	88.25
310.72	93.25
310.949	113.25
311.179	85.25
311.409	93.25
311.639	100.25
311.868	120.25
312.098	89.25
312.328	97.25
312.557	100.25
312.787	100.25
313.017	102.25
313.246	86.25
313.476	97.25
313.706	99.25
313.935	97.25
314.165	97.25
314.394	104.25
314.624	102.25
314.853	90.25
315.083	88.25
315.312	91.25
315.542	94.25
315.771	102.25
316.001	102.25
316.23	93.25
316.46	93.25
316.689	92.25
316.919	97.25
317.148	99.25
317.377	89.25
317.607	87.25
317.836	97.25
318.065	90.25
318.295	97.25
318.524	95.25
318.753	108.25
318.983	104.25
319.212	108.25
319.441	105.25
319.67	106.25
319.9	99.25
320.129	91.25
320.358	95.25
320.587	89.25
320.816	108.25
321.046	110.25
321.275	101.25
321.504	100.25
321.733	98.25
321.962	89.25
322.191	85.25
322.42	114.25
322.649	103.25
322.878	124.25
323.108	115.25
323.337	117.25
323.566	148.25
323.795	169.25
324.024	227.25
324.253	441.25
324.482	1004.25
324.71	2044.25
324.939	2667.25
325.168	984.25
325.397	266.25
325.626	155.25
325.855	139.25
326.084	125.25
326.313	147.25
326.542	183.25
326.77	247.25
326.999	523.25
327.228	1167.25
327.457	2080.25
327.686	1627.25
327.914	440.25
328.143	247.25
328.372	245.25
328.6	180.25
328.829	129.25
329.058	145.25
329.287	139.25
329.515	115.25
329.744	122.25
329.972	176.25
330.201	254.25
330.43	310.25
330.658	192.25
330.887	162.25
331.115	138.25
331.344	101.25
331.572	103.25
331.801	97.25
332.03	111.25
332.258	91.25
332.486	85.25
332.715	79.25
332.943	94.25
333.172	88.25
333.4	101.25
333.629	118.25
333.857	134.25
334.085	181.25
334.314	251.25
334.542	385.25
334.771	381.25
334.999	161.25
335.227	103.25
335.455	94.25
335.684	103.25
335.912	94.25
336.14	103.25
336.369	104.25
336.597	108.25
336.825	86.25
337.053	103.25
337.281	95.25
337.51	76.25
337.738	90.25
337.966	116.25
338.194	88.25
338.422	99.25
338.65	94.25
338.878	97.25
339.106	112.25
339.334	110.25
339.562	95.25
339.79	97.25
340.018	88.25
340.246	82.25
340.474	103.25
340.702	88.25
340.93	87.25
341.158	101.25
341.386	98.25
341.614	99.25
341.842	108.25
342.07	93.25
342.298	87.25
342.526	91.25
342.754	92.25
342.981	87.25
343.209	90.25
343.437	98.25
343.665	99.25
343.893	76.25
344.12	104.25
344.348	101.25
344.576	94.25
344.804	78.25
345.031	90.25
345.259	93.25
345.487	97.25
345.714	87.25
345.942	95.25
346.17	100.25
346.397	100.25
346.625	115.25
346.853	99.25
347.08	99.25
347.308	84.25
347.535	88.25
347.763	95.25
347.99	108.25
348.218	115.25
348.445	110.25
348.673	88.25
348.9	107.25
349.128	100.25
349.355	91.25
349.583	84.25
349.81	87.25
350.037	89.25
350.265	96.25
350.492	102.25
350.72	99.25
350.947	95.25
351.174	110.25
351.402	99.25
351.629	126.25
351.856	118.25
352.083	112.25
352.311	114.25
352.538	108.25
352.765	104.25
352.992	111.25
353.22	111.25
353.447	103.25
353.674	110.25
353.901	92.25
354.128	85.25
354.355	96.25
354.583	100.25
354.81	89.25
355.037	86.25
355.264	100.25
355.491	94.25
355.718	88.25
355.945	102.25
356.172	103.25
356.399	93.25
356.626	88.25
356.853	93.25
357.08	85.25
357.307	83.25
357.534	95.25
357.761	103.25
357.988	99.25
358.215	101.25
358.441	91.25
358.668	89.25
358.895	85.25
359.122	94.25
359.349	95.25
359.576	91.25
359.802	97.25
360.029	110.25
360.256	110.25
360.483	85.25
360.709	89.25
360.936	80.25
361.163	84.25
361.39	106.25
361.616	92.25
361.843	104.25
362.07	94.25
362.296	94.25
362.523	92.25
362.749	85.25
362.976	96.25
363.203	90.25
363.429	93.25
363.656	98.25
363.882	88.25
364.109	90.25
364.335	88.25
364.562	92.25
364.788	109.25
365.015	86.25
365.241	99.25
365.468	119.25
365.694	105.25
365.92	108.25
366.147	101.25
366.373	92.25
366.599	83.25
366.826	84.25
367.052	92.25
367.278	102.25
367.505	93.25
367.731	79.25
367.957	101.25
368.184	85.25
368.41	91.25
368.636	120.25
368.862	103.25
369.089	113.25
369.315	103.25
369.541	93.25
369.767	89.25
369.993	84.25
370.219	104.25
370.445	97.25
370.672	86.25
370.898	106.25
371.124	88.25
371.35	87.25
371.576	87.25
371.802	83.25
372.028	87.25
372.254	85.25
372.48	73.25
372.706	79.25
372.932	74.25
373.158	80.25
373.384	93.25
373.61	88.25
373.835	85.25
374.061	79.25
374.287	87.25
374.513	89.25
374.739	93.25
374.965	71.25
375.191	84.25
375.416	88.25
375.642	88.25
375.868	90.25
376.094	95.25
376.319	88.25
376.545	79.25
376.771	83.25
376.997	94.25
377.222	100.25
377.448	85.25
377.674	79.25
377.899	81.25
378.125	91.25
378.35	91.25
378.576	96.25
378.802	83.25
379.027	101.25
379.253	89.25
379.478	100.25
379.704	90.25
379.929	90.25
380.155	101.25
380.38	99.25
380.606	76.25
380.831	95.25
381.057	94.25
381.282	89.25
381.507	101.25
381.733	86.25
381.958	92.25
382.184	108.25
382.409	101.25
382.634	108.25
382.86	86.25
383.085	104.25
383.31	99.25
383.535	100.25
383.761	86.25
383.986	88.25
384.211	96.25
384.436	89.25
384.662	81.25
384.887	86.25
385.112	103.25
385.337	103.25
385.562	88.25
385.787	98.25
386.013	96.25
386.238	103.25
386.463	93.25
386.688	105.25
386.913	96.25
387.138	99.25
387.363	115.25
387.588	97.25
387.813	86.25
388.038	85.25
388.263	106.25
388.488	101.25
388.713	94.25
388.938	95.25
389.163	100.25
389.387	86.25
389.612	97.25
389.837	88.25
390.062	87.25
390.287	102.25
390.512	102.25
390.736	107.25
390.961	92.25
391.186	107.25
391.411	100.25
391.636	83.25
391.86	95.25
392.085	85.25
392.31	88.25
392.534	86.25
392.759	84.25
392.984	72.25
393.208	92.25
393.433	91.25
393.658	84.25
393.882	96.25
394.107	88.25
394.331	84.25
394.556	84.25
394.78	79.25
395.005	103.25
395.229	91.25
395.454	106.25
395.678	91.25
395.903	91.25
396.127	79.25
396.352	75.25
396.576	103.25
396.801	101.25
397.025	80.25
397.249	99.25
397.474	96.25
397.698	95.25
397.922	88.25
398.147	93.25
398.371	83.25
398.595	93.25
398.82	87.25
399.044	85.25
399.268	87.25
399.492	91.25
399.717	99.25
399.941	92.25
400.165	101.25
400.389	89.25
400.613	77.25
400.837	104.25
401.062	96.25
401.286	91.25
401.51	83.25
401.734	103.25
401.958	100.25
402.182	137.25
402.406	153.25
402.63	119.25
402.854	92.25
403.078	87.25
403.302	83.25
403.526	92.25
403.75	96.25
403.974	88.25
404.198	77.25
404.422	86.25
404.645	80.25
404.869	82.25
405.093	106.25
405.317	114.25
405.541	108.25
405.765	108.25
405.988	123.25
406.212	173.25
406.436	223.25
406.66	148.25
406.883	90.25
407.107	96.25
407.331	101.25
407.555	114.25
407.778	99.25
408.002	87.25
408.226	84.25
408.449	92.25
408.673	86.25
408.896	84.25
409.12	103.25
409.344	88.25
409.567	90.25
409.791	96.25
410.014	90.25
410.238	101.25
410.461	90.25
410.685	100.25
410.908	86.25
411.132	92.25
411.355	110.25
411.578	77.25
411.802	90.25
412.025	91.25
412.249	104.25
412.472	90.25
412.695	108.25
412.919	105.25
413.142	92.25
413.365	87.25
413.589	88.25
413.812	77.25
414.035	90.25
414.258	90.25
414.482	94.25
414.705	91.25
414.928	89.25
415.151	85.25
415.374	87.25
415.597	104.25
415.821	94.25
416.044	87.25
416.267	102.25
416.49	77.25
416.713	85.25
416.936	92.25
417.159	89.25
417.382	87.25
417.605	101.25
417.828	92.25
418.051	80.25
418.274	93.25
418.497	95.25
418.72	89.25
418.943	96.25
419.166	80.25
419.389	101.25
419.611	78.25
419.834	96.25
420.057	85.25
420.28	80.25
420.503	76.25
420.726	87.25
420.948	96.25
421.171	93.25
421.394	93.25
421.617	81.25
421.839	89.25
422.062	87.25
422.285	88.25
422.507	81.25
422.73	93.25
422.953	93.25
423.175	96.25
423.398	89.25
423.621	101.25
423.843	98.25
424.066	94.25
424.288	86.25
424.511	113.25
424.733	87.25
424.956	117.25
425.178	111.25
425.401	107.25
425.623	104.25
425.846	103.25
426.068	90.25
426.291	84.25
426.513	92.25
426.735	102.25
426.958	97.25
427.18	108.25
427.402	161.25
427.625	184.25
427.847	155.25
428.069	141.25
428.292	104.25
428.514	98.25
428.736	90.25
428.958	87.25
429.181	101.25
429.403	87.25
429.625	85.25
429.847	101.25
430.069	91.25
430.292	91.25
430.514	95.25
430.736	92.25
430.958	82.25
431.18	79.25
431.402	74.25
431.624	84.25
431.846	74.25
432.068	93.25
432.29	82.25
432.512	68.25
432.734	93.25
432.956	95.25
433.178	102.25
433.4	114.25
433.622	87.25
433.844	86.25
434.066	86.25
434.287	83.25
434.509	94.25
434.731	72.25
434.953	95.25
435.175	92.25
435.397	80.25
435.618	105.25
435.84	115.25
436.062	123.25
436.284	121.25
436.505	100.25
436.727	122.25
436.949	85.25
437.17	97.25
437.392	93.25
437.614	94.25
437.835	111.25
438.057	134.25
438.278	127.25
438.5	108.25
438.721	134.25
438.943	105.25
439.165	82.25
439.386	85.25
439.608	73.25
439.829	110.25
440.05	133.25
440.272	165.25
440.493	115.25
440.715	86.25
440.936	86.25
441.158	90.25
441.379	100.25
441.6	85.25
441.822	88.25
442.043	107.25
442.264	116.25
442.486	106.25
442.707	107.25
442.928	118.25
443.149	133.25
443.371	130.25
443.592	116.25
443.813	118.25
444.034	105.25
444.255	89.25
444.476	84.25
444.698	89.25
444.919	96.25
445.14	116.25
445.361	134.25
445.582	123.25
445.803	149.25
446.024	160.25
446.245	154.25
446.466	109.25
446.687	110.25
446.908	89.25
447.129	94.25
447.35	95.25
447.571	88.25
447.792	103.25
448.013	94.25
448.234	122.25
448.455	117.25
448.675	137.25
448.896	122.25
449.117	110.25
449.338	107.25
449.559	144.25
449.779	143.25
450	107.25
450.221	102.25
450.442	91.25
450.662	87.25
450.883	104.25
451.104	119.25
451.324	88.25
451.545	84.25
451.766	88.25
451.986	78.25
452.207	79.25
452.428	103.25
452.648	101.25
452.869	115.25
453.089	118.25
453.31	105.25
453.53	96.25
453.751	93.25
453.971	103.25
454.192	128.25
454.412	98.25
454.633	93.25
454.853	83.25
455.073	96.25
455.294	101.25
455.514	101.25
455.734	96.25
455.955	78.25
456.175	93.25
456.395	95.25
456.616	88.25
456.836	84.25
457.056	89.25
457.276	87.25
457.497	101.25
457.717	85.25
457.937	88.25
458.157	87.25
458.377	89.25
458.598	97.25
458.818	158.25
459.038	169.25
459.258	128.25
459.478	76.25
459.698	64.25
459.918	96.25
460.138	90.25
460.358	87.25
460.578	96.25
460.798	86.25
461.018	86.25
461.238	91.25
461.458	78.25
461.678	85.25
461.898	84.25
462.118	80.25
462.338	84.25
462.558	86.25
462.777	88.25
462.997	95.25
463.217	88.25
463.437	99.25
463.657	89.25
463.876	76.25
464.096	81.25
464.316	92.25
464.536	96.25
464.755	73.25
464.975	96.25
465.195	169.25
465.414	162.25
465.634	96.25
465.854	92.25
466.073	88.25
466.293	93.25
466.512	93.25
466.732	99.25
466.951	80.25
467.171	91.25
467.391	96.25
467.61	101.25
467.829	107.25
468.049	162.25
468.268	208.25
468.488	110.25
468.707	88.25
468.927	83.25
469.146	87.25
469.365	86.25
469.585	83.25
469.804	106.25
470.023	99.25
470.243	88.25
470.462	109.25
470.681	126.25
470.901	75.25
471.12	86.25
471.339	92.25
471.558	82.25
471.777	103.25
471.997	131.25
472.216	263.25
472.435	478.25
472.654	164.25
472.873	94.25
473.092	93.25
473.311	97.25
473.53	94.25
473.749	89.25
473.968	92.25
474.187	102.25
474.406	88.25
474.625	93.25
474.844	94.25
475.063	91.25
475.282	94.25
475.501	72.25
475.72	92.25
475.939	85.25
476.158	90.25
476.377	87.25
476.596	84.25
476.814	89.25
477.033	92.25
477.252	96.25
477.471	100.25
477.69	89.25
477.908	80.25
478.127	91.25
478.346	84.25
478.564	76.25
478.783	96.25
479.002	98.25
479.22	91.25
479.439	106.25
479.658	101.25
479.876	101.25
480.095	97.25
480.313	102.25
480.532	98.25
480.751	129.25
480.969	284.25
481.188	836.25
481.406	557.25
481.624	131.25
481.843	91.25
482.061	84.25
482.28	86.25
482.498	102.25
482.717	89.25
482.935	88.25
483.153	88.25
483.372	81.25
483.59	95.25
483.808	93.25
484.027	100.25
484.245	87.25
484.463	97.25
484.681	103.25
484.9	101.25
485.118	96.25
485.336	84.25
485.554	95.25
485.772	86.25
485.99	100.25
486.209	104.25
486.427	104.25
486.645	123.25
486.863	103.25
487.081	97.25
487.299	94.25
487.517	90.25
487.735	107.25
487.953	100.25
488.171	101.25
488.389	105.25
488.607	109.25
488.825	88.25
489.043	95.25
489.261	92.25
489.479	103.25
489.696	88.25
489.914	86.25
490.132	85.25
490.35	89.25
490.568	93.25
490.786	93.25
491.003	105.25
491.221	90.25
491.439	100.25
491.657	93.25
491.874	96.25
492.092	86.25
492.31	93.25
492.527	81.25
492.745	102.25
492.963	87.25
493.18	100.25
493.398	99.25
493.615	86.25
493.833	92.25
494.05	106.25
494.268	91.25
494.485	94.25
494.703	97.25
494.92	93.25
495.138	76.25
495.355	90.25
495.573	101.25
495.79	99.25
496.008	91.25
496.225	99.25
496.442	87.25
496.66	90.25
496.877	79.25
497.094	94.25
497.312	88.25
497.529	82.25
497.746	90.25
497.963	80.25
498.181	87.25
498.398	99.25
498.615	95.25
498.832	103.25
499.049	77.25
499.267	85.25
499.484	102.25
499.701	94.25
499.918	92.25
500.135	88.25
500.352	94.25
500.569	90.25
500.786	87.25
501.003	88.25
501.22	87.25
501.437	91.25
501.654	94.25
501.871	104.25
502.088	97.25
502.305	93.25
502.522	88.25
502.739	92.25
502.956	84.25
503.172	93.25
503.389	94.25
503.606	105.25
503.823	109.25
504.04	84.25
504.256	95.25
504.473	93.25
504.69	83.25
504.907	91.25
505.123	88.25
505.34	81.25
505.557	82.25
505.773	85.25
505.99	91.25
506.207	96.25
506.423	103.25
506.64	91.25
506.856	88.25
507.073	82.25
507.289	107.25
507.506	92.25
507.722	110.25
507.939	100.25
508.155	90.25
508.372	91.25
508.588	101.25
508.805	88.25
509.021	102.25
509.238	109.25
509.454	95.25
509.67	101.25
509.887	117.25
510.103	129.25
510.319	199.25
510.536	764.25
510.752	2346.25
510.968	670.25
511.184	154.25
511.401	110.25
511.617	113.25
511.833	93.25
512.049	92.25
512.265	104.25
512.481	91.25
512.698	104.25
512.914	94.25
513.13	89.25
513.346	100.25
513.562	102.25
513.778	98.25
513.994	100.25
514.21	105.25
514.426	119.25
514.642	133.25
