Data from Circ_2011_H10_HRD10591_00031.txt Node
Date: Wed Jan 03 10:08:05 EST 2024
User: Yrep
Spectrometer: HR+D1059
Trigger mode: 1
Integration Time (sec): 1.000000E-1
Scans to average: 1
Electric dark correction enabled: true
Nonlinearity correction enabled: false
Boxcar width: 0
XAxis mode: Wavelengths
Number of Pixels in Spectrum: 2048
>>>>>Begin Spectral Data<<<<<
223.165	-19.81
223.4	-19.81
223.635	-19.81
223.869	-20.81
224.104	-16.81
224.338	-2.81
224.573	-34.81
224.808	-19.81
225.042	-6.81
225.277	-6.81
225.511	-2.81
225.746	-3.81
225.98	20.19
226.215	11.19
226.449	23.19
226.683	22.19
226.918	36.19
227.152	22.19
227.387	33.19
227.621	30.19
227.856	41.19
228.09	45.19
228.324	40.19
228.559	54.19
228.793	56.19
229.027	67.19
229.262	70.19
229.496	66.19
229.73	78.19
229.964	82.19
230.199	78.19
230.433	56.19
230.667	77.19
230.901	83.19
231.136	79.19
231.37	65.19
231.604	78.19
231.838	68.19
232.072	62.19
232.306	67.19
232.541	69.19
232.775	73.19
233.009	81.19
233.243	78.19
233.477	78.19
233.711	86.19
233.945	93.19
234.179	71.19
234.413	72.19
234.647	65.19
234.881	71.19
235.115	59.19
235.349	69.19
235.583	71.19
235.817	71.19
236.051	79.19
236.285	84.19
236.519	74.19
236.753	62.19
236.987	78.19
237.221	88.19
237.455	68.19
237.689	74.19
237.922	85.19
238.156	76.19
238.39	71.19
238.624	75.19
238.858	71.19
239.091	78.19
239.325	80.19
239.559	79.19
239.793	73.19
240.027	91.19
240.26	86.19
240.494	70.19
240.728	93.19
240.961	62.19
241.195	69.19
241.429	74.19
241.662	76.19
241.896	64.19
242.13	77.19
242.363	63.19
242.597	75.19
242.83	87.19
243.064	83.19
243.298	63.19
243.531	69.19
243.765	75.19
243.998	80.19
244.232	70.19
244.465	94.19
244.699	83.19
244.932	73.19
245.166	71.19
245.399	73.19
245.633	75.19
245.866	70.19
246.099	80.19
246.333	87.19
246.566	75.19
246.8	92.19
247.033	81.19
247.266	75.19
247.5	92.19
247.733	76.19
247.966	87.19
248.2	97.19
248.433	74.19
248.666	76.19
248.899	79.19
249.133	79.19
249.366	83.19
249.599	90.19
249.832	83.19
250.066	71.19
250.299	70.19
250.532	73.19
250.765	84.19
250.998	75.19
251.231	91.19
251.465	68.19
251.698	81.19
251.931	70.19
252.164	78.19
252.397	71.19
252.63	79.19
252.863	78.19
253.096	83.19
253.329	70.19
253.562	86.19
253.795	81.19
254.028	79.19
254.261	91.19
254.494	88.19
254.727	77.19
254.96	76.19
255.193	86.19
255.426	73.19
255.659	86.19
255.892	79.19
256.124	71.19
256.357	74.19
256.59	89.19
256.823	85.19
257.056	86.19
257.289	79.19
257.521	94.19
257.754	79.19
257.987	81.19
258.22	86.19
258.452	82.19
258.685	87.19
258.918	85.19
259.151	84.19
259.383	70.19
259.616	88.19
259.849	82.19
260.081	77.19
260.314	82.19
260.547	78.19
260.779	80.19
261.012	90.19
261.244	86.19
261.477	75.19
261.71	86.19
261.942	113.19
262.175	104.19
262.407	85.19
262.64	82.19
262.872	78.19
263.105	86.19
263.337	82.19
263.57	87.19
263.802	70.19
264.035	75.19
264.267	82.19
264.499	89.19
264.732	76.19
264.964	85.19
265.197	90.19
265.429	83.19
265.661	71.19
265.894	87.19
266.126	89.19
266.358	82.19
266.591	80.19
266.823	77.19
267.055	80.19
267.287	71.19
267.52	87.19
267.752	62.19
267.984	77.19
268.216	88.19
268.448	82.19
268.681	86.19
268.913	87.19
269.145	86.19
269.377	72.19
269.609	83.19
269.841	85.19
270.073	88.19
270.306	82.19
270.538	86.19
270.77	63.19
271.002	84.19
271.234	68.19
271.466	91.19
271.698	87.19
271.93	77.19
272.162	87.19
272.394	85.19
272.626	81.19
272.858	68.19
273.09	70.19
273.322	70.19
273.553	90.19
273.785	88.19
274.017	85.19
274.249	85.19
274.481	78.19
274.713	81.19
274.945	76.19
275.176	87.19
275.408	76.19
275.64	75.19
275.872	85.19
276.104	94.19
276.335	81.19
276.567	92.19
276.799	113.19
277.031	94.19
277.262	103.19
277.494	90.19
277.726	92.19
277.957	73.19
278.189	82.19
278.421	71.19
278.652	83.19
278.884	84.19
279.115	81.19
279.347	72.19
279.579	72.19
279.81	79.19
280.042	88.19
280.273	86.19
280.505	88.19
280.736	78.19
280.968	97.19
281.199	80.19
281.431	86.19
281.662	102.19
281.894	85.19
282.125	94.19
282.356	113.19
282.588	127.19
282.819	102.19
283.051	85.19
283.282	87.19
283.513	81.19
283.745	92.19
283.976	77.19
284.207	94.19
284.439	76.19
284.67	78.19
284.901	72.19
285.132	88.19
285.364	77.19
285.595	83.19
285.826	84.19
286.057	87.19
286.288	78.19
286.52	89.19
286.751	77.19
286.982	75.19
287.213	87.19
287.444	79.19
287.675	89.19
287.906	79.19
288.138	86.19
288.369	93.19
288.6	77.19
288.831	88.19
289.062	90.19
289.293	91.19
289.524	96.19
289.755	85.19
289.986	85.19
290.217	91.19
290.448	74.19
290.679	102.19
290.91	82.19
291.141	89.19
291.371	84.19
291.602	93.19
291.833	76.19
292.064	85.19
292.295	77.19
292.526	98.19
292.757	93.19
292.987	72.19
293.218	92.19
293.449	86.19
293.68	79.19
293.91	96.19
294.141	78.19
294.372	80.19
294.603	93.19
294.833	90.19
295.064	93.19
295.295	93.19
295.525	82.19
295.756	99.19
295.987	104.19
296.217	119.19
296.448	99.19
296.679	88.19
296.909	84.19
297.14	83.19
297.37	91.19
297.601	91.19
297.831	93.19
298.062	80.19
298.292	89.19
298.523	96.19
298.753	80.19
298.984	98.19
299.214	88.19
299.445	97.19
299.675	80.19
299.905	99.19
300.136	94.19
300.366	91.19
300.597	76.19
300.827	101.19
301.057	96.19
301.288	89.19
301.518	94.19
301.748	100.19
301.979	98.19
302.209	90.19
302.439	89.19
302.669	89.19
302.9	86.19
303.13	75.19
303.36	105.19
303.59	88.19
303.82	104.19
304.051	98.19
304.281	97.19
304.511	108.19
304.741	94.19
304.971	92.19
305.201	98.19
305.431	76.19
305.661	81.19
305.891	89.19
306.121	85.19
306.352	95.19
306.582	109.19
306.812	83.19
307.042	94.19
307.272	91.19
307.502	97.19
307.731	100.19
307.961	90.19
308.191	85.19
308.421	83.19
308.651	92.19
308.881	98.19
309.111	89.19
309.341	97.19
309.571	106.19
309.8	89.19
310.03	97.19
310.26	98.19
310.49	98.19
310.72	93.19
310.949	106.19
311.179	109.19
311.409	88.19
311.639	89.19
311.868	92.19
312.098	98.19
312.328	77.19
312.557	90.19
312.787	107.19
313.017	95.19
313.246	75.19
313.476	93.19
313.706	87.19
313.935	81.19
314.165	104.19
314.394	82.19
314.624	109.19
314.853	103.19
315.083	98.19
315.312	91.19
315.542	100.19
315.771	86.19
316.001	85.19
316.23	96.19
316.46	82.19
316.689	79.19
316.919	88.19
317.148	105.19
317.377	87.19
317.607	78.19
317.836	95.19
318.065	92.19
318.295	83.19
318.524	85.19
318.753	81.19
318.983	91.19
319.212	97.19
319.441	102.19
319.67	97.19
319.9	99.19
320.129	76.19
320.358	91.19
320.587	110.19
320.816	98.19
321.046	99.19
321.275	93.19
321.504	94.19
321.733	85.19
321.962	98.19
322.191	93.19
322.42	119.19
322.649	107.19
322.878	117.19
323.108	108.19
323.337	126.19
323.566	121.19
323.795	142.19
324.024	194.19
324.253	357.19
324.482	769.19
324.71	1565.19
324.939	2092.19
325.168	782.19
325.397	223.19
325.626	133.19
325.855	105.19
326.084	122.19
326.313	117.19
326.542	148.19
326.77	210.19
326.999	438.19
327.228	885.19
327.457	1624.19
327.686	1299.19
327.914	344.19
328.143	199.19
328.372	167.19
328.6	134.19
328.829	102.19
329.058	99.19
329.287	121.19
329.515	106.19
329.744	110.19
329.972	107.19
330.201	167.19
330.43	184.19
330.658	143.19
330.887	133.19
331.115	121.19
331.344	113.19
331.572	86.19
331.801	96.19
332.03	114.19
332.258	104.19
332.486	99.19
332.715	84.19
332.943	93.19
333.172	102.19
333.4	99.19
333.629	111.19
333.857	109.19
334.085	116.19
334.314	157.19
334.542	199.19
334.771	210.19
334.999	118.19
335.227	99.19
335.455	94.19
335.684	73.19
335.912	86.19
336.14	84.19
336.369	93.19
336.597	115.19
336.825	96.19
337.053	90.19
337.281	97.19
337.51	95.19
337.738	89.19
337.966	103.19
338.194	90.19
338.422	98.19
338.65	105.19
338.878	90.19
339.106	88.19
339.334	96.19
339.562	90.19
339.79	102.19
340.018	100.19
340.246	79.19
340.474	95.19
340.702	103.19
340.93	89.19
341.158	91.19
341.386	96.19
341.614	104.19
341.842	109.19
342.07	77.19
342.298	84.19
342.526	93.19
342.754	78.19
342.981	86.19
343.209	95.19
343.437	92.19
343.665	94.19
343.893	88.19
344.12	81.19
344.348	91.19
344.576	98.19
344.804	93.19
345.031	89.19
345.259	115.19
345.487	85.19
345.714	99.19
345.942	85.19
346.17	97.19
346.397	94.19
346.625	75.19
346.853	86.19
347.08	86.19
347.308	90.19
347.535	80.19
347.763	87.19
347.99	80.19
348.218	99.19
348.445	101.19
348.673	90.19
348.9	107.19
349.128	93.19
349.355	92.19
349.583	88.19
349.81	98.19
350.037	100.19
350.265	92.19
350.492	84.19
350.72	101.19
350.947	98.19
351.174	95.19
351.402	106.19
351.629	92.19
351.856	92.19
352.083	84.19
352.311	104.19
352.538	90.19
352.765	98.19
352.992	115.19
353.22	102.19
353.447	102.19
353.674	97.19
353.901	97.19
354.128	96.19
354.355	105.19
354.583	99.19
354.81	94.19
355.037	97.19
355.264	81.19
355.491	83.19
355.718	89.19
355.945	96.19
356.172	92.19
356.399	96.19
356.626	74.19
356.853	97.19
357.08	107.19
357.307	81.19
357.534	88.19
357.761	83.19
357.988	101.19
358.215	98.19
358.441	79.19
358.668	76.19
358.895	87.19
359.122	90.19
359.349	80.19
359.576	95.19
359.802	103.19
360.029	116.19
360.256	102.19
360.483	82.19
360.709	89.19
360.936	92.19
361.163	79.19
361.39	84.19
361.616	86.19
361.843	96.19
362.07	98.19
362.296	100.19
362.523	103.19
362.749	102.19
362.976	97.19
363.203	89.19
363.429	91.19
363.656	74.19
363.882	84.19
364.109	85.19
364.335	86.19
364.562	82.19
364.788	93.19
365.015	75.19
365.241	97.19
365.468	94.19
365.694	120.19
365.92	97.19
366.147	92.19
366.373	83.19
366.599	106.19
366.826	90.19
367.052	90.19
367.278	90.19
367.505	92.19
367.731	89.19
367.957	85.19
368.184	78.19
368.41	90.19
368.636	108.19
368.862	99.19
369.089	98.19
369.315	102.19
369.541	89.19
369.767	102.19
369.993	90.19
370.219	77.19
370.445	95.19
370.672	84.19
370.898	92.19
371.124	85.19
371.35	84.19
371.576	91.19
371.802	75.19
372.028	85.19
372.254	91.19
372.48	89.19
372.706	81.19
372.932	89.19
373.158	88.19
373.384	81.19
373.61	79.19
373.835	100.19
374.061	90.19
374.287	92.19
374.513	78.19
374.739	73.19
374.965	80.19
375.191	85.19
375.416	78.19
375.642	81.19
375.868	93.19
376.094	92.19
376.319	76.19
376.545	80.19
376.771	88.19
376.997	93.19
377.222	75.19
377.448	91.19
377.674	86.19
377.899	84.19
378.125	76.19
378.35	90.19
378.576	86.19
378.802	89.19
379.027	84.19
379.253	87.19
379.478	93.19
379.704	84.19
379.929	85.19
380.155	85.19
380.38	99.19
380.606	88.19
380.831	90.19
381.057	110.19
381.282	98.19
381.507	86.19
381.733	89.19
381.958	98.19
382.184	106.19
382.409	79.19
382.634	100.19
382.86	72.19
383.085	91.19
383.31	105.19
383.535	90.19
383.761	87.19
383.986	86.19
384.211	104.19
384.436	66.19
384.662	82.19
384.887	96.19
385.112	100.19
385.337	99.19
385.562	75.19
385.787	95.19
386.013	119.19
386.238	103.19
386.463	106.19
386.688	104.19
386.913	100.19
387.138	88.19
387.363	90.19
387.588	99.19
387.813	89.19
388.038	93.19
388.263	113.19
388.488	95.19
388.713	95.19
388.938	85.19
389.163	100.19
389.387	84.19
389.612	87.19
389.837	95.19
390.062	97.19
390.287	84.19
390.512	84.19
390.736	84.19
390.961	86.19
391.186	78.19
391.411	87.19
391.636	96.19
391.86	92.19
392.085	77.19
392.31	105.19
392.534	86.19
392.759	89.19
392.984	73.19
393.208	80.19
393.433	84.19
393.658	90.19
393.882	90.19
394.107	79.19
394.331	91.19
394.556	95.19
394.78	84.19
395.005	83.19
395.229	86.19
395.454	88.19
395.678	87.19
395.903	90.19
396.127	79.19
396.352	93.19
396.576	84.19
396.801	85.19
397.025	84.19
397.249	91.19
397.474	90.19
397.698	74.19
397.922	97.19
398.147	88.19
398.371	86.19
398.595	94.19
398.82	89.19
399.044	94.19
399.268	115.19
399.492	80.19
399.717	85.19
399.941	82.19
400.165	86.19
400.389	80.19
400.613	88.19
400.837	89.19
401.062	92.19
401.286	85.19
401.51	85.19
401.734	89.19
401.958	97.19
402.182	105.19
402.406	162.19
402.63	108.19
402.854	94.19
403.078	86.19
403.302	89.19
403.526	90.19
403.75	93.19
403.974	93.19
404.198	84.19
404.422	85.19
404.645	89.19
404.869	94.19
405.093	86.19
405.317	112.19
405.541	103.19
405.765	104.19
405.988	129.19
406.212	153.19
406.436	207.19
406.66	125.19
406.883	104.19
407.107	82.19
407.331	85.19
407.555	89.19
407.778	90.19
408.002	85.19
408.226	96.19
408.449	83.19
408.673	94.19
408.896	92.19
409.12	78.19
409.344	94.19
409.567	81.19
409.791	92.19
410.014	90.19
410.238	89.19
410.461	85.19
410.685	92.19
410.908	92.19
411.132	107.19
411.355	88.19
411.578	83.19
411.802	95.19
412.025	64.19
412.249	68.19
412.472	98.19
412.695	102.19
412.919	99.19
413.142	78.19
413.365	78.19
413.589	97.19
413.812	91.19
414.035	85.19
414.258	90.19
414.482	98.19
414.705	94.19
414.928	91.19
415.151	69.19
415.374	72.19
415.597	104.19
415.821	95.19
416.044	72.19
416.267	87.19
416.49	91.19
416.713	78.19
416.936	87.19
417.159	94.19
417.382	89.19
417.605	87.19
417.828	112.19
418.051	91.19
418.274	75.19
418.497	83.19
418.72	76.19
418.943	78.19
419.166	77.19
419.389	100.19
419.611	91.19
419.834	98.19
420.057	84.19
420.28	89.19
420.503	85.19
420.726	94.19
420.948	100.19
421.171	100.19
421.394	83.19
421.617	81.19
421.839	73.19
422.062	82.19
422.285	89.19
422.507	86.19
422.73	90.19
422.953	83.19
423.175	80.19
423.398	81.19
423.621	75.19
423.843	91.19
424.066	77.19
424.288	83.19
424.511	75.19
424.733	97.19
424.956	93.19
425.178	106.19
425.401	99.19
425.623	97.19
425.846	87.19
426.068	92.19
426.291	92.19
426.513	76.19
426.735	88.19
426.958	86.19
427.18	110.19
427.402	119.19
427.625	166.19
427.847	136.19
428.069	119.19
428.292	88.19
428.514	87.19
428.736	75.19
428.958	88.19
429.181	83.19
429.403	85.19
429.625	87.19
429.847	92.19
430.069	98.19
430.292	94.19
430.514	80.19
430.736	71.19
430.958	79.19
431.18	89.19
431.402	77.19
431.624	95.19
431.846	73.19
432.068	85.19
432.29	89.19
432.512	77.19
432.734	81.19
432.956	87.19
433.178	88.19
433.4	84.19
433.622	86.19
433.844	82.19
434.066	83.19
434.287	84.19
434.509	87.19
434.731	70.19
434.953	68.19
435.175	79.19
435.397	98.19
435.618	99.19
435.84	103.19
436.062	130.19
436.284	114.19
436.505	93.19
436.727	86.19
436.949	93.19
437.17	98.19
437.392	88.19
437.614	94.19
437.835	113.19
438.057	110.19
438.278	92.19
438.5	115.19
438.721	105.19
438.943	90.19
439.165	85.19
439.386	77.19
439.608	86.19
439.829	87.19
440.05	106.19
440.272	130.19
440.493	88.19
440.715	77.19
440.936	87.19
441.158	97.19
441.379	96.19
441.6	90.19
441.822	87.19
442.043	91.19
442.264	101.19
442.486	96.19
442.707	90.19
442.928	102.19
443.149	110.19
443.371	118.19
443.592	103.19
443.813	109.19
444.034	104.19
444.255	102.19
444.476	85.19
444.698	76.19
444.919	77.19
445.14	137.19
445.361	120.19
445.582	103.19
445.803	126.19
446.024	128.19
446.245	139.19
446.466	114.19
446.687	84.19
446.908	91.19
447.129	81.19
447.35	77.19
447.571	82.19
447.792	85.19
448.013	91.19
448.234	108.19
448.455	79.19
448.675	101.19
448.896	108.19
449.117	113.19
449.338	106.19
449.559	111.19
449.779	133.19
450	85.19
450.221	89.19
450.442	83.19
450.662	87.19
450.883	104.19
451.104	105.19
451.324	95.19
451.545	85.19
451.766	96.19
451.986	77.19
452.207	77.19
452.428	95.19
452.648	90.19
452.869	107.19
453.089	110.19
453.31	101.19
453.53	99.19
453.751	87.19
453.971	113.19
454.192	98.19
454.412	76.19
454.633	83.19
454.853	87.19
455.073	84.19
455.294	83.19
455.514	88.19
455.734	82.19
455.955	84.19
456.175	76.19
456.395	74.19
456.616	77.19
456.836	78.19
457.056	89.19
457.276	97.19
457.497	82.19
457.717	90.19
457.937	92.19
458.157	87.19
458.377	85.19
458.598	99.19
458.818	125.19
459.038	153.19
459.258	110.19
459.478	89.19
459.698	90.19
459.918	86.19
460.138	83.19
460.358	86.19
460.578	82.19
460.798	84.19
461.018	75.19
461.238	83.19
461.458	96.19
461.678	76.19
461.898	90.19
462.118	83.19
462.338	85.19
462.558	89.19
462.777	96.19
462.997	79.19
463.217	95.19
463.437	91.19
463.657	84.19
463.876	87.19
464.096	79.19
464.316	78.19
464.536	97.19
464.755	92.19
464.975	99.19
465.195	147.19
465.414	156.19
465.634	93.19
465.854	75.19
466.073	95.19
466.293	85.19
466.512	69.19
466.732	84.19
466.951	75.19
467.171	91.19
467.391	97.19
467.61	96.19
467.829	90.19
468.049	118.19
468.268	132.19
468.488	96.19
468.707	70.19
468.927	74.19
469.146	86.19
469.365	78.19
469.585	76.19
469.804	92.19
470.023	95.19
470.243	100.19
470.462	97.19
470.681	100.19
470.901	77.19
471.12	78.19
471.339	73.19
471.558	93.19
471.777	81.19
471.997	114.19
472.216	157.19
472.435	263.19
472.654	130.19
472.873	96.19
473.092	81.19
473.311	79.19
473.53	83.19
473.749	88.19
473.968	86.19
474.187	105.19
474.406	101.19
474.625	79.19
474.844	93.19
475.063	80.19
475.282	91.19
475.501	79.19
475.72	84.19
475.939	86.19
476.158	87.19
476.377	83.19
476.596	72.19
476.814	75.19
477.033	84.19
477.252	81.19
477.471	90.19
477.69	98.19
477.908	69.19
478.127	98.19
478.346	102.19
478.564	81.19
478.783	99.19
479.002	93.19
479.22	95.19
479.439	83.19
479.658	100.19
479.876	83.19
480.095	89.19
480.313	91.19
480.532	90.19
480.751	113.19
480.969	183.19
481.188	414.19
481.406	281.19
481.624	114.19
481.843	100.19
482.061	96.19
482.28	89.19
482.498	89.19
482.717	83.19
482.935	93.19
483.153	82.19
483.372	65.19
483.59	85.19
483.808	82.19
484.027	93.19
484.245	101.19
484.463	101.19
484.681	89.19
484.9	89.19
485.118	84.19
485.336	86.19
485.554	93.19
485.772	89.19
485.99	94.19
486.209	94.19
486.427	115.19
486.645	106.19
486.863	99.19
487.081	90.19
487.299	85.19
487.517	78.19
487.735	93.19
487.953	92.19
488.171	92.19
488.389	94.19
488.607	87.19
488.825	79.19
489.043	84.19
489.261	85.19
489.479	93.19
489.696	103.19
489.914	83.19
490.132	85.19
490.35	98.19
490.568	94.19
490.786	84.19
491.003	83.19
491.221	95.19
491.439	77.19
491.657	95.19
491.874	80.19
492.092	92.19
492.31	97.19
492.527	88.19
492.745	91.19
492.963	83.19
493.18	79.19
493.398	91.19
493.615	100.19
493.833	98.19
494.05	98.19
494.268	92.19
494.485	90.19
494.703	75.19
494.92	93.19
495.138	86.19
495.355	77.19
495.573	84.19
495.79	90.19
496.008	90.19
496.225	93.19
496.442	92.19
496.66	92.19
496.877	91.19
497.094	79.19
497.312	82.19
497.529	91.19
497.746	94.19
497.963	104.19
498.181	94.19
498.398	88.19
498.615	90.19
498.832	95.19
499.049	89.19
499.267	97.19
499.484	99.19
499.701	80.19
499.918	94.19
500.135	82.19
500.352	83.19
500.569	84.19
500.786	104.19
501.003	96.19
501.22	88.19
501.437	67.19
501.654	104.19
501.871	115.19
502.088	94.19
502.305	85.19
502.522	78.19
502.739	83.19
502.956	103.19
503.172	80.19
503.389	90.19
503.606	86.19
503.823	103.19
504.04	70.19
504.256	79.19
504.473	81.19
504.69	87.19
504.907	90.19
505.123	104.19
505.34	86.19
505.557	98.19
505.773	97.19
505.99	84.19
506.207	70.19
506.423	84.19
506.64	82.19
506.856	90.19
507.073	91.19
507.289	106.19
507.506	90.19
507.722	101.19
507.939	108.19
508.155	89.19
508.372	87.19
508.588	85.19
508.805	98.19
509.021	100.19
509.238	104.19
509.454	92.19
509.67	88.19
509.887	104.19
510.103	122.19
510.319	194.19
510.536	629.19
510.752	2009.19
510.968	614.19
511.184	148.19
511.401	104.19
511.617	92.19
511.833	78.19
512.049	95.19
512.265	100.19
512.481	96.19
512.698	87.19
512.914	91.19
513.13	96.19
513.346	101.19
513.562	90.19
513.778	89.19
513.994	89.19
514.21	95.19
514.426	106.19
514.642	115.19
514.858	121.19
515.074	137.19
515.29	376.19
515.506	1277.19
515.721	515.19
515.937	129.19
516.153	114.19
516.369	91.19
516.585	101.19
