Data from Circ_2011_H10_HRD10591_00093.txt Node
Date: Wed Jan 03 10:08:17 EST 2024
User: Yrep
Spectrometer: HR+D1059
Trigger mode: 1
Integration Time (sec): 1.000000E-1
Scans to average: 1
Electric dark correction enabled: true
Nonlinearity correction enabled: false
Boxcar width: 0
XAxis mode: Wavelengths
Number of Pixels in Spectrum: 2048
>>>>>Begin Spectral Data<<<<<
223.165	-30.69
223.4	-30.69
223.635	-30.69
223.869	-21.69
224.104	-17.69
224.338	-10.69
224.573	-15.69
224.808	-16.69
225.042	-5.69
225.277	4.31
225.511	1.31
225.746	5.31
225.98	7.31
226.215	7.31
226.449	25.31
226.683	18.31
226.918	26.31
227.152	23.31
227.387	37.31
227.621	43.31
227.856	57.31
228.09	38.31
228.324	42.31
228.559	60.31
228.793	168.31
229.027	436.31
229.262	512.31
229.496	591.31
229.73	808.31
229.964	830.31
230.199	542.31
230.433	473.31
230.667	446.31
230.901	452.31
231.136	440.31
231.37	430.31
231.604	432.31
231.838	464.31
232.072	443.31
232.306	449.31
232.541	463.31
232.775	467.31
233.009	467.31
233.243	469.31
233.477	460.31
233.711	492.31
233.945	492.31
234.179	506.31
234.413	495.31
234.647	493.31
234.881	524.31
235.115	538.31
235.349	541.31
235.583	536.31
235.817	597.31
236.051	620.31
236.285	582.31
236.519	625.31
236.753	712.31
236.987	928.31
237.221	1389.31
237.455	1498.31
237.689	892.31
237.922	731.31
238.156	673.31
238.39	646.31
238.624	640.31
238.858	668.31
239.091	654.31
239.325	640.31
239.559	662.31
239.793	683.31
240.027	758.31
240.26	897.31
240.494	970.31
240.728	947.31
240.961	901.31
241.195	785.31
241.429	784.31
241.662	750.31
241.896	786.31
242.13	781.31
242.363	761.31
242.597	800.31
242.83	825.31
243.064	816.31
243.298	828.31
243.531	847.31
243.765	848.31
243.998	829.31
244.232	837.31
244.465	878.31
244.699	901.31
244.932	896.31
245.166	903.31
245.399	904.31
245.633	881.31
245.866	905.31
246.099	926.31
246.333	949.31
246.566	966.31
246.8	1013.31
247.033	1020.31
247.266	1028.31
247.5	1108.31
247.733	1155.31
247.966	1141.31
248.2	1170.31
248.433	1148.31
248.666	1207.31
248.899	1372.31
249.133	1453.31
249.366	1499.31
249.599	1375.31
249.832	1324.31
250.066	1430.31
250.299	1740.31
250.532	2083.31
250.765	2150.31
250.998	1991.31
251.231	1781.31
251.465	1572.31
251.698	1504.31
251.931	1437.31
252.164	1396.31
252.397	1437.31
252.63	1476.31
252.863	1548.31
253.096	1724.31
253.329	1783.31
253.562	1634.31
253.795	1550.31
254.028	1579.31
254.261	1648.31
254.494	1830.31
254.727	2234.31
254.96	2342.31
255.193	2029.31
255.426	1962.31
255.659	2104.31
255.892	2758.31
256.124	3404.31
256.357	2946.31
256.59	2279.31
256.823	1930.31
257.056	1803.31
257.289	1707.31
257.521	1747.31
257.754	1672.31
257.987	1613.31
258.22	1601.31
258.452	1609.31
258.685	1618.31
258.918	1622.31
259.151	1645.31
259.383	1715.31
259.616	1698.31
259.849	1784.31
260.081	1934.31
260.314	2077.31
260.547	2038.31
260.779	1846.31
261.012	1757.31
261.244	1731.31
261.477	1695.31
261.71	1720.31
261.942	1752.31
262.175	1819.31
262.407	1690.31
262.64	1613.31
262.872	1693.31
263.105	1674.31
263.337	1652.31
263.57	1672.31
263.802	1690.31
264.035	1658.31
264.267	1681.31
264.499	1637.31
264.732	1685.31
264.964	1686.31
265.197	1726.31
265.429	1697.31
265.661	1700.31
265.894	1719.31
266.126	1786.31
266.358	1778.31
266.591	1798.31
266.823	1880.31
267.055	1896.31
267.287	1874.31
267.52	1878.31
267.752	1873.31
267.984	1881.31
268.216	1880.31
268.448	1923.31
268.681	1977.31
268.913	2155.31
269.145	2352.31
269.377	2369.31
269.609	2269.31
269.841	2221.31
270.073	2358.31
270.306	2604.31
270.538	2738.31
270.77	2569.31
271.002	2435.31
271.234	2446.31
271.466	2590.31
271.698	2713.31
271.93	2739.31
272.162	2650.31
272.394	2616.31
272.626	2459.31
272.858	2356.31
273.09	2279.31
273.322	2251.31
273.553	2222.31
273.785	2212.31
274.017	2267.31
274.249	2261.31
274.481	2264.31
274.713	2249.31
274.945	2332.31
275.176	2342.31
275.408	2296.31
275.64	2296.31
275.872	2290.31
276.104	2354.31
276.335	2404.31
276.567	2495.31
276.799	2669.31
277.031	2966.31
277.262	3116.31
277.494	2878.31
277.726	2684.31
277.957	2547.31
278.189	2519.31
278.421	2451.31
278.652	2434.31
278.884	2460.31
279.115	2410.31
279.347	2409.31
279.579	2450.31
279.81	2500.31
280.042	2589.31
280.273	2644.31
280.505	2634.31
280.736	2564.31
280.968	2516.31
281.199	2468.31
281.431	2546.31
281.662	2496.31
281.894	2525.31
282.125	2604.31
282.356	2673.31
282.588	2892.31
282.819	2760.31
283.051	2612.31
283.282	2566.31
283.513	2546.31
283.745	2638.31
283.976	2664.31
284.207	2665.31
284.439	2574.31
284.67	2635.31
284.901	2662.31
285.132	2656.31
285.364	2597.31
285.595	2644.31
285.826	2660.31
286.057	2739.31
286.288	2717.31
286.52	2722.31
286.751	2677.31
286.982	2754.31
287.213	2757.31
287.444	2782.31
287.675	2861.31
287.906	2918.31
288.138	3013.31
288.369	2930.31
288.6	2937.31
288.831	2871.31
289.062	2870.31
289.293	2853.31
289.524	2846.31
289.755	2809.31
289.986	2820.31
290.217	2832.31
290.448	2843.31
290.679	2830.31
290.91	2831.31
291.141	2807.31
291.371	2841.31
291.602	2848.31
291.833	2784.31
292.064	2801.31
292.295	2819.31
292.526	2792.31
292.757	2782.31
292.987	2815.31
293.218	2818.31
293.449	2877.31
293.68	2870.31
293.91	2838.31
294.141	2806.31
294.372	2824.31
294.603	2850.31
294.833	2859.31
295.064	2951.31
295.295	2885.31
295.525	2894.31
295.756	2931.31
295.987	2996.31
296.217	3196.31
296.448	3077.31
296.679	2945.31
296.909	2984.31
297.14	2952.31
297.37	3033.31
297.601	2998.31
297.831	3064.31
298.062	3052.31
298.292	3001.31
298.523	3125.31
298.753	3187.31
298.984	3077.31
299.214	3124.31
299.445	3100.31
299.675	3117.31
299.905	3177.31
300.136	3133.31
300.366	3125.31
300.597	3179.31
300.827	3289.31
301.057	3372.31
301.288	3399.31
301.518	3360.31
301.748	3396.31
301.979	3384.31
302.209	3364.31
302.439	3369.31
302.669	3399.31
302.9	3323.31
303.13	3225.31
303.36	3328.31
303.59	3368.31
303.82	3454.31
304.051	3386.31
304.281	3280.31
304.511	3314.31
304.741	3291.31
304.971	3270.31
305.201	3305.31
305.431	3278.31
305.661	3250.31
305.891	3282.31
306.121	3320.31
306.352	3324.31
306.582	3299.31
306.812	3315.31
307.042	3299.31
307.272	3354.31
307.502	3421.31
307.731	3399.31
307.961	3384.31
308.191	3330.31
308.421	3332.31
308.651	3314.31
308.881	3275.31
309.111	3362.31
309.341	3408.31
309.571	3492.31
309.8	3557.31
310.03	3616.31
310.26	3584.31
310.49	3633.31
310.72	3679.31
310.949	3779.31
311.179	3818.31
311.409	3661.31
311.639	3675.31
311.868	3669.31
312.098	3734.31
312.328	3821.31
312.557	3983.31
312.787	4046.31
313.017	3933.31
313.246	3836.31
313.476	3788.31
313.706	3810.31
313.935	3875.31
314.165	3964.31
314.394	3999.31
314.624	3979.31
314.853	3882.31
315.083	3810.31
315.312	3762.31
315.542	3771.31
315.771	3689.31
316.001	3726.31
316.23	3760.31
316.46	3710.31
316.689	3740.31
316.919	3766.31
317.148	3870.31
317.377	3831.31
317.607	3783.31
317.836	3681.31
318.065	3673.31
318.295	3749.31
318.524	3715.31
318.753	3696.31
318.983	3747.31
319.212	3747.31
319.441	3802.31
319.67	3825.31
319.9	3736.31
320.129	3710.31
320.358	3765.31
320.587	3820.31
320.816	3871.31
321.046	3915.31
321.275	3874.31
321.504	3907.31
321.733	3900.31
321.962	3979.31
322.191	4146.31
322.42	4230.31
322.649	4325.31
322.878	4356.31
323.108	4492.31
323.337	4726.31
323.566	4937.31
323.795	5240.31
324.024	5891.31
324.253	7942.31
324.482	12151.31
324.71	15598.31
324.939	15598.31
325.168	13727.31
325.397	6835.31
325.626	5419.31
325.855	5079.31
326.084	4916.31
326.313	4995.31
326.542	5249.31
326.77	6048.31
326.999	7784.31
327.228	11556.31
327.457	15386.31
327.686	14732.31
327.914	8375.31
328.143	7248.31
328.372	7170.31
328.6	6348.31
328.829	5996.31
329.058	6107.31
329.287	6194.31
329.515	5949.31
329.744	6203.31
329.972	7110.31
330.201	8544.31
330.43	9285.31
330.658	7809.31
330.887	7013.31
331.115	6210.31
331.344	5595.31
331.572	5449.31
331.801	5540.31
332.03	5499.31
332.258	5440.31
332.486	5476.31
332.715	5564.31
332.943	5805.31
333.172	5938.31
333.4	6274.31
333.629	6638.31
333.857	7285.31
334.085	8216.31
334.314	9872.31
334.542	11598.31
334.771	10723.31
334.999	7542.31
335.227	6414.31
335.455	5963.31
335.684	5598.31
335.912	5494.31
336.14	5254.31
336.369	5336.31
336.597	5311.31
336.825	5184.31
337.053	5086.31
337.281	4998.31
337.51	4840.31
337.738	4931.31
337.966	4853.31
338.194	4832.31
338.422	4774.31
338.65	4656.31
338.878	4635.31
339.106	4648.31
339.334	4593.31
339.562	4565.31
339.79	4466.31
340.018	4546.31
340.246	4508.31
340.474	4506.31
340.702	4482.31
340.93	4529.31
341.158	4533.31
341.386	4494.31
341.614	4439.31
341.842	4421.31
342.07	4374.31
342.298	4353.31
342.526	4349.31
342.754	4256.31
342.981	4354.31
343.209	4451.31
343.437	4647.31
343.665	4937.31
343.893	5139.31
344.12	5166.31
344.348	4916.31
344.576	4829.31
344.804	4746.31
345.031	4698.31
345.259	4697.31
345.487	4488.31
345.714	4388.31
345.942	4280.31
346.17	4298.31
346.397	4170.31
346.625	4211.31
346.853	4231.31
347.08	4218.31
347.308	4300.31
347.535	4354.31
347.763	4388.31
347.99	4344.31
348.218	4356.31
348.445	4376.31
348.673	4259.31
348.9	4264.31
349.128	4101.31
349.355	4145.31
349.583	4133.31
349.81	4066.31
350.037	4093.31
350.265	4038.31
350.492	4115.31
350.72	4128.31
350.947	4157.31
351.174	4238.31
351.402	4248.31
351.629	4180.31
351.856	4202.31
352.083	4286.31
352.311	4306.31
352.538	4354.31
352.765	4310.31
352.992	4181.31
353.22	4132.31
353.447	4105.31
353.674	4089.31
353.901	4039.31
354.128	3993.31
354.355	3985.31
354.583	4019.31
354.81	3982.31
355.037	3937.31
355.264	4006.31
355.491	3906.31
355.718	3992.31
355.945	3954.31
356.172	3953.31
356.399	3940.31
356.626	3985.31
356.853	3969.31
357.08	3888.31
357.307	3956.31
357.534	3946.31
357.761	4035.31
357.988	4004.31
358.215	3947.31
358.441	3982.31
358.668	4032.31
358.895	4052.31
359.122	4152.31
359.349	4161.31
359.576	4316.31
359.802	4510.31
360.029	4705.31
360.256	4680.31
360.483	4428.31
360.709	4208.31
360.936	4199.31
361.163	4252.31
361.39	4230.31
361.616	4261.31
361.843	4169.31
362.07	4282.31
362.296	4250.31
362.523	4192.31
362.749	4228.31
362.976	4153.31
363.203	4102.31
363.429	4077.31
363.656	4160.31
363.882	4055.31
364.109	4059.31
364.335	4068.31
364.562	4048.31
364.788	4088.31
365.015	4029.31
365.241	4048.31
365.468	4141.31
365.694	4130.31
365.92	4090.31
366.147	4088.31
366.373	4097.31
366.599	4092.31
366.826	4118.31
367.052	4046.31
367.278	4094.31
367.505	4065.31
367.731	4139.31
367.957	4109.31
368.184	4101.31
368.41	4259.31
368.636	4341.31
368.862	4277.31
369.089	4165.31
369.315	4191.31
369.541	4205.31
369.767	4206.31
369.993	4174.31
370.219	4172.31
370.445	4240.31
370.672	4253.31
370.898	4238.31
371.124	4311.31
371.35	4325.31
371.576	4284.31
371.802	4299.31
372.028	4247.31
372.254	4319.31
372.48	4342.31
372.706	4475.31
372.932	4433.31
373.158	4424.31
373.384	4362.31
373.61	4369.31
373.835	4347.31
374.061	4394.31
374.287	4435.31
374.513	4531.31
374.739	4632.31
374.965	4713.31
375.191	4738.31
375.416	4606.31
375.642	4491.31
375.868	4482.31
376.094	4351.31
376.319	4363.31
376.545	4312.31
376.771	4329.31
376.997	4411.31
377.222	4266.31
377.448	4256.31
377.674	4264.31
377.899	4272.31
378.125	4290.31
378.35	4231.31
378.576	4228.31
378.802	4205.31
379.027	4230.31
379.253	4304.31
379.478	4201.31
379.704	4296.31
379.929	4291.31
380.155	4329.31
380.38	4283.31
380.606	4335.31
380.831	4374.31
381.057	4383.31
381.282	4311.31
381.507	4350.31
381.733	4369.31
381.958	4408.31
382.184	4461.31
382.409	4499.31
382.634	4479.31
382.86	4511.31
383.085	4642.31
383.31	4583.31
383.535	4746.31
383.761	4779.31
383.986	4831.31
384.211	4943.31
384.436	4966.31
384.662	5085.31
384.887	5074.31
385.112	5093.31
385.337	5142.31
385.562	5203.31
385.787	5155.31
386.013	5266.31
386.238	5329.31
386.463	5260.31
386.688	5268.31
386.913	5067.31
387.138	5138.31
387.363	5125.31
387.588	5064.31
387.813	5091.31
388.038	5052.31
388.263	5121.31
388.488	5152.31
388.713	5159.31
388.938	5094.31
389.163	5081.31
389.387	5133.31
389.612	5054.31
389.837	5040.31
390.062	4988.31
390.287	5061.31
390.512	5020.31
390.736	5112.31
390.961	5218.31
391.186	5268.31
391.411	5525.31
391.636	5465.31
391.86	5688.31
392.085	5771.31
392.31	5661.31
392.534	5513.31
392.759	5485.31
392.984	5307.31
393.208	5315.31
393.433	5349.31
393.658	5327.31
393.882	5313.31
394.107	5324.31
394.331	5410.31
394.556	5380.31
394.78	5485.31
395.005	5557.31
395.229	5486.31
395.454	5620.31
395.678	5786.31
395.903	5745.31
396.127	5843.31
396.352	5658.31
396.576	5496.31
396.801	5409.31
397.025	5442.31
397.249	5601.31
397.474	5776.31
397.698	5844.31
397.922	5876.31
398.147	6081.31
398.371	6107.31
398.595	6238.31
398.82	6517.31
399.044	7109.31
399.268	7820.31
399.492	8908.31
399.717	9540.31
399.941	9270.31
400.165	8591.31
400.389	8002.31
400.613	7229.31
400.837	6762.31
401.062	6669.31
401.286	6563.31
401.51	6507.31
401.734	6445.31
401.958	6670.31
402.182	6752.31
402.406	6806.31
402.63	6884.31
402.854	6984.31
403.078	6977.31
403.302	7258.31
403.526	7301.31
403.75	7436.31
403.974	7459.31
404.198	7360.31
404.422	7596.31
404.645	7730.31
404.869	7841.31
405.093	8308.31
405.317	8899.31
405.541	8736.31
405.765	7788.31
405.988	7490.31
406.212	7556.31
406.436	7680.31
406.66	7826.31
406.883	7826.31
407.107	8437.31
407.331	8853.31
407.555	9365.31
407.778	8987.31
408.002	8222.31
408.226	7850.31
408.449	7860.31
408.673	7621.31
408.896	7806.31
409.12	7932.31
409.344	7563.31
409.567	7127.31
409.791	7149.31
410.014	6977.31
410.238	7003.31
410.461	7077.31
410.685	7058.31
410.908	7231.31
411.132	7374.31
411.355	7462.31
411.578	7053.31
411.802	6940.31
412.025	7052.31
412.249	7510.31
412.472	8000.31
412.695	8455.31
412.919	7785.31
413.142	7336.31
413.365	7045.31
413.589	6825.31
413.812	6603.31
414.035	6489.31
414.258	6640.31
414.482	6566.31
414.705	6526.31
414.928	6419.31
415.151	6465.31
415.374	6483.31
415.597	6441.31
415.821	6338.31
416.044	6401.31
416.267	6347.31
416.49	6262.31
416.713	6256.31
416.936	6341.31
417.159	6402.31
417.382	6468.31
417.605	6536.31
417.828	6692.31
418.051	6730.31
418.274	6539.31
418.497	6415.31
418.72	6600.31
418.943	6578.31
419.166	6995.31
419.389	7373.31
419.611	7300.31
419.834	7204.31
420.057	7301.31
420.28	7397.31
420.503	7154.31
420.726	7045.31
420.948	7062.31
421.171	7399.31
421.394	7170.31
421.617	6699.31
421.839	6640.31
422.062	6798.31
422.285	6825.31
422.507	7498.31
422.73	8038.31
422.953	7458.31
423.175	6889.31
423.398	6981.31
423.621	7009.31
423.843	7274.31
424.066	7197.31
424.288	7088.31
424.511	7318.31
424.733	7842.31
424.956	8264.31
425.178	7682.31
425.401	7932.31
425.623	7803.31
425.846	6787.31
426.068	6644.31
426.291	6493.31
426.513	6532.31
426.735	6650.31
426.958	7128.31
427.18	7996.31
427.402	9178.31
427.625	9627.31
427.847	8632.31
428.069	8261.31
428.292	6941.31
428.514	6200.31
428.736	6114.31
428.958	6057.31
429.181	5835.31
429.403	5831.31
429.625	6008.31
429.847	6321.31
430.069	6864.31
430.292	6437.31
430.514	5848.31
430.736	5764.31
430.958	5669.31
431.18	5579.31
431.402	5666.31
431.624	5629.31
431.846	5658.31
432.068	5740.31
432.29	5837.31
432.512	5644.31
432.734	5810.31
432.956	5713.31
433.178	5892.31
433.4	5877.31
433.622	5701.31
433.844	5761.31
434.066	5698.31
434.287	5890.31
434.509	6104.31
434.731	6299.31
434.953	6446.31
435.175	6530.31
435.397	6615.31
435.618	6609.31
435.84	7088.31
436.062	7988.31
436.284	7809.31
436.505	6560.31
436.727	6228.31
436.949	5922.31
437.17	5844.31
437.392	5733.31
437.614	5938.31
437.835	6420.31
438.057	7422.31
438.278	8130.31
438.5	7962.31
438.721	8910.31
438.943	7626.31
439.165	6334.31
439.386	6198.31
439.608	6280.31
439.829	6388.31
440.05	6920.31
440.272	7226.31
440.493	6434.31
440.715	6143.31
440.936	6075.31
441.158	6042.31
441.379	6164.31
441.6	6601.31
441.822	6780.31
442.043	7341.31
442.264	8186.31
442.486	7808.31
442.707	6814.31
442.928	6784.31
443.149	6983.31
443.371	7134.31
443.592	7645.31
443.813	8729.31
444.034	8715.31
444.255	7427.31
444.476	7324.31
444.698	7428.31
444.919	7541.31
445.14	7387.31
445.361	7238.31
445.582	7527.31
445.803	8307.31
446.024	8980.31
446.245	8530.31
446.466	7541.31
446.687	6385.31
446.908	6141.31
447.129	5772.31
447.35	5602.31
447.571	5622.31
447.792	5524.31
448.013	5638.31
448.234	5882.31
448.455	6630.31
448.675	7840.31
448.896	8225.31
449.117	6731.31
449.338	7056.31
449.559	8374.31
449.779	8677.31
450	6490.31
450.221	5680.31
450.442	5489.31
450.662	5441.31
450.883	5569.31
451.104	5687.31
451.324	5465.31
451.545	5374.31
451.766	5154.31
451.986	5066.31
452.207	5044.31
452.428	5020.31
452.648	5032.31
452.869	5090.31
453.089	5175.31
453.31	5236.31
453.53	5100.31
453.751	5086.31
453.971	4988.31
454.192	5211.31
454.412	4978.31
454.633	4889.31
454.853	4898.31
455.073	4914.31
455.294	5363.31
455.514	5964.31
455.734	5352.31
455.955	4762.31
456.175	4727.31
456.395	4662.31
456.616	4580.31
456.836	4649.31
457.056	4638.31
457.276	4609.31
457.497	4746.31
457.717	4730.31
457.937	4812.31
458.157	4901.31
458.377	5003.31
458.598	5332.31
458.818	6181.31
459.038	6941.31
459.258	6752.31
459.478	6005.31
459.698	5812.31
459.918	5872.31
460.138	5985.31
460.358	6209.31
460.578	6266.31
460.798	6328.31
461.018	6345.31
461.238	6218.31
461.458	6200.31
461.678	6094.31
461.898	6293.31
462.118	6304.31
462.338	6730.31
462.558	6820.31
462.777	7102.31
462.997	7760.31
463.217	8044.31
463.437	7897.31
463.657	7326.31
463.876	7090.31
464.096	7170.31
464.316	7161.31
464.536	7257.31
464.755	7012.31
464.975	6859.31
465.195	7103.31
465.414	7223.31
465.634	6296.31
465.854	5925.31
466.073	5701.31
466.293	5464.31
466.512	5363.31
466.732	5243.31
466.951	5288.31
467.171	5291.31
467.391	5439.31
467.61	5493.31
467.829	5545.31
468.049	5700.31
468.268	6107.31
468.488	5576.31
468.707	5300.31
468.927	5097.31
469.146	5102.31
469.365	5163.31
469.585	5128.31
469.804	5378.31
470.023	5578.31
470.243	5523.31
470.462	5612.31
470.681	5701.31
470.901	5638.31
471.12	5484.31
471.339	5421.31
471.558	5524.31
471.777	5404.31
471.997	5636.31
472.216	6516.31
472.435	8555.31
472.654	7026.31
472.873	5942.31
473.092	5616.31
473.311	5397.31
473.53	5405.31
473.749	5444.31
473.968	5950.31
474.187	6901.31
474.406	6489.31
474.625	5493.31
474.844	5224.31
475.063	5178.31
475.282	5127.31
475.501	5269.31
475.72	5176.31
475.939	5280.31
476.158	5257.31
476.377	5309.31
476.596	5233.31
476.814	5500.31
477.033	5510.31
477.252	5562.31
477.471	5652.31
477.69	5734.31
477.908	5834.31
478.127	5984.31
478.346	6048.31
478.564	6163.31
478.783	6225.31
479.002	6356.31
479.22	6513.31
479.439	6578.31
479.658	6656.31
479.876	6817.31
480.095	7049.31
480.313	7453.31
480.532	7376.31
480.751	7592.31
480.969	8592.31
481.188	12141.31
481.406	12260.31
481.624	8906.31
481.843	7611.31
482.061	7134.31
482.28	6821.31
482.498	6535.31
482.717	6354.31
482.935	6325.31
483.153	6213.31
483.372	6163.31
483.59	6142.31
483.808	6121.31
484.027	6104.31
484.245	6182.31
484.463	6192.31
484.681	6266.31
484.9	6358.31
485.118	6437.31
485.336	6357.31
485.554	6439.31
485.772	6492.31
485.99	6482.31
486.209	6530.31
486.427	6531.31
486.645	6643.31
486.863	6706.31
487.081	6648.31
487.299	6553.31
487.517	6546.31
487.735	6500.31
