Data from Circ_2011_H10_HRD10591_00085.txt Node
Date: Wed Jan 03 10:08:16 EST 2024
User: Yrep
Spectrometer: HR+D1059
Trigger mode: 1
Integration Time (sec): 1.000000E-1
Scans to average: 1
Electric dark correction enabled: true
Nonlinearity correction enabled: false
Boxcar width: 0
XAxis mode: Wavelengths
Number of Pixels in Spectrum: 2048
>>>>>Begin Spectral Data<<<<<
223.165	-2.44
223.4	-2.44
223.635	-2.44
223.869	-15.44
224.104	-17.44
224.338	-1.44
224.573	-17.44
224.808	-23.44
225.042	-5.44
225.277	-19.44
225.511	-1.44
225.746	-3.44
225.98	9.56
226.215	21.56
226.449	2.56
226.683	27.56
226.918	15.56
227.152	30.56
227.387	41.56
227.621	48.56
227.856	44.56
228.09	40.56
228.324	52.56
228.559	55.56
228.793	57.56
229.027	64.56
229.262	66.56
229.496	70.56
229.73	77.56
229.964	76.56
230.199	80.56
230.433	78.56
230.667	93.56
230.901	87.56
231.136	85.56
231.37	87.56
231.604	80.56
231.838	67.56
232.072	70.56
232.306	86.56
232.541	75.56
232.775	88.56
233.009	88.56
233.243	90.56
233.477	78.56
233.711	61.56
233.945	94.56
234.179	83.56
234.413	81.56
234.647	85.56
234.881	83.56
235.115	96.56
235.349	88.56
235.583	75.56
235.817	65.56
236.051	79.56
236.285	78.56
236.519	71.56
236.753	77.56
236.987	86.56
237.221	79.56
237.455	94.56
237.689	76.56
237.922	75.56
238.156	77.56
238.39	71.56
238.624	86.56
238.858	80.56
239.091	72.56
239.325	78.56
239.559	90.56
239.793	74.56
240.027	75.56
240.26	90.56
240.494	87.56
240.728	57.56
240.961	74.56
241.195	80.56
241.429	82.56
241.662	76.56
241.896	62.56
242.13	79.56
242.363	65.56
242.597	82.56
242.83	82.56
243.064	69.56
243.298	75.56
243.531	79.56
243.765	73.56
243.998	77.56
244.232	67.56
244.465	88.56
244.699	76.56
244.932	66.56
245.166	72.56
245.399	67.56
245.633	80.56
245.866	74.56
246.099	78.56
246.333	83.56
246.566	79.56
246.8	77.56
247.033	81.56
247.266	76.56
247.5	67.56
247.733	72.56
247.966	85.56
248.2	70.56
248.433	90.56
248.666	81.56
248.899	84.56
249.133	92.56
249.366	106.56
249.599	100.56
249.832	92.56
250.066	71.56
250.299	81.56
250.532	79.56
250.765	80.56
250.998	68.56
251.231	70.56
251.465	86.56
251.698	71.56
251.931	58.56
252.164	76.56
252.397	81.56
252.63	78.56
252.863	82.56
253.096	91.56
253.329	75.56
253.562	84.56
253.795	84.56
254.028	80.56
254.261	92.56
254.494	74.56
254.727	71.56
254.96	83.56
255.193	101.56
255.426	88.56
255.659	74.56
255.892	82.56
256.124	78.56
256.357	80.56
256.59	85.56
256.823	87.56
257.056	90.56
257.289	78.56
257.521	75.56
257.754	68.56
257.987	86.56
258.22	88.56
258.452	84.56
258.685	84.56
258.918	80.56
259.151	82.56
259.383	74.56
259.616	85.56
259.849	91.56
260.081	86.56
260.314	83.56
260.547	76.56
260.779	75.56
261.012	74.56
261.244	81.56
261.477	80.56
261.71	97.56
261.942	97.56
262.175	113.56
262.407	76.56
262.64	92.56
262.872	80.56
263.105	79.56
263.337	74.56
263.57	80.56
263.802	86.56
264.035	72.56
264.267	80.56
264.499	87.56
264.732	82.56
264.964	71.56
265.197	91.56
265.429	71.56
265.661	92.56
265.894	67.56
266.126	74.56
266.358	87.56
266.591	88.56
266.823	89.56
267.055	83.56
267.287	93.56
267.52	95.56
267.752	65.56
267.984	76.56
268.216	86.56
268.448	93.56
268.681	89.56
268.913	82.56
269.145	80.56
269.377	90.56
269.609	88.56
269.841	79.56
270.073	67.56
270.306	89.56
270.538	81.56
270.77	80.56
271.002	79.56
271.234	80.56
271.466	84.56
271.698	78.56
271.93	80.56
272.162	81.56
272.394	85.56
272.626	76.56
272.858	91.56
273.09	100.56
273.322	78.56
273.553	100.56
273.785	98.56
274.017	86.56
274.249	81.56
274.481	79.56
274.713	100.56
274.945	85.56
275.176	86.56
275.408	90.56
275.64	94.56
275.872	90.56
276.104	85.56
276.335	97.56
276.567	94.56
276.799	89.56
277.031	101.56
277.262	103.56
277.494	96.56
277.726	75.56
277.957	105.56
278.189	81.56
278.421	85.56
278.652	89.56
278.884	103.56
279.115	89.56
279.347	85.56
279.579	79.56
279.81	92.56
280.042	100.56
280.273	91.56
280.505	90.56
280.736	93.56
280.968	96.56
281.199	79.56
281.431	85.56
281.662	91.56
281.894	87.56
282.125	84.56
282.356	104.56
282.588	125.56
282.819	105.56
283.051	78.56
283.282	82.56
283.513	83.56
283.745	88.56
283.976	98.56
284.207	94.56
284.439	95.56
284.67	77.56
284.901	78.56
285.132	87.56
285.364	79.56
285.595	85.56
285.826	73.56
286.057	78.56
286.288	81.56
286.52	95.56
286.751	96.56
286.982	93.56
287.213	86.56
287.444	83.56
287.675	85.56
287.906	89.56
288.138	97.56
288.369	95.56
288.6	86.56
288.831	80.56
289.062	88.56
289.293	93.56
289.524	97.56
289.755	75.56
289.986	84.56
290.217	84.56
290.448	92.56
290.679	102.56
290.91	90.56
291.141	80.56
291.371	82.56
291.602	79.56
291.833	79.56
292.064	85.56
292.295	86.56
292.526	88.56
292.757	96.56
292.987	90.56
293.218	93.56
293.449	79.56
293.68	84.56
293.91	97.56
294.141	98.56
294.372	90.56
294.603	91.56
294.833	88.56
295.064	99.56
295.295	87.56
295.525	92.56
295.756	100.56
295.987	117.56
296.217	120.56
296.448	110.56
296.679	88.56
296.909	98.56
297.14	88.56
297.37	97.56
297.601	85.56
297.831	99.56
298.062	88.56
298.292	86.56
298.523	91.56
298.753	82.56
298.984	88.56
299.214	96.56
299.445	99.56
299.675	88.56
299.905	87.56
300.136	88.56
300.366	86.56
300.597	79.56
300.827	82.56
301.057	99.56
301.288	89.56
301.518	102.56
301.748	78.56
301.979	91.56
302.209	74.56
302.439	86.56
302.669	99.56
302.9	79.56
303.13	92.56
303.36	99.56
303.59	91.56
303.82	115.56
304.051	94.56
304.281	89.56
304.511	84.56
304.741	90.56
304.971	91.56
305.201	85.56
305.431	91.56
305.661	92.56
305.891	104.56
306.121	82.56
306.352	116.56
306.582	89.56
306.812	94.56
307.042	90.56
307.272	100.56
307.502	113.56
307.731	106.56
307.961	99.56
308.191	86.56
308.421	109.56
308.651	82.56
308.881	92.56
309.111	101.56
309.341	79.56
309.571	96.56
309.8	93.56
310.03	91.56
310.26	100.56
310.49	93.56
310.72	89.56
310.949	85.56
311.179	91.56
311.409	102.56
311.639	78.56
311.868	94.56
312.098	80.56
312.328	95.56
312.557	105.56
312.787	107.56
313.017	105.56
313.246	107.56
313.476	94.56
313.706	77.56
313.935	91.56
314.165	100.56
314.394	94.56
314.624	90.56
314.853	92.56
315.083	92.56
315.312	90.56
315.542	96.56
315.771	93.56
316.001	82.56
316.23	88.56
316.46	97.56
316.689	92.56
316.919	94.56
317.148	93.56
317.377	103.56
317.607	90.56
317.836	99.56
318.065	103.56
318.295	103.56
318.524	82.56
318.753	101.56
318.983	103.56
319.212	115.56
319.441	90.56
319.67	92.56
319.9	92.56
320.129	74.56
320.358	98.56
320.587	112.56
320.816	105.56
321.046	96.56
321.275	93.56
321.504	94.56
321.733	96.56
321.962	96.56
322.191	100.56
322.42	91.56
322.649	102.56
322.878	117.56
323.108	107.56
323.337	107.56
323.566	128.56
323.795	156.56
324.024	221.56
324.253	420.56
324.482	939.56
324.71	1877.56
324.939	2475.56
325.168	877.56
325.397	271.56
325.626	152.56
325.855	133.56
326.084	131.56
326.313	130.56
326.542	164.56
326.77	238.56
326.999	510.56
327.228	1094.56
327.457	1910.56
327.686	1554.56
327.914	415.56
328.143	236.56
328.372	226.56
328.6	143.56
328.829	132.56
329.058	136.56
329.287	132.56
329.515	100.56
329.744	126.56
329.972	160.56
330.201	224.56
330.43	306.56
330.658	190.56
330.887	152.56
331.115	151.56
331.344	99.56
331.572	98.56
331.801	91.56
332.03	111.56
332.258	87.56
332.486	90.56
332.715	90.56
332.943	83.56
333.172	95.56
333.4	104.56
333.629	103.56
333.857	126.56
334.085	152.56
334.314	221.56
334.542	362.56
334.771	345.56
334.999	137.56
335.227	103.56
335.455	100.56
335.684	95.56
335.912	94.56
336.14	105.56
336.369	107.56
336.597	90.56
336.825	97.56
337.053	82.56
337.281	105.56
337.51	98.56
337.738	104.56
337.966	97.56
338.194	93.56
338.422	88.56
338.65	96.56
338.878	78.56
339.106	92.56
339.334	86.56
339.562	87.56
339.79	84.56
340.018	91.56
340.246	101.56
340.474	84.56
340.702	98.56
340.93	86.56
341.158	76.56
341.386	95.56
341.614	109.56
341.842	91.56
342.07	89.56
342.298	73.56
342.526	94.56
342.754	93.56
342.981	88.56
343.209	101.56
343.437	99.56
343.665	93.56
343.893	83.56
344.12	107.56
344.348	92.56
344.576	92.56
344.804	85.56
345.031	90.56
345.259	95.56
345.487	92.56
345.714	106.56
345.942	106.56
346.17	91.56
346.397	78.56
346.625	78.56
346.853	97.56
347.08	86.56
347.308	87.56
347.535	92.56
347.763	85.56
347.99	87.56
348.218	99.56
348.445	102.56
348.673	95.56
348.9	104.56
349.128	95.56
349.355	93.56
349.583	86.56
349.81	102.56
350.037	91.56
350.265	96.56
350.492	80.56
350.72	96.56
350.947	106.56
351.174	103.56
351.402	110.56
351.629	90.56
351.856	98.56
352.083	102.56
352.311	108.56
352.538	106.56
352.765	97.56
352.992	103.56
353.22	104.56
353.447	111.56
353.674	111.56
353.901	83.56
354.128	104.56
354.355	112.56
354.583	102.56
354.81	108.56
355.037	93.56
355.264	96.56
355.491	93.56
355.718	104.56
355.945	96.56
356.172	92.56
356.399	84.56
356.626	89.56
356.853	80.56
357.08	74.56
357.307	93.56
357.534	85.56
357.761	104.56
357.988	93.56
358.215	95.56
358.441	89.56
358.668	89.56
358.895	96.56
359.122	94.56
359.349	87.56
359.576	90.56
359.802	112.56
360.029	114.56
360.256	116.56
360.483	102.56
360.709	94.56
360.936	97.56
361.163	85.56
361.39	97.56
361.616	92.56
361.843	96.56
362.07	90.56
362.296	83.56
362.523	86.56
362.749	94.56
362.976	89.56
363.203	80.56
363.429	87.56
363.656	97.56
363.882	92.56
364.109	99.56
364.335	88.56
364.562	93.56
364.788	76.56
365.015	76.56
365.241	87.56
365.468	111.56
365.694	111.56
365.92	100.56
366.147	88.56
366.373	88.56
366.599	88.56
366.826	90.56
367.052	102.56
367.278	105.56
367.505	103.56
367.731	81.56
367.957	94.56
368.184	93.56
368.41	93.56
368.636	101.56
368.862	110.56
369.089	115.56
369.315	96.56
369.541	79.56
369.767	91.56
369.993	88.56
370.219	97.56
370.445	79.56
370.672	84.56
370.898	91.56
371.124	73.56
371.35	86.56
371.576	80.56
371.802	78.56
372.028	100.56
372.254	84.56
372.48	102.56
372.706	89.56
372.932	91.56
373.158	89.56
373.384	87.56
373.61	84.56
373.835	93.56
374.061	98.56
374.287	87.56
374.513	79.56
374.739	88.56
374.965	94.56
375.191	100.56
375.416	89.56
375.642	93.56
375.868	93.56
376.094	78.56
376.319	75.56
376.545	92.56
376.771	103.56
376.997	92.56
377.222	92.56
377.448	101.56
377.674	93.56
377.899	100.56
378.125	92.56
378.35	89.56
378.576	93.56
378.802	84.56
379.027	71.56
379.253	94.56
379.478	92.56
379.704	79.56
379.929	81.56
380.155	86.56
380.38	90.56
380.606	90.56
380.831	85.56
381.057	94.56
381.282	85.56
381.507	98.56
381.733	91.56
381.958	90.56
382.184	90.56
382.409	85.56
382.634	103.56
382.86	91.56
383.085	88.56
383.31	107.56
383.535	98.56
383.761	97.56
383.986	103.56
384.211	77.56
384.436	85.56
384.662	92.56
384.887	91.56
385.112	92.56
385.337	84.56
385.562	106.56
385.787	87.56
386.013	111.56
386.238	117.56
386.463	100.56
386.688	100.56
386.913	106.56
387.138	101.56
387.363	91.56
387.588	88.56
387.813	83.56
388.038	90.56
388.263	95.56
388.488	107.56
388.713	89.56
388.938	88.56
389.163	102.56
389.387	79.56
389.612	87.56
389.837	94.56
390.062	78.56
390.287	81.56
390.512	85.56
390.736	98.56
390.961	86.56
391.186	97.56
391.411	88.56
391.636	90.56
391.86	79.56
392.085	85.56
392.31	89.56
392.534	81.56
392.759	70.56
392.984	92.56
393.208	88.56
393.433	87.56
393.658	92.56
393.882	78.56
394.107	94.56
394.331	89.56
394.556	82.56
394.78	72.56
395.005	92.56
395.229	86.56
395.454	63.56
395.678	79.56
395.903	96.56
396.127	84.56
396.352	99.56
396.576	98.56
396.801	87.56
397.025	75.56
397.249	98.56
397.474	85.56
397.698	84.56
397.922	77.56
398.147	79.56
398.371	86.56
398.595	90.56
398.82	90.56
399.044	96.56
399.268	97.56
399.492	77.56
399.717	99.56
399.941	106.56
400.165	95.56
400.389	96.56
400.613	78.56
400.837	94.56
401.062	93.56
401.286	84.56
401.51	91.56
401.734	90.56
401.958	105.56
402.182	116.56
402.406	142.56
402.63	101.56
402.854	100.56
403.078	91.56
403.302	76.56
403.526	88.56
403.75	83.56
403.974	93.56
404.198	81.56
404.422	80.56
404.645	83.56
404.869	87.56
405.093	81.56
405.317	120.56
405.541	112.56
405.765	98.56
405.988	133.56
406.212	155.56
406.436	206.56
406.66	156.56
406.883	99.56
407.107	100.56
407.331	115.56
407.555	103.56
407.778	82.56
408.002	90.56
408.226	96.56
408.449	84.56
408.673	85.56
408.896	96.56
409.12	101.56
409.344	85.56
409.567	90.56
409.791	101.56
410.014	89.56
410.238	94.56
410.461	92.56
410.685	92.56
410.908	93.56
411.132	100.56
411.355	93.56
411.578	96.56
411.802	82.56
412.025	83.56
412.249	88.56
412.472	102.56
412.695	98.56
412.919	98.56
413.142	84.56
413.365	94.56
413.589	92.56
413.812	90.56
414.035	84.56
414.258	90.56
414.482	88.56
414.705	86.56
414.928	89.56
415.151	88.56
415.374	84.56
415.597	95.56
415.821	89.56
416.044	86.56
416.267	87.56
416.49	94.56
416.713	78.56
416.936	91.56
417.159	100.56
417.382	88.56
417.605	84.56
417.828	98.56
418.051	87.56
418.274	100.56
418.497	81.56
418.72	86.56
418.943	97.56
419.166	96.56
419.389	86.56
419.611	86.56
419.834	86.56
420.057	95.56
420.28	83.56
420.503	71.56
420.726	94.56
420.948	83.56
421.171	102.56
421.394	89.56
421.617	84.56
421.839	75.56
422.062	94.56
422.285	111.56
422.507	91.56
422.73	107.56
422.953	89.56
423.175	91.56
423.398	93.56
423.621	92.56
423.843	89.56
424.066	83.56
424.288	87.56
424.511	96.56
424.733	98.56
424.956	110.56
425.178	99.56
425.401	112.56
425.623	116.56
425.846	96.56
426.068	89.56
426.291	88.56
426.513	80.56
426.735	83.56
426.958	107.56
427.18	108.56
427.402	128.56
427.625	192.56
427.847	174.56
428.069	150.56
428.292	101.56
428.514	71.56
428.736	75.56
428.958	87.56
429.181	86.56
429.403	101.56
429.625	92.56
429.847	94.56
430.069	101.56
430.292	95.56
430.514	69.56
430.736	90.56
430.958	97.56
431.18	78.56
431.402	91.56
431.624	74.56
431.846	78.56
432.068	87.56
432.29	86.56
432.512	91.56
432.734	88.56
432.956	85.56
433.178	91.56
433.4	108.56
433.622	82.56
433.844	71.56
434.066	81.56
434.287	87.56
434.509	81.56
434.731	103.56
434.953	82.56
435.175	89.56
435.397	87.56
435.618	96.56
435.84	110.56
436.062	142.56
436.284	119.56
436.505	98.56
436.727	88.56
436.949	101.56
437.17	90.56
437.392	92.56
437.614	98.56
437.835	92.56
438.057	112.56
438.278	120.56
438.5	106.56
438.721	131.56
438.943	116.56
439.165	99.56
439.386	85.56
439.608	93.56
439.829	93.56
440.05	139.56
440.272	154.56
440.493	101.56
440.715	76.56
440.936	87.56
441.158	101.56
441.379	81.56
441.6	91.56
441.822	95.56
442.043	91.56
442.264	118.56
442.486	108.56
442.707	102.56
442.928	122.56
443.149	134.56
443.371	132.56
443.592	123.56
443.813	122.56
444.034	115.56
444.255	105.56
444.476	97.56
444.698	89.56
444.919	87.56
445.14	118.56
445.361	130.56
445.582	133.56
445.803	159.56
446.024	155.56
446.245	152.56
446.466	135.56
446.687	92.56
446.908	91.56
447.129	92.56
447.35	77.56
447.571	88.56
447.792	110.56
448.013	92.56
448.234	100.56
448.455	108.56
448.675	129.56
448.896	122.56
449.117	98.56
449.338	108.56
449.559	150.56
449.779	159.56
450	98.56
450.221	93.56
450.442	91.56
450.662	97.56
450.883	98.56
451.104	106.56
451.324	93.56
451.545	77.56
451.766	85.56
451.986	95.56
452.207	89.56
452.428	87.56
452.648	92.56
452.869	104.56
453.089	106.56
453.31	112.56
453.53	90.56
453.751	99.56
453.971	99.56
454.192	118.56
454.412	99.56
454.633	86.56
454.853	72.56
455.073	92.56
455.294	103.56
455.514	99.56
455.734	89.56
455.955	90.56
456.175	88.56
456.395	86.56
456.616	93.56
456.836	95.56
457.056	87.56
457.276	80.56
457.497	84.56
457.717	83.56
457.937	78.56
458.157	67.56
458.377	84.56
458.598	107.56
458.818	167.56
459.038	164.56
459.258	126.56
459.478	97.56
459.698	86.56
459.918	93.56
460.138	96.56
460.358	74.56
460.578	76.56
460.798	76.56
461.018	85.56
461.238	91.56
461.458	90.56
461.678	90.56
461.898	93.56
462.118	89.56
462.338	91.56
462.558	94.56
462.777	87.56
462.997	90.56
463.217	101.56
463.437	98.56
463.657	85.56
463.876	89.56
464.096	86.56
464.316	90.56
464.536	88.56
464.755	104.56
464.975	112.56
465.195	156.56
465.414	158.56
465.634	91.56
465.854	89.56
466.073	88.56
466.293	83.56
466.512	90.56
466.732	85.56
466.951	94.56
467.171	89.56
467.391	97.56
467.61	96.56
467.829	104.56
468.049	141.56
468.268	194.56
468.488	99.56
468.707	107.56
468.927	87.56
469.146	88.56
469.365	96.56
469.585	97.56
469.804	103.56
470.023	107.56
470.243	88.56
470.462	95.56
470.681	113.56
470.901	99.56
471.12	90.56
471.339	96.56
471.558	82.56
471.777	90.56
471.997	103.56
472.216	235.56
472.435	451.56
472.654	161.56
472.873	107.56
473.092	72.56
473.311	81.56
473.53	91.56
473.749	99.56
473.968	101.56
474.187	116.56
474.406	106.56
474.625	85.56
474.844	96.56
475.063	89.56
475.282	82.56
475.501	93.56
475.72	83.56
475.939	77.56
476.158	82.56
476.377	83.56
476.596	93.56
476.814	88.56
477.033	99.56
477.252	103.56
477.471	90.56
477.69	73.56
477.908	88.56
478.127	88.56
478.346	93.56
478.564	77.56
478.783	106.56
479.002	93.56
479.22	74.56
479.439	98.56
479.658	91.56
479.876	91.56
480.095	97.56
480.313	108.56
480.532	81.56
480.751	117.56
480.969	254.56
481.188	732.56
481.406	477.56
481.624	124.56
481.843	85.56
482.061	85.56
482.28	90.56
482.498	97.56
482.717	88.56
482.935	77.56
483.153	92.56
483.372	100.56
483.59	91.56
483.808	94.56
484.027	86.56
484.245	96.56
484.463	95.56
484.681	79.56
484.9	84.56
485.118	103.56
485.336	91.56
485.554	93.56
485.772	108.56
485.99	98.56
486.209	101.56
486.427	98.56
486.645	116.56
486.863	105.56
487.081	98.56
487.299	77.56
487.517	95.56
487.735	80.56
487.953	93.56
488.171	96.56
488.389	86.56
488.607	84.56
488.825	100.56
489.043	90.56
489.261	91.56
489.479	101.56
489.696	91.56
489.914	92.56
490.132	86.56
490.35	94.56
490.568	75.56
490.786	80.56
491.003	86.56
491.221	90.56
491.439	85.56
491.657	94.56
491.874	85.56
492.092	75.56
492.31	90.56
492.527	80.56
492.745	76.56
492.963	77.56
493.18	79.56
493.398	105.56
493.615	95.56
493.833	108.56
494.05	91.56
494.268	88.56
494.485	83.56
494.703	97.56
494.92	90.56
495.138	103.56
495.355	103.56
495.573	92.56
495.79	79.56
496.008	92.56
496.225	91.56
496.442	84.56
496.66	94.56
496.877	86.56
497.094	105.56
497.312	80.56
497.529	98.56
497.746	103.56
497.963	86.56
498.181	95.56
498.398	85.56
498.615	100.56
498.832	105.56
499.049	87.56
499.267	91.56
499.484	93.56
499.701	90.56
499.918	83.56
500.135	89.56
500.352	88.56
500.569	94.56
500.786	76.56
501.003	83.56
501.22	91.56
501.437	84.56
501.654	101.56
501.871	113.56
502.088	87.56
502.305	93.56
502.522	91.56
502.739	95.56
502.956	86.56
503.172	87.56
503.389	86.56
503.606	100.56
503.823	91.56
504.04	75.56
504.256	84.56
504.473	91.56
504.69	90.56
504.907	107.56
505.123	81.56
505.34	88.56
505.557	82.56
505.773	91.56
505.99	84.56
506.207	79.56
506.423	78.56
506.64	89.56
506.856	83.56
507.073	85.56
507.289	84.56
507.506	95.56
507.722	110.56
507.939	104.56
508.155	105.56
508.372	83.56
508.588	95.56
508.805	95.56
509.021	75.56
509.238	86.56
509.454	100.56
509.67	95.56
509.887	103.56
510.103	110.56
510.319	172.56
510.536	656.56
510.752	2050.56
510.968	619.56
511.184	159.56
511.401	126.56
511.617	103.56
511.833	82.56
512.049	91.56
512.265	94.56
512.481	85.56
512.698	88.56
512.914	90.56
513.13	86.56
513.346	102.56
513.562	99.56
513.778	88.56
513.994	115.56
514.21	105.56
514.426	115.56
514.642	130.56
514.858	122.56
515.074	156.56
515.29	419.56
515.506	1378.56
515.721	519.56
