Data from Circ_2011_H10_HRD10591_00025.txt Node
Date: Wed Jan 03 10:08:04 EST 2024
User: Yrep
Spectrometer: HR+D1059
Trigger mode: 1
Integration Time (sec): 1.000000E-1
Scans to average: 1
Electric dark correction enabled: true
Nonlinearity correction enabled: false
Boxcar width: 0
XAxis mode: Wavelengths
Number of Pixels in Spectrum: 2048
>>>>>Begin Spectral Data<<<<<
223.165	-11.5
223.4	-11.5
223.635	-11.5
223.869	-7.5
224.104	-5.5
224.338	-13.5
224.573	-23.5
224.808	-15.5
225.042	-15.5
225.277	1.5
225.511	-1.5
225.746	1.5
225.98	5.5
226.215	3.5
226.449	8.5
226.683	22.5
226.918	18.5
227.152	32.5
227.387	38.5
227.621	32.5
227.856	35.5
228.09	42.5
228.324	68.5
228.559	58.5
228.793	60.5
229.027	58.5
229.262	70.5
229.496	68.5
229.73	74.5
229.964	78.5
230.199	62.5
230.433	83.5
230.667	67.5
230.901	72.5
231.136	67.5
231.37	78.5
231.604	75.5
231.838	71.5
232.072	77.5
232.306	90.5
232.541	90.5
232.775	85.5
233.009	82.5
233.243	69.5
233.477	80.5
233.711	73.5
233.945	88.5
234.179	78.5
234.413	71.5
234.647	69.5
234.881	82.5
235.115	68.5
235.349	71.5
235.583	71.5
235.817	80.5
236.051	81.5
236.285	73.5
236.519	67.5
236.753	84.5
236.987	94.5
237.221	75.5
237.455	89.5
237.689	87.5
237.922	79.5
238.156	80.5
238.39	73.5
238.624	75.5
238.858	90.5
239.091	82.5
239.325	70.5
239.559	74.5
239.793	79.5
240.027	83.5
240.26	80.5
240.494	71.5
240.728	72.5
240.961	71.5
241.195	77.5
241.429	74.5
241.662	81.5
241.896	84.5
242.13	69.5
242.363	70.5
242.597	86.5
242.83	80.5
243.064	63.5
243.298	73.5
243.531	82.5
243.765	84.5
243.998	78.5
244.232	77.5
244.465	76.5
244.699	88.5
244.932	66.5
245.166	82.5
245.399	72.5
245.633	80.5
245.866	63.5
246.099	75.5
246.333	82.5
246.566	70.5
246.8	82.5
247.033	61.5
247.266	71.5
247.5	64.5
247.733	73.5
247.966	74.5
248.2	78.5
248.433	74.5
248.666	73.5
248.899	71.5
249.133	84.5
249.366	92.5
249.599	105.5
249.832	85.5
250.066	84.5
250.299	75.5
250.532	89.5
250.765	77.5
250.998	84.5
251.231	77.5
251.465	69.5
251.698	79.5
251.931	83.5
252.164	73.5
252.397	74.5
252.63	77.5
252.863	80.5
253.096	68.5
253.329	79.5
253.562	91.5
253.795	92.5
254.028	99.5
254.261	59.5
254.494	90.5
254.727	92.5
254.96	94.5
255.193	80.5
255.426	80.5
255.659	86.5
255.892	71.5
256.124	75.5
256.357	82.5
256.59	77.5
256.823	86.5
257.056	68.5
257.289	72.5
257.521	94.5
257.754	75.5
257.987	82.5
258.22	71.5
258.452	70.5
258.685	68.5
258.918	84.5
259.151	82.5
259.383	80.5
259.616	80.5
259.849	87.5
260.081	75.5
260.314	96.5
260.547	74.5
260.779	77.5
261.012	86.5
261.244	68.5
261.477	67.5
261.71	92.5
261.942	98.5
262.175	108.5
262.407	91.5
262.64	70.5
262.872	83.5
263.105	73.5
263.337	77.5
263.57	77.5
263.802	79.5
264.035	85.5
264.267	83.5
264.499	74.5
264.732	71.5
264.964	82.5
265.197	90.5
265.429	80.5
265.661	90.5
265.894	86.5
266.126	100.5
266.358	73.5
266.591	78.5
266.823	90.5
267.055	84.5
267.287	79.5
267.52	83.5
267.752	73.5
267.984	84.5
268.216	74.5
268.448	77.5
268.681	82.5
268.913	85.5
269.145	80.5
269.377	92.5
269.609	85.5
269.841	83.5
270.073	86.5
270.306	88.5
270.538	84.5
270.77	75.5
271.002	92.5
271.234	79.5
271.466	93.5
271.698	70.5
271.93	88.5
272.162	95.5
272.394	83.5
272.626	76.5
272.858	79.5
273.09	80.5
273.322	73.5
273.553	67.5
273.785	87.5
274.017	85.5
274.249	77.5
274.481	83.5
274.713	90.5
274.945	77.5
275.176	84.5
275.408	79.5
275.64	85.5
275.872	85.5
276.104	99.5
276.335	79.5
276.567	102.5
276.799	111.5
277.031	94.5
277.262	96.5
277.494	87.5
277.726	71.5
277.957	74.5
278.189	70.5
278.421	79.5
278.652	79.5
278.884	86.5
279.115	97.5
279.347	72.5
279.579	86.5
279.81	87.5
280.042	93.5
280.273	93.5
280.505	80.5
280.736	86.5
280.968	97.5
281.199	77.5
281.431	80.5
281.662	78.5
281.894	87.5
282.125	98.5
282.356	110.5
282.588	117.5
282.819	95.5
283.051	89.5
283.282	78.5
283.513	90.5
283.745	80.5
283.976	86.5
284.207	86.5
284.439	88.5
284.67	74.5
284.901	77.5
285.132	87.5
285.364	89.5
285.595	92.5
285.826	78.5
286.057	90.5
286.288	80.5
286.52	100.5
286.751	86.5
286.982	95.5
287.213	78.5
287.444	88.5
287.675	88.5
287.906	93.5
288.138	95.5
288.369	100.5
288.6	84.5
288.831	78.5
289.062	78.5
289.293	87.5
289.524	90.5
289.755	92.5
289.986	90.5
290.217	80.5
290.448	92.5
290.679	73.5
290.91	93.5
291.141	84.5
291.371	98.5
291.602	90.5
291.833	91.5
292.064	90.5
292.295	79.5
292.526	84.5
292.757	88.5
292.987	77.5
293.218	75.5
293.449	89.5
293.68	93.5
293.91	94.5
294.141	104.5
294.372	90.5
294.603	86.5
294.833	81.5
295.064	79.5
295.295	83.5
295.525	96.5
295.756	95.5
295.987	115.5
296.217	123.5
296.448	114.5
296.679	96.5
296.909	84.5
297.14	99.5
297.37	97.5
297.601	91.5
297.831	85.5
298.062	93.5
298.292	79.5
298.523	84.5
298.753	93.5
298.984	78.5
299.214	77.5
299.445	87.5
299.675	98.5
299.905	90.5
300.136	84.5
300.366	86.5
300.597	76.5
300.827	86.5
301.057	92.5
301.288	95.5
301.518	94.5
301.748	85.5
301.979	94.5
302.209	88.5
302.439	86.5
302.669	95.5
302.9	104.5
303.13	95.5
303.36	97.5
303.59	103.5
303.82	112.5
304.051	100.5
304.281	97.5
304.511	90.5
304.741	100.5
304.971	77.5
305.201	79.5
305.431	95.5
305.661	81.5
305.891	98.5
306.121	88.5
306.352	106.5
306.582	95.5
306.812	98.5
307.042	92.5
307.272	85.5
307.502	96.5
307.731	95.5
307.961	92.5
308.191	90.5
308.421	86.5
308.651	94.5
308.881	91.5
309.111	90.5
309.341	89.5
309.571	88.5
309.8	88.5
310.03	85.5
310.26	102.5
310.49	76.5
310.72	96.5
310.949	107.5
311.179	92.5
311.409	105.5
311.639	97.5
311.868	82.5
312.098	100.5
312.328	87.5
312.557	98.5
312.787	104.5
313.017	85.5
313.246	91.5
313.476	93.5
313.706	102.5
313.935	90.5
314.165	90.5
314.394	111.5
314.624	95.5
314.853	91.5
315.083	91.5
315.312	89.5
315.542	93.5
315.771	90.5
316.001	93.5
316.23	103.5
316.46	94.5
316.689	85.5
316.919	86.5
317.148	98.5
317.377	102.5
317.607	92.5
317.836	90.5
318.065	89.5
318.295	88.5
318.524	100.5
318.753	87.5
318.983	89.5
319.212	99.5
319.441	110.5
319.67	99.5
319.9	92.5
320.129	88.5
320.358	95.5
320.587	98.5
320.816	88.5
321.046	109.5
321.275	85.5
321.504	100.5
321.733	99.5
321.962	95.5
322.191	100.5
322.42	103.5
322.649	119.5
322.878	103.5
323.108	111.5
323.337	112.5
323.566	134.5
323.795	153.5
324.024	191.5
324.253	356.5
324.482	730.5
324.71	1585.5
324.939	2042.5
325.168	751.5
325.397	237.5
325.626	143.5
325.855	139.5
326.084	127.5
326.313	141.5
326.542	150.5
326.77	217.5
326.999	435.5
327.228	899.5
327.457	1632.5
327.686	1278.5
327.914	339.5
328.143	184.5
328.372	162.5
328.6	146.5
328.829	105.5
329.058	139.5
329.287	122.5
329.515	123.5
329.744	122.5
329.972	119.5
330.201	155.5
330.43	164.5
330.658	126.5
330.887	126.5
331.115	118.5
331.344	88.5
331.572	93.5
331.801	83.5
332.03	104.5
332.258	98.5
332.486	102.5
332.715	116.5
332.943	103.5
333.172	98.5
333.4	95.5
333.629	97.5
333.857	118.5
334.085	132.5
334.314	148.5
334.542	192.5
334.771	193.5
334.999	128.5
335.227	111.5
335.455	92.5
335.684	90.5
335.912	105.5
336.14	81.5
336.369	102.5
336.597	92.5
336.825	90.5
337.053	90.5
337.281	91.5
337.51	100.5
337.738	89.5
337.966	87.5
338.194	92.5
338.422	96.5
338.65	87.5
338.878	105.5
339.106	83.5
339.334	102.5
339.562	80.5
339.79	86.5
340.018	76.5
340.246	93.5
340.474	106.5
340.702	92.5
340.93	79.5
341.158	91.5
341.386	93.5
341.614	102.5
341.842	101.5
342.07	89.5
342.298	95.5
342.526	80.5
342.754	91.5
342.981	80.5
343.209	94.5
343.437	98.5
343.665	104.5
343.893	91.5
344.12	94.5
344.348	95.5
344.576	82.5
344.804	97.5
345.031	84.5
345.259	96.5
345.487	87.5
345.714	95.5
345.942	99.5
346.17	107.5
346.397	96.5
346.625	75.5
346.853	91.5
347.08	89.5
347.308	97.5
347.535	85.5
347.763	100.5
347.99	84.5
348.218	96.5
348.445	108.5
348.673	102.5
348.9	101.5
349.128	90.5
349.355	93.5
349.583	100.5
349.81	72.5
350.037	101.5
350.265	95.5
350.492	96.5
350.72	78.5
350.947	117.5
351.174	109.5
351.402	110.5
351.629	103.5
351.856	103.5
352.083	103.5
352.311	85.5
352.538	110.5
352.765	109.5
352.992	105.5
353.22	111.5
353.447	90.5
353.674	101.5
353.901	111.5
354.128	92.5
354.355	98.5
354.583	96.5
354.81	98.5
355.037	63.5
355.264	90.5
355.491	88.5
355.718	84.5
355.945	99.5
356.172	99.5
356.399	90.5
356.626	95.5
356.853	90.5
357.08	79.5
357.307	91.5
357.534	93.5
357.761	93.5
357.988	87.5
358.215	83.5
358.441	95.5
358.668	91.5
358.895	86.5
359.122	87.5
359.349	91.5
359.576	94.5
359.802	86.5
360.029	104.5
360.256	94.5
360.483	96.5
360.709	83.5
360.936	85.5
361.163	86.5
361.39	101.5
361.616	91.5
361.843	90.5
362.07	98.5
362.296	95.5
362.523	95.5
362.749	79.5
362.976	98.5
363.203	83.5
363.429	99.5
363.656	85.5
363.882	92.5
364.109	90.5
364.335	82.5
364.562	98.5
364.788	82.5
365.015	92.5
365.241	97.5
365.468	98.5
365.694	101.5
365.92	83.5
366.147	92.5
366.373	92.5
366.599	75.5
366.826	115.5
367.052	85.5
367.278	92.5
367.505	92.5
367.731	104.5
367.957	81.5
368.184	80.5
368.41	98.5
368.636	87.5
368.862	114.5
369.089	104.5
369.315	65.5
369.541	91.5
369.767	88.5
369.993	96.5
370.219	95.5
370.445	90.5
370.672	85.5
370.898	87.5
371.124	94.5
371.35	88.5
371.576	83.5
371.802	108.5
372.028	93.5
372.254	82.5
372.48	86.5
372.706	85.5
372.932	81.5
373.158	91.5
373.384	89.5
373.61	97.5
373.835	95.5
374.061	88.5
374.287	68.5
374.513	85.5
374.739	86.5
374.965	87.5
375.191	78.5
375.416	89.5
375.642	84.5
375.868	100.5
376.094	80.5
376.319	85.5
376.545	98.5
376.771	86.5
376.997	79.5
377.222	92.5
377.448	89.5
377.674	85.5
377.899	100.5
378.125	86.5
378.35	97.5
378.576	88.5
378.802	84.5
379.027	86.5
379.253	85.5
379.478	95.5
379.704	71.5
379.929	93.5
380.155	81.5
380.38	83.5
380.606	91.5
380.831	71.5
381.057	92.5
381.282	81.5
381.507	92.5
381.733	79.5
381.958	96.5
382.184	97.5
382.409	104.5
382.634	93.5
382.86	105.5
383.085	94.5
383.31	86.5
383.535	88.5
383.761	107.5
383.986	98.5
384.211	100.5
384.436	69.5
384.662	81.5
384.887	91.5
385.112	79.5
385.337	97.5
385.562	85.5
385.787	101.5
386.013	110.5
386.238	115.5
386.463	80.5
386.688	95.5
386.913	108.5
387.138	100.5
387.363	108.5
387.588	100.5
387.813	94.5
388.038	101.5
388.263	97.5
388.488	100.5
388.713	93.5
388.938	93.5
389.163	95.5
389.387	94.5
389.612	95.5
389.837	101.5
390.062	93.5
390.287	90.5
390.512	104.5
390.736	81.5
390.961	86.5
391.186	81.5
391.411	86.5
391.636	98.5
391.86	93.5
392.085	78.5
392.31	79.5
392.534	85.5
392.759	75.5
392.984	79.5
393.208	82.5
393.433	87.5
393.658	87.5
393.882	86.5
394.107	81.5
394.331	86.5
394.556	78.5
394.78	78.5
395.005	91.5
395.229	80.5
395.454	80.5
395.678	75.5
395.903	80.5
396.127	92.5
396.352	79.5
396.576	83.5
396.801	73.5
397.025	94.5
397.249	105.5
397.474	87.5
397.698	98.5
397.922	93.5
398.147	79.5
398.371	79.5
398.595	80.5
398.82	76.5
399.044	80.5
399.268	93.5
399.492	83.5
399.717	92.5
399.941	83.5
400.165	83.5
400.389	92.5
400.613	100.5
400.837	89.5
401.062	87.5
401.286	95.5
401.51	90.5
401.734	73.5
401.958	78.5
402.182	129.5
402.406	151.5
402.63	101.5
402.854	91.5
403.078	77.5
403.302	86.5
403.526	90.5
403.75	84.5
403.974	81.5
404.198	101.5
404.422	70.5
404.645	90.5
404.869	80.5
405.093	101.5
405.317	89.5
405.541	104.5
405.765	95.5
405.988	116.5
406.212	162.5
406.436	200.5
406.66	126.5
406.883	110.5
407.107	97.5
407.331	99.5
407.555	88.5
407.778	101.5
408.002	74.5
408.226	88.5
408.449	75.5
408.673	74.5
408.896	88.5
409.12	103.5
409.344	83.5
409.567	92.5
409.791	92.5
410.014	97.5
410.238	104.5
410.461	87.5
410.685	96.5
410.908	93.5
411.132	101.5
411.355	101.5
411.578	80.5
411.802	91.5
412.025	83.5
412.249	94.5
412.472	94.5
412.695	101.5
412.919	90.5
413.142	71.5
413.365	78.5
413.589	82.5
413.812	97.5
414.035	79.5
414.258	74.5
414.482	86.5
414.705	87.5
414.928	73.5
415.151	86.5
415.374	93.5
415.597	86.5
415.821	95.5
416.044	94.5
416.267	87.5
416.49	87.5
416.713	75.5
416.936	82.5
417.159	83.5
417.382	80.5
417.605	81.5
417.828	106.5
418.051	82.5
418.274	96.5
418.497	78.5
418.72	84.5
418.943	85.5
419.166	93.5
419.389	96.5
419.611	98.5
419.834	72.5
420.057	80.5
420.28	78.5
420.503	77.5
420.726	95.5
420.948	88.5
421.171	81.5
421.394	97.5
421.617	87.5
421.839	87.5
422.062	74.5
422.285	91.5
422.507	98.5
422.73	94.5
422.953	84.5
423.175	78.5
423.398	95.5
423.621	78.5
423.843	87.5
424.066	98.5
424.288	77.5
424.511	90.5
424.733	108.5
424.956	108.5
425.178	106.5
425.401	114.5
425.623	85.5
425.846	83.5
426.068	92.5
426.291	92.5
426.513	95.5
426.735	98.5
426.958	107.5
427.18	98.5
427.402	111.5
427.625	155.5
427.847	119.5
428.069	124.5
428.292	75.5
428.514	90.5
428.736	92.5
428.958	77.5
429.181	84.5
429.403	81.5
429.625	71.5
429.847	87.5
430.069	84.5
430.292	96.5
430.514	86.5
430.736	90.5
430.958	76.5
431.18	80.5
431.402	94.5
431.624	71.5
431.846	73.5
432.068	86.5
432.29	87.5
432.512	88.5
432.734	101.5
432.956	94.5
433.178	92.5
433.4	91.5
433.622	99.5
433.844	83.5
434.066	95.5
434.287	92.5
434.509	87.5
434.731	91.5
434.953	85.5
435.175	86.5
435.397	95.5
435.618	84.5
435.84	109.5
436.062	104.5
436.284	95.5
436.505	95.5
436.727	80.5
436.949	85.5
437.17	88.5
437.392	83.5
437.614	86.5
437.835	105.5
438.057	109.5
438.278	98.5
438.5	91.5
438.721	122.5
438.943	98.5
439.165	99.5
439.386	78.5
439.608	83.5
439.829	100.5
440.05	104.5
440.272	132.5
440.493	108.5
440.715	90.5
440.936	81.5
441.158	102.5
441.379	69.5
441.6	74.5
441.822	107.5
442.043	81.5
442.264	110.5
442.486	99.5
442.707	91.5
442.928	103.5
443.149	109.5
443.371	132.5
443.592	106.5
443.813	105.5
444.034	99.5
444.255	81.5
444.476	76.5
444.698	86.5
444.919	81.5
445.14	130.5
445.361	111.5
445.582	111.5
445.803	118.5
446.024	123.5
446.245	113.5
446.466	109.5
446.687	94.5
446.908	87.5
447.129	87.5
447.35	86.5
447.571	88.5
447.792	74.5
448.013	95.5
448.234	102.5
448.455	93.5
448.675	106.5
448.896	107.5
449.117	104.5
449.338	120.5
449.559	114.5
449.779	110.5
450	95.5
450.221	79.5
450.442	96.5
450.662	91.5
450.883	105.5
451.104	96.5
451.324	79.5
451.545	85.5
451.766	84.5
451.986	87.5
452.207	75.5
452.428	90.5
452.648	105.5
452.869	102.5
453.089	103.5
453.31	97.5
453.53	102.5
453.751	73.5
453.971	100.5
454.192	108.5
454.412	78.5
454.633	85.5
454.853	103.5
455.073	88.5
455.294	70.5
455.514	90.5
455.734	83.5
455.955	75.5
456.175	75.5
456.395	71.5
456.616	67.5
456.836	93.5
457.056	81.5
457.276	72.5
457.497	83.5
457.717	79.5
457.937	84.5
458.157	78.5
458.377	87.5
458.598	91.5
458.818	121.5
459.038	151.5
459.258	116.5
459.478	81.5
459.698	73.5
459.918	73.5
460.138	80.5
460.358	84.5
460.578	78.5
460.798	83.5
461.018	101.5
461.238	84.5
461.458	70.5
461.678	83.5
461.898	100.5
462.118	98.5
462.338	86.5
462.558	80.5
462.777	85.5
462.997	89.5
463.217	94.5
463.437	80.5
463.657	69.5
463.876	79.5
464.096	88.5
464.316	91.5
464.536	82.5
464.755	85.5
464.975	108.5
465.195	155.5
465.414	136.5
465.634	98.5
465.854	79.5
466.073	83.5
466.293	75.5
466.512	87.5
466.732	93.5
466.951	99.5
467.171	94.5
467.391	79.5
467.61	117.5
467.829	105.5
468.049	116.5
468.268	142.5
468.488	79.5
468.707	86.5
468.927	76.5
469.146	89.5
469.365	80.5
469.585	90.5
469.804	97.5
470.023	98.5
470.243	78.5
470.462	98.5
470.681	99.5
470.901	77.5
471.12	84.5
471.339	79.5
471.558	91.5
471.777	78.5
471.997	102.5
472.216	152.5
472.435	218.5
472.654	104.5
472.873	97.5
473.092	74.5
473.311	79.5
473.53	87.5
473.749	94.5
473.968	91.5
474.187	93.5
474.406	98.5
474.625	73.5
474.844	79.5
475.063	85.5
475.282	84.5
475.501	84.5
475.72	90.5
475.939	82.5
476.158	68.5
476.377	81.5
476.596	86.5
476.814	98.5
477.033	90.5
477.252	86.5
477.471	74.5
477.69	86.5
477.908	80.5
478.127	83.5
478.346	85.5
478.564	88.5
478.783	85.5
479.002	80.5
479.22	73.5
479.439	84.5
479.658	92.5
479.876	93.5
480.095	79.5
480.313	76.5
480.532	86.5
480.751	98.5
480.969	145.5
481.188	327.5
481.406	244.5
481.624	110.5
481.843	80.5
482.061	82.5
482.28	111.5
482.498	82.5
482.717	84.5
482.935	93.5
483.153	94.5
483.372	88.5
483.59	91.5
483.808	94.5
484.027	73.5
484.245	83.5
484.463	86.5
484.681	93.5
484.9	91.5
485.118	98.5
485.336	83.5
485.554	91.5
485.772	86.5
485.99	98.5
486.209	85.5
486.427	101.5
486.645	91.5
486.863	105.5
487.081	104.5
487.299	88.5
487.517	89.5
487.735	106.5
487.953	93.5
488.171	88.5
488.389	98.5
488.607	105.5
488.825	85.5
489.043	101.5
489.261	100.5
489.479	90.5
489.696	95.5
489.914	81.5
490.132	92.5
490.35	87.5
490.568	80.5
490.786	86.5
491.003	80.5
491.221	90.5
491.439	77.5
491.657	87.5
491.874	80.5
492.092	88.5
492.31	118.5
492.527	88.5
492.745	100.5
492.963	98.5
493.18	91.5
493.398	96.5
493.615	94.5
493.833	90.5
494.05	86.5
494.268	94.5
494.485	83.5
494.703	85.5
494.92	80.5
495.138	80.5
495.355	87.5
495.573	89.5
495.79	96.5
496.008	86.5
496.225	93.5
496.442	84.5
496.66	85.5
496.877	73.5
497.094	79.5
497.312	79.5
497.529	72.5
497.746	98.5
497.963	89.5
498.181	101.5
498.398	97.5
498.615	107.5
498.832	87.5
499.049	89.5
499.267	86.5
499.484	90.5
499.701	96.5
499.918	84.5
500.135	92.5
500.352	95.5
500.569	92.5
500.786	80.5
501.003	95.5
501.22	78.5
501.437	87.5
501.654	94.5
501.871	105.5
502.088	91.5
502.305	108.5
502.522	98.5
502.739	81.5
502.956	74.5
503.172	87.5
503.389	80.5
503.606	103.5
503.823	93.5
504.04	87.5
504.256	89.5
504.473	83.5
504.69	90.5
504.907	78.5
505.123	99.5
505.34	76.5
505.557	78.5
505.773	106.5
505.99	91.5
506.207	80.5
506.423	82.5
506.64	80.5
506.856	91.5
507.073	90.5
507.289	82.5
507.506	84.5
507.722	105.5
507.939	120.5
508.155	79.5
508.372	83.5
508.588	98.5
508.805	89.5
509.021	97.5
509.238	89.5
509.454	79.5
509.67	101.5
509.887	89.5
510.103	116.5
510.319	196.5
510.536	637.5
510.752	2077.5
510.968	590.5
511.184	132.5
511.401	109.5
511.617	92.5
511.833	98.5
512.049	91.5
512.265	94.5
512.481	88.5
512.698	94.5
512.914	97.5
513.13	91.5
513.346	75.5
513.562	83.5
513.778	95.5
513.994	97.5
514.21	126.5
514.426	118.5
514.642	114.5
514.858	111.5
515.074	151.5
515.29	406.5
515.506	1272.5
515.721	501.5
515.937	152.5
516.153	110.5
516.369	100.5
516.585	90.5
516.801	90.5
517.016	100.5
517.232	103.5
517.448	92.5
517.664	79.5
517.879	88.5
518.095	103.5
518.311	97.5
518.527	102.5
518.742	87.5
518.958	96.5
519.173	100.5
519.389	92.5
519.605	97.5
519.82	98.5
520.036	99.5
520.251	109.5
520.467	110.5
520.682	102.5
520.898	92.5
521.113	131.5
521.329	126.5
521.544	167.5
521.76	479.5
521.975	2004.5
522.19	1268.5
522.406	279.5
522.621	107.5
522.836	100.5
523.052	99.5
523.267	85.5
523.482	96.5
523.698	103.5
523.913	99.5
524.128	91.5
524.343	91.5
524.559	84.5
524.774	85.5
524.989	102.5
525.204	100.5
525.419	92.5
525.634	84.5
525.849	91.5
526.064	74.5
526.28	80.5
526.495	90.5
526.71	95.5
526.925	90.5
527.14	80.5
527.355	89.5
527.57	83.5
527.785	89.5
527.999	83.5
528.214	92.5
528.429	90.5
528.644	76.5
528.859	106.5
529.074	94.5
529.289	115.5
529.503	157.5
529.718	106.5
529.933	76.5
530.148	83.5
530.363	89.5
530.577	98.5
530.792	96.5
531.007	85.5
531.221	86.5
531.436	82.5
531.651	83.5
531.865	90.5
532.08	95.5
532.295	94.5
532.509	105.5
532.724	90.5
532.938	83.5
533.153	83.5
533.367	99.5
533.582	90.5
533.796	92.5
534.011	89.5
534.225	82.5
534.44	87.5
534.654	83.5
534.868	97.5
535.083	95.5
535.297	89.5
535.511	92.5
535.726	122.5
535.94	86.5
536.154	97.5
