Data from Circ_2011_H10_HRD10591_00069.txt Node
Date: Wed Jan 03 10:08:12 EST 2024
User: Yrep
Spectrometer: HR+D1059
Trigger mode: 1
Integration Time (sec): 1.000000E-1
Scans to average: 1
Electric dark correction enabled: true
Nonlinearity correction enabled: false
Boxcar width: 0
XAxis mode: Wavelengths
Number of Pixels in Spectrum: 2048
>>>>>Begin Spectral Data<<<<<
223.165	-8.62
223.4	-8.62
223.635	-8.62
223.869	-16.62
224.104	-23.62
224.338	-10.62
224.573	-9.62
224.808	-14.62
225.042	-4.62
225.277	-6.62
225.511	-1.62
225.746	5.38
225.98	9.38
226.215	0.38
226.449	13.38
226.683	17.38
226.918	26.38
227.152	24.38
227.387	33.38
227.621	39.38
227.856	54.38
228.09	41.38
228.324	47.38
228.559	79.38
228.793	52.38
229.027	69.38
229.262	72.38
229.496	68.38
229.73	93.38
229.964	72.38
230.199	48.38
230.433	72.38
230.667	74.38
230.901	78.38
231.136	82.38
231.37	86.38
231.604	82.38
231.838	86.38
232.072	87.38
232.306	81.38
232.541	86.38
232.775	85.38
233.009	78.38
233.243	79.38
233.477	77.38
233.711	91.38
233.945	82.38
234.179	75.38
234.413	79.38
234.647	87.38
234.881	77.38
235.115	93.38
235.349	79.38
235.583	79.38
235.817	98.38
236.051	81.38
236.285	76.38
236.519	78.38
236.753	87.38
236.987	82.38
237.221	98.38
237.455	83.38
237.689	74.38
237.922	77.38
238.156	82.38
238.39	73.38
238.624	83.38
238.858	89.38
239.091	77.38
239.325	71.38
239.559	87.38
239.793	87.38
240.027	89.38
240.26	84.38
240.494	65.38
240.728	92.38
240.961	68.38
241.195	84.38
241.429	78.38
241.662	89.38
241.896	84.38
242.13	75.38
242.363	77.38
242.597	85.38
242.83	74.38
243.064	71.38
243.298	79.38
243.531	71.38
243.765	74.38
243.998	84.38
244.232	75.38
244.465	72.38
244.699	80.38
244.932	64.38
245.166	84.38
245.399	76.38
245.633	86.38
245.866	90.38
246.099	81.38
246.333	78.38
246.566	81.38
246.8	82.38
247.033	76.38
247.266	86.38
247.5	94.38
247.733	93.38
247.966	89.38
248.2	74.38
248.433	81.38
248.666	75.38
248.899	84.38
249.133	98.38
249.366	98.38
249.599	99.38
249.832	99.38
250.066	78.38
250.299	81.38
250.532	72.38
250.765	99.38
250.998	76.38
251.231	97.38
251.465	81.38
251.698	77.38
251.931	74.38
252.164	83.38
252.397	96.38
252.63	76.38
252.863	76.38
253.096	83.38
253.329	90.38
253.562	82.38
253.795	70.38
254.028	87.38
254.261	83.38
254.494	87.38
254.727	85.38
254.96	78.38
255.193	82.38
255.426	82.38
255.659	69.38
255.892	92.38
256.124	96.38
256.357	78.38
256.59	89.38
256.823	79.38
257.056	96.38
257.289	84.38
257.521	83.38
257.754	83.38
257.987	84.38
258.22	91.38
258.452	73.38
258.685	89.38
258.918	88.38
259.151	88.38
259.383	81.38
259.616	73.38
259.849	72.38
260.081	94.38
260.314	90.38
260.547	72.38
260.779	76.38
261.012	85.38
261.244	89.38
261.477	108.38
261.71	87.38
261.942	105.38
262.175	102.38
262.407	97.38
262.64	77.38
262.872	82.38
263.105	99.38
263.337	83.38
263.57	71.38
263.802	86.38
264.035	92.38
264.267	83.38
264.499	89.38
264.732	74.38
264.964	93.38
265.197	101.38
265.429	90.38
265.661	103.38
265.894	75.38
266.126	85.38
266.358	93.38
266.591	70.38
266.823	89.38
267.055	89.38
267.287	94.38
267.52	74.38
267.752	79.38
267.984	89.38
268.216	83.38
268.448	91.38
268.681	85.38
268.913	81.38
269.145	86.38
269.377	85.38
269.609	97.38
269.841	79.38
270.073	86.38
270.306	83.38
270.538	72.38
270.77	86.38
271.002	88.38
271.234	85.38
271.466	98.38
271.698	84.38
271.93	88.38
272.162	92.38
272.394	85.38
272.626	87.38
272.858	91.38
273.09	83.38
273.322	79.38
273.553	83.38
273.785	85.38
274.017	86.38
274.249	80.38
274.481	101.38
274.713	81.38
274.945	93.38
275.176	91.38
275.408	87.38
275.64	103.38
275.872	105.38
276.104	102.38
276.335	87.38
276.567	82.38
276.799	96.38
277.031	112.38
277.262	101.38
277.494	109.38
277.726	95.38
277.957	96.38
278.189	86.38
278.421	91.38
278.652	90.38
278.884	90.38
279.115	93.38
279.347	95.38
279.579	85.38
279.81	104.38
280.042	94.38
280.273	100.38
280.505	104.38
280.736	88.38
280.968	81.38
281.199	86.38
281.431	78.38
281.662	102.38
281.894	88.38
282.125	102.38
282.356	120.38
282.588	129.38
282.819	126.38
283.051	103.38
283.282	79.38
283.513	93.38
283.745	101.38
283.976	89.38
284.207	78.38
284.439	97.38
284.67	86.38
284.901	93.38
285.132	97.38
285.364	92.38
285.595	93.38
285.826	99.38
286.057	88.38
286.288	90.38
286.52	85.38
286.751	85.38
286.982	83.38
287.213	84.38
287.444	91.38
287.675	93.38
287.906	84.38
288.138	93.38
288.369	87.38
288.6	102.38
288.831	86.38
289.062	98.38
289.293	88.38
289.524	91.38
289.755	90.38
289.986	96.38
290.217	82.38
290.448	84.38
290.679	97.38
290.91	96.38
291.141	97.38
291.371	94.38
291.602	87.38
291.833	97.38
292.064	77.38
292.295	77.38
292.526	85.38
292.757	99.38
292.987	94.38
293.218	77.38
293.449	102.38
293.68	93.38
293.91	91.38
294.141	79.38
294.372	74.38
294.603	86.38
294.833	90.38
295.064	98.38
295.295	102.38
295.525	95.38
295.756	92.38
295.987	110.38
296.217	139.38
296.448	114.38
296.679	87.38
296.909	78.38
297.14	99.38
297.37	102.38
297.601	83.38
297.831	92.38
298.062	104.38
298.292	94.38
298.523	93.38
298.753	90.38
298.984	91.38
299.214	91.38
299.445	80.38
299.675	86.38
299.905	94.38
300.136	104.38
300.366	92.38
300.597	86.38
300.827	84.38
301.057	94.38
301.288	100.38
301.518	89.38
301.748	89.38
301.979	84.38
302.209	91.38
302.439	85.38
302.669	93.38
302.9	95.38
303.13	94.38
303.36	101.38
303.59	92.38
303.82	108.38
304.051	95.38
304.281	92.38
304.511	101.38
304.741	102.38
304.971	90.38
305.201	103.38
305.431	99.38
305.661	97.38
305.891	94.38
306.121	88.38
306.352	89.38
306.582	94.38
306.812	98.38
307.042	101.38
307.272	90.38
307.502	98.38
307.731	111.38
307.961	88.38
308.191	87.38
308.421	83.38
308.651	88.38
308.881	93.38
309.111	80.38
309.341	103.38
309.571	104.38
309.8	77.38
310.03	93.38
310.26	94.38
310.49	101.38
310.72	103.38
310.949	107.38
311.179	106.38
311.409	94.38
311.639	90.38
311.868	106.38
312.098	104.38
312.328	97.38
312.557	105.38
312.787	111.38
313.017	101.38
313.246	82.38
313.476	95.38
313.706	98.38
313.935	99.38
314.165	106.38
314.394	93.38
314.624	92.38
314.853	85.38
315.083	92.38
315.312	89.38
315.542	86.38
315.771	83.38
316.001	79.38
316.23	89.38
316.46	92.38
316.689	81.38
316.919	95.38
317.148	94.38
317.377	82.38
317.607	81.38
317.836	94.38
318.065	96.38
318.295	99.38
318.524	111.38
318.753	91.38
318.983	97.38
319.212	109.38
319.441	102.38
319.67	109.38
319.9	113.38
320.129	94.38
320.358	88.38
320.587	101.38
320.816	93.38
321.046	98.38
321.275	111.38
321.504	102.38
321.733	94.38
321.962	106.38
322.191	104.38
322.42	97.38
322.649	113.38
322.878	112.38
323.108	112.38
323.337	129.38
323.566	129.38
323.795	159.38
324.024	222.38
324.253	437.38
324.482	901.38
324.71	1882.38
324.939	2439.38
325.168	895.38
325.397	249.38
325.626	149.38
325.855	124.38
326.084	125.38
326.313	134.38
326.542	158.38
326.77	239.38
326.999	517.38
327.228	1042.38
327.457	1910.38
327.686	1548.38
327.914	412.38
328.143	253.38
328.372	212.38
328.6	162.38
328.829	135.38
329.058	139.38
329.287	157.38
329.515	123.38
329.744	133.38
329.972	148.38
330.201	245.38
330.43	281.38
330.658	176.38
330.887	162.38
331.115	120.38
331.344	106.38
331.572	105.38
331.801	104.38
332.03	106.38
332.258	97.38
332.486	103.38
332.715	90.38
332.943	93.38
333.172	105.38
333.4	96.38
333.629	118.38
333.857	128.38
334.085	167.38
334.314	225.38
334.542	331.38
334.771	336.38
334.999	154.38
335.227	112.38
335.455	111.38
335.684	89.38
335.912	89.38
336.14	99.38
336.369	101.38
336.597	87.38
336.825	120.38
337.053	99.38
337.281	100.38
337.51	95.38
337.738	100.38
337.966	92.38
338.194	97.38
338.422	119.38
338.65	107.38
338.878	101.38
339.106	93.38
339.334	107.38
339.562	91.38
339.79	87.38
340.018	90.38
340.246	104.38
340.474	111.38
340.702	85.38
340.93	93.38
341.158	108.38
341.386	97.38
341.614	118.38
341.842	83.38
342.07	107.38
342.298	101.38
342.526	79.38
342.754	94.38
342.981	90.38
343.209	86.38
343.437	80.38
343.665	86.38
343.893	93.38
344.12	105.38
344.348	96.38
344.576	105.38
344.804	94.38
345.031	110.38
345.259	99.38
345.487	92.38
345.714	101.38
345.942	103.38
346.17	102.38
346.397	91.38
346.625	95.38
346.853	90.38
347.08	89.38
347.308	93.38
347.535	91.38
347.763	104.38
347.99	101.38
348.218	98.38
348.445	85.38
348.673	103.38
348.9	102.38
349.128	106.38
349.355	89.38
349.583	97.38
349.81	94.38
350.037	89.38
350.265	91.38
350.492	91.38
350.72	91.38
350.947	89.38
351.174	96.38
351.402	119.38
351.629	93.38
351.856	97.38
352.083	95.38
352.311	107.38
352.538	101.38
352.765	120.38
352.992	108.38
353.22	114.38
353.447	100.38
353.674	101.38
353.901	93.38
354.128	92.38
354.355	96.38
354.583	122.38
354.81	98.38
355.037	105.38
355.264	96.38
355.491	117.38
355.718	114.38
355.945	89.38
356.172	106.38
356.399	94.38
356.626	92.38
356.853	97.38
357.08	97.38
357.307	105.38
357.534	97.38
357.761	99.38
357.988	95.38
358.215	93.38
358.441	98.38
358.668	107.38
358.895	99.38
359.122	93.38
359.349	92.38
359.576	97.38
359.802	110.38
360.029	112.38
360.256	112.38
360.483	101.38
360.709	81.38
360.936	99.38
361.163	119.38
361.39	104.38
361.616	93.38
361.843	91.38
362.07	92.38
362.296	94.38
362.523	91.38
362.749	91.38
362.976	111.38
363.203	93.38
363.429	87.38
363.656	82.38
363.882	81.38
364.109	93.38
364.335	106.38
364.562	93.38
364.788	89.38
365.015	89.38
365.241	111.38
365.468	105.38
365.694	100.38
365.92	113.38
366.147	97.38
366.373	105.38
366.599	94.38
366.826	91.38
367.052	91.38
367.278	89.38
367.505	98.38
367.731	92.38
367.957	104.38
368.184	106.38
368.41	105.38
368.636	103.38
368.862	107.38
369.089	108.38
369.315	91.38
369.541	94.38
369.767	86.38
369.993	100.38
370.219	99.38
370.445	88.38
370.672	84.38
370.898	68.38
371.124	102.38
371.35	89.38
371.576	96.38
371.802	102.38
372.028	99.38
372.254	97.38
372.48	96.38
372.706	86.38
372.932	89.38
373.158	93.38
373.384	86.38
373.61	111.38
373.835	110.38
374.061	99.38
374.287	82.38
374.513	80.38
374.739	83.38
374.965	95.38
375.191	81.38
375.416	75.38
375.642	94.38
375.868	98.38
376.094	85.38
376.319	77.38
376.545	106.38
376.771	97.38
376.997	92.38
377.222	96.38
377.448	94.38
377.674	89.38
377.899	98.38
378.125	89.38
378.35	78.38
378.576	103.38
378.802	79.38
379.027	94.38
379.253	86.38
379.478	96.38
379.704	92.38
379.929	100.38
380.155	90.38
380.38	89.38
380.606	87.38
380.831	85.38
381.057	92.38
381.282	86.38
381.507	89.38
381.733	94.38
381.958	101.38
382.184	91.38
382.409	94.38
382.634	97.38
382.86	95.38
383.085	98.38
383.31	105.38
383.535	107.38
383.761	93.38
383.986	98.38
384.211	106.38
384.436	105.38
384.662	109.38
384.887	86.38
385.112	79.38
385.337	91.38
385.562	102.38
385.787	96.38
386.013	104.38
386.238	105.38
386.463	104.38
386.688	110.38
386.913	98.38
387.138	98.38
387.363	98.38
387.588	110.38
387.813	96.38
388.038	92.38
388.263	106.38
388.488	114.38
388.713	82.38
388.938	108.38
389.163	97.38
389.387	100.38
389.612	105.38
389.837	107.38
390.062	97.38
390.287	94.38
390.512	103.38
390.736	88.38
390.961	73.38
391.186	90.38
391.411	102.38
391.636	91.38
391.86	78.38
392.085	77.38
392.31	90.38
392.534	95.38
392.759	83.38
392.984	90.38
393.208	93.38
393.433	86.38
393.658	77.38
393.882	94.38
394.107	77.38
394.331	86.38
394.556	83.38
394.78	88.38
395.005	94.38
395.229	82.38
395.454	94.38
395.678	90.38
395.903	83.38
396.127	83.38
396.352	89.38
396.576	83.38
396.801	83.38
397.025	97.38
397.249	95.38
397.474	96.38
397.698	85.38
397.922	79.38
398.147	80.38
398.371	97.38
398.595	90.38
398.82	97.38
399.044	93.38
399.268	87.38
399.492	89.38
399.717	97.38
399.941	101.38
400.165	89.38
400.389	112.38
400.613	101.38
400.837	85.38
401.062	89.38
401.286	94.38
401.51	76.38
401.734	93.38
401.958	113.38
402.182	119.38
402.406	147.38
402.63	117.38
402.854	86.38
403.078	91.38
403.302	95.38
403.526	101.38
403.75	92.38
403.974	85.38
404.198	95.38
404.422	101.38
404.645	98.38
404.869	100.38
405.093	102.38
405.317	127.38
405.541	111.38
405.765	106.38
405.988	129.38
406.212	161.38
406.436	212.38
406.66	151.38
406.883	104.38
407.107	91.38
407.331	90.38
407.555	101.38
407.778	98.38
408.002	79.38
408.226	94.38
408.449	89.38
408.673	95.38
408.896	111.38
409.12	103.38
409.344	91.38
409.567	102.38
409.791	87.38
410.014	90.38
410.238	85.38
410.461	105.38
410.685	90.38
410.908	86.38
411.132	100.38
411.355	105.38
411.578	97.38
411.802	83.38
412.025	97.38
412.249	94.38
412.472	91.38
412.695	118.38
412.919	91.38
413.142	94.38
413.365	94.38
413.589	98.38
413.812	100.38
414.035	114.38
414.258	89.38
414.482	93.38
414.705	103.38
414.928	91.38
415.151	88.38
415.374	91.38
415.597	87.38
415.821	101.38
416.044	92.38
416.267	107.38
416.49	81.38
416.713	102.38
416.936	99.38
417.159	97.38
417.382	95.38
417.605	94.38
417.828	106.38
418.051	102.38
418.274	95.38
418.497	103.38
418.72	73.38
418.943	87.38
419.166	100.38
419.389	78.38
419.611	90.38
419.834	91.38
420.057	87.38
420.28	98.38
420.503	88.38
420.726	93.38
420.948	89.38
421.171	84.38
421.394	101.38
421.617	97.38
421.839	88.38
422.062	96.38
422.285	82.38
422.507	94.38
422.73	93.38
422.953	95.38
423.175	85.38
423.398	87.38
423.621	87.38
423.843	92.38
424.066	101.38
424.288	89.38
424.511	99.38
424.733	104.38
424.956	111.38
425.178	110.38
425.401	104.38
425.623	102.38
425.846	90.38
426.068	83.38
426.291	81.38
426.513	102.38
426.735	86.38
426.958	96.38
427.18	120.38
427.402	161.38
427.625	198.38
427.847	159.38
428.069	153.38
428.292	96.38
428.514	89.38
428.736	75.38
428.958	89.38
429.181	104.38
429.403	95.38
429.625	89.38
429.847	93.38
430.069	112.38
430.292	93.38
430.514	89.38
430.736	98.38
430.958	88.38
431.18	81.38
431.402	80.38
431.624	87.38
431.846	95.38
432.068	82.38
432.29	87.38
432.512	83.38
432.734	88.38
432.956	97.38
433.178	97.38
433.4	106.38
433.622	103.38
433.844	84.38
434.066	86.38
434.287	105.38
434.509	94.38
434.731	91.38
434.953	91.38
435.175	93.38
435.397	88.38
435.618	115.38
435.84	105.38
436.062	139.38
436.284	127.38
436.505	110.38
436.727	107.38
436.949	96.38
437.17	90.38
437.392	108.38
437.614	101.38
437.835	111.38
438.057	129.38
438.278	116.38
438.5	97.38
438.721	125.38
438.943	84.38
439.165	96.38
439.386	93.38
439.608	93.38
439.829	109.38
440.05	131.38
440.272	149.38
440.493	101.38
440.715	78.38
440.936	81.38
441.158	82.38
441.379	90.38
441.6	100.38
441.822	84.38
442.043	94.38
442.264	115.38
442.486	111.38
442.707	110.38
442.928	102.38
443.149	134.38
443.371	134.38
443.592	118.38
443.813	117.38
444.034	103.38
444.255	80.38
444.476	87.38
444.698	81.38
444.919	96.38
445.14	137.38
445.361	136.38
445.582	118.38
445.803	152.38
446.024	158.38
446.245	139.38
446.466	116.38
446.687	98.38
446.908	86.38
447.129	90.38
447.35	79.38
447.571	87.38
447.792	87.38
448.013	95.38
448.234	111.38
448.455	105.38
448.675	109.38
448.896	129.38
449.117	117.38
449.338	105.38
449.559	127.38
449.779	128.38
450	91.38
450.221	89.38
450.442	93.38
450.662	102.38
450.883	103.38
451.104	113.38
451.324	95.38
451.545	102.38
451.766	80.38
451.986	88.38
452.207	89.38
452.428	98.38
452.648	98.38
452.869	106.38
453.089	95.38
453.31	119.38
453.53	98.38
453.751	92.38
453.971	89.38
454.192	111.38
454.412	89.38
454.633	80.38
454.853	93.38
455.073	102.38
455.294	86.38
455.514	90.38
455.734	86.38
455.955	90.38
456.175	82.38
456.395	90.38
456.616	93.38
456.836	93.38
457.056	74.38
457.276	90.38
457.497	86.38
457.717	89.38
457.937	102.38
458.157	78.38
458.377	76.38
458.598	109.38
458.818	156.38
459.038	170.38
459.258	114.38
459.478	96.38
459.698	96.38
459.918	96.38
460.138	88.38
460.358	82.38
460.578	92.38
460.798	95.38
461.018	105.38
461.238	82.38
461.458	90.38
461.678	83.38
461.898	81.38
462.118	96.38
462.338	93.38
462.558	75.38
462.777	94.38
462.997	81.38
463.217	82.38
463.437	97.38
463.657	103.38
463.876	74.38
464.096	93.38
464.316	96.38
464.536	96.38
464.755	103.38
464.975	109.38
465.195	161.38
465.414	142.38
465.634	109.38
465.854	96.38
466.073	90.38
466.293	86.38
466.512	80.38
466.732	89.38
466.951	85.38
467.171	93.38
467.391	96.38
467.61	112.38
467.829	112.38
468.049	161.38
468.268	205.38
468.488	106.38
468.707	78.38
468.927	83.38
469.146	84.38
469.365	87.38
469.585	90.38
469.804	91.38
470.023	91.38
470.243	89.38
470.462	91.38
470.681	119.38
470.901	90.38
471.12	90.38
471.339	86.38
471.558	93.38
471.777	94.38
471.997	123.38
472.216	238.38
472.435	443.38
472.654	166.38
472.873	110.38
473.092	99.38
473.311	77.38
473.53	98.38
473.749	95.38
473.968	114.38
474.187	118.38
474.406	99.38
474.625	99.38
474.844	101.38
475.063	94.38
475.282	90.38
475.501	101.38
475.72	89.38
475.939	72.38
476.158	96.38
476.377	88.38
476.596	95.38
476.814	106.38
477.033	101.38
477.252	87.38
477.471	98.38
477.69	87.38
477.908	93.38
478.127	97.38
478.346	93.38
478.564	85.38
478.783	97.38
479.002	99.38
479.22	108.38
479.439	98.38
479.658	104.38
479.876	100.38
480.095	95.38
480.313	99.38
480.532	89.38
480.751	121.38
480.969	237.38
481.188	721.38
481.406	471.38
481.624	143.38
481.843	98.38
482.061	102.38
482.28	93.38
482.498	91.38
482.717	83.38
482.935	87.38
483.153	90.38
483.372	88.38
483.59	101.38
483.808	80.38
484.027	78.38
484.245	91.38
484.463	86.38
484.681	98.38
484.9	105.38
485.118	97.38
485.336	88.38
485.554	94.38
485.772	100.38
485.99	97.38
486.209	101.38
486.427	100.38
486.645	103.38
486.863	108.38
487.081	97.38
487.299	116.38
487.517	79.38
487.735	97.38
487.953	87.38
488.171	98.38
488.389	121.38
488.607	98.38
488.825	100.38
489.043	96.38
489.261	88.38
489.479	93.38
489.696	93.38
489.914	75.38
490.132	112.38
490.35	90.38
490.568	93.38
490.786	81.38
491.003	98.38
491.221	94.38
491.439	90.38
491.657	91.38
491.874	94.38
492.092	83.38
492.31	99.38
492.527	109.38
492.745	104.38
492.963	99.38
493.18	97.38
493.398	81.38
493.615	105.38
493.833	109.38
494.05	105.38
494.268	90.38
494.485	69.38
494.703	63.38
494.92	97.38
495.138	89.38
495.355	88.38
495.573	105.38
495.79	91.38
496.008	97.38
496.225	86.38
496.442	105.38
496.66	102.38
496.877	93.38
497.094	92.38
497.312	98.38
497.529	90.38
497.746	94.38
497.963	100.38
498.181	96.38
498.398	98.38
498.615	102.38
498.832	102.38
499.049	92.38
499.267	91.38
499.484	88.38
499.701	98.38
499.918	92.38
500.135	79.38
500.352	90.38
500.569	92.38
500.786	94.38
501.003	105.38
501.22	102.38
501.437	77.38
501.654	115.38
501.871	98.38
502.088	102.38
502.305	91.38
502.522	87.38
502.739	86.38
502.956	86.38
503.172	99.38
503.389	90.38
503.606	106.38
503.823	109.38
504.04	82.38
504.256	96.38
504.473	93.38
504.69	84.38
504.907	94.38
505.123	86.38
505.34	102.38
505.557	103.38
505.773	99.38
505.99	89.38
506.207	93.38
506.423	93.38
506.64	96.38
506.856	96.38
507.073	97.38
507.289	94.38
507.506	87.38
507.722	94.38
507.939	110.38
508.155	109.38
508.372	88.38
508.588	84.38
508.805	94.38
509.021	87.38
509.238	86.38
509.454	105.38
509.67	105.38
509.887	101.38
510.103	120.38
510.319	197.38
510.536	675.38
510.752	2083.38
510.968	605.38
511.184	158.38
511.401	117.38
511.617	96.38
511.833	97.38
512.049	94.38
512.265	88.38
512.481	96.38
512.698	96.38
512.914	92.38
513.13	97.38
513.346	105.38
513.562	76.38
513.778	98.38
513.994	99.38
514.21	99.38
514.426	122.38
514.642	123.38
