Data from Circ_2011_H10_HRD10591_00030.txt Node
Date: Wed Jan 03 10:08:05 EST 2024
User: Yrep
Spectrometer: HR+D1059
Trigger mode: 1
Integration Time (sec): 1.000000E-1
Scans to average: 1
Electric dark correction enabled: true
Nonlinearity correction enabled: false
Boxcar width: 0
XAxis mode: Wavelengths
Number of Pixels in Spectrum: 2048
>>>>>Begin Spectral Data<<<<<
223.165	-20.75
223.4	-20.75
223.635	-20.75
223.869	-5.75
224.104	-29.75
224.338	-19.75
224.573	-7.75
224.808	-30.75
225.042	-6.75
225.277	-5.75
225.511	4.25
225.746	7.25
225.98	3.25
226.215	16.25
226.449	24.25
226.683	15.25
226.918	33.25
227.152	23.25
227.387	35.25
227.621	34.25
227.856	15.25
228.09	30.25
228.324	44.25
228.559	46.25
228.793	59.25
229.027	60.25
229.262	53.25
229.496	76.25
229.73	74.25
229.964	72.25
230.199	85.25
230.433	74.25
230.667	65.25
230.901	79.25
231.136	83.25
231.37	93.25
231.604	91.25
231.838	76.25
232.072	71.25
232.306	82.25
232.541	75.25
232.775	80.25
233.009	94.25
233.243	88.25
233.477	65.25
233.711	83.25
233.945	68.25
234.179	74.25
234.413	86.25
234.647	87.25
234.881	79.25
235.115	81.25
235.349	74.25
235.583	66.25
235.817	73.25
236.051	89.25
236.285	79.25
236.519	79.25
236.753	74.25
236.987	75.25
237.221	88.25
237.455	75.25
237.689	75.25
237.922	85.25
238.156	79.25
238.39	83.25
238.624	71.25
238.858	72.25
239.091	78.25
239.325	71.25
239.559	66.25
239.793	78.25
240.027	74.25
240.26	89.25
240.494	79.25
240.728	70.25
240.961	69.25
241.195	83.25
241.429	76.25
241.662	72.25
241.896	80.25
242.13	75.25
242.363	62.25
242.597	75.25
242.83	82.25
243.064	81.25
243.298	77.25
243.531	64.25
243.765	63.25
243.998	80.25
244.232	70.25
244.465	82.25
244.699	73.25
244.932	68.25
245.166	75.25
245.399	79.25
245.633	83.25
245.866	77.25
246.099	71.25
246.333	63.25
246.566	74.25
246.8	75.25
247.033	74.25
247.266	79.25
247.5	73.25
247.733	76.25
247.966	73.25
248.2	84.25
248.433	76.25
248.666	81.25
248.899	69.25
249.133	70.25
249.366	86.25
249.599	80.25
249.832	87.25
250.066	78.25
250.299	68.25
250.532	74.25
250.765	74.25
250.998	75.25
251.231	77.25
251.465	75.25
251.698	73.25
251.931	70.25
252.164	71.25
252.397	72.25
252.63	92.25
252.863	75.25
253.096	85.25
253.329	60.25
253.562	75.25
253.795	91.25
254.028	79.25
254.261	66.25
254.494	90.25
254.727	78.25
254.96	70.25
255.193	79.25
255.426	80.25
255.659	92.25
255.892	83.25
256.124	85.25
256.357	79.25
256.59	81.25
256.823	90.25
257.056	83.25
257.289	82.25
257.521	83.25
257.754	74.25
257.987	82.25
258.22	78.25
258.452	77.25
258.685	81.25
258.918	65.25
259.151	85.25
259.383	83.25
259.616	87.25
259.849	86.25
260.081	98.25
260.314	85.25
260.547	86.25
260.779	81.25
261.012	88.25
261.244	86.25
261.477	90.25
261.71	81.25
261.942	98.25
262.175	97.25
262.407	75.25
262.64	76.25
262.872	65.25
263.105	82.25
263.337	71.25
263.57	87.25
263.802	90.25
264.035	78.25
264.267	73.25
264.499	86.25
264.732	82.25
264.964	83.25
265.197	91.25
265.429	88.25
265.661	93.25
265.894	84.25
266.126	87.25
266.358	87.25
266.591	89.25
266.823	83.25
267.055	75.25
267.287	84.25
267.52	85.25
267.752	81.25
267.984	88.25
268.216	75.25
268.448	92.25
268.681	78.25
268.913	89.25
269.145	80.25
269.377	84.25
269.609	84.25
269.841	88.25
270.073	80.25
270.306	76.25
270.538	83.25
270.77	88.25
271.002	84.25
271.234	96.25
271.466	85.25
271.698	88.25
271.93	74.25
272.162	78.25
272.394	63.25
272.626	81.25
272.858	66.25
273.09	79.25
273.322	86.25
273.553	66.25
273.785	84.25
274.017	81.25
274.249	93.25
274.481	77.25
274.713	77.25
274.945	95.25
275.176	80.25
275.408	83.25
275.64	76.25
275.872	83.25
276.104	93.25
276.335	79.25
276.567	94.25
276.799	106.25
277.031	105.25
277.262	93.25
277.494	91.25
277.726	83.25
277.957	93.25
278.189	91.25
278.421	93.25
278.652	89.25
278.884	80.25
279.115	79.25
279.347	82.25
279.579	79.25
279.81	75.25
280.042	93.25
280.273	90.25
280.505	74.25
280.736	90.25
280.968	83.25
281.199	87.25
281.431	92.25
281.662	94.25
281.894	83.25
282.125	98.25
282.356	117.25
282.588	133.25
282.819	101.25
283.051	85.25
283.282	83.25
283.513	87.25
283.745	89.25
283.976	99.25
284.207	89.25
284.439	81.25
284.67	87.25
284.901	78.25
285.132	83.25
285.364	75.25
285.595	87.25
285.826	77.25
286.057	94.25
286.288	81.25
286.52	90.25
286.751	102.25
286.982	87.25
287.213	75.25
287.444	85.25
287.675	80.25
287.906	76.25
288.138	77.25
288.369	91.25
288.6	77.25
288.831	80.25
289.062	86.25
289.293	81.25
289.524	73.25
289.755	87.25
289.986	97.25
290.217	88.25
290.448	76.25
290.679	90.25
290.91	81.25
291.141	89.25
291.371	82.25
291.602	101.25
291.833	93.25
292.064	75.25
292.295	82.25
292.526	84.25
292.757	91.25
292.987	86.25
293.218	86.25
293.449	92.25
293.68	86.25
293.91	78.25
294.141	79.25
294.372	94.25
294.603	76.25
294.833	81.25
295.064	87.25
295.295	86.25
295.525	89.25
295.756	108.25
295.987	108.25
296.217	120.25
296.448	110.25
296.679	95.25
296.909	83.25
297.14	82.25
297.37	100.25
297.601	71.25
297.831	97.25
298.062	79.25
298.292	91.25
298.523	89.25
298.753	94.25
298.984	84.25
299.214	86.25
299.445	109.25
299.675	93.25
299.905	95.25
300.136	90.25
300.366	79.25
300.597	90.25
300.827	99.25
301.057	101.25
301.288	92.25
301.518	102.25
301.748	85.25
301.979	98.25
302.209	80.25
302.439	99.25
302.669	77.25
302.9	79.25
303.13	80.25
303.36	85.25
303.59	99.25
303.82	96.25
304.051	91.25
304.281	89.25
304.511	84.25
304.741	84.25
304.971	76.25
305.201	86.25
305.431	91.25
305.661	86.25
305.891	78.25
306.121	74.25
306.352	106.25
306.582	88.25
306.812	87.25
307.042	98.25
307.272	94.25
307.502	93.25
307.731	89.25
307.961	98.25
308.191	88.25
308.421	86.25
308.651	90.25
308.881	94.25
309.111	96.25
309.341	85.25
309.571	101.25
309.8	97.25
310.03	109.25
310.26	90.25
310.49	85.25
310.72	103.25
310.949	89.25
311.179	94.25
311.409	89.25
311.639	106.25
311.868	86.25
312.098	99.25
312.328	88.25
312.557	93.25
312.787	87.25
313.017	98.25
313.246	94.25
313.476	84.25
313.706	83.25
313.935	99.25
314.165	93.25
314.394	84.25
314.624	91.25
314.853	78.25
315.083	101.25
315.312	86.25
315.542	92.25
315.771	84.25
316.001	74.25
316.23	83.25
316.46	78.25
316.689	74.25
316.919	92.25
317.148	87.25
317.377	90.25
317.607	91.25
317.836	95.25
318.065	90.25
318.295	87.25
318.524	85.25
318.753	85.25
318.983	85.25
319.212	99.25
319.441	105.25
319.67	101.25
319.9	84.25
320.129	87.25
320.358	94.25
320.587	95.25
320.816	92.25
321.046	108.25
321.275	85.25
321.504	83.25
321.733	82.25
321.962	87.25
322.191	91.25
322.42	85.25
322.649	116.25
322.878	116.25
323.108	117.25
323.337	116.25
323.566	122.25
323.795	148.25
324.024	198.25
324.253	385.25
324.482	801.25
324.71	1623.25
324.939	2115.25
325.168	787.25
325.397	246.25
325.626	142.25
325.855	123.25
326.084	113.25
326.313	123.25
326.542	158.25
326.77	219.25
326.999	450.25
327.228	939.25
327.457	1675.25
327.686	1365.25
327.914	357.25
328.143	195.25
328.372	174.25
328.6	133.25
328.829	110.25
329.058	129.25
329.287	133.25
329.515	121.25
329.744	104.25
329.972	104.25
330.201	166.25
330.43	184.25
330.658	139.25
330.887	132.25
331.115	127.25
331.344	104.25
331.572	93.25
331.801	100.25
332.03	90.25
332.258	93.25
332.486	90.25
332.715	90.25
332.943	85.25
333.172	88.25
333.4	103.25
333.629	97.25
333.857	103.25
334.085	122.25
334.314	153.25
334.542	203.25
334.771	188.25
334.999	118.25
335.227	103.25
335.455	97.25
335.684	78.25
335.912	100.25
336.14	96.25
336.369	87.25
336.597	88.25
336.825	82.25
337.053	80.25
337.281	90.25
337.51	89.25
337.738	84.25
337.966	91.25
338.194	92.25
338.422	89.25
338.65	87.25
338.878	86.25
339.106	79.25
339.334	87.25
339.562	85.25
339.79	87.25
340.018	84.25
340.246	83.25
340.474	92.25
340.702	98.25
340.93	99.25
341.158	105.25
341.386	108.25
341.614	104.25
341.842	93.25
342.07	84.25
342.298	93.25
342.526	96.25
342.754	83.25
342.981	86.25
343.209	100.25
343.437	97.25
343.665	91.25
343.893	91.25
344.12	87.25
344.348	102.25
344.576	101.25
344.804	88.25
345.031	81.25
345.259	82.25
345.487	82.25
345.714	90.25
345.942	84.25
346.17	98.25
346.397	97.25
346.625	80.25
346.853	87.25
347.08	76.25
347.308	99.25
347.535	94.25
347.763	90.25
347.99	105.25
348.218	108.25
348.445	101.25
348.673	100.25
348.9	108.25
349.128	85.25
349.355	97.25
349.583	74.25
349.81	92.25
350.037	83.25
350.265	80.25
350.492	93.25
350.72	102.25
350.947	94.25
351.174	103.25
351.402	104.25
351.629	93.25
351.856	92.25
352.083	101.25
352.311	102.25
352.538	112.25
352.765	93.25
352.992	109.25
353.22	97.25
353.447	103.25
353.674	109.25
353.901	105.25
354.128	89.25
354.355	93.25
354.583	84.25
354.81	89.25
355.037	89.25
355.264	80.25
355.491	89.25
355.718	88.25
355.945	90.25
356.172	86.25
356.399	97.25
356.626	97.25
356.853	101.25
357.08	96.25
357.307	94.25
357.534	89.25
357.761	93.25
357.988	103.25
358.215	101.25
358.441	93.25
358.668	91.25
358.895	94.25
359.122	79.25
359.349	84.25
359.576	99.25
359.802	90.25
360.029	113.25
360.256	109.25
360.483	102.25
360.709	94.25
360.936	100.25
361.163	89.25
361.39	93.25
361.616	95.25
361.843	92.25
362.07	105.25
362.296	96.25
362.523	78.25
362.749	91.25
362.976	92.25
363.203	98.25
363.429	87.25
363.656	75.25
363.882	86.25
364.109	91.25
364.335	89.25
364.562	76.25
364.788	92.25
365.015	78.25
365.241	105.25
365.468	105.25
365.694	105.25
365.92	98.25
366.147	89.25
366.373	87.25
366.599	87.25
366.826	84.25
367.052	103.25
367.278	77.25
367.505	84.25
367.731	87.25
367.957	83.25
368.184	88.25
368.41	88.25
368.636	93.25
368.862	111.25
369.089	95.25
369.315	92.25
369.541	82.25
369.767	91.25
369.993	103.25
370.219	93.25
370.445	89.25
370.672	76.25
370.898	86.25
371.124	84.25
371.35	78.25
371.576	95.25
371.802	84.25
372.028	85.25
372.254	98.25
372.48	84.25
372.706	87.25
372.932	84.25
373.158	84.25
373.384	82.25
373.61	83.25
373.835	78.25
374.061	95.25
374.287	82.25
374.513	101.25
374.739	83.25
374.965	94.25
375.191	73.25
375.416	95.25
375.642	92.25
375.868	87.25
376.094	87.25
376.319	79.25
376.545	77.25
376.771	94.25
376.997	76.25
377.222	82.25
377.448	98.25
377.674	85.25
377.899	91.25
378.125	93.25
378.35	86.25
378.576	82.25
378.802	76.25
379.027	86.25
379.253	83.25
379.478	90.25
379.704	95.25
379.929	96.25
380.155	84.25
380.38	97.25
380.606	81.25
380.831	83.25
381.057	93.25
381.282	98.25
381.507	95.25
381.733	84.25
381.958	82.25
382.184	83.25
382.409	82.25
382.634	100.25
382.86	97.25
383.085	89.25
383.31	84.25
383.535	99.25
383.761	90.25
383.986	93.25
384.211	74.25
384.436	90.25
384.662	95.25
384.887	97.25
385.112	103.25
385.337	90.25
385.562	91.25
385.787	93.25
386.013	106.25
386.238	105.25
386.463	95.25
386.688	104.25
386.913	71.25
387.138	92.25
387.363	89.25
387.588	87.25
387.813	98.25
388.038	94.25
388.263	101.25
388.488	91.25
388.713	99.25
388.938	88.25
389.163	83.25
389.387	94.25
389.612	97.25
389.837	89.25
390.062	94.25
390.287	84.25
390.512	100.25
390.736	95.25
390.961	102.25
391.186	98.25
391.411	88.25
391.636	96.25
391.86	96.25
392.085	91.25
392.31	85.25
392.534	99.25
392.759	73.25
392.984	97.25
393.208	84.25
393.433	97.25
393.658	94.25
393.882	85.25
394.107	86.25
394.331	70.25
394.556	81.25
394.78	86.25
395.005	97.25
395.229	102.25
395.454	78.25
395.678	74.25
395.903	92.25
396.127	78.25
396.352	86.25
396.576	80.25
396.801	78.25
397.025	88.25
397.249	90.25
397.474	84.25
397.698	88.25
397.922	85.25
398.147	92.25
398.371	75.25
398.595	88.25
398.82	101.25
399.044	82.25
399.268	97.25
399.492	86.25
399.717	79.25
399.941	86.25
400.165	90.25
400.389	66.25
400.613	86.25
400.837	78.25
401.062	66.25
401.286	86.25
401.51	95.25
401.734	78.25
401.958	99.25
402.182	113.25
402.406	140.25
402.63	112.25
402.854	96.25
403.078	79.25
403.302	97.25
403.526	83.25
403.75	88.25
403.974	86.25
404.198	79.25
404.422	83.25
404.645	90.25
404.869	98.25
405.093	79.25
405.317	98.25
405.541	95.25
405.765	98.25
405.988	107.25
406.212	160.25
406.436	205.25
406.66	143.25
406.883	104.25
407.107	83.25
407.331	96.25
407.555	92.25
407.778	98.25
408.002	100.25
408.226	100.25
408.449	83.25
408.673	94.25
408.896	102.25
409.12	104.25
409.344	86.25
409.567	78.25
409.791	90.25
410.014	77.25
410.238	88.25
410.461	94.25
410.685	90.25
410.908	94.25
411.132	110.25
411.355	99.25
411.578	79.25
411.802	85.25
412.025	86.25
412.249	85.25
412.472	103.25
412.695	102.25
412.919	89.25
413.142	79.25
413.365	87.25
413.589	88.25
413.812	89.25
414.035	98.25
414.258	89.25
414.482	93.25
414.705	75.25
414.928	84.25
415.151	91.25
415.374	95.25
415.597	88.25
415.821	84.25
416.044	98.25
416.267	81.25
416.49	75.25
416.713	82.25
416.936	78.25
417.159	74.25
417.382	91.25
417.605	89.25
417.828	100.25
418.051	86.25
418.274	104.25
418.497	98.25
418.72	83.25
418.943	73.25
419.166	86.25
419.389	93.25
419.611	84.25
419.834	88.25
420.057	85.25
420.28	84.25
420.503	93.25
420.726	74.25
420.948	83.25
421.171	94.25
421.394	98.25
421.617	82.25
421.839	81.25
422.062	100.25
422.285	87.25
422.507	97.25
422.73	96.25
422.953	78.25
423.175	72.25
423.398	85.25
423.621	73.25
423.843	102.25
424.066	90.25
424.288	77.25
424.511	96.25
424.733	97.25
424.956	100.25
425.178	90.25
425.401	105.25
425.623	99.25
425.846	86.25
426.068	100.25
426.291	85.25
426.513	88.25
426.735	94.25
426.958	86.25
427.18	95.25
427.402	134.25
427.625	164.25
427.847	119.25
428.069	122.25
428.292	96.25
428.514	84.25
428.736	98.25
428.958	91.25
429.181	85.25
429.403	86.25
429.625	81.25
429.847	96.25
430.069	96.25
430.292	75.25
430.514	79.25
430.736	78.25
430.958	84.25
431.18	85.25
431.402	77.25
431.624	77.25
431.846	78.25
432.068	77.25
432.29	94.25
432.512	85.25
432.734	75.25
432.956	79.25
433.178	109.25
433.4	99.25
433.622	90.25
433.844	92.25
434.066	82.25
434.287	78.25
434.509	85.25
434.731	76.25
434.953	97.25
435.175	81.25
435.397	92.25
435.618	101.25
435.84	98.25
436.062	126.25
436.284	119.25
436.505	92.25
436.727	90.25
436.949	92.25
437.17	71.25
437.392	82.25
437.614	85.25
437.835	86.25
438.057	103.25
438.278	104.25
438.5	89.25
438.721	122.25
438.943	102.25
439.165	83.25
439.386	77.25
439.608	95.25
439.829	95.25
440.05	121.25
440.272	150.25
440.493	94.25
440.715	83.25
440.936	67.25
441.158	97.25
441.379	88.25
441.6	83.25
441.822	103.25
442.043	78.25
442.264	107.25
442.486	94.25
442.707	96.25
442.928	109.25
443.149	121.25
443.371	112.25
443.592	96.25
443.813	106.25
444.034	103.25
444.255	98.25
444.476	83.25
444.698	89.25
444.919	74.25
445.14	125.25
445.361	119.25
445.582	105.25
445.803	134.25
446.024	137.25
446.245	138.25
446.466	110.25
446.687	97.25
446.908	83.25
447.129	80.25
447.35	89.25
447.571	85.25
447.792	87.25
448.013	93.25
448.234	93.25
448.455	101.25
448.675	120.25
448.896	93.25
449.117	95.25
449.338	94.25
449.559	119.25
449.779	128.25
450	98.25
450.221	84.25
450.442	89.25
450.662	101.25
450.883	97.25
451.104	92.25
451.324	83.25
451.545	68.25
451.766	92.25
451.986	97.25
452.207	90.25
452.428	88.25
452.648	100.25
452.869	95.25
453.089	111.25
453.31	104.25
453.53	92.25
453.751	93.25
453.971	90.25
454.192	96.25
454.412	85.25
454.633	88.25
454.853	82.25
455.073	74.25
455.294	86.25
455.514	100.25
455.734	98.25
455.955	91.25
456.175	67.25
456.395	78.25
456.616	87.25
456.836	83.25
457.056	79.25
457.276	91.25
457.497	83.25
457.717	98.25
457.937	83.25
458.157	87.25
458.377	69.25
458.598	113.25
458.818	141.25
459.038	147.25
459.258	106.25
459.478	81.25
459.698	83.25
459.918	85.25
460.138	76.25
460.358	89.25
460.578	99.25
460.798	82.25
461.018	91.25
461.238	75.25
461.458	98.25
461.678	100.25
461.898	81.25
462.118	86.25
462.338	90.25
462.558	87.25
462.777	75.25
462.997	88.25
463.217	86.25
463.437	88.25
463.657	80.25
463.876	90.25
464.096	83.25
464.316	77.25
464.536	74.25
464.755	105.25
464.975	98.25
465.195	150.25
465.414	154.25
465.634	94.25
465.854	72.25
466.073	94.25
466.293	86.25
466.512	75.25
466.732	98.25
466.951	79.25
467.171	83.25
467.391	79.25
467.61	97.25
467.829	92.25
468.049	122.25
468.268	137.25
468.488	98.25
468.707	81.25
468.927	83.25
469.146	95.25
469.365	93.25
469.585	71.25
469.804	109.25
470.023	85.25
470.243	88.25
470.462	98.25
470.681	89.25
470.901	76.25
471.12	82.25
471.339	91.25
471.558	101.25
471.777	96.25
471.997	99.25
472.216	159.25
472.435	265.25
472.654	108.25
472.873	111.25
473.092	86.25
473.311	76.25
473.53	89.25
473.749	86.25
473.968	98.25
474.187	98.25
474.406	91.25
474.625	84.25
474.844	83.25
475.063	100.25
475.282	82.25
475.501	82.25
475.72	84.25
475.939	69.25
476.158	98.25
476.377	90.25
476.596	88.25
476.814	91.25
477.033	86.25
477.252	68.25
477.471	75.25
477.69	88.25
477.908	82.25
478.127	94.25
478.346	95.25
478.564	88.25
478.783	82.25
479.002	82.25
479.22	81.25
479.439	89.25
479.658	106.25
479.876	96.25
480.095	92.25
480.313	92.25
480.532	76.25
480.751	92.25
480.969	170.25
481.188	387.25
481.406	272.25
481.624	109.25
481.843	92.25
482.061	94.25
482.28	81.25
482.498	94.25
482.717	94.25
482.935	82.25
483.153	95.25
483.372	91.25
483.59	92.25
483.808	96.25
484.027	71.25
484.245	87.25
484.463	84.25
484.681	96.25
484.9	81.25
485.118	86.25
485.336	83.25
485.554	97.25
485.772	84.25
485.99	100.25
486.209	93.25
486.427	111.25
486.645	107.25
486.863	89.25
487.081	93.25
487.299	86.25
487.517	100.25
487.735	95.25
487.953	86.25
488.171	99.25
488.389	84.25
488.607	93.25
488.825	95.25
489.043	79.25
489.261	65.25
489.479	78.25
489.696	79.25
489.914	79.25
490.132	74.25
490.35	79.25
490.568	84.25
490.786	82.25
491.003	110.25
491.221	93.25
491.439	85.25
491.657	85.25
491.874	95.25
492.092	77.25
492.31	86.25
492.527	97.25
492.745	102.25
492.963	71.25
493.18	90.25
493.398	91.25
493.615	101.25
493.833	95.25
494.05	93.25
494.268	93.25
494.485	78.25
494.703	81.25
494.92	81.25
495.138	68.25
495.355	89.25
495.573	93.25
495.79	103.25
496.008	98.25
496.225	102.25
496.442	82.25
496.66	76.25
496.877	88.25
497.094	90.25
497.312	88.25
497.529	103.25
497.746	97.25
497.963	90.25
498.181	85.25
498.398	94.25
498.615	117.25
498.832	85.25
499.049	98.25
499.267	75.25
499.484	109.25
499.701	100.25
499.918	90.25
500.135	82.25
500.352	97.25
500.569	85.25
500.786	85.25
501.003	97.25
501.22	77.25
501.437	97.25
501.654	95.25
501.871	107.25
502.088	89.25
502.305	89.25
502.522	98.25
502.739	89.25
502.956	92.25
503.172	101.25
503.389	101.25
503.606	101.25
503.823	78.25
504.04	85.25
504.256	87.25
504.473	78.25
504.69	74.25
504.907	92.25
505.123	85.25
505.34	76.25
505.557	92.25
505.773	88.25
505.99	74.25
506.207	97.25
506.423	89.25
506.64	76.25
506.856	77.25
507.073	109.25
507.289	91.25
507.506	91.25
507.722	100.25
507.939	104.25
508.155	91.25
508.372	85.25
508.588	90.25
508.805	93.25
509.021	100.25
509.238	84.25
509.454	88.25
509.67	87.25
509.887	93.25
510.103	131.25
510.319	202.25
510.536	695.25
510.752	2168.25
510.968	619.25
511.184	157.25
511.401	106.25
511.617	99.25
511.833	97.25
512.049	90.25
512.265	99.25
512.481	87.25
512.698	89.25
512.914	102.25
513.13	83.25
513.346	85.25
513.562	85.25
513.778	95.25
513.994	93.25
514.21	103.25
514.426	115.25
514.642	108.25
514.858	120.25
515.074	173.25
515.29	411.25
515.506	1277.25
515.721	491.25
515.937	139.25
516.153	102.25
516.369	93.25
516.585	75.25
516.801	86.25
