Data from Circ_2011_H10_HRD10591_00040.txt Node
Date: Wed Jan 03 10:08:07 EST 2024
User: Yrep
Spectrometer: HR+D1059
Trigger mode: 1
Integration Time (sec): 1.000000E-1
Scans to average: 1
Electric dark correction enabled: true
Nonlinearity correction enabled: false
Boxcar width: 0
XAxis mode: Wavelengths
Number of Pixels in Spectrum: 2048
>>>>>Begin Spectral Data<<<<<
223.165	-27.12
223.4	-27.12
223.635	-27.12
223.869	-26.12
224.104	-8.12
224.338	-7.12
224.573	-17.12
224.808	-11.12
225.042	-9.12
225.277	-5.12
225.511	-4.12
225.746	8.88
225.98	11.88
226.215	3.88
226.449	21.88
226.683	8.88
226.918	19.88
227.152	39.88
227.387	32.88
227.621	35.88
227.856	57.88
228.09	35.88
228.324	50.88
228.559	62.88
228.793	61.88
229.027	53.88
229.262	74.88
229.496	70.88
229.73	85.88
229.964	83.88
230.199	70.88
230.433	72.88
230.667	79.88
230.901	80.88
231.136	90.88
231.37	75.88
231.604	76.88
231.838	79.88
232.072	69.88
232.306	77.88
232.541	74.88
232.775	83.88
233.009	84.88
233.243	89.88
233.477	77.88
233.711	82.88
233.945	87.88
234.179	80.88
234.413	77.88
234.647	79.88
234.881	76.88
235.115	67.88
235.349	89.88
235.583	88.88
235.817	78.88
236.051	69.88
236.285	73.88
236.519	80.88
236.753	67.88
236.987	66.88
237.221	77.88
237.455	78.88
237.689	66.88
237.922	82.88
238.156	69.88
238.39	73.88
238.624	80.88
238.858	70.88
239.091	73.88
239.325	63.88
239.559	77.88
239.793	80.88
240.027	85.88
240.26	77.88
240.494	86.88
240.728	75.88
240.961	68.88
241.195	73.88
241.429	73.88
241.662	63.88
241.896	79.88
242.13	70.88
242.363	74.88
242.597	63.88
242.83	80.88
243.064	61.88
243.298	74.88
243.531	73.88
243.765	81.88
243.998	73.88
244.232	63.88
244.465	75.88
244.699	61.88
244.932	74.88
245.166	86.88
245.399	89.88
245.633	79.88
245.866	75.88
246.099	74.88
246.333	87.88
246.566	70.88
246.8	67.88
247.033	78.88
247.266	84.88
247.5	84.88
247.733	85.88
247.966	77.88
248.2	78.88
248.433	71.88
248.666	79.88
248.899	87.88
249.133	72.88
249.366	87.88
249.599	107.88
249.832	82.88
250.066	83.88
250.299	82.88
250.532	73.88
250.765	59.88
250.998	85.88
251.231	75.88
251.465	74.88
251.698	72.88
251.931	95.88
252.164	76.88
252.397	72.88
252.63	72.88
252.863	81.88
253.096	79.88
253.329	68.88
253.562	79.88
253.795	73.88
254.028	73.88
254.261	79.88
254.494	71.88
254.727	77.88
254.96	83.88
255.193	66.88
255.426	85.88
255.659	85.88
255.892	67.88
256.124	65.88
256.357	70.88
256.59	65.88
256.823	70.88
257.056	85.88
257.289	82.88
257.521	82.88
257.754	73.88
257.987	84.88
258.22	78.88
258.452	92.88
258.685	88.88
258.918	91.88
259.151	79.88
259.383	90.88
259.616	79.88
259.849	72.88
260.081	79.88
260.314	80.88
260.547	68.88
260.779	65.88
261.012	82.88
261.244	75.88
261.477	74.88
261.71	78.88
261.942	91.88
262.175	104.88
262.407	83.88
262.64	74.88
262.872	84.88
263.105	94.88
263.337	70.88
263.57	76.88
263.802	83.88
264.035	75.88
264.267	82.88
264.499	73.88
264.732	96.88
264.964	62.88
265.197	79.88
265.429	79.88
265.661	88.88
265.894	79.88
266.126	75.88
266.358	83.88
266.591	78.88
266.823	80.88
267.055	69.88
267.287	70.88
267.52	86.88
267.752	89.88
267.984	63.88
268.216	91.88
268.448	89.88
268.681	69.88
268.913	87.88
269.145	84.88
269.377	85.88
269.609	74.88
269.841	74.88
270.073	81.88
270.306	83.88
270.538	82.88
270.77	87.88
271.002	90.88
271.234	87.88
271.466	90.88
271.698	70.88
271.93	77.88
272.162	79.88
272.394	86.88
272.626	82.88
272.858	98.88
273.09	60.88
273.322	77.88
273.553	103.88
273.785	66.88
274.017	79.88
274.249	78.88
274.481	90.88
274.713	68.88
274.945	98.88
275.176	93.88
275.408	83.88
275.64	77.88
275.872	84.88
276.104	80.88
276.335	89.88
276.567	85.88
276.799	108.88
277.031	102.88
277.262	92.88
277.494	89.88
277.726	98.88
277.957	81.88
278.189	78.88
278.421	85.88
278.652	94.88
278.884	76.88
279.115	70.88
279.347	82.88
279.579	82.88
279.81	95.88
280.042	89.88
280.273	85.88
280.505	88.88
280.736	84.88
280.968	98.88
281.199	82.88
281.431	87.88
281.662	82.88
281.894	72.88
282.125	113.88
282.356	102.88
282.588	127.88
282.819	117.88
283.051	82.88
283.282	78.88
283.513	93.88
283.745	81.88
283.976	96.88
284.207	87.88
284.439	90.88
284.67	91.88
284.901	78.88
285.132	71.88
285.364	89.88
285.595	85.88
285.826	78.88
286.057	86.88
286.288	82.88
286.52	93.88
286.751	85.88
286.982	78.88
287.213	77.88
287.444	93.88
287.675	79.88
287.906	86.88
288.138	91.88
288.369	85.88
288.6	84.88
288.831	97.88
289.062	91.88
289.293	60.88
289.524	85.88
289.755	94.88
289.986	82.88
290.217	85.88
290.448	77.88
290.679	79.88
290.91	90.88
291.141	87.88
291.371	86.88
291.602	95.88
291.833	85.88
292.064	77.88
292.295	75.88
292.526	79.88
292.757	87.88
292.987	83.88
293.218	81.88
293.449	87.88
293.68	86.88
293.91	80.88
294.141	96.88
294.372	77.88
294.603	77.88
294.833	86.88
295.064	93.88
295.295	76.88
295.525	82.88
295.756	100.88
295.987	109.88
296.217	141.88
296.448	110.88
296.679	104.88
296.909	85.88
297.14	82.88
297.37	103.88
297.601	86.88
297.831	87.88
298.062	77.88
298.292	81.88
298.523	95.88
298.753	89.88
298.984	79.88
299.214	85.88
299.445	75.88
299.675	92.88
299.905	97.88
300.136	66.88
300.366	98.88
300.597	78.88
300.827	101.88
301.057	102.88
301.288	98.88
301.518	91.88
301.748	97.88
301.979	98.88
302.209	86.88
302.439	81.88
302.669	103.88
302.9	79.88
303.13	84.88
303.36	106.88
303.59	95.88
303.82	111.88
304.051	82.88
304.281	99.88
304.511	89.88
304.741	101.88
304.971	90.88
305.201	82.88
305.431	92.88
305.661	72.88
305.891	81.88
306.121	84.88
306.352	99.88
306.582	84.88
306.812	80.88
307.042	88.88
307.272	90.88
307.502	99.88
307.731	98.88
307.961	71.88
308.191	80.88
308.421	85.88
308.651	77.88
308.881	79.88
309.111	85.88
309.341	82.88
309.571	102.88
309.8	97.88
310.03	101.88
310.26	85.88
310.49	94.88
310.72	110.88
310.949	95.88
311.179	101.88
311.409	99.88
311.639	87.88
311.868	92.88
312.098	95.88
312.328	97.88
312.557	100.88
312.787	99.88
313.017	110.88
313.246	87.88
313.476	92.88
313.706	87.88
313.935	94.88
314.165	101.88
314.394	106.88
314.624	95.88
314.853	95.88
315.083	89.88
315.312	98.88
315.542	77.88
315.771	69.88
316.001	93.88
316.23	83.88
316.46	82.88
316.689	90.88
316.919	99.88
317.148	90.88
317.377	93.88
317.607	88.88
317.836	81.88
318.065	83.88
318.295	78.88
318.524	93.88
318.753	74.88
318.983	83.88
319.212	106.88
319.441	94.88
319.67	99.88
319.9	100.88
320.129	95.88
320.358	77.88
320.587	104.88
320.816	104.88
321.046	101.88
321.275	93.88
321.504	105.88
321.733	100.88
321.962	89.88
322.191	96.88
322.42	101.88
322.649	105.88
322.878	106.88
323.108	109.88
323.337	111.88
323.566	124.88
323.795	157.88
324.024	204.88
324.253	418.88
324.482	880.88
324.71	1896.88
324.939	2479.88
325.168	893.88
325.397	249.88
325.626	150.88
325.855	130.88
326.084	126.88
326.313	140.88
326.542	163.88
326.77	242.88
326.999	483.88
327.228	1037.88
327.457	1875.88
327.686	1492.88
327.914	400.88
328.143	216.88
328.372	197.88
328.6	131.88
328.829	113.88
329.058	123.88
329.287	131.88
329.515	112.88
329.744	120.88
329.972	132.88
330.201	188.88
330.43	210.88
330.658	172.88
330.887	149.88
331.115	110.88
331.344	102.88
331.572	107.88
331.801	103.88
332.03	100.88
332.258	109.88
332.486	104.88
332.715	83.88
332.943	94.88
333.172	86.88
333.4	84.88
333.629	105.88
333.857	130.88
334.085	141.88
334.314	187.88
334.542	274.88
334.771	249.88
334.999	129.88
335.227	116.88
335.455	85.88
335.684	110.88
335.912	105.88
336.14	94.88
336.369	81.88
336.597	93.88
336.825	87.88
337.053	87.88
337.281	93.88
337.51	79.88
337.738	97.88
337.966	105.88
338.194	84.88
338.422	86.88
338.65	99.88
338.878	83.88
339.106	81.88
339.334	77.88
339.562	82.88
339.79	74.88
340.018	81.88
340.246	82.88
340.474	92.88
340.702	93.88
340.93	88.88
341.158	96.88
341.386	85.88
341.614	82.88
341.842	92.88
342.07	100.88
342.298	84.88
342.526	89.88
342.754	83.88
342.981	102.88
343.209	80.88
343.437	93.88
343.665	82.88
343.893	87.88
344.12	78.88
344.348	83.88
344.576	80.88
344.804	87.88
345.031	78.88
345.259	106.88
345.487	97.88
345.714	91.88
345.942	96.88
346.17	77.88
346.397	87.88
346.625	91.88
346.853	94.88
347.08	81.88
347.308	89.88
347.535	102.88
347.763	90.88
347.99	110.88
348.218	99.88
348.445	97.88
348.673	87.88
348.9	103.88
349.128	83.88
349.355	90.88
349.583	80.88
349.81	104.88
350.037	98.88
350.265	81.88
350.492	93.88
350.72	92.88
350.947	95.88
351.174	111.88
351.402	94.88
351.629	103.88
351.856	104.88
352.083	104.88
352.311	88.88
352.538	100.88
352.765	108.88
352.992	105.88
353.22	117.88
353.447	98.88
353.674	91.88
353.901	99.88
354.128	103.88
354.355	96.88
354.583	94.88
354.81	98.88
355.037	96.88
355.264	90.88
355.491	88.88
355.718	84.88
355.945	70.88
356.172	83.88
356.399	86.88
356.626	83.88
356.853	90.88
357.08	88.88
357.307	90.88
357.534	87.88
357.761	86.88
357.988	83.88
358.215	92.88
358.441	90.88
358.668	91.88
358.895	85.88
359.122	90.88
359.349	92.88
359.576	91.88
359.802	97.88
360.029	110.88
360.256	117.88
360.483	95.88
360.709	103.88
360.936	94.88
361.163	70.88
361.39	99.88
361.616	85.88
361.843	83.88
362.07	84.88
362.296	99.88
362.523	92.88
362.749	95.88
362.976	86.88
363.203	89.88
363.429	93.88
363.656	79.88
363.882	78.88
364.109	93.88
364.335	90.88
364.562	86.88
364.788	88.88
365.015	90.88
365.241	111.88
365.468	95.88
365.694	98.88
365.92	95.88
366.147	87.88
366.373	76.88
366.599	99.88
366.826	106.88
367.052	91.88
367.278	92.88
367.505	77.88
367.731	78.88
367.957	83.88
368.184	92.88
368.41	90.88
368.636	104.88
368.862	119.88
369.089	121.88
369.315	85.88
369.541	89.88
369.767	100.88
369.993	83.88
370.219	80.88
370.445	66.88
370.672	85.88
370.898	79.88
371.124	86.88
371.35	85.88
371.576	86.88
371.802	80.88
372.028	84.88
372.254	85.88
372.48	85.88
372.706	85.88
372.932	75.88
373.158	89.88
373.384	91.88
373.61	90.88
373.835	93.88
374.061	78.88
374.287	79.88
374.513	72.88
374.739	100.88
374.965	85.88
375.191	74.88
375.416	87.88
375.642	83.88
375.868	94.88
376.094	90.88
376.319	103.88
376.545	82.88
376.771	76.88
376.997	88.88
377.222	87.88
377.448	80.88
377.674	72.88
377.899	85.88
378.125	89.88
378.35	93.88
378.576	81.88
378.802	83.88
379.027	88.88
379.253	83.88
379.478	78.88
379.704	93.88
379.929	89.88
380.155	86.88
380.38	79.88
380.606	86.88
380.831	74.88
381.057	77.88
381.282	94.88
381.507	99.88
381.733	80.88
381.958	92.88
382.184	90.88
382.409	86.88
382.634	91.88
382.86	97.88
383.085	88.88
383.31	99.88
383.535	83.88
383.761	86.88
383.986	98.88
384.211	85.88
384.436	101.88
384.662	82.88
384.887	93.88
385.112	92.88
385.337	88.88
385.562	92.88
385.787	102.88
386.013	109.88
386.238	95.88
386.463	93.88
386.688	95.88
386.913	82.88
387.138	95.88
387.363	87.88
387.588	103.88
387.813	79.88
388.038	100.88
388.263	98.88
388.488	104.88
388.713	81.88
388.938	84.88
389.163	90.88
389.387	99.88
389.612	85.88
389.837	75.88
390.062	73.88
390.287	85.88
390.512	93.88
390.736	87.88
390.961	73.88
391.186	78.88
391.411	88.88
391.636	88.88
391.86	78.88
392.085	94.88
392.31	75.88
392.534	82.88
392.759	85.88
392.984	96.88
393.208	85.88
393.433	76.88
393.658	73.88
393.882	88.88
394.107	82.88
394.331	71.88
394.556	87.88
394.78	99.88
395.005	102.88
395.229	77.88
395.454	86.88
395.678	84.88
395.903	82.88
396.127	92.88
396.352	90.88
396.576	86.88
396.801	82.88
397.025	91.88
397.249	83.88
397.474	93.88
397.698	81.88
397.922	79.88
398.147	80.88
398.371	87.88
398.595	85.88
398.82	81.88
399.044	90.88
399.268	77.88
399.492	70.88
399.717	87.88
399.941	85.88
400.165	98.88
400.389	79.88
400.613	83.88
400.837	106.88
401.062	81.88
401.286	89.88
401.51	95.88
401.734	98.88
401.958	81.88
402.182	117.88
402.406	144.88
402.63	109.88
402.854	74.88
403.078	77.88
403.302	76.88
403.526	79.88
403.75	99.88
403.974	82.88
404.198	93.88
404.422	84.88
404.645	92.88
404.869	93.88
405.093	97.88
405.317	100.88
405.541	101.88
405.765	85.88
405.988	127.88
406.212	175.88
406.436	238.88
406.66	156.88
406.883	105.88
407.107	91.88
407.331	84.88
407.555	89.88
407.778	98.88
408.002	85.88
408.226	104.88
408.449	87.88
408.673	99.88
408.896	90.88
409.12	101.88
409.344	81.88
409.567	92.88
409.791	92.88
410.014	100.88
410.238	81.88
410.461	74.88
410.685	88.88
410.908	78.88
411.132	83.88
411.355	85.88
411.578	94.88
411.802	88.88
412.025	89.88
412.249	93.88
412.472	99.88
412.695	89.88
412.919	81.88
413.142	82.88
413.365	95.88
413.589	73.88
413.812	71.88
414.035	81.88
414.258	87.88
414.482	88.88
414.705	83.88
414.928	86.88
415.151	73.88
415.374	84.88
415.597	88.88
415.821	94.88
416.044	77.88
416.267	94.88
416.49	80.88
416.713	78.88
416.936	85.88
417.159	77.88
417.382	76.88
417.605	91.88
417.828	90.88
418.051	97.88
418.274	90.88
418.497	94.88
418.72	76.88
418.943	91.88
419.166	77.88
419.389	81.88
419.611	97.88
419.834	85.88
420.057	73.88
420.28	83.88
420.503	84.88
420.726	84.88
420.948	80.88
421.171	88.88
421.394	100.88
421.617	84.88
421.839	98.88
422.062	92.88
422.285	95.88
422.507	95.88
422.73	95.88
422.953	77.88
423.175	91.88
423.398	90.88
423.621	81.88
423.843	81.88
424.066	95.88
424.288	80.88
424.511	73.88
424.733	94.88
424.956	103.88
425.178	102.88
425.401	95.88
425.623	86.88
425.846	92.88
426.068	102.88
426.291	89.88
426.513	79.88
426.735	81.88
426.958	99.88
427.18	113.88
427.402	142.88
427.625	164.88
427.847	147.88
428.069	133.88
428.292	90.88
428.514	98.88
428.736	73.88
428.958	72.88
429.181	82.88
429.403	83.88
429.625	88.88
429.847	89.88
430.069	82.88
430.292	90.88
430.514	84.88
430.736	90.88
430.958	80.88
431.18	80.88
431.402	98.88
431.624	102.88
431.846	85.88
432.068	76.88
432.29	82.88
432.512	85.88
432.734	70.88
432.956	86.88
433.178	83.88
433.4	106.88
433.622	75.88
433.844	78.88
434.066	92.88
434.287	81.88
434.509	84.88
434.731	92.88
434.953	95.88
435.175	89.88
435.397	88.88
435.618	98.88
435.84	95.88
436.062	114.88
436.284	119.88
436.505	92.88
436.727	102.88
436.949	106.88
437.17	107.88
437.392	82.88
437.614	84.88
437.835	90.88
438.057	120.88
438.278	118.88
438.5	95.88
438.721	128.88
438.943	95.88
439.165	78.88
439.386	87.88
439.608	96.88
439.829	106.88
440.05	116.88
440.272	136.88
440.493	98.88
440.715	92.88
440.936	75.88
441.158	83.88
441.379	76.88
441.6	77.88
441.822	84.88
442.043	86.88
442.264	93.88
442.486	106.88
442.707	80.88
442.928	88.88
443.149	143.88
443.371	124.88
443.592	115.88
443.813	107.88
444.034	109.88
444.255	88.88
444.476	85.88
444.698	83.88
444.919	80.88
445.14	126.88
445.361	121.88
445.582	104.88
445.803	136.88
446.024	148.88
446.245	145.88
446.466	118.88
446.687	85.88
446.908	93.88
447.129	108.88
447.35	82.88
447.571	89.88
447.792	91.88
448.013	88.88
448.234	109.88
448.455	93.88
448.675	108.88
448.896	115.88
449.117	88.88
449.338	90.88
449.559	138.88
449.779	130.88
450	78.88
450.221	85.88
450.442	103.88
450.662	85.88
450.883	111.88
451.104	113.88
451.324	90.88
451.545	77.88
451.766	97.88
451.986	85.88
452.207	91.88
452.428	102.88
452.648	96.88
452.869	108.88
453.089	111.88
453.31	111.88
453.53	97.88
453.751	106.88
453.971	84.88
454.192	104.88
454.412	94.88
454.633	84.88
454.853	77.88
455.073	69.88
455.294	87.88
455.514	92.88
455.734	94.88
455.955	72.88
456.175	78.88
456.395	88.88
456.616	86.88
456.836	98.88
457.056	86.88
457.276	77.88
457.497	71.88
457.717	72.88
457.937	80.88
458.157	82.88
458.377	78.88
458.598	105.88
458.818	138.88
459.038	164.88
459.258	121.88
459.478	85.88
459.698	86.88
459.918	86.88
460.138	77.88
460.358	76.88
460.578	86.88
460.798	104.88
461.018	91.88
461.238	90.88
461.458	79.88
461.678	73.88
461.898	79.88
462.118	84.88
462.338	73.88
462.558	74.88
462.777	85.88
462.997	86.88
463.217	71.88
463.437	79.88
463.657	89.88
463.876	87.88
464.096	82.88
464.316	92.88
464.536	98.88
464.755	92.88
464.975	110.88
465.195	173.88
465.414	142.88
465.634	99.88
465.854	84.88
466.073	70.88
466.293	102.88
466.512	93.88
466.732	87.88
466.951	94.88
467.171	83.88
467.391	99.88
467.61	105.88
467.829	105.88
468.049	119.88
468.268	143.88
468.488	79.88
468.707	98.88
468.927	70.88
469.146	76.88
469.365	80.88
469.585	84.88
469.804	100.88
470.023	95.88
470.243	79.88
470.462	87.88
470.681	100.88
470.901	84.88
471.12	85.88
471.339	92.88
471.558	85.88
471.777	89.88
471.997	129.88
472.216	193.88
472.435	330.88
472.654	132.88
472.873	85.88
473.092	78.88
473.311	96.88
473.53	75.88
473.749	70.88
473.968	90.88
474.187	109.88
474.406	83.88
474.625	79.88
474.844	92.88
475.063	84.88
475.282	94.88
475.501	88.88
475.72	79.88
475.939	89.88
476.158	74.88
476.377	77.88
476.596	81.88
476.814	91.88
477.033	77.88
477.252	95.88
477.471	88.88
477.69	88.88
477.908	98.88
478.127	87.88
478.346	92.88
478.564	91.88
478.783	101.88
479.002	81.88
479.22	99.88
479.439	86.88
479.658	96.88
479.876	92.88
480.095	95.88
480.313	100.88
480.532	81.88
480.751	108.88
480.969	192.88
481.188	539.88
481.406	351.88
481.624	132.88
481.843	95.88
482.061	94.88
482.28	81.88
482.498	88.88
482.717	100.88
482.935	83.88
483.153	88.88
483.372	89.88
483.59	86.88
483.808	91.88
484.027	78.88
484.245	99.88
484.463	96.88
484.681	100.88
484.9	98.88
485.118	86.88
485.336	95.88
485.554	86.88
485.772	103.88
485.99	93.88
486.209	93.88
486.427	88.88
486.645	118.88
486.863	95.88
487.081	99.88
487.299	85.88
487.517	96.88
487.735	85.88
487.953	96.88
488.171	96.88
488.389	86.88
488.607	96.88
488.825	101.88
489.043	102.88
489.261	92.88
489.479	98.88
489.696	95.88
489.914	76.88
490.132	96.88
490.35	71.88
490.568	61.88
490.786	87.88
491.003	85.88
491.221	93.88
491.439	85.88
491.657	95.88
491.874	95.88
492.092	83.88
492.31	78.88
492.527	81.88
492.745	85.88
492.963	83.88
493.18	82.88
493.398	99.88
493.615	80.88
493.833	74.88
494.05	81.88
494.268	78.88
494.485	100.88
494.703	91.88
494.92	95.88
495.138	81.88
495.355	74.88
495.573	78.88
495.79	73.88
496.008	86.88
496.225	92.88
496.442	83.88
496.66	98.88
496.877	94.88
497.094	85.88
497.312	93.88
497.529	75.88
497.746	86.88
497.963	83.88
498.181	93.88
498.398	100.88
498.615	111.88
498.832	107.88
499.049	88.88
499.267	88.88
499.484	79.88
499.701	82.88
499.918	82.88
500.135	71.88
500.352	85.88
500.569	84.88
500.786	91.88
501.003	78.88
501.22	84.88
501.437	84.88
501.654	98.88
501.871	94.88
502.088	89.88
502.305	82.88
502.522	90.88
502.739	76.88
502.956	92.88
503.172	81.88
503.389	95.88
503.606	106.88
503.823	92.88
504.04	92.88
504.256	101.88
504.473	97.88
504.69	89.88
504.907	79.88
505.123	81.88
505.34	99.88
505.557	77.88
505.773	102.88
505.99	78.88
506.207	93.88
506.423	85.88
506.64	69.88
506.856	80.88
507.073	100.88
507.289	93.88
507.506	97.88
507.722	100.88
507.939	101.88
508.155	93.88
508.372	102.88
508.588	90.88
508.805	103.88
509.021	102.88
509.238	96.88
509.454	112.88
509.67	104.88
509.887	114.88
510.103	127.88
510.319	215.88
510.536	805.88
510.752	2517.88
510.968	723.88
511.184	162.88
511.401	116.88
511.617	98.88
511.833	89.88
512.049	85.88
512.265	85.88
512.481	101.88
512.698	87.88
512.914	89.88
513.13	100.88
513.346	86.88
513.562	78.88
513.778	108.88
513.994	97.88
514.21	90.88
514.426	112.88
514.642	143.88
514.858	125.88
515.074	168.88
515.29	475.88
515.506	1618.88
515.721	617.88
515.937	144.88
516.153	124.88
516.369	104.88
