Data from Circ_2011_H10_HRD10591_00071.txt Node
Date: Wed Jan 03 10:08:13 EST 2024
User: Yrep
Spectrometer: HR+D1059
Trigger mode: 1
Integration Time (sec): 1.000000E-1
Scans to average: 1
Electric dark correction enabled: true
Nonlinearity correction enabled: false
Boxcar width: 0
XAxis mode: Wavelengths
Number of Pixels in Spectrum: 2048
>>>>>Begin Spectral Data<<<<<
223.165	-32.94
223.4	-32.94
223.635	-32.94
223.869	-10.94
224.104	-18.94
224.338	-12.94
224.573	-9.94
224.808	-10.94
225.042	-12.94
225.277	-9.94
225.511	-0.94
225.746	-0.94
225.98	-2.94
226.215	19.06
226.449	14.06
226.683	21.06
226.918	42.06
227.152	28.06
227.387	42.06
227.621	30.06
227.856	38.06
228.09	60.06
228.324	41.06
228.559	51.06
228.793	53.06
229.027	62.06
229.262	69.06
229.496	81.06
229.73	90.06
229.964	76.06
230.199	76.06
230.433	75.06
230.667	78.06
230.901	77.06
231.136	72.06
231.37	77.06
231.604	96.06
231.838	93.06
232.072	84.06
232.306	90.06
232.541	87.06
232.775	88.06
233.009	68.06
233.243	80.06
233.477	76.06
233.711	85.06
233.945	85.06
234.179	73.06
234.413	93.06
234.647	74.06
234.881	78.06
235.115	73.06
235.349	82.06
235.583	79.06
235.817	77.06
236.051	74.06
236.285	69.06
236.519	87.06
236.753	77.06
236.987	79.06
237.221	78.06
237.455	83.06
237.689	81.06
237.922	80.06
238.156	72.06
238.39	70.06
238.624	80.06
238.858	72.06
239.091	76.06
239.325	83.06
239.559	92.06
239.793	83.06
240.027	79.06
240.26	83.06
240.494	80.06
240.728	76.06
240.961	78.06
241.195	84.06
241.429	82.06
241.662	62.06
241.896	76.06
242.13	78.06
242.363	81.06
242.597	75.06
242.83	76.06
243.064	87.06
243.298	78.06
243.531	94.06
243.765	75.06
243.998	71.06
244.232	69.06
244.465	84.06
244.699	81.06
244.932	81.06
245.166	59.06
245.399	85.06
245.633	68.06
245.866	62.06
246.099	63.06
246.333	80.06
246.566	80.06
246.8	88.06
247.033	80.06
247.266	71.06
247.5	81.06
247.733	75.06
247.966	91.06
248.2	76.06
248.433	92.06
248.666	82.06
248.899	84.06
249.133	83.06
249.366	95.06
249.599	92.06
249.832	91.06
250.066	62.06
250.299	69.06
250.532	81.06
250.765	80.06
250.998	71.06
251.231	85.06
251.465	79.06
251.698	78.06
251.931	90.06
252.164	80.06
252.397	82.06
252.63	90.06
252.863	72.06
253.096	57.06
253.329	71.06
253.562	69.06
253.795	78.06
254.028	84.06
254.261	81.06
254.494	87.06
254.727	83.06
254.96	76.06
255.193	75.06
255.426	70.06
255.659	80.06
255.892	95.06
256.124	74.06
256.357	88.06
256.59	88.06
256.823	94.06
257.056	83.06
257.289	79.06
257.521	89.06
257.754	73.06
257.987	77.06
258.22	89.06
258.452	78.06
258.685	96.06
258.918	71.06
259.151	84.06
259.383	76.06
259.616	73.06
259.849	91.06
260.081	79.06
260.314	80.06
260.547	87.06
260.779	80.06
261.012	76.06
261.244	81.06
261.477	86.06
261.71	115.06
261.942	109.06
262.175	120.06
262.407	85.06
262.64	78.06
262.872	80.06
263.105	80.06
263.337	65.06
263.57	91.06
263.802	80.06
264.035	91.06
264.267	77.06
264.499	85.06
264.732	89.06
264.964	86.06
265.197	75.06
265.429	84.06
265.661	79.06
265.894	81.06
266.126	87.06
266.358	85.06
266.591	80.06
266.823	84.06
267.055	75.06
267.287	68.06
267.52	69.06
267.752	81.06
267.984	93.06
268.216	93.06
268.448	83.06
268.681	84.06
268.913	81.06
269.145	97.06
269.377	86.06
269.609	76.06
269.841	83.06
270.073	85.06
270.306	84.06
270.538	86.06
270.77	87.06
271.002	80.06
271.234	79.06
271.466	74.06
271.698	91.06
271.93	83.06
272.162	92.06
272.394	85.06
272.626	91.06
272.858	89.06
273.09	93.06
273.322	77.06
273.553	68.06
273.785	89.06
274.017	78.06
274.249	85.06
274.481	98.06
274.713	81.06
274.945	85.06
275.176	87.06
275.408	85.06
275.64	83.06
275.872	96.06
276.104	95.06
276.335	110.06
276.567	99.06
276.799	95.06
277.031	115.06
277.262	93.06
277.494	91.06
277.726	74.06
277.957	66.06
278.189	83.06
278.421	100.06
278.652	76.06
278.884	77.06
279.115	91.06
279.347	91.06
279.579	92.06
279.81	88.06
280.042	105.06
280.273	93.06
280.505	87.06
280.736	81.06
280.968	71.06
281.199	96.06
281.431	83.06
281.662	84.06
281.894	91.06
282.125	88.06
282.356	110.06
282.588	138.06
282.819	109.06
283.051	87.06
283.282	90.06
283.513	85.06
283.745	83.06
283.976	79.06
284.207	84.06
284.439	88.06
284.67	99.06
284.901	91.06
285.132	90.06
285.364	87.06
285.595	89.06
285.826	96.06
286.057	93.06
286.288	88.06
286.52	89.06
286.751	76.06
286.982	85.06
287.213	86.06
287.444	74.06
287.675	91.06
287.906	89.06
288.138	89.06
288.369	96.06
288.6	99.06
288.831	83.06
289.062	94.06
289.293	98.06
289.524	67.06
289.755	88.06
289.986	76.06
290.217	89.06
290.448	95.06
290.679	86.06
290.91	77.06
291.141	81.06
291.371	102.06
291.602	88.06
291.833	89.06
292.064	79.06
292.295	88.06
292.526	85.06
292.757	97.06
292.987	82.06
293.218	87.06
293.449	83.06
293.68	95.06
293.91	86.06
294.141	85.06
294.372	76.06
294.603	77.06
294.833	84.06
295.064	100.06
295.295	94.06
295.525	92.06
295.756	95.06
295.987	120.06
296.217	133.06
296.448	124.06
296.679	95.06
296.909	90.06
297.14	87.06
297.37	102.06
297.601	89.06
297.831	97.06
298.062	98.06
298.292	85.06
298.523	93.06
298.753	83.06
298.984	90.06
299.214	86.06
299.445	91.06
299.675	104.06
299.905	104.06
300.136	108.06
300.366	97.06
300.597	86.06
300.827	76.06
301.057	100.06
301.288	92.06
301.518	104.06
301.748	84.06
301.979	90.06
302.209	94.06
302.439	83.06
302.669	95.06
302.9	90.06
303.13	86.06
303.36	93.06
303.59	107.06
303.82	101.06
304.051	99.06
304.281	96.06
304.511	81.06
304.741	85.06
304.971	80.06
305.201	92.06
305.431	81.06
305.661	85.06
305.891	76.06
306.121	108.06
306.352	96.06
306.582	97.06
306.812	92.06
307.042	94.06
307.272	105.06
307.502	104.06
307.731	91.06
307.961	103.06
308.191	86.06
308.421	99.06
308.651	94.06
308.881	89.06
309.111	78.06
309.341	80.06
309.571	95.06
309.8	102.06
310.03	92.06
310.26	95.06
310.49	111.06
310.72	86.06
310.949	102.06
311.179	89.06
311.409	87.06
311.639	102.06
311.868	95.06
312.098	86.06
312.328	102.06
312.557	110.06
312.787	102.06
313.017	97.06
313.246	89.06
313.476	99.06
313.706	90.06
313.935	104.06
314.165	95.06
314.394	100.06
314.624	95.06
314.853	95.06
315.083	91.06
315.312	85.06
315.542	94.06
315.771	107.06
316.001	97.06
316.23	89.06
316.46	99.06
316.689	85.06
316.919	72.06
317.148	72.06
317.377	95.06
317.607	94.06
317.836	93.06
318.065	96.06
318.295	79.06
318.524	88.06
318.753	81.06
318.983	86.06
319.212	98.06
319.441	108.06
319.67	103.06
319.9	99.06
320.129	87.06
320.358	94.06
320.587	90.06
320.816	99.06
321.046	100.06
321.275	96.06
321.504	99.06
321.733	99.06
321.962	99.06
322.191	92.06
322.42	113.06
322.649	99.06
322.878	114.06
323.108	121.06
323.337	107.06
323.566	129.06
323.795	156.06
324.024	226.06
324.253	444.06
324.482	969.06
324.71	2001.06
324.939	2588.06
325.168	925.06
325.397	275.06
325.626	140.06
325.855	143.06
326.084	128.06
326.313	123.06
326.542	160.06
326.77	240.06
326.999	527.06
327.228	1107.06
327.457	2050.06
327.686	1597.06
327.914	431.06
328.143	227.06
328.372	203.06
328.6	139.06
328.829	126.06
329.058	146.06
329.287	142.06
329.515	123.06
329.744	121.06
329.972	147.06
330.201	210.06
330.43	246.06
330.658	198.06
330.887	164.06
331.115	128.06
331.344	106.06
331.572	103.06
331.801	102.06
332.03	105.06
332.258	75.06
332.486	87.06
332.715	100.06
332.943	106.06
333.172	103.06
333.4	97.06
333.629	105.06
333.857	115.06
334.085	154.06
334.314	204.06
334.542	303.06
334.771	289.06
334.999	142.06
335.227	112.06
335.455	91.06
335.684	89.06
335.912	102.06
336.14	95.06
336.369	76.06
336.597	89.06
336.825	99.06
337.053	98.06
337.281	88.06
337.51	89.06
337.738	108.06
337.966	87.06
338.194	100.06
338.422	102.06
338.65	109.06
338.878	109.06
339.106	96.06
339.334	94.06
339.562	88.06
339.79	99.06
340.018	90.06
340.246	88.06
340.474	95.06
340.702	89.06
340.93	95.06
341.158	89.06
341.386	84.06
341.614	104.06
341.842	98.06
342.07	92.06
342.298	80.06
342.526	92.06
342.754	87.06
342.981	85.06
343.209	85.06
343.437	100.06
343.665	95.06
343.893	85.06
344.12	88.06
344.348	89.06
344.576	93.06
344.804	80.06
345.031	94.06
345.259	91.06
345.487	90.06
345.714	88.06
345.942	87.06
346.17	104.06
346.397	91.06
346.625	101.06
346.853	77.06
347.08	92.06
347.308	92.06
347.535	99.06
347.763	99.06
347.99	97.06
348.218	103.06
348.445	94.06
348.673	104.06
348.9	103.06
349.128	100.06
349.355	92.06
349.583	103.06
349.81	85.06
350.037	74.06
350.265	86.06
350.492	87.06
350.72	89.06
350.947	97.06
351.174	104.06
351.402	112.06
351.629	100.06
351.856	94.06
352.083	104.06
352.311	107.06
352.538	93.06
352.765	100.06
352.992	110.06
353.22	126.06
353.447	98.06
353.674	96.06
353.901	101.06
354.128	100.06
354.355	105.06
354.583	86.06
354.81	105.06
355.037	101.06
355.264	98.06
355.491	99.06
355.718	89.06
355.945	89.06
356.172	92.06
356.399	95.06
356.626	99.06
356.853	89.06
357.08	100.06
357.307	94.06
357.534	88.06
357.761	80.06
357.988	101.06
358.215	86.06
358.441	105.06
358.668	93.06
358.895	82.06
359.122	87.06
359.349	95.06
359.576	84.06
359.802	97.06
360.029	105.06
360.256	118.06
360.483	108.06
360.709	107.06
360.936	117.06
361.163	92.06
361.39	101.06
361.616	91.06
361.843	86.06
362.07	83.06
362.296	84.06
362.523	89.06
362.749	102.06
362.976	78.06
363.203	95.06
363.429	94.06
363.656	93.06
363.882	79.06
364.109	91.06
364.335	94.06
364.562	93.06
364.788	86.06
365.015	99.06
365.241	99.06
365.468	110.06
365.694	99.06
365.92	107.06
366.147	96.06
366.373	96.06
366.599	93.06
366.826	81.06
367.052	93.06
367.278	95.06
367.505	89.06
367.731	86.06
367.957	91.06
368.184	84.06
368.41	108.06
368.636	104.06
368.862	123.06
369.089	123.06
369.315	96.06
369.541	87.06
369.767	84.06
369.993	85.06
370.219	98.06
370.445	79.06
370.672	74.06
370.898	87.06
371.124	90.06
371.35	90.06
371.576	100.06
371.802	89.06
372.028	83.06
372.254	79.06
372.48	91.06
372.706	101.06
372.932	79.06
373.158	95.06
373.384	88.06
373.61	88.06
373.835	76.06
374.061	86.06
374.287	87.06
374.513	91.06
374.739	99.06
374.965	86.06
375.191	74.06
375.416	101.06
375.642	95.06
375.868	92.06
376.094	71.06
376.319	89.06
376.545	80.06
376.771	88.06
376.997	73.06
377.222	89.06
377.448	81.06
377.674	87.06
377.899	79.06
378.125	101.06
378.35	83.06
378.576	95.06
378.802	88.06
379.027	88.06
379.253	78.06
379.478	92.06
379.704	70.06
379.929	89.06
380.155	87.06
380.38	95.06
380.606	78.06
380.831	92.06
381.057	102.06
381.282	110.06
381.507	92.06
381.733	93.06
381.958	99.06
382.184	108.06
382.409	107.06
382.634	101.06
382.86	94.06
383.085	100.06
383.31	110.06
383.535	79.06
383.761	91.06
383.986	86.06
384.211	91.06
384.436	94.06
384.662	89.06
384.887	104.06
385.112	96.06
385.337	84.06
385.562	100.06
385.787	96.06
386.013	92.06
386.238	100.06
386.463	111.06
386.688	106.06
386.913	102.06
387.138	104.06
387.363	109.06
387.588	95.06
387.813	95.06
388.038	92.06
388.263	102.06
388.488	110.06
388.713	92.06
388.938	99.06
389.163	92.06
389.387	84.06
389.612	87.06
389.837	95.06
390.062	84.06
390.287	94.06
390.512	104.06
390.736	89.06
390.961	68.06
391.186	91.06
391.411	96.06
391.636	107.06
391.86	86.06
392.085	79.06
392.31	87.06
392.534	87.06
392.759	87.06
392.984	77.06
393.208	85.06
393.433	78.06
393.658	90.06
393.882	84.06
394.107	94.06
394.331	82.06
394.556	85.06
394.78	99.06
395.005	101.06
395.229	86.06
395.454	84.06
395.678	94.06
395.903	85.06
396.127	100.06
396.352	83.06
396.576	87.06
396.801	80.06
397.025	89.06
397.249	86.06
397.474	91.06
397.698	89.06
397.922	81.06
398.147	91.06
398.371	85.06
398.595	75.06
398.82	100.06
399.044	84.06
399.268	81.06
399.492	99.06
399.717	101.06
399.941	91.06
400.165	91.06
400.389	92.06
400.613	90.06
400.837	82.06
401.062	96.06
401.286	93.06
401.51	96.06
401.734	82.06
401.958	92.06
402.182	129.06
402.406	151.06
402.63	120.06
402.854	87.06
403.078	91.06
403.302	88.06
403.526	97.06
403.75	82.06
403.974	87.06
404.198	89.06
404.422	97.06
404.645	84.06
404.869	89.06
405.093	102.06
405.317	104.06
405.541	110.06
405.765	106.06
405.988	129.06
406.212	165.06
406.436	237.06
406.66	147.06
406.883	91.06
407.107	90.06
407.331	100.06
407.555	100.06
407.778	108.06
408.002	85.06
408.226	70.06
408.449	102.06
408.673	80.06
408.896	82.06
409.12	102.06
409.344	86.06
409.567	107.06
409.791	91.06
410.014	96.06
410.238	92.06
410.461	96.06
410.685	99.06
410.908	100.06
411.132	107.06
411.355	98.06
411.578	93.06
411.802	88.06
412.025	80.06
412.249	81.06
412.472	90.06
412.695	115.06
412.919	93.06
413.142	85.06
413.365	103.06
413.589	86.06
413.812	87.06
414.035	92.06
414.258	80.06
414.482	92.06
414.705	82.06
414.928	96.06
415.151	91.06
415.374	78.06
415.597	88.06
415.821	96.06
416.044	105.06
416.267	100.06
416.49	83.06
416.713	90.06
416.936	75.06
417.159	77.06
417.382	75.06
417.605	98.06
417.828	91.06
418.051	85.06
418.274	94.06
418.497	89.06
418.72	90.06
418.943	95.06
419.166	95.06
419.389	95.06
419.611	94.06
419.834	78.06
420.057	81.06
420.28	82.06
420.503	91.06
420.726	82.06
420.948	87.06
421.171	92.06
421.394	92.06
421.617	96.06
421.839	79.06
422.062	87.06
422.285	99.06
422.507	100.06
422.73	98.06
422.953	91.06
423.175	93.06
423.398	98.06
423.621	102.06
423.843	82.06
424.066	91.06
424.288	95.06
424.511	96.06
424.733	100.06
424.956	120.06
425.178	104.06
425.401	100.06
425.623	99.06
425.846	89.06
426.068	88.06
426.291	96.06
426.513	100.06
426.735	102.06
426.958	104.06
427.18	102.06
427.402	144.06
427.625	164.06
427.847	144.06
428.069	146.06
428.292	94.06
428.514	93.06
428.736	92.06
428.958	91.06
429.181	98.06
429.403	76.06
429.625	94.06
429.847	102.06
430.069	104.06
430.292	92.06
430.514	80.06
430.736	81.06
430.958	82.06
431.18	92.06
431.402	87.06
431.624	87.06
431.846	74.06
432.068	97.06
432.29	107.06
432.512	90.06
432.734	80.06
432.956	88.06
433.178	106.06
433.4	95.06
433.622	95.06
433.844	86.06
434.066	87.06
434.287	96.06
434.509	95.06
434.731	90.06
434.953	89.06
435.175	101.06
435.397	99.06
435.618	84.06
435.84	103.06
436.062	107.06
436.284	122.06
436.505	109.06
436.727	94.06
436.949	91.06
437.17	85.06
437.392	86.06
437.614	89.06
437.835	121.06
438.057	123.06
438.278	127.06
438.5	105.06
438.721	135.06
438.943	102.06
439.165	100.06
439.386	105.06
439.608	105.06
439.829	105.06
440.05	119.06
440.272	159.06
440.493	93.06
440.715	81.06
440.936	88.06
441.158	75.06
441.379	86.06
441.6	113.06
441.822	102.06
442.043	90.06
442.264	108.06
442.486	84.06
442.707	97.06
442.928	109.06
443.149	145.06
443.371	136.06
443.592	120.06
443.813	112.06
444.034	111.06
444.255	87.06
444.476	78.06
444.698	89.06
444.919	91.06
445.14	134.06
445.361	130.06
445.582	120.06
445.803	152.06
446.024	140.06
446.245	136.06
446.466	93.06
446.687	90.06
446.908	95.06
447.129	86.06
447.35	81.06
447.571	85.06
447.792	97.06
448.013	101.06
448.234	110.06
448.455	100.06
448.675	103.06
448.896	122.06
449.117	106.06
449.338	99.06
449.559	131.06
449.779	126.06
450	78.06
450.221	95.06
450.442	97.06
450.662	88.06
450.883	108.06
451.104	122.06
451.324	94.06
451.545	100.06
451.766	93.06
451.986	79.06
452.207	85.06
452.428	94.06
452.648	100.06
452.869	115.06
453.089	95.06
453.31	123.06
453.53	97.06
453.751	90.06
453.971	108.06
454.192	116.06
454.412	70.06
454.633	97.06
454.853	89.06
455.073	85.06
455.294	84.06
455.514	97.06
455.734	104.06
455.955	74.06
456.175	91.06
456.395	79.06
456.616	90.06
456.836	87.06
457.056	79.06
457.276	78.06
457.497	82.06
457.717	88.06
457.937	80.06
458.157	82.06
458.377	108.06
458.598	119.06
458.818	146.06
459.038	174.06
459.258	126.06
459.478	87.06
459.698	91.06
459.918	93.06
460.138	83.06
460.358	84.06
460.578	107.06
460.798	96.06
461.018	92.06
461.238	86.06
461.458	89.06
461.678	77.06
461.898	86.06
462.118	84.06
462.338	87.06
462.558	81.06
462.777	82.06
462.997	77.06
463.217	90.06
463.437	91.06
463.657	91.06
463.876	96.06
464.096	85.06
464.316	90.06
464.536	92.06
464.755	85.06
464.975	118.06
465.195	176.06
465.414	166.06
465.634	92.06
465.854	93.06
466.073	97.06
466.293	77.06
466.512	90.06
466.732	80.06
466.951	83.06
467.171	85.06
467.391	95.06
467.61	100.06
467.829	111.06
468.049	163.06
468.268	171.06
468.488	107.06
468.707	96.06
468.927	89.06
469.146	93.06
469.365	91.06
469.585	87.06
469.804	111.06
470.023	93.06
470.243	93.06
470.462	115.06
470.681	107.06
470.901	89.06
471.12	82.06
471.339	76.06
471.558	84.06
471.777	101.06
471.997	113.06
472.216	215.06
472.435	393.06
472.654	156.06
472.873	95.06
473.092	99.06
473.311	102.06
473.53	85.06
473.749	95.06
473.968	89.06
474.187	104.06
474.406	111.06
474.625	93.06
474.844	69.06
475.063	89.06
475.282	87.06
475.501	92.06
475.72	77.06
475.939	80.06
476.158	86.06
476.377	99.06
476.596	90.06
476.814	85.06
477.033	93.06
477.252	85.06
477.471	90.06
477.69	81.06
477.908	86.06
478.127	88.06
478.346	71.06
478.564	79.06
478.783	98.06
479.002	99.06
479.22	85.06
479.439	106.06
479.658	117.06
479.876	109.06
480.095	89.06
480.313	91.06
480.532	105.06
480.751	123.06
480.969	235.06
481.188	678.06
481.406	412.06
481.624	135.06
481.843	99.06
482.061	87.06
482.28	90.06
482.498	89.06
482.717	95.06
482.935	93.06
483.153	92.06
483.372	89.06
483.59	87.06
483.808	87.06
484.027	93.06
484.245	75.06
484.463	91.06
484.681	97.06
484.9	77.06
485.118	92.06
485.336	98.06
485.554	89.06
485.772	92.06
485.99	100.06
486.209	101.06
486.427	107.06
486.645	98.06
486.863	115.06
487.081	96.06
487.299	96.06
487.517	88.06
487.735	93.06
487.953	89.06
488.171	98.06
488.389	95.06
488.607	110.06
488.825	116.06
489.043	93.06
489.261	84.06
489.479	92.06
489.696	98.06
489.914	80.06
490.132	81.06
490.35	94.06
490.568	88.06
490.786	93.06
491.003	91.06
491.221	92.06
491.439	95.06
491.657	87.06
491.874	97.06
492.092	86.06
492.31	97.06
492.527	96.06
492.745	85.06
492.963	105.06
493.18	83.06
493.398	82.06
493.615	101.06
493.833	102.06
494.05	92.06
494.268	91.06
494.485	80.06
494.703	103.06
494.92	83.06
495.138	101.06
495.355	88.06
495.573	74.06
495.79	101.06
496.008	93.06
496.225	86.06
496.442	92.06
496.66	96.06
496.877	78.06
497.094	96.06
497.312	102.06
497.529	90.06
497.746	104.06
497.963	93.06
498.181	75.06
498.398	89.06
498.615	99.06
498.832	98.06
499.049	100.06
499.267	93.06
499.484	96.06
499.701	83.06
499.918	84.06
500.135	91.06
500.352	99.06
500.569	84.06
500.786	93.06
501.003	100.06
501.22	79.06
501.437	106.06
501.654	109.06
501.871	101.06
502.088	99.06
502.305	81.06
502.522	89.06
502.739	86.06
502.956	77.06
503.172	75.06
503.389	108.06
503.606	100.06
503.823	92.06
504.04	92.06
504.256	96.06
504.473	88.06
504.69	107.06
504.907	96.06
505.123	91.06
505.34	97.06
505.557	90.06
505.773	96.06
505.99	96.06
506.207	89.06
506.423	84.06
506.64	95.06
506.856	94.06
507.073	81.06
507.289	93.06
507.506	103.06
507.722	115.06
507.939	113.06
508.155	106.06
508.372	91.06
508.588	103.06
508.805	102.06
509.021	79.06
509.238	101.06
509.454	108.06
509.67	102.06
509.887	133.06
510.103	128.06
510.319	210.06
510.536	796.06
510.752	2504.06
510.968	695.06
511.184	155.06
511.401	109.06
511.617	93.06
511.833	96.06
512.049	90.06
512.265	76.06
512.481	96.06
512.698	94.06
512.914	104.06
513.13	111.06
513.346	98.06
513.562	91.06
513.778	93.06
513.994	107.06
514.21	108.06
514.426	115.06
514.642	129.06
514.858	119.06
515.074	165.06
515.29	485.06
