Data from Circ_2011_H10_HRD10591_00059.txt Node
Date: Wed Jan 03 10:08:10 EST 2024
User: Yrep
Spectrometer: HR+D1059
Trigger mode: 1
Integration Time (sec): 1.000000E-1
Scans to average: 1
Electric dark correction enabled: true
Nonlinearity correction enabled: false
Boxcar width: 0
XAxis mode: Wavelengths
Number of Pixels in Spectrum: 2048
>>>>>Begin Spectral Data<<<<<
223.165	-8.69
223.4	-8.69
223.635	-8.69
223.869	-20.69
224.104	-28.69
224.338	-21.69
224.573	-7.69
224.808	-10.69
225.042	-9.69
225.277	-1.69
225.511	-0.69
225.746	3.31
225.98	-0.69
226.215	8.31
226.449	16.31
226.683	32.31
226.918	26.31
227.152	24.31
227.387	29.31
227.621	28.31
227.856	52.31
228.09	35.31
228.324	47.31
228.559	59.31
228.793	58.31
229.027	63.31
229.262	69.31
229.496	74.31
229.73	80.31
229.964	84.31
230.199	85.31
230.433	81.31
230.667	96.31
230.901	81.31
231.136	89.31
231.37	77.31
231.604	76.31
231.838	75.31
232.072	70.31
232.306	93.31
232.541	90.31
232.775	81.31
233.009	75.31
233.243	85.31
233.477	78.31
233.711	68.31
233.945	84.31
234.179	78.31
234.413	74.31
234.647	102.31
234.881	79.31
235.115	66.31
235.349	89.31
235.583	74.31
235.817	74.31
236.051	81.31
236.285	74.31
236.519	70.31
236.753	82.31
236.987	80.31
237.221	82.31
237.455	87.31
237.689	77.31
237.922	92.31
238.156	74.31
238.39	65.31
238.624	71.31
238.858	60.31
239.091	82.31
239.325	83.31
239.559	77.31
239.793	79.31
240.027	72.31
240.26	75.31
240.494	75.31
240.728	71.31
240.961	65.31
241.195	81.31
241.429	70.31
241.662	62.31
241.896	75.31
242.13	80.31
242.363	71.31
242.597	66.31
242.83	79.31
243.064	65.31
243.298	74.31
243.531	93.31
243.765	84.31
243.998	73.31
244.232	74.31
244.465	86.31
244.699	81.31
244.932	65.31
245.166	76.31
245.399	79.31
245.633	86.31
245.866	72.31
246.099	90.31
246.333	84.31
246.566	84.31
246.8	79.31
247.033	77.31
247.266	78.31
247.5	57.31
247.733	84.31
247.966	68.31
248.2	84.31
248.433	72.31
248.666	87.31
248.899	74.31
249.133	79.31
249.366	83.31
249.599	100.31
249.832	88.31
250.066	86.31
250.299	84.31
250.532	78.31
250.765	78.31
250.998	83.31
251.231	86.31
251.465	69.31
251.698	76.31
251.931	85.31
252.164	87.31
252.397	89.31
252.63	80.31
252.863	75.31
253.096	70.31
253.329	76.31
253.562	87.31
253.795	83.31
254.028	79.31
254.261	86.31
254.494	92.31
254.727	76.31
254.96	95.31
255.193	78.31
255.426	88.31
255.659	78.31
255.892	83.31
256.124	84.31
256.357	78.31
256.59	78.31
256.823	71.31
257.056	88.31
257.289	63.31
257.521	78.31
257.754	76.31
257.987	86.31
258.22	86.31
258.452	70.31
258.685	74.31
258.918	92.31
259.151	75.31
259.383	89.31
259.616	63.31
259.849	86.31
260.081	73.31
260.314	70.31
260.547	74.31
260.779	73.31
261.012	85.31
261.244	90.31
261.477	62.31
261.71	78.31
261.942	102.31
262.175	110.31
262.407	75.31
262.64	76.31
262.872	73.31
263.105	87.31
263.337	78.31
263.57	68.31
263.802	74.31
264.035	92.31
264.267	88.31
264.499	86.31
264.732	87.31
264.964	94.31
265.197	84.31
265.429	78.31
265.661	93.31
265.894	90.31
266.126	96.31
266.358	75.31
266.591	96.31
266.823	83.31
267.055	83.31
267.287	76.31
267.52	74.31
267.752	90.31
267.984	80.31
268.216	87.31
268.448	90.31
268.681	87.31
268.913	91.31
269.145	98.31
269.377	66.31
269.609	83.31
269.841	85.31
270.073	91.31
270.306	86.31
270.538	87.31
270.77	84.31
271.002	84.31
271.234	68.31
271.466	88.31
271.698	84.31
271.93	97.31
272.162	86.31
272.394	74.31
272.626	89.31
272.858	86.31
273.09	69.31
273.322	82.31
273.553	90.31
273.785	69.31
274.017	84.31
274.249	88.31
274.481	79.31
274.713	71.31
274.945	88.31
275.176	95.31
275.408	85.31
275.64	84.31
275.872	87.31
276.104	105.31
276.335	90.31
276.567	103.31
276.799	112.31
277.031	99.31
277.262	84.31
277.494	98.31
277.726	77.31
277.957	85.31
278.189	83.31
278.421	84.31
278.652	76.31
278.884	74.31
279.115	72.31
279.347	90.31
279.579	89.31
279.81	90.31
280.042	80.31
280.273	98.31
280.505	83.31
280.736	88.31
280.968	86.31
281.199	73.31
281.431	102.31
281.662	88.31
281.894	102.31
282.125	90.31
282.356	108.31
282.588	132.31
282.819	130.31
283.051	81.31
283.282	78.31
283.513	78.31
283.745	79.31
283.976	92.31
284.207	99.31
284.439	95.31
284.67	72.31
284.901	99.31
285.132	87.31
285.364	80.31
285.595	83.31
285.826	67.31
286.057	72.31
286.288	86.31
286.52	81.31
286.751	78.31
286.982	83.31
287.213	71.31
287.444	56.31
287.675	80.31
287.906	91.31
288.138	83.31
288.369	92.31
288.6	94.31
288.831	83.31
289.062	82.31
289.293	84.31
289.524	87.31
289.755	85.31
289.986	83.31
290.217	88.31
290.448	81.31
290.679	89.31
290.91	90.31
291.141	88.31
291.371	91.31
291.602	73.31
291.833	83.31
292.064	85.31
292.295	99.31
292.526	83.31
292.757	80.31
292.987	82.31
293.218	94.31
293.449	90.31
293.68	75.31
293.91	95.31
294.141	90.31
294.372	83.31
294.603	95.31
294.833	90.31
295.064	83.31
295.295	81.31
295.525	105.31
295.756	95.31
295.987	116.31
296.217	128.31
296.448	120.31
296.679	100.31
296.909	87.31
297.14	97.31
297.37	85.31
297.601	95.31
297.831	81.31
298.062	92.31
298.292	89.31
298.523	80.31
298.753	66.31
298.984	85.31
299.214	98.31
299.445	82.31
299.675	77.31
299.905	96.31
300.136	82.31
300.366	96.31
300.597	91.31
300.827	86.31
301.057	99.31
301.288	98.31
301.518	85.31
301.748	87.31
301.979	93.31
302.209	91.31
302.439	86.31
302.669	101.31
302.9	70.31
303.13	78.31
303.36	97.31
303.59	110.31
303.82	104.31
304.051	90.31
304.281	84.31
304.511	80.31
304.741	83.31
304.971	96.31
305.201	89.31
305.431	99.31
305.661	98.31
305.891	94.31
306.121	100.31
306.352	112.31
306.582	103.31
306.812	79.31
307.042	69.31
307.272	85.31
307.502	91.31
307.731	98.31
307.961	98.31
308.191	84.31
308.421	84.31
308.651	83.31
308.881	91.31
309.111	90.31
309.341	85.31
309.571	94.31
309.8	96.31
310.03	87.31
310.26	91.31
310.49	97.31
310.72	103.31
310.949	104.31
311.179	106.31
311.409	86.31
311.639	85.31
311.868	100.31
312.098	104.31
312.328	101.31
312.557	110.31
312.787	108.31
313.017	100.31
313.246	103.31
313.476	90.31
313.706	90.31
313.935	72.31
314.165	95.31
314.394	91.31
314.624	114.31
314.853	99.31
315.083	91.31
315.312	80.31
315.542	84.31
315.771	90.31
316.001	85.31
316.23	93.31
316.46	97.31
316.689	89.31
316.919	89.31
317.148	94.31
317.377	103.31
317.607	103.31
317.836	85.31
318.065	90.31
318.295	100.31
318.524	90.31
318.753	93.31
318.983	110.31
319.212	92.31
319.441	92.31
319.67	104.31
319.9	92.31
320.129	85.31
320.358	80.31
320.587	83.31
320.816	93.31
321.046	102.31
321.275	95.31
321.504	85.31
321.733	80.31
321.962	108.31
322.191	95.31
322.42	109.31
322.649	91.31
322.878	106.31
323.108	124.31
323.337	112.31
323.566	134.31
323.795	171.31
324.024	203.31
324.253	416.31
324.482	904.31
324.71	1803.31
324.939	2342.31
325.168	864.31
325.397	268.31
325.626	136.31
325.855	130.31
326.084	123.31
326.313	125.31
326.542	161.31
326.77	246.31
326.999	494.31
327.228	1043.31
327.457	1901.31
327.686	1511.31
327.914	413.31
328.143	239.31
328.372	191.31
328.6	155.31
328.829	118.31
329.058	133.31
329.287	128.31
329.515	114.31
329.744	125.31
329.972	134.31
330.201	210.31
330.43	257.31
330.658	161.31
330.887	152.31
331.115	127.31
331.344	101.31
331.572	94.31
331.801	120.31
332.03	80.31
332.258	103.31
332.486	98.31
332.715	90.31
332.943	114.31
333.172	105.31
333.4	95.31
333.629	103.31
333.857	124.31
334.085	153.31
334.314	210.31
334.542	300.31
334.771	278.31
334.999	126.31
335.227	111.31
335.455	88.31
335.684	82.31
335.912	99.31
336.14	92.31
336.369	92.31
336.597	81.31
336.825	85.31
337.053	88.31
337.281	78.31
337.51	90.31
337.738	86.31
337.966	101.31
338.194	89.31
338.422	90.31
338.65	84.31
338.878	81.31
339.106	101.31
339.334	93.31
339.562	84.31
339.79	80.31
340.018	95.31
340.246	86.31
340.474	86.31
340.702	97.31
340.93	94.31
341.158	93.31
341.386	89.31
341.614	93.31
341.842	85.31
342.07	99.31
342.298	99.31
342.526	72.31
342.754	102.31
342.981	80.31
343.209	83.31
343.437	90.31
343.665	89.31
343.893	92.31
344.12	99.31
344.348	83.31
344.576	81.31
344.804	93.31
345.031	90.31
345.259	91.31
345.487	88.31
345.714	92.31
345.942	103.31
346.17	100.31
346.397	92.31
346.625	81.31
346.853	88.31
347.08	96.31
347.308	92.31
347.535	108.31
347.763	114.31
347.99	80.31
348.218	93.31
348.445	99.31
348.673	97.31
348.9	88.31
349.128	97.31
349.355	91.31
349.583	89.31
349.81	98.31
350.037	93.31
350.265	89.31
350.492	95.31
350.72	90.31
350.947	109.31
351.174	108.31
351.402	93.31
351.629	92.31
351.856	97.31
352.083	114.31
352.311	105.31
352.538	103.31
352.765	114.31
352.992	114.31
353.22	123.31
353.447	96.31
353.674	88.31
353.901	93.31
354.128	92.31
354.355	98.31
354.583	87.31
354.81	96.31
355.037	102.31
355.264	93.31
355.491	88.31
355.718	96.31
355.945	86.31
356.172	73.31
356.399	84.31
356.626	101.31
356.853	90.31
357.08	87.31
357.307	99.31
357.534	104.31
357.761	93.31
357.988	92.31
358.215	100.31
358.441	93.31
358.668	99.31
358.895	95.31
359.122	94.31
359.349	92.31
359.576	101.31
359.802	113.31
360.029	114.31
360.256	103.31
360.483	98.31
360.709	92.31
360.936	85.31
361.163	85.31
361.39	90.31
361.616	89.31
361.843	82.31
362.07	90.31
362.296	103.31
362.523	102.31
362.749	95.31
362.976	107.31
363.203	92.31
363.429	89.31
363.656	97.31
363.882	97.31
364.109	79.31
364.335	81.31
364.562	90.31
364.788	77.31
365.015	78.31
365.241	88.31
365.468	101.31
365.694	104.31
365.92	99.31
366.147	96.31
366.373	90.31
366.599	78.31
366.826	87.31
367.052	91.31
367.278	100.31
367.505	86.31
367.731	101.31
367.957	95.31
368.184	103.31
368.41	101.31
368.636	113.31
368.862	108.31
369.089	95.31
369.315	92.31
369.541	94.31
369.767	94.31
369.993	92.31
370.219	76.31
370.445	89.31
370.672	95.31
370.898	91.31
371.124	89.31
371.35	91.31
371.576	81.31
371.802	88.31
372.028	89.31
372.254	84.31
372.48	89.31
372.706	101.31
372.932	88.31
373.158	95.31
373.384	108.31
373.61	105.31
373.835	91.31
374.061	96.31
374.287	72.31
374.513	84.31
374.739	87.31
374.965	90.31
375.191	84.31
375.416	80.31
375.642	87.31
375.868	89.31
376.094	76.31
376.319	81.31
376.545	84.31
376.771	79.31
376.997	77.31
377.222	85.31
377.448	79.31
377.674	93.31
377.899	82.31
378.125	81.31
378.35	92.31
378.576	85.31
378.802	98.31
379.027	87.31
379.253	72.31
379.478	90.31
379.704	90.31
379.929	88.31
380.155	92.31
380.38	91.31
380.606	99.31
380.831	99.31
381.057	93.31
381.282	107.31
381.507	99.31
381.733	94.31
381.958	94.31
382.184	102.31
382.409	102.31
382.634	99.31
382.86	93.31
383.085	102.31
383.31	100.31
383.535	109.31
383.761	90.31
383.986	87.31
384.211	82.31
384.436	107.31
384.662	98.31
384.887	97.31
385.112	94.31
385.337	82.31
385.562	85.31
385.787	85.31
386.013	104.31
386.238	107.31
386.463	113.31
386.688	117.31
386.913	95.31
387.138	106.31
387.363	92.31
387.588	99.31
387.813	107.31
388.038	103.31
388.263	98.31
388.488	107.31
388.713	103.31
388.938	74.31
389.163	89.31
389.387	101.31
389.612	89.31
389.837	90.31
390.062	121.31
390.287	86.31
390.512	90.31
390.736	85.31
390.961	76.31
391.186	79.31
391.411	88.31
391.636	90.31
391.86	88.31
392.085	83.31
392.31	93.31
392.534	83.31
392.759	70.31
392.984	104.31
393.208	81.31
393.433	93.31
393.658	73.31
393.882	70.31
394.107	73.31
394.331	94.31
394.556	82.31
394.78	83.31
395.005	78.31
395.229	90.31
395.454	84.31
395.678	78.31
395.903	90.31
396.127	91.31
396.352	88.31
396.576	84.31
396.801	100.31
397.025	84.31
397.249	79.31
397.474	79.31
397.698	90.31
397.922	91.31
398.147	84.31
398.371	87.31
398.595	86.31
398.82	90.31
399.044	91.31
399.268	86.31
399.492	80.31
399.717	83.31
399.941	84.31
400.165	101.31
400.389	93.31
400.613	81.31
400.837	70.31
401.062	94.31
401.286	85.31
401.51	83.31
401.734	99.31
401.958	102.31
402.182	126.31
402.406	147.31
402.63	132.31
402.854	86.31
403.078	90.31
403.302	81.31
403.526	96.31
403.75	88.31
403.974	79.31
404.198	78.31
404.422	83.31
404.645	104.31
404.869	101.31
405.093	100.31
405.317	107.31
405.541	106.31
405.765	96.31
405.988	120.31
406.212	152.31
406.436	222.31
406.66	147.31
406.883	95.31
407.107	92.31
407.331	88.31
407.555	118.31
407.778	87.31
408.002	87.31
408.226	98.31
408.449	80.31
408.673	97.31
408.896	86.31
409.12	93.31
409.344	94.31
409.567	93.31
409.791	89.31
410.014	80.31
410.238	88.31
410.461	84.31
410.685	82.31
410.908	105.31
411.132	101.31
411.355	102.31
411.578	94.31
411.802	93.31
412.025	96.31
412.249	92.31
412.472	92.31
412.695	117.31
412.919	106.31
413.142	80.31
413.365	96.31
413.589	76.31
413.812	84.31
414.035	74.31
414.258	70.31
414.482	69.31
414.705	81.31
414.928	86.31
415.151	95.31
415.374	93.31
415.597	99.31
415.821	84.31
416.044	94.31
416.267	84.31
416.49	73.31
416.713	79.31
416.936	95.31
417.159	94.31
417.382	98.31
417.605	94.31
417.828	99.31
418.051	91.31
418.274	90.31
418.497	82.31
418.72	85.31
418.943	95.31
419.166	87.31
419.389	69.31
419.611	77.31
419.834	91.31
420.057	84.31
420.28	83.31
420.503	73.31
420.726	82.31
420.948	78.31
421.171	93.31
421.394	89.31
421.617	101.31
421.839	93.31
422.062	90.31
422.285	91.31
422.507	94.31
422.73	109.31
422.953	94.31
423.175	77.31
423.398	75.31
423.621	96.31
423.843	84.31
424.066	83.31
424.288	91.31
424.511	85.31
424.733	101.31
424.956	111.31
425.178	106.31
425.401	102.31
425.623	101.31
425.846	88.31
426.068	95.31
426.291	75.31
426.513	85.31
426.735	84.31
426.958	83.31
427.18	104.31
427.402	160.31
427.625	173.31
427.847	156.31
428.069	131.31
428.292	102.31
428.514	104.31
428.736	95.31
428.958	89.31
429.181	89.31
429.403	98.31
429.625	80.31
429.847	103.31
430.069	98.31
430.292	94.31
430.514	91.31
430.736	91.31
430.958	76.31
431.18	70.31
431.402	83.31
431.624	94.31
431.846	102.31
432.068	91.31
432.29	87.31
432.512	91.31
432.734	79.31
432.956	84.31
433.178	102.31
433.4	102.31
433.622	89.31
433.844	108.31
434.066	85.31
434.287	80.31
434.509	83.31
434.731	79.31
434.953	93.31
435.175	84.31
435.397	86.31
435.618	95.31
435.84	96.31
436.062	129.31
436.284	118.31
436.505	110.31
436.727	108.31
436.949	103.31
437.17	82.31
437.392	86.31
437.614	87.31
437.835	103.31
438.057	116.31
438.278	126.31
438.5	103.31
438.721	119.31
438.943	104.31
439.165	79.31
439.386	79.31
439.608	91.31
439.829	99.31
440.05	128.31
440.272	143.31
440.493	95.31
440.715	86.31
440.936	98.31
441.158	72.31
441.379	93.31
441.6	91.31
441.822	82.31
442.043	93.31
442.264	101.31
442.486	100.31
442.707	99.31
442.928	93.31
443.149	128.31
443.371	141.31
443.592	112.31
443.813	107.31
444.034	93.31
444.255	101.31
444.476	80.31
444.698	83.31
444.919	75.31
445.14	128.31
445.361	128.31
445.582	104.31
445.803	146.31
446.024	127.31
446.245	126.31
446.466	130.31
446.687	86.31
446.908	93.31
447.129	98.31
447.35	95.31
447.571	92.31
447.792	78.31
448.013	102.31
448.234	103.31
448.455	90.31
448.675	106.31
448.896	123.31
449.117	99.31
449.338	114.31
449.559	138.31
449.779	138.31
450	86.31
450.221	79.31
450.442	77.31
450.662	104.31
450.883	104.31
451.104	95.31
451.324	84.31
451.545	91.31
451.766	75.31
451.986	84.31
452.207	92.31
452.428	95.31
452.648	97.31
452.869	113.31
453.089	113.31
453.31	120.31
453.53	97.31
453.751	82.31
453.971	107.31
454.192	104.31
454.412	76.31
454.633	79.31
454.853	84.31
455.073	88.31
455.294	92.31
455.514	103.31
455.734	92.31
455.955	86.31
456.175	83.31
456.395	92.31
456.616	83.31
456.836	96.31
457.056	86.31
457.276	86.31
457.497	92.31
457.717	80.31
457.937	84.31
458.157	91.31
458.377	82.31
458.598	109.31
458.818	141.31
459.038	150.31
459.258	110.31
459.478	77.31
459.698	80.31
459.918	90.31
460.138	80.31
460.358	80.31
460.578	100.31
460.798	101.31
461.018	84.31
461.238	98.31
461.458	91.31
461.678	96.31
461.898	92.31
462.118	76.31
462.338	92.31
462.558	80.31
462.777	95.31
462.997	81.31
463.217	85.31
463.437	80.31
463.657	70.31
463.876	94.31
464.096	87.31
464.316	79.31
464.536	96.31
464.755	89.31
464.975	102.31
465.195	165.31
465.414	153.31
465.634	87.31
465.854	97.31
466.073	77.31
466.293	86.31
466.512	87.31
466.732	86.31
466.951	98.31
467.171	104.31
467.391	87.31
467.61	105.31
467.829	98.31
468.049	130.31
468.268	168.31
468.488	101.31
468.707	87.31
468.927	80.31
469.146	86.31
469.365	79.31
469.585	102.31
469.804	104.31
470.023	90.31
470.243	91.31
470.462	95.31
470.681	119.31
470.901	101.31
471.12	90.31
471.339	91.31
471.558	93.31
471.777	102.31
471.997	108.31
472.216	215.31
472.435	381.31
472.654	150.31
472.873	90.31
473.092	96.31
473.311	88.31
473.53	85.31
473.749	73.31
473.968	100.31
474.187	108.31
474.406	99.31
474.625	85.31
474.844	80.31
475.063	96.31
475.282	77.31
475.501	96.31
475.72	90.31
475.939	86.31
476.158	87.31
476.377	87.31
476.596	90.31
476.814	86.31
477.033	83.31
477.252	87.31
477.471	80.31
477.69	85.31
477.908	76.31
478.127	82.31
478.346	85.31
478.564	84.31
478.783	102.31
479.002	103.31
479.22	101.31
479.439	102.31
479.658	99.31
479.876	105.31
480.095	86.31
480.313	106.31
480.532	95.31
480.751	132.31
480.969	189.31
481.188	638.31
481.406	409.31
481.624	124.31
481.843	96.31
482.061	89.31
482.28	76.31
482.498	88.31
482.717	80.31
482.935	90.31
483.153	97.31
483.372	101.31
483.59	85.31
483.808	85.31
484.027	94.31
484.245	90.31
484.463	85.31
484.681	89.31
484.9	85.31
485.118	84.31
485.336	94.31
485.554	85.31
485.772	103.31
485.99	108.31
486.209	100.31
486.427	97.31
486.645	105.31
486.863	106.31
487.081	95.31
487.299	96.31
487.517	91.31
487.735	84.31
487.953	98.31
488.171	95.31
488.389	97.31
488.607	99.31
488.825	101.31
489.043	97.31
489.261	107.31
489.479	106.31
489.696	88.31
489.914	78.31
490.132	87.31
490.35	91.31
490.568	85.31
490.786	90.31
491.003	85.31
491.221	98.31
491.439	99.31
491.657	95.31
491.874	92.31
492.092	91.31
492.31	93.31
492.527	99.31
492.745	85.31
492.963	94.31
493.18	87.31
493.398	90.31
493.615	87.31
493.833	91.31
494.05	71.31
494.268	80.31
494.485	80.31
494.703	88.31
494.92	89.31
495.138	86.31
495.355	89.31
495.573	78.31
495.79	91.31
496.008	82.31
496.225	77.31
496.442	89.31
496.66	93.31
496.877	95.31
497.094	89.31
497.312	87.31
497.529	85.31
497.746	83.31
497.963	76.31
498.181	87.31
498.398	86.31
498.615	97.31
498.832	94.31
499.049	82.31
499.267	89.31
499.484	83.31
499.701	76.31
499.918	83.31
500.135	90.31
500.352	105.31
500.569	83.31
500.786	96.31
501.003	77.31
501.22	85.31
501.437	87.31
501.654	97.31
501.871	94.31
502.088	93.31
502.305	107.31
502.522	82.31
502.739	102.31
502.956	90.31
503.172	89.31
503.389	93.31
503.606	98.31
503.823	83.31
504.04	105.31
504.256	78.31
504.473	98.31
504.69	97.31
504.907	100.31
505.123	77.31
505.34	75.31
505.557	92.31
505.773	81.31
505.99	72.31
506.207	88.31
506.423	85.31
506.64	91.31
506.856	81.31
507.073	94.31
507.289	93.31
507.506	93.31
507.722	105.31
507.939	100.31
508.155	93.31
508.372	79.31
508.588	94.31
508.805	88.31
509.021	90.31
509.238	81.31
509.454	97.31
509.67	114.31
509.887	109.31
510.103	117.31
510.319	203.31
510.536	729.31
510.752	2255.31
510.968	633.31
511.184	155.31
511.401	115.31
511.617	109.31
511.833	95.31
512.049	93.31
512.265	97.31
512.481	90.31
512.698	98.31
512.914	95.31
513.13	101.31
513.346	80.31
513.562	98.31
513.778	91.31
513.994	87.31
514.21	104.31
514.426	110.31
514.642	132.31
514.858	142.31
515.074	161.31
515.29	439.31
515.506	1442.31
515.721	550.31
