Data from Circ_2011_H10_HRD10591_00043.txt Node
Date: Wed Jan 03 10:08:07 EST 2024
User: Yrep
Spectrometer: HR+D1059
Trigger mode: 1
Integration Time (sec): 1.000000E-1
Scans to average: 1
Electric dark correction enabled: true
Nonlinearity correction enabled: false
Boxcar width: 0
XAxis mode: Wavelengths
Number of Pixels in Spectrum: 2048
>>>>>Begin Spectral Data<<<<<
223.165	-6.62
223.4	-6.62
223.635	-6.62
223.869	-22.62
224.104	-19.62
224.338	-19.62
224.573	-19.62
224.808	-18.62
225.042	-11.62
225.277	-4.62
225.511	9.38
225.746	8.38
225.98	2.38
226.215	5.38
226.449	18.38
226.683	21.38
226.918	25.38
227.152	32.38
227.387	42.38
227.621	50.38
227.856	32.38
228.09	49.38
228.324	51.38
228.559	43.38
228.793	53.38
229.027	58.38
229.262	66.38
229.496	88.38
229.73	85.38
229.964	76.38
230.199	77.38
230.433	67.38
230.667	86.38
230.901	73.38
231.136	64.38
231.37	81.38
231.604	87.38
231.838	82.38
232.072	89.38
232.306	85.38
232.541	77.38
232.775	95.38
233.009	82.38
233.243	87.38
233.477	94.38
233.711	85.38
233.945	77.38
234.179	79.38
234.413	84.38
234.647	87.38
234.881	92.38
235.115	88.38
235.349	87.38
235.583	85.38
235.817	76.38
236.051	102.38
236.285	92.38
236.519	75.38
236.753	80.38
236.987	92.38
237.221	84.38
237.455	94.38
237.689	87.38
237.922	75.38
238.156	72.38
238.39	74.38
238.624	84.38
238.858	84.38
239.091	85.38
239.325	88.38
239.559	90.38
239.793	79.38
240.027	75.38
240.26	82.38
240.494	74.38
240.728	83.38
240.961	78.38
241.195	85.38
241.429	83.38
241.662	91.38
241.896	81.38
242.13	76.38
242.363	83.38
242.597	76.38
242.83	89.38
243.064	83.38
243.298	81.38
243.531	76.38
243.765	74.38
243.998	84.38
244.232	77.38
244.465	100.38
244.699	83.38
244.932	77.38
245.166	66.38
245.399	88.38
245.633	95.38
245.866	83.38
246.099	91.38
246.333	82.38
246.566	91.38
246.8	70.38
247.033	73.38
247.266	74.38
247.5	82.38
247.733	77.38
247.966	85.38
248.2	77.38
248.433	83.38
248.666	78.38
248.899	93.38
249.133	91.38
249.366	104.38
249.599	103.38
249.832	101.38
250.066	77.38
250.299	84.38
250.532	95.38
250.765	90.38
250.998	109.38
251.231	79.38
251.465	73.38
251.698	84.38
251.931	79.38
252.164	79.38
252.397	87.38
252.63	78.38
252.863	84.38
253.096	81.38
253.329	80.38
253.562	97.38
253.795	100.38
254.028	81.38
254.261	90.38
254.494	81.38
254.727	94.38
254.96	82.38
255.193	79.38
255.426	77.38
255.659	83.38
255.892	89.38
256.124	91.38
256.357	90.38
256.59	88.38
256.823	92.38
257.056	91.38
257.289	98.38
257.521	89.38
257.754	78.38
257.987	91.38
258.22	76.38
258.452	93.38
258.685	81.38
258.918	81.38
259.151	80.38
259.383	86.38
259.616	81.38
259.849	83.38
260.081	93.38
260.314	72.38
260.547	81.38
260.779	93.38
261.012	97.38
261.244	106.38
261.477	91.38
261.71	85.38
261.942	111.38
262.175	88.38
262.407	83.38
262.64	90.38
262.872	89.38
263.105	80.38
263.337	92.38
263.57	104.38
263.802	90.38
264.035	88.38
264.267	69.38
264.499	102.38
264.732	88.38
264.964	93.38
265.197	73.38
265.429	88.38
265.661	99.38
265.894	91.38
266.126	83.38
266.358	85.38
266.591	84.38
266.823	85.38
267.055	81.38
267.287	92.38
267.52	90.38
267.752	86.38
267.984	87.38
268.216	84.38
268.448	73.38
268.681	91.38
268.913	82.38
269.145	78.38
269.377	75.38
269.609	81.38
269.841	77.38
270.073	91.38
270.306	91.38
270.538	95.38
270.77	93.38
271.002	80.38
271.234	87.38
271.466	81.38
271.698	83.38
271.93	89.38
272.162	95.38
272.394	96.38
272.626	84.38
272.858	101.38
273.09	104.38
273.322	97.38
273.553	87.38
273.785	88.38
274.017	83.38
274.249	85.38
274.481	84.38
274.713	92.38
274.945	97.38
275.176	93.38
275.408	97.38
275.64	105.38
275.872	78.38
276.104	107.38
276.335	77.38
276.567	85.38
276.799	107.38
277.031	112.38
277.262	103.38
277.494	105.38
277.726	94.38
277.957	89.38
278.189	100.38
278.421	85.38
278.652	100.38
278.884	99.38
279.115	86.38
279.347	101.38
279.579	82.38
279.81	93.38
280.042	108.38
280.273	115.38
280.505	107.38
280.736	95.38
280.968	105.38
281.199	86.38
281.431	91.38
281.662	98.38
281.894	88.38
282.125	97.38
282.356	115.38
282.588	131.38
282.819	119.38
283.051	97.38
283.282	103.38
283.513	88.38
283.745	115.38
283.976	98.38
284.207	100.38
284.439	100.38
284.67	98.38
284.901	88.38
285.132	95.38
285.364	91.38
285.595	86.38
285.826	97.38
286.057	95.38
286.288	87.38
286.52	85.38
286.751	88.38
286.982	95.38
287.213	85.38
287.444	90.38
287.675	89.38
287.906	93.38
288.138	83.38
288.369	99.38
288.6	97.38
288.831	93.38
289.062	98.38
289.293	84.38
289.524	94.38
289.755	89.38
289.986	84.38
290.217	84.38
290.448	92.38
290.679	89.38
290.91	94.38
291.141	93.38
291.371	93.38
291.602	102.38
291.833	78.38
292.064	94.38
292.295	79.38
292.526	89.38
292.757	88.38
292.987	91.38
293.218	95.38
293.449	93.38
293.68	93.38
293.91	89.38
294.141	104.38
294.372	89.38
294.603	99.38
294.833	104.38
295.064	91.38
295.295	92.38
295.525	91.38
295.756	105.38
295.987	120.38
296.217	140.38
296.448	138.38
296.679	94.38
296.909	104.38
297.14	92.38
297.37	85.38
297.601	100.38
297.831	102.38
298.062	97.38
298.292	97.38
298.523	92.38
298.753	95.38
298.984	90.38
299.214	97.38
299.445	95.38
299.675	96.38
299.905	89.38
300.136	91.38
300.366	100.38
300.597	88.38
300.827	95.38
301.057	107.38
301.288	101.38
301.518	92.38
301.748	91.38
301.979	94.38
302.209	95.38
302.439	109.38
302.669	108.38
302.9	80.38
303.13	99.38
303.36	107.38
303.59	104.38
303.82	100.38
304.051	94.38
304.281	97.38
304.511	93.38
304.741	93.38
304.971	92.38
305.201	91.38
305.431	100.38
305.661	101.38
305.891	91.38
306.121	105.38
306.352	112.38
306.582	115.38
306.812	102.38
307.042	101.38
307.272	100.38
307.502	117.38
307.731	112.38
307.961	93.38
308.191	97.38
308.421	112.38
308.651	103.38
308.881	82.38
309.111	92.38
309.341	105.38
309.571	90.38
309.8	90.38
310.03	101.38
310.26	104.38
310.49	89.38
310.72	91.38
310.949	119.38
311.179	108.38
311.409	92.38
311.639	86.38
311.868	85.38
312.098	79.38
312.328	98.38
312.557	103.38
312.787	106.38
313.017	98.38
313.246	92.38
313.476	95.38
313.706	88.38
313.935	104.38
314.165	113.38
314.394	93.38
314.624	92.38
314.853	104.38
315.083	112.38
315.312	102.38
315.542	104.38
315.771	91.38
316.001	99.38
316.23	105.38
316.46	112.38
316.689	90.38
316.919	100.38
317.148	109.38
317.377	116.38
317.607	107.38
317.836	110.38
318.065	91.38
318.295	93.38
318.524	90.38
318.753	98.38
318.983	89.38
319.212	105.38
319.441	103.38
319.67	110.38
319.9	97.38
320.129	96.38
320.358	118.38
320.587	107.38
320.816	93.38
321.046	98.38
321.275	113.38
321.504	101.38
321.733	100.38
321.962	92.38
322.191	111.38
322.42	111.38
322.649	126.38
322.878	111.38
323.108	111.38
323.337	120.38
323.566	143.38
323.795	147.38
324.024	217.38
324.253	419.38
324.482	888.38
324.71	1882.38
324.939	2417.38
325.168	861.38
325.397	263.38
325.626	159.38
325.855	127.38
326.084	141.38
326.313	128.38
326.542	159.38
326.77	249.38
326.999	509.38
327.228	991.38
327.457	1943.38
327.686	1524.38
327.914	406.38
328.143	244.38
328.372	219.38
328.6	149.38
328.829	120.38
329.058	132.38
329.287	136.38
329.515	117.38
329.744	127.38
329.972	154.38
330.201	226.38
330.43	268.38
330.658	191.38
330.887	171.38
331.115	145.38
331.344	111.38
331.572	104.38
331.801	95.38
332.03	101.38
332.258	89.38
332.486	89.38
332.715	119.38
332.943	92.38
333.172	93.38
333.4	103.38
333.629	95.38
333.857	127.38
334.085	155.38
334.314	208.38
334.542	332.38
334.771	306.38
334.999	148.38
335.227	101.38
335.455	113.38
335.684	97.38
335.912	80.38
336.14	94.38
336.369	107.38
336.597	102.38
336.825	115.38
337.053	90.38
337.281	105.38
337.51	98.38
337.738	91.38
337.966	90.38
338.194	108.38
338.422	93.38
338.65	83.38
338.878	91.38
339.106	97.38
339.334	94.38
339.562	94.38
339.79	106.38
340.018	91.38
340.246	93.38
340.474	102.38
340.702	90.38
340.93	92.38
341.158	86.38
341.386	95.38
341.614	103.38
341.842	92.38
342.07	101.38
342.298	95.38
342.526	104.38
342.754	87.38
342.981	97.38
343.209	90.38
343.437	106.38
343.665	99.38
343.893	85.38
344.12	97.38
344.348	96.38
344.576	90.38
344.804	106.38
345.031	100.38
345.259	102.38
345.487	107.38
345.714	94.38
345.942	95.38
346.17	89.38
346.397	96.38
346.625	96.38
346.853	99.38
347.08	96.38
347.308	88.38
347.535	114.38
347.763	104.38
347.99	97.38
348.218	102.38
348.445	103.38
348.673	82.38
348.9	97.38
349.128	104.38
349.355	85.38
349.583	97.38
349.81	92.38
350.037	91.38
350.265	95.38
350.492	89.38
350.72	97.38
350.947	105.38
351.174	110.38
351.402	106.38
351.629	108.38
351.856	85.38
352.083	104.38
352.311	121.38
352.538	105.38
352.765	102.38
352.992	120.38
353.22	124.38
353.447	107.38
353.674	107.38
353.901	96.38
354.128	104.38
354.355	102.38
354.583	97.38
354.81	98.38
355.037	102.38
355.264	86.38
355.491	105.38
355.718	96.38
355.945	110.38
356.172	97.38
356.399	93.38
356.626	96.38
356.853	98.38
357.08	93.38
357.307	81.38
357.534	102.38
357.761	103.38
357.988	101.38
358.215	95.38
358.441	78.38
358.668	80.38
358.895	87.38
359.122	90.38
359.349	112.38
359.576	102.38
359.802	109.38
360.029	135.38
360.256	114.38
360.483	105.38
360.709	102.38
360.936	81.38
361.163	85.38
361.39	98.38
361.616	95.38
361.843	91.38
362.07	104.38
362.296	98.38
362.523	104.38
362.749	88.38
362.976	85.38
363.203	104.38
363.429	104.38
363.656	103.38
363.882	93.38
364.109	90.38
364.335	85.38
364.562	91.38
364.788	86.38
365.015	107.38
365.241	104.38
365.468	111.38
365.694	99.38
365.92	99.38
366.147	100.38
366.373	94.38
366.599	89.38
366.826	103.38
367.052	80.38
367.278	97.38
367.505	104.38
367.731	87.38
367.957	86.38
368.184	90.38
368.41	107.38
368.636	99.38
368.862	108.38
369.089	105.38
369.315	96.38
369.541	95.38
369.767	102.38
369.993	92.38
370.219	85.38
370.445	86.38
370.672	92.38
370.898	93.38
371.124	88.38
371.35	82.38
371.576	98.38
371.802	89.38
372.028	93.38
372.254	87.38
372.48	99.38
372.706	81.38
372.932	99.38
373.158	101.38
373.384	92.38
373.61	91.38
373.835	101.38
374.061	105.38
374.287	87.38
374.513	93.38
374.739	90.38
374.965	67.38
375.191	83.38
375.416	96.38
375.642	94.38
375.868	103.38
376.094	97.38
376.319	79.38
376.545	90.38
376.771	91.38
376.997	87.38
377.222	99.38
377.448	104.38
377.674	90.38
377.899	88.38
378.125	83.38
378.35	97.38
378.576	97.38
378.802	106.38
379.027	86.38
379.253	84.38
379.478	81.38
379.704	82.38
379.929	91.38
380.155	98.38
380.38	86.38
380.606	108.38
380.831	85.38
381.057	97.38
381.282	99.38
381.507	89.38
381.733	95.38
381.958	75.38
382.184	75.38
382.409	89.38
382.634	116.38
382.86	97.38
383.085	100.38
383.31	100.38
383.535	94.38
383.761	94.38
383.986	93.38
384.211	92.38
384.436	104.38
384.662	106.38
384.887	81.38
385.112	91.38
385.337	84.38
385.562	100.38
385.787	101.38
386.013	99.38
386.238	120.38
386.463	99.38
386.688	99.38
386.913	110.38
387.138	110.38
387.363	107.38
387.588	95.38
387.813	90.38
388.038	113.38
388.263	92.38
388.488	111.38
388.713	91.38
388.938	96.38
389.163	108.38
389.387	95.38
389.612	85.38
389.837	90.38
390.062	88.38
390.287	91.38
390.512	80.38
390.736	98.38
390.961	104.38
391.186	92.38
391.411	91.38
391.636	79.38
391.86	81.38
392.085	95.38
392.31	91.38
392.534	80.38
392.759	79.38
392.984	71.38
393.208	97.38
393.433	95.38
393.658	83.38
393.882	94.38
394.107	93.38
394.331	89.38
394.556	84.38
394.78	99.38
395.005	97.38
395.229	108.38
395.454	69.38
395.678	94.38
395.903	97.38
396.127	82.38
396.352	89.38
396.576	85.38
396.801	78.38
397.025	89.38
397.249	83.38
397.474	92.38
397.698	93.38
397.922	98.38
398.147	97.38
398.371	88.38
398.595	100.38
398.82	91.38
399.044	86.38
399.268	101.38
399.492	87.38
399.717	84.38
399.941	89.38
400.165	98.38
400.389	93.38
400.613	91.38
400.837	98.38
401.062	101.38
401.286	93.38
401.51	79.38
401.734	90.38
401.958	101.38
402.182	146.38
402.406	155.38
402.63	131.38
402.854	96.38
403.078	87.38
403.302	92.38
403.526	98.38
403.75	79.38
403.974	90.38
404.198	108.38
404.422	83.38
404.645	95.38
404.869	100.38
405.093	106.38
405.317	113.38
405.541	113.38
405.765	104.38
405.988	116.38
406.212	179.38
406.436	244.38
406.66	144.38
406.883	123.38
407.107	104.38
407.331	101.38
407.555	115.38
407.778	101.38
408.002	92.38
408.226	104.38
408.449	92.38
408.673	92.38
408.896	98.38
409.12	109.38
409.344	96.38
409.567	73.38
409.791	93.38
410.014	83.38
410.238	98.38
410.461	96.38
410.685	107.38
410.908	108.38
411.132	96.38
411.355	92.38
411.578	85.38
411.802	97.38
412.025	93.38
412.249	92.38
412.472	99.38
412.695	108.38
412.919	90.38
413.142	92.38
413.365	99.38
413.589	95.38
413.812	90.38
414.035	106.38
414.258	93.38
414.482	101.38
414.705	78.38
414.928	83.38
415.151	94.38
415.374	92.38
415.597	84.38
415.821	96.38
416.044	89.38
416.267	74.38
416.49	92.38
416.713	93.38
416.936	92.38
417.159	70.38
417.382	84.38
417.605	92.38
417.828	79.38
418.051	96.38
418.274	79.38
418.497	74.38
418.72	83.38
418.943	87.38
419.166	101.38
419.389	96.38
419.611	83.38
419.834	81.38
420.057	97.38
420.28	84.38
420.503	86.38
420.726	108.38
420.948	93.38
421.171	102.38
421.394	98.38
421.617	98.38
421.839	73.38
422.062	100.38
422.285	85.38
422.507	91.38
422.73	107.38
422.953	96.38
423.175	95.38
423.398	85.38
423.621	90.38
423.843	93.38
424.066	83.38
424.288	83.38
424.511	92.38
424.733	102.38
424.956	112.38
425.178	117.38
425.401	103.38
425.623	98.38
425.846	88.38
426.068	88.38
426.291	85.38
426.513	100.38
426.735	98.38
426.958	104.38
427.18	115.38
427.402	155.38
427.625	195.38
427.847	167.38
428.069	155.38
428.292	101.38
428.514	101.38
428.736	76.38
428.958	78.38
429.181	85.38
429.403	90.38
429.625	93.38
429.847	93.38
430.069	104.38
430.292	108.38
430.514	79.38
430.736	92.38
430.958	99.38
431.18	84.38
431.402	89.38
431.624	105.38
431.846	85.38
432.068	75.38
432.29	87.38
432.512	101.38
432.734	94.38
432.956	96.38
433.178	98.38
433.4	97.38
433.622	92.38
433.844	94.38
434.066	92.38
434.287	84.38
434.509	91.38
434.731	93.38
434.953	96.38
435.175	76.38
435.397	97.38
435.618	102.38
435.84	100.38
436.062	123.38
436.284	135.38
436.505	113.38
436.727	118.38
436.949	99.38
437.17	91.38
437.392	97.38
437.614	89.38
437.835	111.38
438.057	128.38
438.278	129.38
438.5	114.38
438.721	140.38
438.943	94.38
439.165	99.38
439.386	88.38
439.608	104.38
439.829	120.38
440.05	132.38
440.272	165.38
440.493	109.38
440.715	92.38
440.936	92.38
441.158	101.38
441.379	99.38
441.6	88.38
441.822	95.38
442.043	81.38
442.264	100.38
442.486	104.38
442.707	98.38
442.928	104.38
443.149	144.38
443.371	143.38
443.592	119.38
443.813	116.38
444.034	121.38
444.255	91.38
444.476	101.38
444.698	94.38
444.919	102.38
445.14	143.38
445.361	131.38
445.582	119.38
445.803	156.38
446.024	153.38
446.245	148.38
446.466	111.38
446.687	84.38
446.908	90.38
447.129	89.38
447.35	93.38
447.571	94.38
447.792	96.38
448.013	97.38
448.234	121.38
448.455	104.38
448.675	126.38
448.896	124.38
449.117	100.38
449.338	122.38
449.559	115.38
449.779	157.38
450	89.38
450.221	96.38
450.442	79.38
450.662	93.38
450.883	114.38
451.104	109.38
451.324	101.38
451.545	100.38
451.766	96.38
451.986	86.38
452.207	88.38
452.428	105.38
452.648	95.38
452.869	114.38
453.089	102.38
453.31	119.38
453.53	92.38
453.751	100.38
453.971	112.38
454.192	113.38
454.412	96.38
454.633	89.38
454.853	91.38
455.073	83.38
455.294	108.38
455.514	115.38
455.734	97.38
455.955	96.38
456.175	96.38
456.395	100.38
456.616	86.38
456.836	93.38
457.056	89.38
457.276	101.38
457.497	79.38
457.717	89.38
457.937	106.38
458.157	90.38
458.377	92.38
458.598	124.38
458.818	173.38
459.038	193.38
459.258	123.38
459.478	95.38
459.698	87.38
459.918	95.38
460.138	92.38
460.358	88.38
460.578	91.38
460.798	95.38
461.018	105.38
461.238	104.38
461.458	100.38
461.678	92.38
461.898	80.38
462.118	88.38
462.338	93.38
462.558	74.38
462.777	91.38
462.997	89.38
463.217	94.38
463.437	110.38
463.657	73.38
463.876	95.38
464.096	91.38
464.316	103.38
464.536	92.38
464.755	97.38
464.975	111.38
465.195	171.38
465.414	170.38
465.634	105.38
465.854	101.38
466.073	95.38
466.293	97.38
466.512	102.38
466.732	103.38
466.951	85.38
467.171	88.38
467.391	110.38
467.61	122.38
467.829	113.38
468.049	135.38
468.268	171.38
468.488	108.38
468.707	94.38
468.927	89.38
469.146	77.38
469.365	101.38
469.585	106.38
469.804	106.38
470.023	102.38
470.243	88.38
470.462	108.38
470.681	128.38
470.901	87.38
471.12	78.38
471.339	87.38
471.558	94.38
471.777	108.38
471.997	100.38
472.216	212.38
472.435	385.38
472.654	156.38
472.873	115.38
473.092	102.38
473.311	79.38
473.53	86.38
473.749	81.38
473.968	99.38
474.187	105.38
474.406	110.38
474.625	99.38
474.844	92.38
475.063	93.38
475.282	96.38
475.501	83.38
475.72	109.38
475.939	95.38
476.158	64.38
476.377	101.38
476.596	90.38
476.814	105.38
477.033	112.38
477.252	110.38
477.471	96.38
477.69	101.38
477.908	85.38
478.127	96.38
478.346	90.38
478.564	105.38
478.783	97.38
479.002	97.38
479.22	105.38
479.439	105.38
479.658	118.38
479.876	93.38
480.095	89.38
480.313	92.38
480.532	124.38
480.751	122.38
480.969	227.38
481.188	660.38
481.406	420.38
481.624	136.38
481.843	98.38
482.061	92.38
482.28	83.38
482.498	103.38
482.717	83.38
482.935	84.38
483.153	92.38
483.372	82.38
483.59	82.38
483.808	86.38
484.027	100.38
484.245	103.38
484.463	87.38
484.681	95.38
484.9	90.38
485.118	83.38
485.336	93.38
485.554	105.38
485.772	99.38
485.99	99.38
486.209	112.38
486.427	114.38
486.645	111.38
486.863	121.38
487.081	95.38
487.299	100.38
487.517	93.38
487.735	98.38
487.953	97.38
488.171	108.38
488.389	107.38
488.607	99.38
488.825	99.38
489.043	93.38
489.261	93.38
489.479	92.38
489.696	93.38
489.914	98.38
490.132	84.38
490.35	93.38
490.568	92.38
490.786	81.38
491.003	108.38
491.221	92.38
491.439	78.38
491.657	99.38
491.874	91.38
492.092	117.38
492.31	103.38
492.527	87.38
492.745	77.38
492.963	101.38
493.18	100.38
493.398	99.38
493.615	100.38
493.833	94.38
494.05	107.38
494.268	91.38
494.485	82.38
494.703	84.38
494.92	86.38
495.138	91.38
495.355	85.38
495.573	119.38
495.79	103.38
496.008	108.38
496.225	97.38
496.442	95.38
496.66	106.38
496.877	103.38
497.094	117.38
497.312	88.38
497.529	103.38
497.746	101.38
497.963	92.38
498.181	101.38
498.398	106.38
498.615	105.38
498.832	107.38
499.049	96.38
499.267	102.38
499.484	96.38
499.701	94.38
499.918	92.38
500.135	91.38
500.352	84.38
500.569	84.38
500.786	95.38
501.003	106.38
501.22	99.38
501.437	103.38
501.654	103.38
501.871	130.38
502.088	87.38
502.305	93.38
502.522	101.38
502.739	99.38
502.956	106.38
503.172	97.38
503.389	85.38
503.606	106.38
503.823	109.38
504.04	101.38
504.256	103.38
504.473	101.38
504.69	88.38
504.907	93.38
505.123	100.38
505.34	92.38
505.557	89.38
505.773	96.38
505.99	103.38
506.207	90.38
506.423	103.38
506.64	92.38
506.856	92.38
507.073	80.38
507.289	88.38
507.506	80.38
507.722	96.38
507.939	111.38
508.155	95.38
508.372	96.38
508.588	105.38
508.805	109.38
509.021	101.38
509.238	97.38
509.454	97.38
509.67	101.38
509.887	121.38
510.103	123.38
510.319	193.38
510.536	718.38
510.752	2304.38
510.968	683.38
511.184	164.38
511.401	119.38
511.617	100.38
511.833	103.38
512.049	82.38
512.265	87.38
512.481	95.38
512.698	97.38
512.914	91.38
513.13	104.38
513.346	89.38
513.562	100.38
