Data from Circ_2011_H10_HRD10591_00086.txt Node
Date: Wed Jan 03 10:08:16 EST 2024
User: Yrep
Spectrometer: HR+D1059
Trigger mode: 1
Integration Time (sec): 1.000000E-1
Scans to average: 1
Electric dark correction enabled: true
Nonlinearity correction enabled: false
Boxcar width: 0
XAxis mode: Wavelengths
Number of Pixels in Spectrum: 2048
>>>>>Begin Spectral Data<<<<<
223.165	-2.31
223.4	-2.31
223.635	-2.31
223.869	-15.31
224.104	-18.31
224.338	-10.31
224.573	-13.31
224.808	-9.31
225.042	-3.31
225.277	-11.31
225.511	-10.31
225.746	-7.31
225.98	6.69
226.215	8.69
226.449	25.69
226.683	14.69
226.918	14.69
227.152	30.69
227.387	40.69
227.621	44.69
227.856	35.69
228.09	48.69
228.324	60.69
228.559	75.69
228.793	63.69
229.027	73.69
229.262	39.69
229.496	90.69
229.73	87.69
229.964	90.69
230.199	87.69
230.433	71.69
230.667	90.69
230.901	80.69
231.136	81.69
231.37	81.69
231.604	79.69
231.838	88.69
232.072	92.69
232.306	79.69
232.541	86.69
232.775	83.69
233.009	81.69
233.243	80.69
233.477	98.69
233.711	88.69
233.945	88.69
234.179	80.69
234.413	76.69
234.647	90.69
234.881	83.69
235.115	88.69
235.349	82.69
235.583	89.69
235.817	91.69
236.051	83.69
236.285	76.69
236.519	82.69
236.753	77.69
236.987	80.69
237.221	90.69
237.455	83.69
237.689	75.69
237.922	83.69
238.156	84.69
238.39	83.69
238.624	68.69
238.858	77.69
239.091	72.69
239.325	76.69
239.559	82.69
239.793	82.69
240.027	68.69
240.26	88.69
240.494	73.69
240.728	73.69
240.961	78.69
241.195	79.69
241.429	88.69
241.662	85.69
241.896	78.69
242.13	88.69
242.363	72.69
242.597	76.69
242.83	75.69
243.064	75.69
243.298	84.69
243.531	61.69
243.765	66.69
243.998	71.69
244.232	77.69
244.465	91.69
244.699	85.69
244.932	85.69
245.166	81.69
245.399	89.69
245.633	77.69
245.866	91.69
246.099	88.69
246.333	88.69
246.566	83.69
246.8	88.69
247.033	92.69
247.266	95.69
247.5	90.69
247.733	82.69
247.966	85.69
248.2	93.69
248.433	79.69
248.666	82.69
248.899	82.69
249.133	93.69
249.366	97.69
249.599	91.69
249.832	82.69
250.066	90.69
250.299	91.69
250.532	85.69
250.765	59.69
250.998	86.69
251.231	79.69
251.465	84.69
251.698	96.69
251.931	71.69
252.164	78.69
252.397	83.69
252.63	75.69
252.863	66.69
253.096	93.69
253.329	78.69
253.562	97.69
253.795	89.69
254.028	98.69
254.261	88.69
254.494	88.69
254.727	95.69
254.96	79.69
255.193	72.69
255.426	79.69
255.659	90.69
255.892	88.69
256.124	84.69
256.357	83.69
256.59	72.69
256.823	87.69
257.056	77.69
257.289	84.69
257.521	97.69
257.754	86.69
257.987	82.69
258.22	100.69
258.452	94.69
258.685	73.69
258.918	92.69
259.151	77.69
259.383	91.69
259.616	88.69
259.849	88.69
260.081	85.69
260.314	81.69
260.547	78.69
260.779	84.69
261.012	83.69
261.244	92.69
261.477	97.69
261.71	105.69
261.942	120.69
262.175	123.69
262.407	96.69
262.64	81.69
262.872	80.69
263.105	77.69
263.337	95.69
263.57	83.69
263.802	96.69
264.035	93.69
264.267	95.69
264.499	73.69
264.732	88.69
264.964	74.69
265.197	89.69
265.429	92.69
265.661	90.69
265.894	90.69
266.126	88.69
266.358	84.69
266.591	60.69
266.823	81.69
267.055	86.69
267.287	82.69
267.52	102.69
267.752	94.69
267.984	78.69
268.216	87.69
268.448	103.69
268.681	84.69
268.913	94.69
269.145	83.69
269.377	75.69
269.609	96.69
269.841	94.69
270.073	87.69
270.306	97.69
270.538	86.69
270.77	83.69
271.002	80.69
271.234	100.69
271.466	74.69
271.698	78.69
271.93	83.69
272.162	81.69
272.394	90.69
272.626	81.69
272.858	83.69
273.09	88.69
273.322	83.69
273.553	91.69
273.785	101.69
274.017	89.69
274.249	76.69
274.481	89.69
274.713	91.69
274.945	92.69
275.176	92.69
275.408	84.69
275.64	103.69
275.872	91.69
276.104	103.69
276.335	84.69
276.567	99.69
276.799	120.69
277.031	113.69
277.262	110.69
277.494	104.69
277.726	87.69
277.957	84.69
278.189	83.69
278.421	90.69
278.652	84.69
278.884	93.69
279.115	92.69
279.347	95.69
279.579	94.69
279.81	98.69
280.042	109.69
280.273	124.69
280.505	101.69
280.736	90.69
280.968	87.69
281.199	90.69
281.431	75.69
281.662	90.69
281.894	102.69
282.125	96.69
282.356	122.69
282.588	123.69
282.819	120.69
283.051	90.69
283.282	89.69
283.513	89.69
283.745	93.69
283.976	79.69
284.207	95.69
284.439	98.69
284.67	99.69
284.901	89.69
285.132	79.69
285.364	98.69
285.595	89.69
285.826	84.69
286.057	88.69
286.288	81.69
286.52	99.69
286.751	91.69
286.982	89.69
287.213	94.69
287.444	97.69
287.675	96.69
287.906	83.69
288.138	91.69
288.369	92.69
288.6	86.69
288.831	79.69
289.062	105.69
289.293	94.69
289.524	93.69
289.755	88.69
289.986	92.69
290.217	83.69
290.448	88.69
290.679	85.69
290.91	86.69
291.141	85.69
291.371	97.69
291.602	89.69
291.833	98.69
292.064	101.69
292.295	83.69
292.526	100.69
292.757	108.69
292.987	88.69
293.218	103.69
293.449	95.69
293.68	90.69
293.91	85.69
294.141	94.69
294.372	88.69
294.603	94.69
294.833	88.69
295.064	92.69
295.295	86.69
295.525	95.69
295.756	103.69
295.987	123.69
296.217	137.69
296.448	122.69
296.679	97.69
296.909	89.69
297.14	98.69
297.37	110.69
297.601	97.69
297.831	85.69
298.062	93.69
298.292	84.69
298.523	93.69
298.753	96.69
298.984	90.69
299.214	90.69
299.445	101.69
299.675	94.69
299.905	84.69
300.136	92.69
300.366	102.69
300.597	106.69
300.827	92.69
301.057	101.69
301.288	113.69
301.518	96.69
301.748	96.69
301.979	99.69
302.209	93.69
302.439	96.69
302.669	89.69
302.9	96.69
303.13	101.69
303.36	88.69
303.59	109.69
303.82	101.69
304.051	108.69
304.281	113.69
304.511	89.69
304.741	78.69
304.971	95.69
305.201	106.69
305.431	91.69
305.661	92.69
305.891	86.69
306.121	102.69
306.352	95.69
306.582	98.69
306.812	92.69
307.042	94.69
307.272	95.69
307.502	104.69
307.731	95.69
307.961	105.69
308.191	105.69
308.421	88.69
308.651	102.69
308.881	95.69
309.111	90.69
309.341	99.69
309.571	91.69
309.8	97.69
310.03	105.69
310.26	129.69
310.49	90.69
310.72	126.69
310.949	100.69
311.179	100.69
311.409	98.69
311.639	113.69
311.868	111.69
312.098	91.69
312.328	102.69
312.557	106.69
312.787	113.69
313.017	108.69
313.246	109.69
313.476	105.69
313.706	102.69
313.935	105.69
314.165	114.69
314.394	107.69
314.624	94.69
314.853	115.69
315.083	97.69
315.312	90.69
315.542	98.69
315.771	103.69
316.001	89.69
316.23	91.69
316.46	89.69
316.689	97.69
316.919	89.69
317.148	104.69
317.377	109.69
317.607	89.69
317.836	105.69
318.065	94.69
318.295	90.69
318.524	95.69
318.753	94.69
318.983	112.69
319.212	97.69
319.441	110.69
319.67	109.69
319.9	93.69
320.129	90.69
320.358	91.69
320.587	107.69
320.816	98.69
321.046	95.69
321.275	102.69
321.504	96.69
321.733	107.69
321.962	114.69
322.191	112.69
322.42	113.69
322.649	138.69
322.878	135.69
323.108	127.69
323.337	135.69
323.566	148.69
323.795	173.69
324.024	227.69
324.253	440.69
324.482	990.69
324.71	2017.69
324.939	2680.69
325.168	970.69
325.397	255.69
325.626	156.69
325.855	132.69
326.084	132.69
326.313	137.69
326.542	192.69
326.77	262.69
326.999	533.69
327.228	1160.69
327.457	2070.69
327.686	1658.69
327.914	450.69
328.143	264.69
328.372	223.69
328.6	158.69
328.829	123.69
329.058	154.69
329.287	154.69
329.515	123.69
329.744	146.69
329.972	182.69
330.201	251.69
330.43	343.69
330.658	216.69
330.887	166.69
331.115	153.69
331.344	115.69
331.572	113.69
331.801	115.69
332.03	110.69
332.258	101.69
332.486	96.69
332.715	83.69
332.943	103.69
333.172	104.69
333.4	93.69
333.629	107.69
333.857	138.69
334.085	177.69
334.314	251.69
334.542	385.69
334.771	393.69
334.999	170.69
335.227	123.69
335.455	99.69
335.684	96.69
335.912	95.69
336.14	109.69
336.369	103.69
336.597	111.69
336.825	103.69
337.053	95.69
337.281	90.69
337.51	95.69
337.738	92.69
337.966	104.69
338.194	115.69
338.422	106.69
338.65	88.69
338.878	101.69
339.106	98.69
339.334	103.69
339.562	106.69
339.79	95.69
340.018	84.69
340.246	99.69
340.474	110.69
340.702	94.69
340.93	90.69
341.158	97.69
341.386	95.69
341.614	97.69
341.842	92.69
342.07	109.69
342.298	94.69
342.526	101.69
342.754	70.69
342.981	93.69
343.209	87.69
343.437	106.69
343.665	93.69
343.893	71.69
344.12	100.69
344.348	97.69
344.576	105.69
344.804	95.69
345.031	96.69
345.259	95.69
345.487	97.69
345.714	113.69
345.942	105.69
346.17	95.69
346.397	97.69
346.625	89.69
346.853	89.69
347.08	101.69
347.308	90.69
347.535	101.69
347.763	106.69
347.99	101.69
348.218	112.69
348.445	107.69
348.673	115.69
348.9	94.69
349.128	106.69
349.355	89.69
349.583	98.69
349.81	84.69
350.037	106.69
350.265	94.69
350.492	123.69
350.72	97.69
350.947	107.69
351.174	110.69
351.402	110.69
351.629	111.69
351.856	103.69
352.083	85.69
352.311	118.69
352.538	118.69
352.765	114.69
352.992	112.69
353.22	110.69
353.447	106.69
353.674	116.69
353.901	98.69
354.128	97.69
354.355	84.69
354.583	100.69
354.81	94.69
355.037	109.69
355.264	103.69
355.491	100.69
355.718	92.69
355.945	98.69
356.172	113.69
356.399	99.69
356.626	96.69
356.853	93.69
357.08	94.69
357.307	103.69
357.534	84.69
357.761	102.69
357.988	104.69
358.215	113.69
358.441	103.69
358.668	100.69
358.895	102.69
359.122	98.69
359.349	88.69
359.576	79.69
359.802	106.69
360.029	120.69
360.256	122.69
360.483	109.69
360.709	94.69
360.936	93.69
361.163	89.69
361.39	110.69
361.616	84.69
361.843	95.69
362.07	97.69
362.296	104.69
362.523	87.69
362.749	111.69
362.976	107.69
363.203	84.69
363.429	110.69
363.656	98.69
363.882	89.69
364.109	89.69
364.335	80.69
364.562	83.69
364.788	99.69
365.015	89.69
365.241	98.69
365.468	114.69
365.694	108.69
365.92	100.69
366.147	91.69
366.373	104.69
366.599	97.69
366.826	88.69
367.052	95.69
367.278	95.69
367.505	94.69
367.731	122.69
367.957	87.69
368.184	98.69
368.41	85.69
368.636	112.69
368.862	105.69
369.089	106.69
369.315	83.69
369.541	89.69
369.767	96.69
369.993	88.69
370.219	81.69
370.445	84.69
370.672	92.69
370.898	104.69
371.124	97.69
371.35	89.69
371.576	73.69
371.802	83.69
372.028	91.69
372.254	96.69
372.48	95.69
372.706	83.69
372.932	99.69
373.158	89.69
373.384	101.69
373.61	80.69
373.835	87.69
374.061	96.69
374.287	100.69
374.513	87.69
374.739	94.69
374.965	79.69
375.191	93.69
375.416	91.69
375.642	97.69
375.868	87.69
376.094	108.69
376.319	80.69
376.545	87.69
376.771	99.69
376.997	95.69
377.222	84.69
377.448	89.69
377.674	88.69
377.899	92.69
378.125	101.69
378.35	100.69
378.576	90.69
378.802	95.69
379.027	88.69
379.253	93.69
379.478	95.69
379.704	92.69
379.929	93.69
380.155	104.69
380.38	82.69
380.606	97.69
380.831	108.69
381.057	93.69
381.282	96.69
381.507	85.69
381.733	100.69
381.958	90.69
382.184	110.69
382.409	90.69
382.634	91.69
382.86	84.69
383.085	95.69
383.31	97.69
383.535	98.69
383.761	95.69
383.986	103.69
384.211	109.69
384.436	94.69
384.662	107.69
384.887	107.69
385.112	99.69
385.337	98.69
385.562	91.69
385.787	96.69
386.013	103.69
386.238	93.69
386.463	107.69
386.688	104.69
386.913	102.69
387.138	106.69
387.363	103.69
387.588	102.69
387.813	89.69
388.038	95.69
388.263	102.69
388.488	102.69
388.713	95.69
388.938	90.69
389.163	99.69
389.387	96.69
389.612	92.69
389.837	83.69
390.062	100.69
390.287	97.69
390.512	102.69
390.736	101.69
390.961	99.69
391.186	94.69
391.411	90.69
391.636	105.69
391.86	83.69
392.085	100.69
392.31	89.69
392.534	83.69
392.759	98.69
392.984	84.69
393.208	89.69
393.433	83.69
393.658	92.69
393.882	97.69
394.107	90.69
394.331	87.69
394.556	95.69
394.78	94.69
395.005	86.69
395.229	108.69
395.454	96.69
395.678	82.69
395.903	87.69
396.127	98.69
396.352	83.69
396.576	83.69
396.801	95.69
397.025	84.69
397.249	85.69
397.474	97.69
397.698	92.69
397.922	80.69
398.147	87.69
398.371	79.69
398.595	79.69
398.82	94.69
399.044	108.69
399.268	110.69
399.492	95.69
399.717	81.69
399.941	107.69
400.165	90.69
400.389	80.69
400.613	93.69
400.837	89.69
401.062	91.69
401.286	96.69
401.51	94.69
401.734	90.69
401.958	87.69
402.182	130.69
402.406	158.69
402.63	109.69
402.854	97.69
403.078	96.69
403.302	91.69
403.526	94.69
403.75	93.69
403.974	99.69
404.198	82.69
404.422	94.69
404.645	85.69
404.869	98.69
405.093	119.69
405.317	121.69
405.541	108.69
405.765	110.69
405.988	104.69
406.212	199.69
406.436	215.69
406.66	142.69
406.883	110.69
407.107	110.69
407.331	110.69
407.555	107.69
407.778	93.69
408.002	95.69
408.226	94.69
408.449	102.69
408.673	89.69
408.896	85.69
409.12	107.69
409.344	96.69
409.567	95.69
409.791	98.69
410.014	93.69
410.238	102.69
410.461	93.69
410.685	94.69
410.908	89.69
411.132	118.69
411.355	101.69
411.578	95.69
411.802	103.69
412.025	88.69
412.249	87.69
412.472	99.69
412.695	104.69
412.919	100.69
413.142	98.69
413.365	81.69
413.589	82.69
413.812	97.69
414.035	103.69
414.258	90.69
414.482	105.69
414.705	88.69
414.928	92.69
415.151	101.69
415.374	106.69
415.597	89.69
415.821	85.69
416.044	69.69
416.267	89.69
416.49	81.69
416.713	88.69
416.936	102.69
417.159	96.69
417.382	80.69
417.605	85.69
417.828	97.69
418.051	87.69
418.274	103.69
418.497	108.69
418.72	92.69
418.943	89.69
419.166	76.69
419.389	92.69
419.611	86.69
419.834	92.69
420.057	90.69
420.28	103.69
420.503	85.69
420.726	84.69
420.948	87.69
421.171	96.69
421.394	97.69
421.617	98.69
421.839	90.69
422.062	92.69
422.285	94.69
422.507	113.69
422.73	112.69
422.953	97.69
423.175	88.69
423.398	104.69
423.621	89.69
423.843	94.69
424.066	92.69
424.288	82.69
424.511	108.69
424.733	99.69
424.956	112.69
425.178	95.69
425.401	99.69
425.623	123.69
425.846	91.69
426.068	101.69
426.291	97.69
426.513	103.69
426.735	90.69
426.958	94.69
427.18	106.69
427.402	156.69
427.625	194.69
427.847	182.69
428.069	166.69
428.292	97.69
428.514	94.69
428.736	96.69
428.958	97.69
429.181	100.69
429.403	91.69
429.625	92.69
429.847	97.69
430.069	108.69
430.292	105.69
430.514	91.69
430.736	94.69
430.958	77.69
431.18	89.69
431.402	81.69
431.624	93.69
431.846	82.69
432.068	109.69
432.29	93.69
432.512	84.69
432.734	82.69
432.956	92.69
433.178	105.69
433.4	112.69
433.622	102.69
433.844	101.69
434.066	97.69
434.287	95.69
434.509	92.69
434.731	92.69
434.953	91.69
435.175	91.69
435.397	102.69
435.618	101.69
435.84	111.69
436.062	138.69
436.284	125.69
436.505	103.69
436.727	103.69
436.949	91.69
437.17	90.69
437.392	95.69
437.614	101.69
437.835	117.69
438.057	127.69
438.278	138.69
438.5	110.69
438.721	152.69
438.943	110.69
439.165	83.69
439.386	87.69
439.608	92.69
439.829	103.69
440.05	146.69
440.272	160.69
440.493	105.69
440.715	89.69
440.936	81.69
441.158	73.69
441.379	100.69
441.6	92.69
441.822	111.69
442.043	111.69
442.264	111.69
442.486	105.69
442.707	90.69
442.928	118.69
443.149	146.69
443.371	151.69
443.592	132.69
443.813	132.69
444.034	112.69
444.255	83.69
444.476	99.69
444.698	93.69
444.919	109.69
445.14	141.69
445.361	142.69
445.582	143.69
445.803	174.69
446.024	167.69
446.245	149.69
446.466	127.69
446.687	105.69
446.908	90.69
447.129	91.69
447.35	95.69
447.571	79.69
447.792	104.69
448.013	104.69
448.234	95.69
448.455	118.69
448.675	132.69
448.896	132.69
449.117	112.69
449.338	114.69
449.559	162.69
449.779	155.69
450	121.69
450.221	100.69
450.442	97.69
450.662	89.69
450.883	109.69
451.104	120.69
451.324	104.69
451.545	92.69
451.766	94.69
451.986	94.69
452.207	99.69
452.428	87.69
452.648	115.69
452.869	107.69
453.089	120.69
453.31	112.69
453.53	104.69
453.751	99.69
453.971	111.69
454.192	114.69
454.412	99.69
454.633	89.69
454.853	96.69
455.073	94.69
455.294	102.69
455.514	125.69
455.734	97.69
455.955	89.69
456.175	89.69
456.395	98.69
456.616	104.69
456.836	90.69
457.056	80.69
457.276	75.69
457.497	70.69
457.717	98.69
457.937	93.69
458.157	95.69
458.377	105.69
458.598	119.69
458.818	157.69
459.038	194.69
459.258	114.69
459.478	103.69
459.698	79.69
459.918	84.69
460.138	89.69
460.358	91.69
460.578	103.69
460.798	97.69
461.018	86.69
461.238	75.69
461.458	73.69
461.678	84.69
461.898	93.69
462.118	86.69
462.338	88.69
462.558	96.69
462.777	103.69
462.997	95.69
463.217	96.69
463.437	91.69
463.657	91.69
463.876	101.69
464.096	98.69
464.316	101.69
464.536	99.69
464.755	94.69
464.975	127.69
465.195	173.69
465.414	161.69
465.634	80.69
465.854	96.69
466.073	98.69
466.293	95.69
466.512	104.69
466.732	95.69
466.951	104.69
467.171	93.69
467.391	111.69
467.61	114.69
467.829	118.69
468.049	169.69
468.268	198.69
468.488	92.69
468.707	98.69
468.927	91.69
469.146	73.69
469.365	85.69
469.585	79.69
469.804	95.69
470.023	111.69
470.243	89.69
470.462	96.69
470.681	115.69
470.901	88.69
471.12	82.69
471.339	102.69
471.558	98.69
471.777	98.69
471.997	123.69
472.216	262.69
472.435	483.69
472.654	178.69
472.873	107.69
473.092	97.69
473.311	84.69
473.53	83.69
473.749	95.69
473.968	102.69
474.187	124.69
474.406	109.69
474.625	79.69
474.844	84.69
475.063	78.69
475.282	90.69
475.501	95.69
475.72	96.69
475.939	95.69
476.158	84.69
476.377	98.69
476.596	109.69
476.814	95.69
477.033	102.69
477.252	88.69
477.471	78.69
477.69	88.69
477.908	105.69
478.127	79.69
478.346	93.69
478.564	96.69
478.783	100.69
479.002	99.69
479.22	94.69
479.439	112.69
479.658	114.69
479.876	108.69
480.095	97.69
480.313	110.69
480.532	110.69
480.751	119.69
480.969	269.69
481.188	816.69
481.406	538.69
481.624	163.69
481.843	105.69
482.061	97.69
482.28	91.69
482.498	91.69
482.717	83.69
482.935	98.69
483.153	82.69
483.372	98.69
483.59	97.69
483.808	89.69
484.027	97.69
484.245	112.69
484.463	96.69
484.681	101.69
484.9	116.69
485.118	110.69
485.336	103.69
485.554	111.69
485.772	90.69
485.99	99.69
486.209	109.69
486.427	108.69
486.645	109.69
486.863	110.69
487.081	105.69
487.299	98.69
487.517	97.69
487.735	107.69
487.953	94.69
488.171	84.69
488.389	97.69
488.607	106.69
488.825	89.69
489.043	93.69
489.261	93.69
489.479	81.69
489.696	86.69
489.914	94.69
490.132	104.69
490.35	110.69
490.568	104.69
490.786	98.69
491.003	82.69
491.221	93.69
491.439	96.69
491.657	98.69
491.874	111.69
492.092	106.69
492.31	99.69
492.527	106.69
492.745	102.69
492.963	93.69
493.18	100.69
493.398	85.69
493.615	90.69
493.833	95.69
494.05	96.69
494.268	96.69
494.485	100.69
494.703	97.69
494.92	101.69
495.138	106.69
495.355	90.69
495.573	90.69
495.79	77.69
496.008	92.69
496.225	75.69
496.442	97.69
496.66	94.69
496.877	89.69
497.094	93.69
497.312	93.69
497.529	80.69
497.746	79.69
497.963	75.69
498.181	121.69
498.398	103.69
498.615	111.69
498.832	100.69
499.049	101.69
499.267	93.69
499.484	88.69
499.701	96.69
499.918	105.69
500.135	103.69
500.352	93.69
500.569	96.69
500.786	113.69
501.003	90.69
501.22	107.69
501.437	94.69
501.654	106.69
501.871	107.69
502.088	107.69
502.305	96.69
502.522	96.69
502.739	100.69
502.956	95.69
503.172	93.69
503.389	99.69
503.606	103.69
503.823	102.69
504.04	89.69
504.256	85.69
504.473	90.69
504.69	91.69
504.907	91.69
505.123	93.69
505.34	95.69
505.557	98.69
505.773	90.69
505.99	101.69
506.207	104.69
506.423	84.69
506.64	95.69
506.856	92.69
507.073	88.69
507.289	105.69
507.506	105.69
507.722	127.69
507.939	114.69
508.155	103.69
508.372	90.69
508.588	89.69
508.805	96.69
509.021	102.69
509.238	108.69
509.454	104.69
509.67	114.69
509.887	88.69
510.103	121.69
510.319	206.69
510.536	716.69
510.752	2288.69
510.968	653.69
511.184	163.69
511.401	113.69
511.617	104.69
511.833	107.69
512.049	105.69
512.265	108.69
512.481	109.69
512.698	90.69
512.914	98.69
513.13	112.69
513.346	102.69
513.562	99.69
