Data from Circ_2011_H10_HRD10591_00056.txt Node
Date: Wed Jan 03 10:08:10 EST 2024
User: Yrep
Spectrometer: HR+D1059
Trigger mode: 1
Integration Time (sec): 1.000000E-1
Scans to average: 1
Electric dark correction enabled: true
Nonlinearity correction enabled: false
Boxcar width: 0
XAxis mode: Wavelengths
Number of Pixels in Spectrum: 2048
>>>>>Begin Spectral Data<<<<<
223.165	-18.31
223.4	-18.31
223.635	-18.31
223.869	-16.31
224.104	-9.31
224.338	-25.31
224.573	-13.31
224.808	-1.31
225.042	-2.31
225.277	-1.31
225.511	-1.31
225.746	-8.31
225.98	0.69
226.215	-0.31
226.449	12.69
226.683	32.69
226.918	20.69
227.152	30.69
227.387	27.69
227.621	32.69
227.856	59.69
228.09	40.69
228.324	47.69
228.559	53.69
228.793	63.69
229.027	63.69
229.262	62.69
229.496	64.69
229.73	89.69
229.964	88.69
230.199	80.69
230.433	74.69
230.667	67.69
230.901	74.69
231.136	69.69
231.37	62.69
231.604	71.69
231.838	76.69
232.072	83.69
232.306	84.69
232.541	77.69
232.775	80.69
233.009	83.69
233.243	90.69
233.477	81.69
233.711	72.69
233.945	74.69
234.179	86.69
234.413	90.69
234.647	78.69
234.881	75.69
235.115	87.69
235.349	91.69
235.583	91.69
235.817	69.69
236.051	98.69
236.285	81.69
236.519	70.69
236.753	70.69
236.987	85.69
237.221	84.69
237.455	93.69
237.689	75.69
237.922	65.69
238.156	85.69
238.39	79.69
238.624	66.69
238.858	76.69
239.091	67.69
239.325	67.69
239.559	76.69
239.793	88.69
240.027	76.69
240.26	78.69
240.494	68.69
240.728	65.69
240.961	67.69
241.195	53.69
241.429	92.69
241.662	67.69
241.896	78.69
242.13	68.69
242.363	68.69
242.597	100.69
242.83	77.69
243.064	63.69
243.298	77.69
243.531	78.69
243.765	83.69
243.998	85.69
244.232	77.69
244.465	79.69
244.699	82.69
244.932	79.69
245.166	76.69
245.399	77.69
245.633	75.69
245.866	69.69
246.099	98.69
246.333	70.69
246.566	78.69
246.8	83.69
247.033	77.69
247.266	63.69
247.5	75.69
247.733	83.69
247.966	79.69
248.2	82.69
248.433	92.69
248.666	79.69
248.899	76.69
249.133	85.69
249.366	81.69
249.599	101.69
249.832	90.69
250.066	78.69
250.299	70.69
250.532	89.69
250.765	72.69
250.998	80.69
251.231	77.69
251.465	73.69
251.698	90.69
251.931	79.69
252.164	77.69
252.397	76.69
252.63	75.69
252.863	69.69
253.096	98.69
253.329	72.69
253.562	80.69
253.795	89.69
254.028	69.69
254.261	61.69
254.494	85.69
254.727	84.69
254.96	78.69
255.193	68.69
255.426	86.69
255.659	87.69
255.892	91.69
256.124	85.69
256.357	77.69
256.59	72.69
256.823	86.69
257.056	78.69
257.289	65.69
257.521	83.69
257.754	83.69
257.987	72.69
258.22	93.69
258.452	88.69
258.685	76.69
258.918	82.69
259.151	80.69
259.383	79.69
259.616	76.69
259.849	78.69
260.081	77.69
260.314	86.69
260.547	75.69
260.779	74.69
261.012	82.69
261.244	80.69
261.477	93.69
261.71	97.69
261.942	100.69
262.175	95.69
262.407	86.69
262.64	79.69
262.872	90.69
263.105	78.69
263.337	84.69
263.57	84.69
263.802	95.69
264.035	76.69
264.267	87.69
264.499	85.69
264.732	91.69
264.964	82.69
265.197	84.69
265.429	80.69
265.661	78.69
265.894	88.69
266.126	80.69
266.358	76.69
266.591	85.69
266.823	70.69
267.055	75.69
267.287	85.69
267.52	85.69
267.752	92.69
267.984	71.69
268.216	80.69
268.448	77.69
268.681	85.69
268.913	87.69
269.145	83.69
269.377	96.69
269.609	76.69
269.841	92.69
270.073	75.69
270.306	77.69
270.538	79.69
270.77	80.69
271.002	90.69
271.234	74.69
271.466	85.69
271.698	83.69
271.93	93.69
272.162	83.69
272.394	86.69
272.626	74.69
272.858	87.69
273.09	82.69
273.322	89.69
273.553	97.69
273.785	85.69
274.017	87.69
274.249	84.69
274.481	70.69
274.713	92.69
274.945	93.69
275.176	101.69
275.408	85.69
275.64	90.69
275.872	84.69
276.104	97.69
276.335	84.69
276.567	101.69
276.799	111.69
277.031	93.69
277.262	88.69
277.494	104.69
277.726	86.69
277.957	77.69
278.189	86.69
278.421	77.69
278.652	89.69
278.884	91.69
279.115	91.69
279.347	90.69
279.579	81.69
279.81	79.69
280.042	98.69
280.273	121.69
280.505	95.69
280.736	82.69
280.968	97.69
281.199	72.69
281.431	91.69
281.662	92.69
281.894	100.69
282.125	87.69
282.356	115.69
282.588	128.69
282.819	106.69
283.051	69.69
283.282	75.69
283.513	92.69
283.745	84.69
283.976	91.69
284.207	83.69
284.439	76.69
284.67	91.69
284.901	91.69
285.132	84.69
285.364	97.69
285.595	95.69
285.826	91.69
286.057	90.69
286.288	94.69
286.52	97.69
286.751	88.69
286.982	84.69
287.213	97.69
287.444	72.69
287.675	71.69
287.906	79.69
288.138	86.69
288.369	91.69
288.6	91.69
288.831	90.69
289.062	90.69
289.293	95.69
289.524	90.69
289.755	87.69
289.986	92.69
290.217	77.69
290.448	91.69
290.679	100.69
290.91	98.69
291.141	82.69
291.371	75.69
291.602	84.69
291.833	92.69
292.064	86.69
292.295	84.69
292.526	99.69
292.757	77.69
292.987	83.69
293.218	77.69
293.449	81.69
293.68	83.69
293.91	89.69
294.141	87.69
294.372	88.69
294.603	95.69
294.833	96.69
295.064	94.69
295.295	109.69
295.525	101.69
295.756	80.69
295.987	92.69
296.217	133.69
296.448	116.69
296.679	100.69
296.909	92.69
297.14	98.69
297.37	94.69
297.601	100.69
297.831	80.69
298.062	94.69
298.292	90.69
298.523	80.69
298.753	104.69
298.984	93.69
299.214	86.69
299.445	92.69
299.675	103.69
299.905	98.69
300.136	88.69
300.366	96.69
300.597	86.69
300.827	85.69
301.057	84.69
301.288	107.69
301.518	95.69
301.748	95.69
301.979	107.69
302.209	86.69
302.439	94.69
302.669	85.69
302.9	92.69
303.13	93.69
303.36	73.69
303.59	94.69
303.82	98.69
304.051	90.69
304.281	96.69
304.511	81.69
304.741	94.69
304.971	88.69
305.201	79.69
305.431	108.69
305.661	85.69
305.891	102.69
306.121	108.69
306.352	96.69
306.582	87.69
306.812	86.69
307.042	103.69
307.272	102.69
307.502	115.69
307.731	96.69
307.961	98.69
308.191	93.69
308.421	88.69
308.651	76.69
308.881	100.69
309.111	95.69
309.341	90.69
309.571	102.69
309.8	94.69
310.03	88.69
310.26	93.69
310.49	87.69
310.72	117.69
310.949	108.69
311.179	105.69
311.409	90.69
311.639	91.69
311.868	92.69
312.098	90.69
312.328	99.69
312.557	111.69
312.787	103.69
313.017	109.69
313.246	96.69
313.476	96.69
313.706	86.69
313.935	103.69
314.165	96.69
314.394	116.69
314.624	96.69
314.853	105.69
315.083	81.69
315.312	102.69
315.542	76.69
315.771	94.69
316.001	88.69
316.23	94.69
316.46	90.69
316.689	88.69
316.919	103.69
317.148	96.69
317.377	87.69
317.607	96.69
317.836	91.69
318.065	88.69
318.295	84.69
318.524	102.69
318.753	89.69
318.983	79.69
319.212	98.69
319.441	94.69
319.67	92.69
319.9	98.69
320.129	100.69
320.358	83.69
320.587	98.69
320.816	99.69
321.046	97.69
321.275	92.69
321.504	99.69
321.733	103.69
321.962	105.69
322.191	91.69
322.42	94.69
322.649	116.69
322.878	111.69
323.108	114.69
323.337	125.69
323.566	140.69
323.795	160.69
324.024	218.69
324.253	436.69
324.482	906.69
324.71	1894.69
324.939	2484.69
325.168	900.69
325.397	268.69
325.626	158.69
325.855	138.69
326.084	126.69
326.313	129.69
326.542	158.69
326.77	242.69
326.999	519.69
327.228	1053.69
327.457	1974.69
327.686	1558.69
327.914	422.69
328.143	230.69
328.372	201.69
328.6	152.69
328.829	125.69
329.058	135.69
329.287	127.69
329.515	115.69
329.744	115.69
329.972	162.69
330.201	211.69
330.43	263.69
330.658	187.69
330.887	148.69
331.115	122.69
331.344	96.69
331.572	96.69
331.801	98.69
332.03	97.69
332.258	101.69
332.486	89.69
332.715	82.69
332.943	96.69
333.172	100.69
333.4	101.69
333.629	119.69
333.857	130.69
334.085	157.69
334.314	217.69
334.542	326.69
334.771	329.69
334.999	152.69
335.227	112.69
335.455	118.69
335.684	114.69
335.912	99.69
336.14	92.69
336.369	79.69
336.597	95.69
336.825	106.69
337.053	92.69
337.281	90.69
337.51	83.69
337.738	90.69
337.966	94.69
338.194	102.69
338.422	91.69
338.65	90.69
338.878	91.69
339.106	90.69
339.334	96.69
339.562	88.69
339.79	103.69
340.018	102.69
340.246	82.69
340.474	91.69
340.702	98.69
340.93	94.69
341.158	104.69
341.386	96.69
341.614	93.69
341.842	96.69
342.07	89.69
342.298	92.69
342.526	92.69
342.754	83.69
342.981	83.69
343.209	94.69
343.437	108.69
343.665	87.69
343.893	114.69
344.12	84.69
344.348	88.69
344.576	78.69
344.804	82.69
345.031	101.69
345.259	96.69
345.487	84.69
345.714	87.69
345.942	79.69
346.17	86.69
346.397	91.69
346.625	82.69
346.853	104.69
347.08	91.69
347.308	95.69
347.535	110.69
347.763	102.69
347.99	96.69
348.218	103.69
348.445	98.69
348.673	95.69
348.9	92.69
349.128	89.69
349.355	89.69
349.583	89.69
349.81	90.69
350.037	93.69
350.265	96.69
350.492	87.69
350.72	92.69
350.947	94.69
351.174	103.69
351.402	114.69
351.629	90.69
351.856	107.69
352.083	98.69
352.311	116.69
352.538	105.69
352.765	116.69
352.992	118.69
353.22	102.69
353.447	98.69
353.674	97.69
353.901	104.69
354.128	101.69
354.355	90.69
354.583	98.69
354.81	107.69
355.037	93.69
355.264	82.69
355.491	83.69
355.718	76.69
355.945	90.69
356.172	96.69
356.399	86.69
356.626	92.69
356.853	87.69
357.08	92.69
357.307	94.69
357.534	91.69
357.761	103.69
357.988	101.69
358.215	91.69
358.441	88.69
358.668	104.69
358.895	87.69
359.122	97.69
359.349	99.69
359.576	78.69
359.802	102.69
360.029	114.69
360.256	104.69
360.483	115.69
360.709	84.69
360.936	97.69
361.163	93.69
361.39	94.69
361.616	91.69
361.843	99.69
362.07	83.69
362.296	100.69
362.523	86.69
362.749	86.69
362.976	83.69
363.203	86.69
363.429	93.69
363.656	93.69
363.882	86.69
364.109	86.69
364.335	83.69
364.562	79.69
364.788	89.69
365.015	93.69
365.241	95.69
365.468	103.69
365.694	97.69
365.92	102.69
366.147	92.69
366.373	71.69
366.599	82.69
366.826	91.69
367.052	83.69
367.278	74.69
367.505	90.69
367.731	82.69
367.957	88.69
368.184	98.69
368.41	110.69
368.636	102.69
368.862	109.69
369.089	110.69
369.315	83.69
369.541	102.69
369.767	95.69
369.993	96.69
370.219	84.69
370.445	85.69
370.672	93.69
370.898	76.69
371.124	76.69
371.35	79.69
371.576	78.69
371.802	99.69
372.028	81.69
372.254	76.69
372.48	99.69
372.706	98.69
372.932	94.69
373.158	83.69
373.384	94.69
373.61	88.69
373.835	102.69
374.061	92.69
374.287	95.69
374.513	81.69
374.739	70.69
374.965	92.69
375.191	89.69
375.416	96.69
375.642	101.69
375.868	85.69
376.094	82.69
376.319	86.69
376.545	87.69
376.771	79.69
376.997	83.69
377.222	85.69
377.448	87.69
377.674	90.69
377.899	86.69
378.125	82.69
378.35	85.69
378.576	78.69
378.802	87.69
379.027	79.69
379.253	89.69
379.478	89.69
379.704	90.69
379.929	100.69
380.155	100.69
380.38	86.69
380.606	102.69
380.831	94.69
381.057	98.69
381.282	101.69
381.507	86.69
381.733	83.69
381.958	98.69
382.184	101.69
382.409	93.69
382.634	118.69
382.86	105.69
383.085	90.69
383.31	102.69
383.535	91.69
383.761	109.69
383.986	96.69
384.211	97.69
384.436	84.69
384.662	94.69
384.887	96.69
385.112	93.69
385.337	103.69
385.562	94.69
385.787	104.69
386.013	93.69
386.238	107.69
386.463	95.69
386.688	85.69
386.913	95.69
387.138	107.69
387.363	114.69
387.588	93.69
387.813	99.69
388.038	102.69
388.263	107.69
388.488	101.69
388.713	80.69
388.938	105.69
389.163	92.69
389.387	94.69
389.612	101.69
389.837	88.69
390.062	84.69
390.287	94.69
390.512	89.69
390.736	83.69
390.961	92.69
391.186	88.69
391.411	94.69
391.636	78.69
391.86	96.69
392.085	99.69
392.31	92.69
392.534	84.69
392.759	93.69
392.984	84.69
393.208	94.69
393.433	91.69
393.658	89.69
393.882	93.69
394.107	89.69
394.331	86.69
394.556	75.69
394.78	96.69
395.005	99.69
395.229	93.69
395.454	85.69
395.678	91.69
395.903	94.69
396.127	84.69
396.352	77.69
396.576	76.69
396.801	98.69
397.025	96.69
397.249	82.69
397.474	85.69
397.698	102.69
397.922	85.69
398.147	87.69
398.371	79.69
398.595	85.69
398.82	80.69
399.044	79.69
399.268	72.69
399.492	93.69
399.717	93.69
399.941	99.69
400.165	100.69
400.389	94.69
400.613	84.69
400.837	71.69
401.062	87.69
401.286	78.69
401.51	87.69
401.734	71.69
401.958	100.69
402.182	127.69
402.406	156.69
402.63	113.69
402.854	94.69
403.078	97.69
403.302	96.69
403.526	98.69
403.75	87.69
403.974	89.69
404.198	90.69
404.422	95.69
404.645	90.69
404.869	94.69
405.093	108.69
405.317	116.69
405.541	104.69
405.765	122.69
405.988	127.69
406.212	175.69
406.436	227.69
406.66	145.69
406.883	96.69
407.107	90.69
407.331	108.69
407.555	109.69
407.778	88.69
408.002	85.69
408.226	107.69
408.449	83.69
408.673	92.69
408.896	94.69
409.12	110.69
409.344	88.69
409.567	87.69
409.791	108.69
410.014	95.69
410.238	96.69
410.461	108.69
410.685	94.69
410.908	75.69
411.132	88.69
411.355	96.69
411.578	93.69
411.802	81.69
412.025	83.69
412.249	106.69
412.472	96.69
412.695	111.69
412.919	103.69
413.142	82.69
413.365	83.69
413.589	91.69
413.812	85.69
414.035	71.69
414.258	85.69
414.482	97.69
414.705	78.69
414.928	84.69
415.151	105.69
415.374	85.69
415.597	83.69
415.821	90.69
416.044	78.69
416.267	107.69
416.49	104.69
416.713	88.69
416.936	88.69
417.159	93.69
417.382	97.69
417.605	68.69
417.828	87.69
418.051	86.69
418.274	92.69
418.497	82.69
418.72	100.69
418.943	86.69
419.166	84.69
419.389	80.69
419.611	86.69
419.834	70.69
420.057	92.69
420.28	92.69
420.503	93.69
420.726	94.69
420.948	84.69
421.171	87.69
421.394	76.69
421.617	79.69
421.839	92.69
422.062	83.69
422.285	84.69
422.507	88.69
422.73	114.69
422.953	93.69
423.175	74.69
423.398	91.69
423.621	70.69
423.843	77.69
424.066	88.69
424.288	87.69
424.511	99.69
424.733	96.69
424.956	117.69
425.178	102.69
425.401	112.69
425.623	103.69
425.846	94.69
426.068	89.69
426.291	93.69
426.513	99.69
426.735	82.69
426.958	83.69
427.18	102.69
427.402	140.69
427.625	175.69
427.847	155.69
428.069	134.69
428.292	116.69
428.514	79.69
428.736	96.69
428.958	84.69
429.181	77.69
429.403	74.69
429.625	95.69
429.847	90.69
430.069	103.69
430.292	101.69
430.514	83.69
430.736	87.69
430.958	91.69
431.18	100.69
431.402	87.69
431.624	91.69
431.846	87.69
432.068	92.69
432.29	82.69
432.512	83.69
432.734	75.69
432.956	94.69
433.178	108.69
433.4	91.69
433.622	99.69
433.844	96.69
434.066	105.69
434.287	86.69
434.509	88.69
434.731	94.69
434.953	87.69
435.175	92.69
435.397	77.69
435.618	86.69
435.84	120.69
436.062	125.69
436.284	116.69
436.505	103.69
436.727	96.69
436.949	85.69
437.17	90.69
437.392	102.69
437.614	104.69
437.835	91.69
438.057	129.69
438.278	106.69
438.5	109.69
438.721	128.69
438.943	93.69
439.165	84.69
439.386	90.69
439.608	93.69
439.829	103.69
440.05	129.69
440.272	138.69
440.493	100.69
440.715	84.69
440.936	85.69
441.158	91.69
441.379	81.69
441.6	96.69
441.822	101.69
442.043	105.69
442.264	108.69
442.486	102.69
442.707	83.69
442.928	101.69
443.149	125.69
443.371	136.69
443.592	105.69
443.813	109.69
444.034	110.69
444.255	100.69
444.476	79.69
444.698	100.69
444.919	90.69
445.14	143.69
445.361	132.69
445.582	116.69
445.803	150.69
446.024	139.69
446.245	151.69
446.466	120.69
446.687	79.69
446.908	98.69
447.129	88.69
447.35	82.69
447.571	80.69
447.792	101.69
448.013	87.69
448.234	93.69
448.455	91.69
448.675	120.69
448.896	125.69
449.117	91.69
449.338	113.69
449.559	136.69
449.779	141.69
450	96.69
450.221	95.69
450.442	84.69
450.662	102.69
450.883	106.69
451.104	115.69
451.324	98.69
451.545	79.69
451.766	85.69
451.986	92.69
452.207	94.69
452.428	96.69
452.648	93.69
452.869	96.69
453.089	108.69
453.31	114.69
453.53	80.69
453.751	79.69
453.971	112.69
454.192	98.69
454.412	87.69
454.633	90.69
454.853	84.69
455.073	91.69
455.294	93.69
455.514	94.69
455.734	91.69
455.955	87.69
456.175	77.69
456.395	83.69
456.616	84.69
456.836	78.69
457.056	87.69
457.276	70.69
457.497	89.69
457.717	75.69
457.937	93.69
458.157	92.69
458.377	92.69
458.598	113.69
458.818	153.69
459.038	143.69
459.258	119.69
459.478	112.69
459.698	91.69
459.918	82.69
460.138	80.69
460.358	96.69
460.578	79.69
460.798	90.69
461.018	84.69
461.238	79.69
461.458	71.69
461.678	93.69
461.898	79.69
462.118	86.69
462.338	88.69
462.558	103.69
462.777	83.69
462.997	79.69
463.217	77.69
463.437	89.69
463.657	79.69
463.876	97.69
464.096	95.69
464.316	83.69
464.536	92.69
464.755	103.69
464.975	97.69
465.195	161.69
465.414	154.69
465.634	104.69
465.854	85.69
466.073	83.69
466.293	84.69
466.512	86.69
466.732	88.69
466.951	99.69
467.171	92.69
467.391	96.69
467.61	121.69
467.829	115.69
468.049	143.69
468.268	191.69
468.488	100.69
468.707	90.69
468.927	72.69
469.146	73.69
469.365	86.69
469.585	87.69
469.804	87.69
470.023	100.69
470.243	102.69
470.462	114.69
470.681	116.69
470.901	86.69
471.12	84.69
471.339	93.69
471.558	102.69
471.777	93.69
471.997	121.69
472.216	226.69
472.435	398.69
472.654	148.69
472.873	99.69
473.092	82.69
473.311	74.69
473.53	95.69
473.749	92.69
473.968	103.69
474.187	104.69
474.406	89.69
474.625	75.69
474.844	93.69
475.063	94.69
475.282	93.69
475.501	87.69
475.72	85.69
475.939	93.69
476.158	86.69
476.377	82.69
476.596	84.69
476.814	93.69
477.033	85.69
477.252	81.69
477.471	90.69
477.69	87.69
477.908	87.69
478.127	87.69
478.346	89.69
478.564	103.69
478.783	97.69
479.002	94.69
479.22	97.69
479.439	102.69
479.658	110.69
479.876	99.69
480.095	77.69
480.313	107.69
480.532	99.69
480.751	121.69
480.969	228.69
481.188	667.69
481.406	422.69
481.624	120.69
481.843	89.69
482.061	79.69
482.28	86.69
482.498	99.69
482.717	81.69
482.935	91.69
483.153	95.69
483.372	86.69
483.59	107.69
483.808	78.69
484.027	86.69
484.245	87.69
484.463	94.69
484.681	99.69
484.9	88.69
485.118	99.69
485.336	97.69
485.554	92.69
485.772	99.69
485.99	106.69
486.209	116.69
486.427	109.69
486.645	126.69
486.863	110.69
487.081	102.69
487.299	91.69
487.517	87.69
487.735	85.69
487.953	78.69
488.171	101.69
488.389	95.69
488.607	88.69
488.825	94.69
489.043	86.69
489.261	88.69
489.479	72.69
489.696	94.69
489.914	94.69
490.132	81.69
490.35	86.69
490.568	95.69
490.786	77.69
491.003	84.69
491.221	95.69
491.439	87.69
491.657	101.69
491.874	98.69
492.092	85.69
492.31	95.69
492.527	93.69
492.745	95.69
492.963	86.69
493.18	84.69
493.398	84.69
493.615	83.69
493.833	92.69
494.05	81.69
494.268	85.69
494.485	102.69
494.703	107.69
494.92	86.69
495.138	86.69
495.355	80.69
495.573	90.69
495.79	94.69
496.008	85.69
496.225	95.69
496.442	94.69
496.66	88.69
496.877	78.69
497.094	84.69
497.312	92.69
497.529	87.69
497.746	87.69
497.963	102.69
498.181	97.69
498.398	95.69
498.615	126.69
498.832	111.69
499.049	91.69
499.267	89.69
499.484	81.69
499.701	90.69
499.918	90.69
500.135	92.69
500.352	92.69
500.569	89.69
500.786	99.69
501.003	89.69
501.22	82.69
501.437	87.69
501.654	92.69
501.871	95.69
502.088	97.69
502.305	76.69
502.522	82.69
502.739	86.69
502.956	100.69
503.172	86.69
503.389	92.69
503.606	110.69
503.823	102.69
504.04	99.69
504.256	88.69
504.473	79.69
504.69	89.69
504.907	103.69
505.123	94.69
505.34	78.69
505.557	105.69
505.773	88.69
505.99	86.69
506.207	92.69
506.423	93.69
506.64	88.69
506.856	91.69
507.073	76.69
507.289	73.69
507.506	101.69
507.722	105.69
507.939	123.69
508.155	85.69
508.372	100.69
508.588	76.69
508.805	79.69
509.021	91.69
509.238	94.69
509.454	110.69
509.67	98.69
509.887	113.69
510.103	126.69
510.319	186.69
510.536	699.69
510.752	2170.69
510.968	621.69
511.184	152.69
511.401	119.69
511.617	92.69
511.833	86.69
512.049	91.69
512.265	79.69
512.481	102.69
512.698	98.69
512.914	95.69
513.13	101.69
513.346	96.69
513.562	99.69
513.778	103.69
513.994	93.69
514.21	101.69
514.426	123.69
514.642	128.69
514.858	122.69
515.074	174.69
515.29	423.69
515.506	1437.69
