Data from Circ_2011_H10_HRD10591_00054.txt Node
Date: Wed Jan 03 10:08:09 EST 2024
User: Yrep
Spectrometer: HR+D1059
Trigger mode: 1
Integration Time (sec): 1.000000E-1
Scans to average: 1
Electric dark correction enabled: true
Nonlinearity correction enabled: false
Boxcar width: 0
XAxis mode: Wavelengths
Number of Pixels in Spectrum: 2048
>>>>>Begin Spectral Data<<<<<
223.165	-20.25
223.4	-20.25
223.635	-20.25
223.869	-21.25
224.104	-19.25
224.338	-12.25
224.573	-6.25
224.808	-31.25
225.042	-8.25
225.277	-3.25
225.511	-3.25
225.746	2.75
225.98	-8.25
226.215	27.75
226.449	30.75
226.683	13.75
226.918	26.75
227.152	31.75
227.387	45.75
227.621	21.75
227.856	29.75
228.09	53.75
228.324	44.75
228.559	56.75
228.793	75.75
229.027	63.75
229.262	74.75
229.496	87.75
229.73	72.75
229.964	82.75
230.199	81.75
230.433	61.75
230.667	80.75
230.901	74.75
231.136	78.75
231.37	74.75
231.604	73.75
231.838	69.75
232.072	86.75
232.306	83.75
232.541	87.75
232.775	77.75
233.009	66.75
233.243	87.75
233.477	95.75
233.711	87.75
233.945	77.75
234.179	84.75
234.413	80.75
234.647	71.75
234.881	76.75
235.115	83.75
235.349	89.75
235.583	77.75
235.817	79.75
236.051	75.75
236.285	67.75
236.519	83.75
236.753	77.75
236.987	89.75
237.221	71.75
237.455	78.75
237.689	75.75
237.922	72.75
238.156	79.75
238.39	81.75
238.624	76.75
238.858	88.75
239.091	83.75
239.325	78.75
239.559	84.75
239.793	70.75
240.027	81.75
240.26	79.75
240.494	75.75
240.728	80.75
240.961	87.75
241.195	85.75
241.429	78.75
241.662	86.75
241.896	68.75
242.13	80.75
242.363	83.75
242.597	77.75
242.83	80.75
243.064	73.75
243.298	81.75
243.531	74.75
243.765	80.75
243.998	84.75
244.232	73.75
244.465	72.75
244.699	78.75
244.932	76.75
245.166	74.75
245.399	70.75
245.633	82.75
245.866	85.75
246.099	68.75
246.333	74.75
246.566	86.75
246.8	90.75
247.033	86.75
247.266	73.75
247.5	87.75
247.733	60.75
247.966	68.75
248.2	70.75
248.433	81.75
248.666	72.75
248.899	75.75
249.133	80.75
249.366	95.75
249.599	98.75
249.832	66.75
250.066	96.75
250.299	84.75
250.532	72.75
250.765	93.75
250.998	69.75
251.231	82.75
251.465	75.75
251.698	88.75
251.931	73.75
252.164	72.75
252.397	82.75
252.63	86.75
252.863	77.75
253.096	70.75
253.329	85.75
253.562	65.75
253.795	80.75
254.028	72.75
254.261	84.75
254.494	79.75
254.727	78.75
254.96	86.75
255.193	75.75
255.426	79.75
255.659	80.75
255.892	72.75
256.124	85.75
256.357	81.75
256.59	81.75
256.823	85.75
257.056	77.75
257.289	78.75
257.521	89.75
257.754	82.75
257.987	78.75
258.22	79.75
258.452	81.75
258.685	87.75
258.918	99.75
259.151	83.75
259.383	84.75
259.616	74.75
259.849	94.75
260.081	79.75
260.314	77.75
260.547	84.75
260.779	85.75
261.012	72.75
261.244	92.75
261.477	86.75
261.71	96.75
261.942	106.75
262.175	100.75
262.407	89.75
262.64	80.75
262.872	75.75
263.105	78.75
263.337	93.75
263.57	82.75
263.802	99.75
264.035	88.75
264.267	73.75
264.499	87.75
264.732	81.75
264.964	88.75
265.197	82.75
265.429	88.75
265.661	62.75
265.894	69.75
266.126	88.75
266.358	89.75
266.591	83.75
266.823	75.75
267.055	71.75
267.287	84.75
267.52	64.75
267.752	77.75
267.984	94.75
268.216	102.75
268.448	90.75
268.681	87.75
268.913	94.75
269.145	80.75
269.377	75.75
269.609	71.75
269.841	80.75
270.073	83.75
270.306	82.75
270.538	79.75
270.77	81.75
271.002	73.75
271.234	87.75
271.466	71.75
271.698	77.75
271.93	83.75
272.162	87.75
272.394	86.75
272.626	86.75
272.858	80.75
273.09	86.75
273.322	81.75
273.553	86.75
273.785	85.75
274.017	80.75
274.249	81.75
274.481	77.75
274.713	85.75
274.945	83.75
275.176	91.75
275.408	83.75
275.64	84.75
275.872	90.75
276.104	79.75
276.335	91.75
276.567	94.75
276.799	102.75
277.031	95.75
277.262	102.75
277.494	85.75
277.726	83.75
277.957	100.75
278.189	95.75
278.421	88.75
278.652	92.75
278.884	84.75
279.115	85.75
279.347	86.75
279.579	91.75
279.81	94.75
280.042	85.75
280.273	100.75
280.505	82.75
280.736	82.75
280.968	77.75
281.199	90.75
281.431	89.75
281.662	74.75
281.894	89.75
282.125	121.75
282.356	126.75
282.588	137.75
282.819	130.75
283.051	83.75
283.282	79.75
283.513	81.75
283.745	88.75
283.976	83.75
284.207	79.75
284.439	87.75
284.67	101.75
284.901	96.75
285.132	94.75
285.364	90.75
285.595	84.75
285.826	69.75
286.057	74.75
286.288	89.75
286.52	84.75
286.751	90.75
286.982	87.75
287.213	82.75
287.444	88.75
287.675	86.75
287.906	93.75
288.138	82.75
288.369	104.75
288.6	93.75
288.831	91.75
289.062	84.75
289.293	84.75
289.524	89.75
289.755	80.75
289.986	78.75
290.217	83.75
290.448	94.75
290.679	93.75
290.91	82.75
291.141	105.75
291.371	78.75
291.602	85.75
291.833	86.75
292.064	86.75
292.295	95.75
292.526	85.75
292.757	87.75
292.987	86.75
293.218	83.75
293.449	82.75
293.68	91.75
293.91	93.75
294.141	88.75
294.372	74.75
294.603	100.75
294.833	83.75
295.064	86.75
295.295	90.75
295.525	100.75
295.756	102.75
295.987	118.75
296.217	137.75
296.448	127.75
296.679	96.75
296.909	94.75
297.14	83.75
297.37	94.75
297.601	90.75
297.831	84.75
298.062	79.75
298.292	90.75
298.523	90.75
298.753	88.75
298.984	85.75
299.214	95.75
299.445	87.75
299.675	84.75
299.905	84.75
300.136	92.75
300.366	91.75
300.597	95.75
300.827	79.75
301.057	101.75
301.288	96.75
301.518	94.75
301.748	93.75
301.979	95.75
302.209	82.75
302.439	84.75
302.669	86.75
302.9	92.75
303.13	93.75
303.36	96.75
303.59	94.75
303.82	96.75
304.051	98.75
304.281	82.75
304.511	77.75
304.741	93.75
304.971	91.75
305.201	87.75
305.431	87.75
305.661	87.75
305.891	91.75
306.121	79.75
306.352	94.75
306.582	108.75
306.812	95.75
307.042	101.75
307.272	98.75
307.502	94.75
307.731	93.75
307.961	91.75
308.191	83.75
308.421	80.75
308.651	103.75
308.881	100.75
309.111	99.75
309.341	88.75
309.571	81.75
309.8	80.75
310.03	91.75
310.26	97.75
310.49	85.75
310.72	99.75
310.949	106.75
311.179	101.75
311.409	89.75
311.639	97.75
311.868	89.75
312.098	80.75
312.328	105.75
312.557	105.75
312.787	99.75
313.017	113.75
313.246	87.75
313.476	91.75
313.706	83.75
313.935	91.75
314.165	91.75
314.394	89.75
314.624	98.75
314.853	85.75
315.083	88.75
315.312	90.75
315.542	94.75
315.771	96.75
316.001	85.75
316.23	96.75
316.46	88.75
316.689	96.75
316.919	88.75
317.148	104.75
317.377	94.75
317.607	74.75
317.836	100.75
318.065	81.75
318.295	88.75
318.524	99.75
318.753	91.75
318.983	96.75
319.212	95.75
319.441	117.75
319.67	110.75
319.9	87.75
320.129	86.75
320.358	89.75
320.587	111.75
320.816	99.75
321.046	85.75
321.275	83.75
321.504	99.75
321.733	101.75
321.962	94.75
322.191	99.75
322.42	115.75
322.649	109.75
322.878	114.75
323.108	119.75
323.337	143.75
323.566	136.75
323.795	155.75
324.024	205.75
324.253	404.75
324.482	898.75
324.71	1859.75
324.939	2440.75
325.168	881.75
325.397	250.75
325.626	151.75
325.855	128.75
326.084	122.75
326.313	137.75
326.542	164.75
326.77	235.75
326.999	502.75
327.228	998.75
327.457	1906.75
327.686	1542.75
327.914	402.75
328.143	240.75
328.372	211.75
328.6	147.75
328.829	108.75
329.058	126.75
329.287	120.75
329.515	108.75
329.744	120.75
329.972	147.75
330.201	207.75
330.43	256.75
330.658	184.75
330.887	152.75
331.115	126.75
331.344	101.75
331.572	98.75
331.801	94.75
332.03	103.75
332.258	95.75
332.486	87.75
332.715	87.75
332.943	98.75
333.172	106.75
333.4	100.75
333.629	98.75
333.857	132.75
334.085	148.75
334.314	226.75
334.542	327.75
334.771	310.75
334.999	133.75
335.227	107.75
335.455	115.75
335.684	106.75
335.912	91.75
336.14	91.75
336.369	92.75
336.597	105.75
336.825	97.75
337.053	93.75
337.281	85.75
337.51	77.75
337.738	91.75
337.966	92.75
338.194	94.75
338.422	94.75
338.65	87.75
338.878	80.75
339.106	95.75
339.334	90.75
339.562	89.75
339.79	75.75
340.018	80.75
340.246	86.75
340.474	89.75
340.702	106.75
340.93	92.75
341.158	76.75
341.386	82.75
341.614	95.75
341.842	92.75
342.07	92.75
342.298	99.75
342.526	94.75
342.754	81.75
342.981	84.75
343.209	86.75
343.437	102.75
343.665	92.75
343.893	76.75
344.12	85.75
344.348	100.75
344.576	83.75
344.804	91.75
345.031	87.75
345.259	111.75
345.487	93.75
345.714	99.75
345.942	92.75
346.17	94.75
346.397	98.75
346.625	93.75
346.853	88.75
347.08	95.75
347.308	96.75
347.535	97.75
347.763	90.75
347.99	97.75
348.218	92.75
348.445	102.75
348.673	99.75
348.9	84.75
349.128	79.75
349.355	95.75
349.583	86.75
349.81	86.75
350.037	103.75
350.265	97.75
350.492	83.75
350.72	79.75
350.947	104.75
351.174	111.75
351.402	86.75
351.629	96.75
351.856	102.75
352.083	105.75
352.311	106.75
352.538	103.75
352.765	101.75
352.992	109.75
353.22	99.75
353.447	97.75
353.674	93.75
353.901	85.75
354.128	92.75
354.355	98.75
354.583	72.75
354.81	103.75
355.037	83.75
355.264	89.75
355.491	98.75
355.718	88.75
355.945	102.75
356.172	90.75
356.399	85.75
356.626	82.75
356.853	91.75
357.08	91.75
357.307	82.75
357.534	84.75
357.761	77.75
357.988	76.75
358.215	87.75
358.441	86.75
358.668	92.75
358.895	84.75
359.122	99.75
359.349	77.75
359.576	93.75
359.802	100.75
360.029	114.75
360.256	116.75
360.483	96.75
360.709	91.75
360.936	90.75
361.163	94.75
361.39	83.75
361.616	91.75
361.843	82.75
362.07	99.75
362.296	110.75
362.523	92.75
362.749	74.75
362.976	92.75
363.203	90.75
363.429	88.75
363.656	101.75
363.882	90.75
364.109	99.75
364.335	82.75
364.562	89.75
364.788	80.75
365.015	78.75
365.241	99.75
365.468	110.75
365.694	102.75
365.92	90.75
366.147	87.75
366.373	96.75
366.599	76.75
366.826	78.75
367.052	90.75
367.278	94.75
367.505	79.75
367.731	94.75
367.957	93.75
368.184	94.75
368.41	92.75
368.636	86.75
368.862	129.75
369.089	118.75
369.315	83.75
369.541	74.75
369.767	91.75
369.993	78.75
370.219	82.75
370.445	75.75
370.672	79.75
370.898	86.75
371.124	98.75
371.35	83.75
371.576	85.75
371.802	95.75
372.028	79.75
372.254	83.75
372.48	80.75
372.706	91.75
372.932	89.75
373.158	95.75
373.384	100.75
373.61	89.75
373.835	103.75
374.061	75.75
374.287	82.75
374.513	85.75
374.739	80.75
374.965	94.75
375.191	88.75
375.416	77.75
375.642	86.75
375.868	86.75
376.094	97.75
376.319	81.75
376.545	89.75
376.771	76.75
376.997	84.75
377.222	96.75
377.448	98.75
377.674	88.75
377.899	84.75
378.125	76.75
378.35	83.75
378.576	90.75
378.802	88.75
379.027	91.75
379.253	86.75
379.478	77.75
379.704	98.75
379.929	90.75
380.155	93.75
380.38	79.75
380.606	94.75
380.831	93.75
381.057	101.75
381.282	80.75
381.507	104.75
381.733	106.75
381.958	91.75
382.184	98.75
382.409	89.75
382.634	94.75
382.86	103.75
383.085	90.75
383.31	92.75
383.535	94.75
383.761	93.75
383.986	85.75
384.211	92.75
384.436	92.75
384.662	93.75
384.887	102.75
385.112	95.75
385.337	101.75
385.562	80.75
385.787	83.75
386.013	100.75
386.238	106.75
386.463	109.75
386.688	96.75
386.913	97.75
387.138	110.75
387.363	102.75
387.588	103.75
387.813	86.75
388.038	105.75
388.263	105.75
388.488	94.75
388.713	99.75
388.938	88.75
389.163	102.75
389.387	77.75
389.612	96.75
389.837	92.75
390.062	87.75
390.287	90.75
390.512	99.75
390.736	92.75
390.961	93.75
391.186	91.75
391.411	93.75
391.636	90.75
391.86	100.75
392.085	103.75
392.31	79.75
392.534	87.75
392.759	77.75
392.984	84.75
393.208	92.75
393.433	97.75
393.658	86.75
393.882	82.75
394.107	72.75
394.331	66.75
394.556	80.75
394.78	81.75
395.005	93.75
395.229	70.75
395.454	65.75
395.678	84.75
395.903	87.75
396.127	93.75
396.352	88.75
396.576	77.75
396.801	88.75
397.025	77.75
397.249	79.75
397.474	81.75
397.698	78.75
397.922	86.75
398.147	91.75
398.371	90.75
398.595	89.75
398.82	88.75
399.044	84.75
399.268	97.75
399.492	79.75
399.717	93.75
399.941	88.75
400.165	98.75
400.389	79.75
400.613	83.75
400.837	85.75
401.062	76.75
401.286	82.75
401.51	102.75
401.734	84.75
401.958	102.75
402.182	115.75
402.406	148.75
402.63	110.75
402.854	90.75
403.078	80.75
403.302	86.75
403.526	73.75
403.75	94.75
403.974	92.75
404.198	80.75
404.422	86.75
404.645	94.75
404.869	106.75
405.093	101.75
405.317	101.75
405.541	108.75
405.765	96.75
405.988	115.75
406.212	156.75
406.436	210.75
406.66	150.75
406.883	103.75
407.107	93.75
407.331	82.75
407.555	110.75
407.778	96.75
408.002	97.75
408.226	79.75
408.449	84.75
408.673	92.75
408.896	94.75
409.12	103.75
409.344	80.75
409.567	88.75
409.791	81.75
410.014	90.75
410.238	98.75
410.461	86.75
410.685	72.75
410.908	86.75
411.132	105.75
411.355	87.75
411.578	103.75
411.802	94.75
412.025	82.75
412.249	83.75
412.472	99.75
412.695	124.75
412.919	98.75
413.142	89.75
413.365	84.75
413.589	74.75
413.812	87.75
414.035	84.75
414.258	89.75
414.482	93.75
414.705	86.75
414.928	100.75
415.151	90.75
415.374	95.75
415.597	78.75
415.821	70.75
416.044	90.75
416.267	78.75
416.49	94.75
416.713	90.75
416.936	83.75
417.159	77.75
417.382	94.75
417.605	90.75
417.828	86.75
418.051	90.75
418.274	86.75
418.497	80.75
418.72	105.75
418.943	92.75
419.166	75.75
419.389	88.75
419.611	81.75
419.834	94.75
420.057	91.75
420.28	83.75
420.503	96.75
420.726	94.75
420.948	94.75
421.171	86.75
421.394	99.75
421.617	95.75
421.839	105.75
422.062	88.75
422.285	93.75
422.507	98.75
422.73	99.75
422.953	84.75
423.175	80.75
423.398	91.75
423.621	97.75
423.843	88.75
424.066	76.75
424.288	84.75
424.511	83.75
424.733	101.75
424.956	113.75
425.178	91.75
425.401	92.75
425.623	92.75
425.846	87.75
426.068	90.75
426.291	77.75
426.513	82.75
426.735	91.75
426.958	89.75
427.18	110.75
427.402	154.75
427.625	188.75
427.847	152.75
428.069	140.75
428.292	106.75
428.514	91.75
428.736	95.75
428.958	92.75
429.181	72.75
429.403	82.75
429.625	97.75
429.847	96.75
430.069	91.75
430.292	96.75
430.514	83.75
430.736	75.75
430.958	76.75
431.18	84.75
431.402	104.75
431.624	79.75
431.846	75.75
432.068	83.75
432.29	81.75
432.512	93.75
432.734	84.75
432.956	85.75
433.178	105.75
433.4	106.75
433.622	100.75
433.844	76.75
434.066	95.75
434.287	77.75
434.509	70.75
434.731	90.75
434.953	84.75
435.175	104.75
435.397	74.75
435.618	95.75
435.84	102.75
436.062	119.75
436.284	120.75
436.505	98.75
436.727	102.75
436.949	76.75
437.17	82.75
437.392	74.75
437.614	101.75
437.835	104.75
438.057	101.75
438.278	116.75
438.5	95.75
438.721	123.75
438.943	112.75
439.165	89.75
439.386	81.75
439.608	88.75
439.829	103.75
440.05	137.75
440.272	166.75
440.493	88.75
440.715	81.75
440.936	94.75
441.158	98.75
441.379	89.75
441.6	91.75
441.822	100.75
442.043	94.75
442.264	96.75
442.486	97.75
442.707	87.75
442.928	95.75
443.149	142.75
443.371	130.75
443.592	98.75
443.813	131.75
444.034	112.75
444.255	99.75
444.476	99.75
444.698	94.75
444.919	97.75
445.14	119.75
445.361	108.75
445.582	111.75
445.803	129.75
446.024	134.75
446.245	138.75
446.466	122.75
446.687	86.75
446.908	94.75
447.129	80.75
447.35	92.75
447.571	82.75
447.792	81.75
448.013	93.75
448.234	104.75
448.455	91.75
448.675	113.75
448.896	119.75
449.117	102.75
449.338	89.75
449.559	135.75
449.779	132.75
450	100.75
450.221	87.75
450.442	87.75
450.662	94.75
450.883	114.75
451.104	107.75
451.324	85.75
451.545	89.75
451.766	83.75
451.986	87.75
452.207	96.75
452.428	102.75
452.648	112.75
452.869	121.75
453.089	107.75
453.31	119.75
453.53	96.75
453.751	93.75
453.971	97.75
454.192	117.75
454.412	101.75
454.633	79.75
454.853	81.75
455.073	79.75
455.294	84.75
455.514	99.75
455.734	91.75
455.955	76.75
456.175	91.75
456.395	80.75
456.616	90.75
456.836	86.75
457.056	87.75
457.276	89.75
457.497	88.75
457.717	64.75
457.937	87.75
458.157	100.75
458.377	88.75
458.598	99.75
458.818	150.75
459.038	169.75
459.258	111.75
459.478	103.75
459.698	92.75
459.918	75.75
460.138	97.75
460.358	90.75
460.578	84.75
460.798	79.75
461.018	99.75
461.238	90.75
461.458	74.75
461.678	98.75
461.898	86.75
462.118	75.75
462.338	86.75
462.558	87.75
462.777	84.75
462.997	94.75
463.217	82.75
463.437	95.75
463.657	96.75
463.876	89.75
464.096	78.75
464.316	94.75
464.536	92.75
464.755	99.75
464.975	126.75
465.195	164.75
465.414	158.75
465.634	94.75
465.854	100.75
466.073	83.75
466.293	86.75
466.512	100.75
466.732	81.75
466.951	92.75
467.171	90.75
467.391	87.75
467.61	98.75
467.829	110.75
468.049	151.75
468.268	170.75
468.488	100.75
468.707	78.75
468.927	98.75
469.146	78.75
469.365	77.75
469.585	80.75
469.804	99.75
470.023	91.75
470.243	82.75
470.462	105.75
470.681	110.75
470.901	94.75
471.12	77.75
471.339	87.75
471.558	97.75
471.777	87.75
471.997	102.75
472.216	222.75
472.435	388.75
472.654	144.75
472.873	92.75
473.092	83.75
473.311	86.75
473.53	83.75
473.749	88.75
473.968	88.75
474.187	103.75
474.406	98.75
474.625	86.75
474.844	98.75
475.063	91.75
475.282	86.75
475.501	89.75
475.72	98.75
475.939	90.75
476.158	91.75
476.377	88.75
476.596	98.75
476.814	94.75
477.033	88.75
477.252	79.75
477.471	74.75
477.69	80.75
477.908	92.75
478.127	92.75
478.346	86.75
478.564	76.75
478.783	85.75
479.002	88.75
479.22	104.75
479.439	103.75
479.658	109.75
479.876	88.75
480.095	92.75
480.313	98.75
480.532	95.75
480.751	117.75
480.969	223.75
481.188	666.75
481.406	425.75
481.624	135.75
481.843	91.75
482.061	71.75
482.28	84.75
482.498	91.75
482.717	91.75
482.935	101.75
483.153	84.75
483.372	80.75
483.59	88.75
483.808	93.75
484.027	96.75
484.245	92.75
484.463	96.75
484.681	91.75
484.9	82.75
485.118	95.75
485.336	104.75
485.554	87.75
485.772	94.75
485.99	99.75
486.209	106.75
486.427	104.75
486.645	103.75
486.863	110.75
487.081	95.75
487.299	82.75
487.517	94.75
487.735	93.75
487.953	85.75
488.171	85.75
488.389	99.75
488.607	98.75
488.825	96.75
489.043	95.75
489.261	96.75
489.479	86.75
489.696	86.75
489.914	85.75
490.132	79.75
490.35	83.75
490.568	79.75
490.786	93.75
491.003	87.75
491.221	72.75
491.439	75.75
491.657	76.75
491.874	89.75
492.092	90.75
492.31	84.75
492.527	77.75
492.745	80.75
492.963	85.75
493.18	94.75
493.398	71.75
493.615	86.75
493.833	86.75
494.05	79.75
494.268	99.75
494.485	79.75
494.703	102.75
494.92	107.75
495.138	88.75
495.355	92.75
495.573	91.75
495.79	88.75
496.008	95.75
496.225	83.75
496.442	83.75
496.66	97.75
496.877	78.75
497.094	94.75
497.312	93.75
497.529	87.75
497.746	86.75
497.963	91.75
498.181	92.75
498.398	97.75
498.615	104.75
498.832	101.75
499.049	90.75
499.267	87.75
499.484	97.75
499.701	90.75
499.918	76.75
500.135	83.75
500.352	87.75
500.569	88.75
500.786	106.75
501.003	79.75
501.22	96.75
501.437	92.75
501.654	84.75
501.871	115.75
502.088	94.75
502.305	87.75
502.522	91.75
502.739	90.75
502.956	101.75
503.172	91.75
503.389	107.75
503.606	116.75
503.823	92.75
504.04	92.75
504.256	99.75
504.473	92.75
504.69	82.75
504.907	91.75
505.123	102.75
505.34	84.75
505.557	95.75
505.773	87.75
505.99	97.75
506.207	88.75
506.423	100.75
506.64	93.75
506.856	102.75
507.073	94.75
507.289	81.75
507.506	78.75
507.722	99.75
507.939	112.75
508.155	94.75
508.372	104.75
508.588	88.75
508.805	89.75
509.021	106.75
509.238	98.75
509.454	82.75
509.67	92.75
509.887	108.75
510.103	115.75
510.319	206.75
510.536	685.75
510.752	2244.75
510.968	645.75
511.184	151.75
511.401	104.75
511.617	95.75
511.833	88.75
512.049	95.75
512.265	80.75
512.481	101.75
512.698	95.75
512.914	82.75
513.13	83.75
513.346	94.75
513.562	87.75
513.778	89.75
513.994	86.75
514.21	97.75
514.426	103.75
514.642	124.75
514.858	119.75
515.074	167.75
515.29	436.75
515.506	1527.75
515.721	574.75
515.937	154.75
516.153	122.75
