Data from Circ_2011_H10_HRD10591_00099.txt Node
Date: Wed Jan 03 10:08:18 EST 2024
User: Yrep
Spectrometer: HR+D1059
Trigger mode: 1
Integration Time (sec): 1.000000E-1
Scans to average: 1
Electric dark correction enabled: true
Nonlinearity correction enabled: false
Boxcar width: 0
XAxis mode: Wavelengths
Number of Pixels in Spectrum: 2048
>>>>>Begin Spectral Data<<<<<
223.165	-32.31
223.4	-32.31
223.635	-32.31
223.869	-18.31
224.104	-16.31
224.338	-6.31
224.573	-18.31
224.808	-4.31
225.042	0.69
225.277	-4.31
225.511	2.69
225.746	2.69
225.98	6.69
226.215	-6.31
226.449	9.69
226.683	20.69
226.918	33.69
227.152	29.69
227.387	41.69
227.621	34.69
227.856	36.69
228.09	49.69
228.324	49.69
228.559	67.69
228.793	58.69
229.027	66.69
229.262	69.69
229.496	81.69
229.73	85.69
229.964	83.69
230.199	85.69
230.433	63.69
230.667	91.69
230.901	90.69
231.136	89.69
231.37	86.69
231.604	86.69
231.838	85.69
232.072	94.69
232.306	105.69
232.541	94.69
232.775	76.69
233.009	83.69
233.243	53.69
233.477	75.69
233.711	73.69
233.945	97.69
234.179	79.69
234.413	86.69
234.647	74.69
234.881	84.69
235.115	83.69
235.349	74.69
235.583	88.69
235.817	84.69
236.051	89.69
236.285	80.69
236.519	81.69
236.753	77.69
236.987	95.69
237.221	78.69
237.455	81.69
237.689	82.69
237.922	82.69
238.156	72.69
238.39	74.69
238.624	91.69
238.858	97.69
239.091	80.69
239.325	70.69
239.559	81.69
239.793	81.69
240.027	73.69
240.26	75.69
240.494	83.69
240.728	89.69
240.961	85.69
241.195	90.69
241.429	83.69
241.662	75.69
241.896	74.69
242.13	69.69
242.363	77.69
242.597	73.69
242.83	79.69
243.064	92.69
243.298	72.69
243.531	88.69
243.765	78.69
243.998	78.69
244.232	98.69
244.465	85.69
244.699	80.69
244.932	82.69
245.166	66.69
245.399	88.69
245.633	71.69
245.866	92.69
246.099	77.69
246.333	83.69
246.566	87.69
246.8	78.69
247.033	74.69
247.266	83.69
247.5	82.69
247.733	89.69
247.966	93.69
248.2	93.69
248.433	81.69
248.666	71.69
248.899	83.69
249.133	87.69
249.366	108.69
249.599	106.69
249.832	92.69
250.066	89.69
250.299	79.69
250.532	78.69
250.765	76.69
250.998	82.69
251.231	86.69
251.465	72.69
251.698	80.69
251.931	83.69
252.164	105.69
252.397	90.69
252.63	88.69
252.863	81.69
253.096	86.69
253.329	78.69
253.562	90.69
253.795	90.69
254.028	89.69
254.261	75.69
254.494	78.69
254.727	80.69
254.96	86.69
255.193	90.69
255.426	75.69
255.659	85.69
255.892	92.69
256.124	88.69
256.357	79.69
256.59	95.69
256.823	82.69
257.056	61.69
257.289	81.69
257.521	74.69
257.754	94.69
257.987	81.69
258.22	88.69
258.452	98.69
258.685	77.69
258.918	90.69
259.151	75.69
259.383	75.69
259.616	78.69
259.849	73.69
260.081	78.69
260.314	82.69
260.547	93.69
260.779	76.69
261.012	90.69
261.244	91.69
261.477	96.69
261.71	108.69
261.942	123.69
262.175	129.69
262.407	95.69
262.64	95.69
262.872	83.69
263.105	89.69
263.337	74.69
263.57	85.69
263.802	88.69
264.035	77.69
264.267	95.69
264.499	90.69
264.732	88.69
264.964	89.69
265.197	89.69
265.429	88.69
265.661	99.69
265.894	78.69
266.126	82.69
266.358	78.69
266.591	97.69
266.823	66.69
267.055	76.69
267.287	78.69
267.52	93.69
267.752	81.69
267.984	73.69
268.216	90.69
268.448	91.69
268.681	82.69
268.913	90.69
269.145	83.69
269.377	82.69
269.609	95.69
269.841	86.69
270.073	92.69
270.306	98.69
270.538	77.69
270.77	89.69
271.002	96.69
271.234	74.69
271.466	93.69
271.698	89.69
271.93	86.69
272.162	97.69
272.394	93.69
272.626	82.69
272.858	90.69
273.09	93.69
273.322	79.69
273.553	91.69
273.785	97.69
274.017	78.69
274.249	83.69
274.481	89.69
274.713	80.69
274.945	84.69
275.176	85.69
275.408	101.69
275.64	80.69
275.872	107.69
276.104	88.69
276.335	91.69
276.567	103.69
276.799	118.69
277.031	119.69
277.262	115.69
277.494	94.69
277.726	86.69
277.957	96.69
278.189	82.69
278.421	75.69
278.652	93.69
278.884	100.69
279.115	74.69
279.347	97.69
279.579	89.69
279.81	99.69
280.042	101.69
280.273	136.69
280.505	107.69
280.736	94.69
280.968	87.69
281.199	98.69
281.431	94.69
281.662	88.69
281.894	91.69
282.125	97.69
282.356	121.69
282.588	137.69
282.819	119.69
283.051	91.69
283.282	80.69
283.513	93.69
283.745	87.69
283.976	88.69
284.207	92.69
284.439	94.69
284.67	76.69
284.901	86.69
285.132	88.69
285.364	85.69
285.595	97.69
285.826	88.69
286.057	91.69
286.288	83.69
286.52	104.69
286.751	92.69
286.982	79.69
287.213	85.69
287.444	90.69
287.675	102.69
287.906	85.69
288.138	91.69
288.369	76.69
288.6	97.69
288.831	98.69
289.062	76.69
289.293	99.69
289.524	87.69
289.755	86.69
289.986	96.69
290.217	90.69
290.448	93.69
290.679	87.69
290.91	79.69
291.141	80.69
291.371	90.69
291.602	102.69
291.833	80.69
292.064	85.69
292.295	95.69
292.526	101.69
292.757	87.69
292.987	88.69
293.218	84.69
293.449	99.69
293.68	97.69
293.91	96.69
294.141	90.69
294.372	88.69
294.603	85.69
294.833	86.69
295.064	83.69
295.295	96.69
295.525	85.69
295.756	99.69
295.987	111.69
296.217	144.69
296.448	129.69
296.679	97.69
296.909	96.69
297.14	103.69
297.37	87.69
297.601	90.69
297.831	94.69
298.062	89.69
298.292	97.69
298.523	96.69
298.753	80.69
298.984	90.69
299.214	84.69
299.445	88.69
299.675	92.69
299.905	109.69
300.136	97.69
300.366	86.69
300.597	95.69
300.827	104.69
301.057	106.69
301.288	123.69
301.518	99.69
301.748	97.69
301.979	92.69
302.209	106.69
302.439	95.69
302.669	94.69
302.9	101.69
303.13	85.69
303.36	107.69
303.59	112.69
303.82	112.69
304.051	89.69
304.281	107.69
304.511	100.69
304.741	99.69
304.971	99.69
305.201	94.69
305.431	85.69
305.661	79.69
305.891	94.69
306.121	104.69
306.352	104.69
306.582	116.69
306.812	104.69
307.042	97.69
307.272	122.69
307.502	124.69
307.731	117.69
307.961	103.69
308.191	94.69
308.421	95.69
308.651	102.69
308.881	105.69
309.111	98.69
309.341	98.69
309.571	103.69
309.8	99.69
310.03	104.69
310.26	103.69
310.49	95.69
310.72	108.69
310.949	110.69
311.179	103.69
311.409	98.69
311.639	104.69
311.868	108.69
312.098	121.69
312.328	104.69
312.557	100.69
312.787	113.69
313.017	124.69
313.246	77.69
313.476	91.69
313.706	92.69
313.935	113.69
314.165	98.69
314.394	96.69
314.624	101.69
314.853	98.69
315.083	88.69
315.312	99.69
315.542	89.69
315.771	98.69
316.001	101.69
316.23	96.69
316.46	94.69
316.689	89.69
316.919	98.69
317.148	99.69
317.377	100.69
317.607	102.69
317.836	97.69
318.065	103.69
318.295	83.69
318.524	101.69
318.753	91.69
318.983	98.69
319.212	95.69
319.441	119.69
319.67	110.69
319.9	93.69
320.129	97.69
320.358	97.69
320.587	102.69
320.816	107.69
321.046	107.69
321.275	103.69
321.504	99.69
321.733	101.69
321.962	106.69
322.191	97.69
322.42	105.69
322.649	103.69
322.878	119.69
323.108	125.69
323.337	130.69
323.566	161.69
323.795	171.69
324.024	237.69
324.253	482.69
324.482	1002.69
324.71	2085.69
324.939	2739.69
325.168	978.69
325.397	286.69
325.626	161.69
325.855	133.69
326.084	134.69
326.313	139.69
326.542	162.69
326.77	271.69
326.999	521.69
327.228	1169.69
327.457	2091.69
327.686	1667.69
327.914	444.69
328.143	268.69
328.372	256.69
328.6	194.69
328.829	148.69
329.058	160.69
329.287	153.69
329.515	123.69
329.744	150.69
329.972	182.69
330.201	310.69
330.43	395.69
330.658	229.69
330.887	188.69
331.115	123.69
331.344	98.69
331.572	93.69
331.801	108.69
332.03	115.69
332.258	112.69
332.486	88.69
332.715	109.69
332.943	109.69
333.172	111.69
333.4	119.69
333.629	135.69
333.857	153.69
334.085	189.69
334.314	288.69
334.542	489.69
334.771	458.69
334.999	173.69
335.227	133.69
335.455	100.69
335.684	102.69
335.912	106.69
336.14	87.69
336.369	108.69
336.597	106.69
336.825	90.69
337.053	96.69
337.281	101.69
337.51	111.69
337.738	113.69
337.966	106.69
338.194	105.69
338.422	85.69
338.65	90.69
338.878	102.69
339.106	108.69
339.334	94.69
339.562	101.69
339.79	94.69
340.018	93.69
340.246	98.69
340.474	79.69
340.702	99.69
340.93	93.69
341.158	101.69
341.386	101.69
341.614	101.69
341.842	86.69
342.07	93.69
342.298	91.69
342.526	87.69
342.754	90.69
342.981	85.69
343.209	89.69
343.437	93.69
343.665	93.69
343.893	86.69
344.12	98.69
344.348	95.69
344.576	82.69
344.804	93.69
345.031	101.69
345.259	114.69
345.487	90.69
345.714	101.69
345.942	93.69
346.17	87.69
346.397	106.69
346.625	111.69
346.853	104.69
347.08	110.69
347.308	104.69
347.535	98.69
347.763	105.69
347.99	96.69
348.218	109.69
348.445	105.69
348.673	106.69
348.9	98.69
349.128	91.69
349.355	99.69
349.583	90.69
349.81	95.69
350.037	85.69
350.265	112.69
350.492	98.69
350.72	112.69
350.947	110.69
351.174	99.69
351.402	97.69
351.629	108.69
351.856	104.69
352.083	101.69
352.311	111.69
352.538	130.69
352.765	131.69
352.992	109.69
353.22	110.69
353.447	110.69
353.674	98.69
353.901	100.69
354.128	104.69
354.355	98.69
354.583	101.69
354.81	88.69
355.037	93.69
355.264	102.69
355.491	91.69
355.718	98.69
355.945	90.69
356.172	75.69
356.399	90.69
356.626	92.69
356.853	89.69
357.08	105.69
357.307	96.69
357.534	104.69
357.761	92.69
357.988	89.69
358.215	94.69
358.441	105.69
358.668	97.69
358.895	85.69
359.122	109.69
359.349	97.69
359.576	112.69
359.802	108.69
360.029	129.69
360.256	139.69
360.483	93.69
360.709	94.69
360.936	87.69
361.163	96.69
361.39	101.69
361.616	105.69
361.843	99.69
362.07	99.69
362.296	109.69
362.523	86.69
362.749	91.69
362.976	105.69
363.203	95.69
363.429	83.69
363.656	84.69
363.882	92.69
364.109	99.69
364.335	85.69
364.562	84.69
364.788	99.69
365.015	107.69
365.241	96.69
365.468	122.69
365.694	108.69
365.92	102.69
366.147	94.69
366.373	92.69
366.599	98.69
366.826	85.69
367.052	94.69
367.278	80.69
367.505	80.69
367.731	103.69
367.957	104.69
368.184	104.69
368.41	109.69
368.636	119.69
368.862	109.69
369.089	90.69
369.315	100.69
369.541	98.69
369.767	83.69
369.993	89.69
370.219	93.69
370.445	85.69
370.672	93.69
370.898	90.69
371.124	88.69
371.35	89.69
371.576	86.69
371.802	82.69
372.028	91.69
372.254	84.69
372.48	99.69
372.706	83.69
372.932	92.69
373.158	91.69
373.384	98.69
373.61	91.69
373.835	88.69
374.061	103.69
374.287	87.69
374.513	96.69
374.739	99.69
374.965	103.69
375.191	98.69
375.416	103.69
375.642	78.69
375.868	92.69
376.094	110.69
376.319	100.69
376.545	101.69
376.771	99.69
376.997	91.69
377.222	74.69
377.448	106.69
377.674	96.69
377.899	93.69
378.125	96.69
378.35	103.69
378.576	75.69
378.802	91.69
379.027	81.69
379.253	96.69
379.478	91.69
379.704	91.69
379.929	120.69
380.155	82.69
380.38	105.69
380.606	95.69
380.831	78.69
381.057	94.69
381.282	90.69
381.507	98.69
381.733	88.69
381.958	105.69
382.184	88.69
382.409	116.69
382.634	117.69
382.86	100.69
383.085	85.69
383.31	103.69
383.535	96.69
383.761	92.69
383.986	101.69
384.211	98.69
384.436	106.69
384.662	103.69
384.887	92.69
385.112	114.69
385.337	101.69
385.562	90.69
385.787	96.69
386.013	120.69
386.238	106.69
386.463	111.69
386.688	113.69
386.913	104.69
387.138	89.69
387.363	107.69
387.588	79.69
387.813	86.69
388.038	89.69
388.263	113.69
388.488	102.69
388.713	105.69
388.938	94.69
389.163	106.69
389.387	93.69
389.612	97.69
389.837	73.69
390.062	90.69
390.287	87.69
390.512	94.69
390.736	92.69
390.961	93.69
391.186	99.69
391.411	97.69
391.636	99.69
391.86	97.69
392.085	102.69
392.31	82.69
392.534	92.69
392.759	88.69
392.984	95.69
393.208	79.69
393.433	93.69
393.658	66.69
393.882	96.69
394.107	108.69
394.331	78.69
394.556	93.69
394.78	100.69
395.005	86.69
395.229	77.69
395.454	85.69
395.678	89.69
395.903	95.69
396.127	97.69
396.352	100.69
396.576	87.69
396.801	90.69
397.025	93.69
397.249	89.69
397.474	79.69
397.698	99.69
397.922	93.69
398.147	93.69
398.371	89.69
398.595	96.69
398.82	99.69
399.044	83.69
399.268	87.69
399.492	86.69
399.717	75.69
399.941	110.69
400.165	102.69
400.389	97.69
400.613	78.69
400.837	103.69
401.062	103.69
401.286	102.69
401.51	94.69
401.734	112.69
401.958	111.69
402.182	130.69
402.406	168.69
402.63	138.69
402.854	96.69
403.078	78.69
403.302	91.69
403.526	92.69
403.75	82.69
403.974	92.69
404.198	94.69
404.422	101.69
404.645	73.69
404.869	91.69
405.093	98.69
405.317	122.69
405.541	135.69
405.765	90.69
405.988	128.69
406.212	197.69
406.436	248.69
406.66	168.69
406.883	111.69
407.107	85.69
407.331	91.69
407.555	114.69
407.778	96.69
408.002	91.69
408.226	97.69
408.449	102.69
408.673	98.69
408.896	103.69
409.12	95.69
409.344	102.69
409.567	100.69
409.791	78.69
410.014	82.69
410.238	90.69
410.461	94.69
410.685	120.69
410.908	97.69
411.132	110.69
411.355	101.69
411.578	89.69
411.802	87.69
412.025	87.69
412.249	92.69
412.472	103.69
412.695	123.69
412.919	104.69
413.142	92.69
413.365	85.69
413.589	101.69
413.812	92.69
414.035	97.69
414.258	90.69
414.482	90.69
414.705	84.69
414.928	99.69
415.151	97.69
415.374	111.69
415.597	87.69
415.821	97.69
416.044	76.69
416.267	88.69
416.49	98.69
416.713	93.69
416.936	88.69
417.159	92.69
417.382	107.69
417.605	92.69
417.828	98.69
418.051	83.69
418.274	103.69
418.497	93.69
418.72	92.69
418.943	89.69
419.166	88.69
419.389	103.69
419.611	83.69
419.834	92.69
420.057	81.69
420.28	83.69
420.503	83.69
420.726	95.69
420.948	84.69
421.171	106.69
421.394	97.69
421.617	80.69
421.839	87.69
422.062	99.69
422.285	95.69
422.507	104.69
422.73	111.69
422.953	96.69
423.175	84.69
423.398	93.69
423.621	87.69
423.843	86.69
424.066	92.69
424.288	94.69
424.511	93.69
424.733	110.69
424.956	117.69
425.178	110.69
425.401	109.69
425.623	102.69
425.846	98.69
426.068	101.69
426.291	105.69
426.513	87.69
426.735	108.69
426.958	97.69
427.18	133.69
427.402	168.69
427.625	211.69
427.847	171.69
428.069	168.69
428.292	114.69
428.514	88.69
428.736	86.69
428.958	87.69
429.181	79.69
429.403	104.69
429.625	87.69
429.847	108.69
430.069	105.69
430.292	117.69
430.514	95.69
430.736	101.69
430.958	82.69
431.18	78.69
431.402	83.69
431.624	74.69
431.846	97.69
432.068	109.69
432.29	86.69
432.512	86.69
432.734	93.69
432.956	100.69
433.178	97.69
433.4	121.69
433.622	104.69
433.844	89.69
434.066	99.69
434.287	82.69
434.509	89.69
434.731	102.69
434.953	80.69
435.175	81.69
435.397	89.69
435.618	80.69
435.84	106.69
436.062	134.69
436.284	145.69
436.505	108.69
436.727	110.69
436.949	94.69
437.17	94.69
437.392	93.69
437.614	94.69
437.835	129.69
438.057	123.69
438.278	124.69
438.5	127.69
438.721	144.69
438.943	108.69
439.165	94.69
439.386	103.69
439.608	112.69
439.829	103.69
440.05	145.69
440.272	169.69
440.493	106.69
440.715	92.69
440.936	80.69
441.158	96.69
441.379	93.69
441.6	108.69
441.822	101.69
442.043	91.69
442.264	111.69
442.486	117.69
442.707	95.69
442.928	120.69
443.149	165.69
443.371	136.69
443.592	133.69
443.813	144.69
444.034	126.69
444.255	103.69
444.476	92.69
444.698	81.69
444.919	103.69
445.14	124.69
445.361	143.69
445.582	137.69
445.803	162.69
446.024	168.69
446.245	156.69
446.466	136.69
446.687	88.69
446.908	85.69
447.129	77.69
447.35	87.69
447.571	87.69
447.792	107.69
448.013	95.69
448.234	111.69
448.455	111.69
448.675	122.69
448.896	139.69
449.117	121.69
449.338	111.69
449.559	143.69
449.779	140.69
450	90.69
450.221	89.69
450.442	98.69
450.662	102.69
450.883	124.69
451.104	123.69
451.324	84.69
451.545	90.69
451.766	83.69
451.986	98.69
452.207	90.69
452.428	98.69
452.648	89.69
452.869	125.69
453.089	134.69
453.31	137.69
453.53	98.69
453.751	95.69
453.971	103.69
454.192	112.69
454.412	92.69
454.633	94.69
454.853	92.69
455.073	97.69
455.294	104.69
455.514	120.69
455.734	85.69
455.955	97.69
456.175	84.69
456.395	78.69
456.616	97.69
456.836	80.69
457.056	88.69
457.276	100.69
457.497	84.69
457.717	80.69
457.937	88.69
458.157	85.69
458.377	103.69
458.598	129.69
458.818	186.69
459.038	207.69
459.258	141.69
459.478	91.69
459.698	90.69
459.918	94.69
460.138	85.69
460.358	83.69
460.578	97.69
460.798	93.69
461.018	90.69
461.238	87.69
461.458	84.69
461.678	83.69
461.898	76.69
462.118	77.69
462.338	92.69
462.558	89.69
462.777	98.69
462.997	100.69
463.217	106.69
463.437	78.69
463.657	93.69
463.876	79.69
464.096	103.69
464.316	105.69
464.536	93.69
464.755	102.69
464.975	111.69
465.195	185.69
465.414	188.69
465.634	112.69
465.854	102.69
466.073	89.69
466.293	87.69
466.512	83.69
466.732	88.69
466.951	84.69
467.171	81.69
467.391	95.69
467.61	116.69
467.829	107.69
468.049	197.69
468.268	250.69
468.488	119.69
468.707	91.69
468.927	82.69
469.146	84.69
469.365	97.69
469.585	111.69
469.804	109.69
470.023	107.69
470.243	99.69
470.462	105.69
470.681	127.69
470.901	95.69
471.12	110.69
471.339	98.69
471.558	92.69
471.777	98.69
471.997	140.69
472.216	316.69
472.435	597.69
472.654	192.69
472.873	105.69
473.092	76.69
473.311	94.69
473.53	106.69
473.749	82.69
473.968	98.69
474.187	123.69
474.406	99.69
474.625	105.69
474.844	88.69
475.063	83.69
475.282	109.69
475.501	93.69
475.72	108.69
475.939	94.69
476.158	72.69
476.377	93.69
476.596	97.69
476.814	96.69
477.033	108.69
477.252	93.69
477.471	90.69
477.69	96.69
477.908	96.69
478.127	88.69
478.346	82.69
478.564	103.69
478.783	111.69
479.002	92.69
479.22	104.69
479.439	93.69
479.658	123.69
479.876	111.69
480.095	94.69
480.313	93.69
480.532	119.69
480.751	148.69
480.969	313.69
481.188	1040.69
481.406	651.69
481.624	163.69
481.843	94.69
482.061	94.69
482.28	86.69
482.498	86.69
482.717	98.69
482.935	103.69
483.153	92.69
483.372	102.69
483.59	94.69
483.808	81.69
484.027	83.69
484.245	83.69
484.463	97.69
484.681	87.69
484.9	93.69
485.118	105.69
485.336	94.69
485.554	80.69
485.772	103.69
485.99	107.69
486.209	116.69
486.427	99.69
486.645	122.69
486.863	117.69
487.081	101.69
487.299	100.69
487.517	100.69
487.735	92.69
487.953	93.69
488.171	105.69
488.389	104.69
488.607	106.69
488.825	89.69
489.043	82.69
489.261	88.69
489.479	94.69
489.696	88.69
489.914	97.69
490.132	87.69
490.35	101.69
490.568	90.69
490.786	95.69
491.003	86.69
491.221	106.69
491.439	97.69
491.657	84.69
491.874	94.69
492.092	90.69
492.31	99.69
492.527	93.69
492.745	83.69
492.963	94.69
493.18	88.69
493.398	93.69
493.615	97.69
493.833	103.69
494.05	94.69
494.268	97.69
494.485	76.69
494.703	87.69
494.92	95.69
495.138	83.69
495.355	88.69
495.573	84.69
495.79	95.69
496.008	94.69
496.225	99.69
496.442	91.69
496.66	91.69
496.877	97.69
497.094	78.69
497.312	90.69
497.529	76.69
497.746	86.69
497.963	89.69
498.181	87.69
498.398	97.69
498.615	111.69
498.832	112.69
499.049	77.69
499.267	97.69
499.484	111.69
499.701	111.69
499.918	93.69
500.135	88.69
500.352	78.69
500.569	88.69
500.786	102.69
501.003	108.69
501.22	87.69
501.437	95.69
501.654	96.69
501.871	124.69
502.088	101.69
502.305	97.69
502.522	89.69
502.739	95.69
502.956	91.69
503.172	102.69
503.389	101.69
503.606	114.69
503.823	88.69
504.04	86.69
504.256	88.69
504.473	85.69
504.69	86.69
504.907	101.69
505.123	78.69
505.34	89.69
505.557	92.69
505.773	94.69
505.99	98.69
506.207	95.69
506.423	92.69
506.64	74.69
506.856	94.69
507.073	80.69
507.289	96.69
507.506	108.69
507.722	143.69
507.939	112.69
508.155	103.69
508.372	100.69
508.588	92.69
508.805	93.69
509.021	89.69
509.238	95.69
509.454	99.69
509.67	111.69
509.887	118.69
510.103	137.69
510.319	208.69
510.536	793.69
510.752	2601.69
510.968	727.69
511.184	170.69
511.401	124.69
511.617	104.69
511.833	99.69
512.049	92.69
512.265	95.69
512.481	88.69
512.698	103.69
512.914	101.69
513.13	106.69
513.346	75.69
513.562	84.69
513.778	94.69
