Data from Circ_2011_H10_HRD10591_00051.txt Node
Date: Wed Jan 03 10:08:09 EST 2024
User: Yrep
Spectrometer: HR+D1059
Trigger mode: 1
Integration Time (sec): 1.000000E-1
Scans to average: 1
Electric dark correction enabled: true
Nonlinearity correction enabled: false
Boxcar width: 0
XAxis mode: Wavelengths
Number of Pixels in Spectrum: 2048
>>>>>Begin Spectral Data<<<<<
223.165	-19.62
223.4	-19.62
223.635	-19.62
223.869	-17.62
224.104	-22.62
224.338	-24.62
224.573	-11.62
224.808	-13.62
225.042	6.38
225.277	-8.62
225.511	2.38
225.746	8.38
225.98	6.38
226.215	20.38
226.449	4.38
226.683	12.38
226.918	18.38
227.152	39.38
227.387	35.38
227.621	30.38
227.856	44.38
228.09	50.38
228.324	68.38
228.559	73.38
228.793	64.38
229.027	59.38
229.262	84.38
229.496	85.38
229.73	89.38
229.964	87.38
230.199	71.38
230.433	82.38
230.667	77.38
230.901	77.38
231.136	84.38
231.37	72.38
231.604	65.38
231.838	72.38
232.072	68.38
232.306	81.38
232.541	78.38
232.775	89.38
233.009	81.38
233.243	68.38
233.477	85.38
233.711	84.38
233.945	84.38
234.179	79.38
234.413	80.38
234.647	82.38
234.881	88.38
235.115	70.38
235.349	78.38
235.583	79.38
235.817	72.38
236.051	75.38
236.285	68.38
236.519	89.38
236.753	89.38
236.987	88.38
237.221	86.38
237.455	90.38
237.689	76.38
237.922	65.38
238.156	86.38
238.39	89.38
238.624	73.38
238.858	82.38
239.091	73.38
239.325	80.38
239.559	78.38
239.793	82.38
240.027	84.38
240.26	97.38
240.494	71.38
240.728	80.38
240.961	82.38
241.195	93.38
241.429	73.38
241.662	80.38
241.896	79.38
242.13	79.38
242.363	92.38
242.597	76.38
242.83	91.38
243.064	80.38
243.298	85.38
243.531	75.38
243.765	90.38
243.998	82.38
244.232	88.38
244.465	80.38
244.699	75.38
244.932	82.38
245.166	93.38
245.399	73.38
245.633	83.38
245.866	86.38
246.099	79.38
246.333	79.38
246.566	57.38
246.8	89.38
247.033	74.38
247.266	77.38
247.5	60.38
247.733	80.38
247.966	80.38
248.2	69.38
248.433	75.38
248.666	88.38
248.899	92.38
249.133	94.38
249.366	99.38
249.599	87.38
249.832	87.38
250.066	71.38
250.299	89.38
250.532	86.38
250.765	87.38
250.998	98.38
251.231	73.38
251.465	80.38
251.698	73.38
251.931	82.38
252.164	87.38
252.397	69.38
252.63	81.38
252.863	77.38
253.096	84.38
253.329	86.38
253.562	83.38
253.795	84.38
254.028	91.38
254.261	78.38
254.494	77.38
254.727	94.38
254.96	88.38
255.193	86.38
255.426	83.38
255.659	82.38
255.892	88.38
256.124	80.38
256.357	76.38
256.59	95.38
256.823	97.38
257.056	87.38
257.289	84.38
257.521	80.38
257.754	67.38
257.987	81.38
258.22	88.38
258.452	94.38
258.685	93.38
258.918	67.38
259.151	71.38
259.383	84.38
259.616	79.38
259.849	79.38
260.081	75.38
260.314	74.38
260.547	84.38
260.779	101.38
261.012	90.38
261.244	95.38
261.477	88.38
261.71	102.38
261.942	95.38
262.175	104.38
262.407	75.38
262.64	89.38
262.872	97.38
263.105	92.38
263.337	80.38
263.57	76.38
263.802	79.38
264.035	78.38
264.267	89.38
264.499	84.38
264.732	79.38
264.964	72.38
265.197	81.38
265.429	77.38
265.661	68.38
265.894	87.38
266.126	78.38
266.358	85.38
266.591	71.38
266.823	82.38
267.055	100.38
267.287	84.38
267.52	86.38
267.752	80.38
267.984	101.38
268.216	72.38
268.448	87.38
268.681	79.38
268.913	76.38
269.145	92.38
269.377	88.38
269.609	86.38
269.841	82.38
270.073	90.38
270.306	68.38
270.538	79.38
270.77	103.38
271.002	93.38
271.234	93.38
271.466	85.38
271.698	85.38
271.93	64.38
272.162	77.38
272.394	79.38
272.626	84.38
272.858	88.38
273.09	86.38
273.322	73.38
273.553	88.38
273.785	72.38
274.017	81.38
274.249	93.38
274.481	85.38
274.713	77.38
274.945	86.38
275.176	91.38
275.408	83.38
275.64	101.38
275.872	81.38
276.104	86.38
276.335	93.38
276.567	97.38
276.799	112.38
277.031	110.38
277.262	97.38
277.494	88.38
277.726	88.38
277.957	87.38
278.189	94.38
278.421	82.38
278.652	93.38
278.884	90.38
279.115	90.38
279.347	69.38
279.579	78.38
279.81	81.38
280.042	92.38
280.273	88.38
280.505	102.38
280.736	101.38
280.968	91.38
281.199	85.38
281.431	91.38
281.662	85.38
281.894	89.38
282.125	113.38
282.356	117.38
282.588	146.38
282.819	118.38
283.051	93.38
283.282	95.38
283.513	83.38
283.745	84.38
283.976	83.38
284.207	106.38
284.439	87.38
284.67	94.38
284.901	82.38
285.132	89.38
285.364	89.38
285.595	90.38
285.826	84.38
286.057	82.38
286.288	90.38
286.52	80.38
286.751	89.38
286.982	96.38
287.213	84.38
287.444	91.38
287.675	98.38
287.906	90.38
288.138	84.38
288.369	81.38
288.6	86.38
288.831	91.38
289.062	95.38
289.293	82.38
289.524	82.38
289.755	90.38
289.986	86.38
290.217	92.38
290.448	81.38
290.679	68.38
290.91	96.38
291.141	96.38
291.371	90.38
291.602	77.38
291.833	69.38
292.064	82.38
292.295	100.38
292.526	91.38
292.757	91.38
292.987	99.38
293.218	73.38
293.449	91.38
293.68	104.38
293.91	82.38
294.141	93.38
294.372	79.38
294.603	93.38
294.833	88.38
295.064	100.38
295.295	90.38
295.525	98.38
295.756	109.38
295.987	117.38
296.217	118.38
296.448	128.38
296.679	95.38
296.909	100.38
297.14	94.38
297.37	89.38
297.601	90.38
297.831	78.38
298.062	82.38
298.292	89.38
298.523	91.38
298.753	89.38
298.984	87.38
299.214	90.38
299.445	89.38
299.675	91.38
299.905	104.38
300.136	92.38
300.366	82.38
300.597	102.38
300.827	85.38
301.057	95.38
301.288	91.38
301.518	87.38
301.748	73.38
301.979	95.38
302.209	85.38
302.439	93.38
302.669	100.38
302.9	85.38
303.13	89.38
303.36	90.38
303.59	121.38
303.82	110.38
304.051	86.38
304.281	91.38
304.511	89.38
304.741	93.38
304.971	92.38
305.201	98.38
305.431	100.38
305.661	81.38
305.891	92.38
306.121	95.38
306.352	104.38
306.582	94.38
306.812	105.38
307.042	109.38
307.272	106.38
307.502	96.38
307.731	100.38
307.961	119.38
308.191	94.38
308.421	86.38
308.651	92.38
308.881	98.38
309.111	104.38
309.341	94.38
309.571	95.38
309.8	98.38
310.03	116.38
310.26	89.38
310.49	87.38
310.72	129.38
310.949	101.38
311.179	101.38
311.409	103.38
311.639	88.38
311.868	88.38
312.098	106.38
312.328	97.38
312.557	100.38
312.787	103.38
313.017	104.38
313.246	100.38
313.476	96.38
313.706	91.38
313.935	95.38
314.165	95.38
314.394	95.38
314.624	106.38
314.853	103.38
315.083	99.38
315.312	96.38
315.542	90.38
315.771	85.38
316.001	88.38
316.23	94.38
316.46	104.38
316.689	89.38
316.919	95.38
317.148	87.38
317.377	100.38
317.607	101.38
317.836	78.38
318.065	96.38
318.295	96.38
318.524	99.38
318.753	87.38
318.983	97.38
319.212	101.38
319.441	105.38
319.67	100.38
319.9	94.38
320.129	91.38
320.358	93.38
320.587	98.38
320.816	104.38
321.046	113.38
321.275	94.38
321.504	110.38
321.733	77.38
321.962	100.38
322.191	104.38
322.42	122.38
322.649	122.38
322.878	134.38
323.108	121.38
323.337	113.38
323.566	141.38
323.795	177.38
324.024	211.38
324.253	416.38
324.482	905.38
324.71	1810.38
324.939	2450.38
325.168	885.38
325.397	255.38
325.626	161.38
325.855	143.38
326.084	126.38
326.313	113.38
326.542	154.38
326.77	252.38
326.999	492.38
327.228	1017.38
327.457	1859.38
327.686	1481.38
327.914	399.38
328.143	233.38
328.372	198.38
328.6	143.38
328.829	140.38
329.058	135.38
329.287	138.38
329.515	121.38
329.744	113.38
329.972	140.38
330.201	172.38
330.43	226.38
330.658	185.38
330.887	144.38
331.115	118.38
331.344	100.38
331.572	109.38
331.801	104.38
332.03	100.38
332.258	121.38
332.486	100.38
332.715	93.38
332.943	96.38
333.172	97.38
333.4	94.38
333.629	108.38
333.857	105.38
334.085	157.38
334.314	182.38
334.542	278.38
334.771	266.38
334.999	126.38
335.227	117.38
335.455	99.38
335.684	99.38
335.912	104.38
336.14	97.38
336.369	98.38
336.597	109.38
336.825	96.38
337.053	85.38
337.281	94.38
337.51	87.38
337.738	89.38
337.966	90.38
338.194	93.38
338.422	85.38
338.65	98.38
338.878	96.38
339.106	89.38
339.334	86.38
339.562	93.38
339.79	102.38
340.018	78.38
340.246	82.38
340.474	112.38
340.702	96.38
340.93	89.38
341.158	89.38
341.386	101.38
341.614	88.38
341.842	93.38
342.07	83.38
342.298	85.38
342.526	81.38
342.754	93.38
342.981	112.38
343.209	97.38
343.437	106.38
343.665	106.38
343.893	89.38
344.12	91.38
344.348	93.38
344.576	102.38
344.804	96.38
345.031	103.38
345.259	89.38
345.487	100.38
345.714	90.38
345.942	90.38
346.17	102.38
346.397	83.38
346.625	78.38
346.853	79.38
347.08	96.38
347.308	94.38
347.535	91.38
347.763	99.38
347.99	96.38
348.218	100.38
348.445	121.38
348.673	104.38
348.9	100.38
349.128	93.38
349.355	92.38
349.583	85.38
349.81	86.38
350.037	87.38
350.265	90.38
350.492	97.38
350.72	108.38
350.947	97.38
351.174	101.38
351.402	106.38
351.629	98.38
351.856	97.38
352.083	93.38
352.311	126.38
352.538	107.38
352.765	105.38
352.992	108.38
353.22	110.38
353.447	103.38
353.674	87.38
353.901	86.38
354.128	92.38
354.355	101.38
354.583	94.38
354.81	119.38
355.037	94.38
355.264	99.38
355.491	95.38
355.718	88.38
355.945	102.38
356.172	93.38
356.399	92.38
356.626	101.38
356.853	90.38
357.08	93.38
357.307	93.38
357.534	99.38
357.761	84.38
357.988	73.38
358.215	98.38
358.441	76.38
358.668	89.38
358.895	98.38
359.122	92.38
359.349	93.38
359.576	86.38
359.802	109.38
360.029	127.38
360.256	108.38
360.483	103.38
360.709	77.38
360.936	98.38
361.163	90.38
361.39	96.38
361.616	89.38
361.843	96.38
362.07	92.38
362.296	91.38
362.523	101.38
362.749	88.38
362.976	92.38
363.203	106.38
363.429	81.38
363.656	92.38
363.882	92.38
364.109	93.38
364.335	95.38
364.562	85.38
364.788	110.38
365.015	92.38
365.241	111.38
365.468	113.38
365.694	113.38
365.92	96.38
366.147	99.38
366.373	92.38
366.599	77.38
366.826	81.38
367.052	89.38
367.278	94.38
367.505	91.38
367.731	87.38
367.957	77.38
368.184	90.38
368.41	112.38
368.636	109.38
368.862	119.38
369.089	109.38
369.315	97.38
369.541	98.38
369.767	95.38
369.993	93.38
370.219	92.38
370.445	89.38
370.672	85.38
370.898	81.38
371.124	86.38
371.35	94.38
371.576	80.38
371.802	88.38
372.028	103.38
372.254	97.38
372.48	95.38
372.706	82.38
372.932	77.38
373.158	83.38
373.384	93.38
373.61	94.38
373.835	87.38
374.061	84.38
374.287	100.38
374.513	93.38
374.739	87.38
374.965	107.38
375.191	86.38
375.416	100.38
375.642	103.38
375.868	98.38
376.094	80.38
376.319	90.38
376.545	87.38
376.771	87.38
376.997	101.38
377.222	103.38
377.448	88.38
377.674	96.38
377.899	79.38
378.125	82.38
378.35	95.38
378.576	89.38
378.802	91.38
379.027	94.38
379.253	85.38
379.478	82.38
379.704	84.38
379.929	98.38
380.155	103.38
380.38	90.38
380.606	97.38
380.831	97.38
381.057	102.38
381.282	96.38
381.507	95.38
381.733	106.38
381.958	105.38
382.184	90.38
382.409	100.38
382.634	95.38
382.86	109.38
383.085	111.38
383.31	113.38
383.535	101.38
383.761	97.38
383.986	105.38
384.211	95.38
384.436	99.38
384.662	105.38
384.887	89.38
385.112	109.38
385.337	99.38
385.562	104.38
385.787	92.38
386.013	114.38
386.238	110.38
386.463	95.38
386.688	116.38
386.913	95.38
387.138	88.38
387.363	101.38
387.588	89.38
387.813	91.38
388.038	90.38
388.263	121.38
388.488	91.38
388.713	94.38
388.938	104.38
389.163	98.38
389.387	88.38
389.612	110.38
389.837	93.38
390.062	97.38
390.287	72.38
390.512	100.38
390.736	97.38
390.961	88.38
391.186	77.38
391.411	98.38
391.636	98.38
391.86	98.38
392.085	87.38
392.31	87.38
392.534	81.38
392.759	72.38
392.984	91.38
393.208	84.38
393.433	82.38
393.658	81.38
393.882	81.38
394.107	92.38
394.331	91.38
394.556	86.38
394.78	75.38
395.005	72.38
395.229	96.38
395.454	95.38
395.678	85.38
395.903	93.38
396.127	103.38
396.352	100.38
396.576	87.38
396.801	82.38
397.025	91.38
397.249	85.38
397.474	97.38
397.698	105.38
397.922	82.38
398.147	87.38
398.371	86.38
398.595	96.38
398.82	93.38
399.044	96.38
399.268	80.38
399.492	82.38
399.717	87.38
399.941	87.38
400.165	92.38
400.389	113.38
400.613	90.38
400.837	87.38
401.062	87.38
401.286	88.38
401.51	104.38
401.734	99.38
401.958	106.38
402.182	120.38
402.406	149.38
402.63	123.38
402.854	93.38
403.078	97.38
403.302	89.38
403.526	96.38
403.75	99.38
403.974	87.38
404.198	89.38
404.422	94.38
404.645	80.38
404.869	97.38
405.093	82.38
405.317	101.38
405.541	103.38
405.765	104.38
405.988	111.38
406.212	152.38
406.436	222.38
406.66	162.38
406.883	102.38
407.107	97.38
407.331	97.38
407.555	109.38
407.778	103.38
408.002	107.38
408.226	85.38
408.449	88.38
408.673	93.38
408.896	95.38
409.12	98.38
409.344	91.38
409.567	93.38
409.791	98.38
410.014	85.38
410.238	80.38
410.461	78.38
410.685	88.38
410.908	105.38
411.132	97.38
411.355	95.38
411.578	88.38
411.802	81.38
412.025	85.38
412.249	99.38
412.472	102.38
412.695	102.38
412.919	87.38
413.142	82.38
413.365	88.38
413.589	84.38
413.812	98.38
414.035	81.38
414.258	101.38
414.482	97.38
414.705	81.38
414.928	82.38
415.151	91.38
415.374	99.38
415.597	93.38
415.821	95.38
416.044	83.38
416.267	78.38
416.49	88.38
416.713	91.38
416.936	82.38
417.159	83.38
417.382	95.38
417.605	96.38
417.828	86.38
418.051	97.38
418.274	87.38
418.497	77.38
418.72	91.38
418.943	94.38
419.166	85.38
419.389	88.38
419.611	87.38
419.834	82.38
420.057	105.38
420.28	87.38
420.503	98.38
420.726	87.38
420.948	90.38
421.171	113.38
421.394	94.38
421.617	92.38
421.839	103.38
422.062	83.38
422.285	104.38
422.507	98.38
422.73	107.38
422.953	81.38
423.175	89.38
423.398	85.38
423.621	80.38
423.843	76.38
424.066	83.38
424.288	68.38
424.511	88.38
424.733	91.38
424.956	108.38
425.178	92.38
425.401	107.38
425.623	102.38
425.846	88.38
426.068	83.38
426.291	96.38
426.513	80.38
426.735	88.38
426.958	104.38
427.18	120.38
427.402	137.38
427.625	186.38
427.847	152.38
428.069	152.38
428.292	103.38
428.514	96.38
428.736	93.38
428.958	87.38
429.181	88.38
429.403	82.38
429.625	82.38
429.847	88.38
430.069	94.38
430.292	96.38
430.514	81.38
430.736	76.38
430.958	88.38
431.18	72.38
431.402	95.38
431.624	87.38
431.846	91.38
432.068	104.38
432.29	96.38
432.512	87.38
432.734	92.38
432.956	102.38
433.178	93.38
433.4	98.38
433.622	89.38
433.844	86.38
434.066	88.38
434.287	78.38
434.509	79.38
434.731	89.38
434.953	83.38
435.175	91.38
435.397	91.38
435.618	89.38
435.84	95.38
436.062	100.38
436.284	109.38
436.505	103.38
436.727	106.38
436.949	88.38
437.17	104.38
437.392	105.38
437.614	87.38
437.835	109.38
438.057	120.38
438.278	110.38
438.5	116.38
438.721	134.38
438.943	112.38
439.165	88.38
439.386	71.38
439.608	92.38
439.829	87.38
440.05	116.38
440.272	154.38
440.493	104.38
440.715	86.38
440.936	97.38
441.158	85.38
441.379	87.38
441.6	102.38
441.822	90.38
442.043	106.38
442.264	120.38
442.486	93.38
442.707	89.38
442.928	98.38
443.149	128.38
443.371	114.38
443.592	113.38
443.813	125.38
444.034	111.38
444.255	93.38
444.476	94.38
444.698	96.38
444.919	101.38
445.14	130.38
445.361	136.38
445.582	113.38
445.803	141.38
446.024	137.38
446.245	146.38
446.466	126.38
446.687	86.38
446.908	88.38
447.129	105.38
447.35	87.38
447.571	84.38
447.792	92.38
448.013	96.38
448.234	101.38
448.455	102.38
448.675	109.38
448.896	120.38
449.117	99.38
449.338	103.38
449.559	138.38
449.779	157.38
450	105.38
450.221	83.38
450.442	87.38
450.662	94.38
450.883	89.38
451.104	96.38
451.324	87.38
451.545	85.38
451.766	89.38
451.986	96.38
452.207	86.38
452.428	85.38
452.648	90.38
452.869	105.38
453.089	116.38
453.31	109.38
453.53	97.38
453.751	77.38
453.971	113.38
454.192	101.38
454.412	87.38
454.633	86.38
454.853	83.38
455.073	79.38
455.294	89.38
455.514	102.38
455.734	95.38
455.955	94.38
456.175	97.38
456.395	81.38
456.616	84.38
456.836	86.38
457.056	74.38
457.276	94.38
457.497	83.38
457.717	81.38
457.937	92.38
458.157	88.38
458.377	90.38
458.598	110.38
458.818	152.38
459.038	174.38
459.258	128.38
459.478	90.38
459.698	80.38
459.918	80.38
460.138	77.38
460.358	78.38
460.578	89.38
460.798	91.38
461.018	89.38
461.238	86.38
461.458	82.38
461.678	97.38
461.898	89.38
462.118	91.38
462.338	86.38
462.558	86.38
462.777	86.38
462.997	87.38
463.217	94.38
463.437	82.38
463.657	86.38
463.876	93.38
464.096	86.38
464.316	88.38
464.536	92.38
464.755	78.38
464.975	102.38
465.195	174.38
465.414	170.38
465.634	107.38
465.854	72.38
466.073	89.38
466.293	89.38
466.512	88.38
466.732	103.38
466.951	89.38
467.171	86.38
467.391	96.38
467.61	97.38
467.829	107.38
468.049	150.38
468.268	164.38
468.488	94.38
468.707	96.38
468.927	77.38
469.146	76.38
469.365	107.38
469.585	87.38
469.804	92.38
470.023	89.38
470.243	107.38
470.462	110.38
470.681	111.38
470.901	92.38
471.12	102.38
471.339	89.38
471.558	87.38
471.777	81.38
471.997	101.38
472.216	215.38
472.435	350.38
472.654	150.38
472.873	89.38
473.092	85.38
473.311	81.38
473.53	94.38
473.749	96.38
473.968	94.38
474.187	101.38
474.406	88.38
474.625	82.38
474.844	89.38
475.063	80.38
475.282	75.38
475.501	88.38
475.72	93.38
475.939	71.38
476.158	86.38
476.377	90.38
476.596	93.38
476.814	99.38
477.033	89.38
477.252	94.38
477.471	86.38
477.69	93.38
477.908	92.38
478.127	90.38
478.346	98.38
478.564	94.38
478.783	94.38
479.002	102.38
479.22	89.38
479.439	108.38
479.658	106.38
479.876	87.38
480.095	94.38
480.313	93.38
480.532	120.38
480.751	108.38
480.969	199.38
481.188	561.38
481.406	393.38
481.624	136.38
481.843	92.38
482.061	89.38
482.28	96.38
482.498	70.38
482.717	74.38
482.935	87.38
483.153	88.38
483.372	96.38
483.59	85.38
483.808	91.38
484.027	101.38
484.245	96.38
484.463	92.38
484.681	87.38
484.9	89.38
485.118	101.38
485.336	90.38
485.554	88.38
485.772	102.38
485.99	99.38
486.209	104.38
486.427	94.38
486.645	105.38
486.863	112.38
487.081	93.38
487.299	88.38
487.517	100.38
487.735	94.38
487.953	84.38
488.171	103.38
488.389	100.38
488.607	97.38
488.825	88.38
489.043	81.38
489.261	89.38
489.479	91.38
489.696	97.38
489.914	93.38
490.132	98.38
490.35	90.38
490.568	92.38
490.786	89.38
491.003	92.38
491.221	84.38
491.439	79.38
491.657	88.38
491.874	95.38
492.092	93.38
492.31	98.38
492.527	94.38
492.745	87.38
492.963	93.38
493.18	78.38
493.398	101.38
493.615	95.38
493.833	89.38
494.05	88.38
494.268	89.38
494.485	93.38
494.703	79.38
494.92	82.38
495.138	100.38
495.355	102.38
495.573	120.38
495.79	85.38
496.008	89.38
496.225	90.38
496.442	88.38
496.66	96.38
496.877	101.38
497.094	89.38
497.312	92.38
497.529	85.38
497.746	81.38
497.963	80.38
498.181	83.38
498.398	86.38
498.615	108.38
498.832	109.38
499.049	89.38
499.267	85.38
499.484	91.38
499.701	90.38
499.918	77.38
500.135	92.38
500.352	98.38
500.569	92.38
500.786	95.38
501.003	96.38
501.22	92.38
501.437	91.38
501.654	103.38
501.871	93.38
502.088	100.38
502.305	84.38
502.522	93.38
502.739	86.38
502.956	89.38
503.172	86.38
503.389	97.38
503.606	95.38
503.823	89.38
504.04	93.38
504.256	113.38
504.473	99.38
504.69	94.38
504.907	96.38
505.123	87.38
505.34	92.38
505.557	85.38
505.773	92.38
505.99	88.38
506.207	85.38
506.423	93.38
506.64	80.38
506.856	101.38
507.073	81.38
507.289	79.38
507.506	90.38
507.722	109.38
507.939	112.38
508.155	81.38
508.372	81.38
508.588	101.38
508.805	93.38
509.021	101.38
509.238	88.38
509.454	85.38
509.67	90.38
509.887	94.38
510.103	130.38
510.319	210.38
510.536	702.38
510.752	2207.38
510.968	652.38
511.184	149.38
511.401	113.38
511.617	113.38
511.833	95.38
512.049	101.38
512.265	90.38
512.481	99.38
512.698	97.38
512.914	89.38
513.13	95.38
513.346	100.38
513.562	85.38
513.778	92.38
513.994	98.38
514.21	117.38
514.426	105.38
514.642	142.38
514.858	116.38
515.074	170.38
515.29	406.38
