Data from Circ_2011_H10_HRD10591_00049.txt Node
Date: Wed Jan 03 10:08:08 EST 2024
User: Yrep
Spectrometer: HR+D1059
Trigger mode: 1
Integration Time (sec): 1.000000E-1
Scans to average: 1
Electric dark correction enabled: true
Nonlinearity correction enabled: false
Boxcar width: 0
XAxis mode: Wavelengths
Number of Pixels in Spectrum: 2048
>>>>>Begin Spectral Data<<<<<
223.165	-23.62
223.4	-23.62
223.635	-23.62
223.869	-18.62
224.104	-25.62
224.338	-13.62
224.573	-15.62
224.808	-6.62
225.042	-3.62
225.277	-5.62
225.511	10.38
225.746	5.38
225.98	6.38
226.215	10.38
226.449	11.38
226.683	19.38
226.918	22.38
227.152	27.38
227.387	38.38
227.621	29.38
227.856	44.38
228.09	46.38
228.324	42.38
228.559	57.38
228.793	56.38
229.027	76.38
229.262	79.38
229.496	71.38
229.73	75.38
229.964	87.38
230.199	86.38
230.433	70.38
230.667	77.38
230.901	87.38
231.136	66.38
231.37	87.38
231.604	82.38
231.838	86.38
232.072	81.38
232.306	69.38
232.541	85.38
232.775	94.38
233.009	85.38
233.243	82.38
233.477	86.38
233.711	71.38
233.945	88.38
234.179	72.38
234.413	97.38
234.647	85.38
234.881	99.38
235.115	95.38
235.349	79.38
235.583	83.38
235.817	78.38
236.051	68.38
236.285	74.38
236.519	92.38
236.753	78.38
236.987	70.38
237.221	72.38
237.455	100.38
237.689	82.38
237.922	80.38
238.156	77.38
238.39	81.38
238.624	88.38
238.858	82.38
239.091	77.38
239.325	81.38
239.559	79.38
239.793	78.38
240.027	77.38
240.26	75.38
240.494	79.38
240.728	87.38
240.961	73.38
241.195	73.38
241.429	87.38
241.662	80.38
241.896	89.38
242.13	72.38
242.363	74.38
242.597	76.38
242.83	67.38
243.064	66.38
243.298	79.38
243.531	84.38
243.765	81.38
243.998	73.38
244.232	85.38
244.465	77.38
244.699	78.38
244.932	75.38
245.166	82.38
245.399	90.38
245.633	84.38
245.866	78.38
246.099	77.38
246.333	81.38
246.566	89.38
246.8	90.38
247.033	76.38
247.266	77.38
247.5	73.38
247.733	76.38
247.966	79.38
248.2	88.38
248.433	76.38
248.666	96.38
248.899	85.38
249.133	84.38
249.366	92.38
249.599	88.38
249.832	78.38
250.066	85.38
250.299	73.38
250.532	78.38
250.765	88.38
250.998	77.38
251.231	78.38
251.465	71.38
251.698	86.38
251.931	74.38
252.164	88.38
252.397	90.38
252.63	78.38
252.863	90.38
253.096	75.38
253.329	75.38
253.562	82.38
253.795	83.38
254.028	89.38
254.261	83.38
254.494	82.38
254.727	77.38
254.96	91.38
255.193	81.38
255.426	90.38
255.659	77.38
255.892	88.38
256.124	90.38
256.357	95.38
256.59	75.38
256.823	100.38
257.056	101.38
257.289	85.38
257.521	85.38
257.754	91.38
257.987	79.38
258.22	92.38
258.452	90.38
258.685	81.38
258.918	78.38
259.151	88.38
259.383	96.38
259.616	85.38
259.849	77.38
260.081	79.38
260.314	89.38
260.547	96.38
260.779	77.38
261.012	88.38
261.244	79.38
261.477	88.38
261.71	90.38
261.942	132.38
262.175	132.38
262.407	95.38
262.64	82.38
262.872	89.38
263.105	89.38
263.337	77.38
263.57	79.38
263.802	86.38
264.035	93.38
264.267	88.38
264.499	76.38
264.732	77.38
264.964	91.38
265.197	85.38
265.429	75.38
265.661	80.38
265.894	91.38
266.126	81.38
266.358	84.38
266.591	80.38
266.823	85.38
267.055	85.38
267.287	95.38
267.52	89.38
267.752	81.38
267.984	76.38
268.216	87.38
268.448	90.38
268.681	89.38
268.913	77.38
269.145	88.38
269.377	82.38
269.609	86.38
269.841	80.38
270.073	86.38
270.306	75.38
270.538	77.38
270.77	73.38
271.002	81.38
271.234	89.38
271.466	91.38
271.698	108.38
271.93	76.38
272.162	91.38
272.394	90.38
272.626	86.38
272.858	81.38
273.09	89.38
273.322	92.38
273.553	94.38
273.785	81.38
274.017	90.38
274.249	75.38
274.481	77.38
274.713	92.38
274.945	84.38
275.176	93.38
275.408	116.38
275.64	97.38
275.872	81.38
276.104	92.38
276.335	93.38
276.567	95.38
276.799	103.38
277.031	109.38
277.262	118.38
277.494	108.38
277.726	89.38
277.957	91.38
278.189	99.38
278.421	86.38
278.652	89.38
278.884	83.38
279.115	81.38
279.347	101.38
279.579	99.38
279.81	93.38
280.042	97.38
280.273	98.38
280.505	104.38
280.736	69.38
280.968	80.38
281.199	85.38
281.431	81.38
281.662	98.38
281.894	96.38
282.125	103.38
282.356	125.38
282.588	140.38
282.819	125.38
283.051	93.38
283.282	84.38
283.513	88.38
283.745	88.38
283.976	85.38
284.207	97.38
284.439	90.38
284.67	82.38
284.901	89.38
285.132	84.38
285.364	78.38
285.595	89.38
285.826	75.38
286.057	86.38
286.288	84.38
286.52	102.38
286.751	92.38
286.982	79.38
287.213	93.38
287.444	110.38
287.675	82.38
287.906	84.38
288.138	90.38
288.369	96.38
288.6	101.38
288.831	87.38
289.062	100.38
289.293	110.38
289.524	88.38
289.755	84.38
289.986	86.38
290.217	76.38
290.448	90.38
290.679	89.38
290.91	80.38
291.141	85.38
291.371	86.38
291.602	91.38
291.833	99.38
292.064	84.38
292.295	79.38
292.526	93.38
292.757	102.38
292.987	89.38
293.218	96.38
293.449	91.38
293.68	79.38
293.91	92.38
294.141	96.38
294.372	82.38
294.603	91.38
294.833	90.38
295.064	101.38
295.295	94.38
295.525	89.38
295.756	113.38
295.987	111.38
296.217	134.38
296.448	117.38
296.679	97.38
296.909	89.38
297.14	82.38
297.37	87.38
297.601	93.38
297.831	92.38
298.062	108.38
298.292	82.38
298.523	85.38
298.753	89.38
298.984	95.38
299.214	100.38
299.445	96.38
299.675	100.38
299.905	106.38
300.136	84.38
300.366	96.38
300.597	86.38
300.827	96.38
301.057	82.38
301.288	92.38
301.518	97.38
301.748	92.38
301.979	101.38
302.209	91.38
302.439	91.38
302.669	77.38
302.9	89.38
303.13	82.38
303.36	95.38
303.59	109.38
303.82	115.38
304.051	93.38
304.281	101.38
304.511	74.38
304.741	93.38
304.971	93.38
305.201	100.38
305.431	81.38
305.661	72.38
305.891	78.38
306.121	97.38
306.352	99.38
306.582	105.38
306.812	72.38
307.042	100.38
307.272	93.38
307.502	103.38
307.731	102.38
307.961	84.38
308.191	88.38
308.421	93.38
308.651	97.38
308.881	104.38
309.111	96.38
309.341	92.38
309.571	93.38
309.8	101.38
310.03	101.38
310.26	98.38
310.49	102.38
310.72	93.38
310.949	111.38
311.179	99.38
311.409	108.38
311.639	87.38
311.868	94.38
312.098	86.38
312.328	109.38
312.557	102.38
312.787	118.38
313.017	114.38
313.246	88.38
313.476	91.38
313.706	75.38
313.935	96.38
314.165	106.38
314.394	95.38
314.624	102.38
314.853	98.38
315.083	97.38
315.312	89.38
315.542	89.38
315.771	93.38
316.001	98.38
316.23	93.38
316.46	88.38
316.689	104.38
316.919	94.38
317.148	96.38
317.377	92.38
317.607	95.38
317.836	90.38
318.065	106.38
318.295	94.38
318.524	101.38
318.753	97.38
318.983	91.38
319.212	101.38
319.441	108.38
319.67	120.38
319.9	98.38
320.129	94.38
320.358	101.38
320.587	98.38
320.816	99.38
321.046	91.38
321.275	101.38
321.504	96.38
321.733	97.38
321.962	106.38
322.191	90.38
322.42	105.38
322.649	121.38
322.878	127.38
323.108	123.38
323.337	128.38
323.566	127.38
323.795	167.38
324.024	220.38
324.253	446.38
324.482	917.38
324.71	1889.38
324.939	2497.38
325.168	945.38
325.397	260.38
325.626	159.38
325.855	150.38
326.084	138.38
326.313	138.38
326.542	162.38
326.77	254.38
326.999	509.38
327.228	1042.38
327.457	1951.38
327.686	1496.38
327.914	427.38
328.143	237.38
328.372	236.38
328.6	160.38
328.829	126.38
329.058	147.38
329.287	151.38
329.515	117.38
329.744	113.38
329.972	148.38
330.201	210.38
330.43	277.38
330.658	190.38
330.887	172.38
331.115	136.38
331.344	111.38
331.572	98.38
331.801	92.38
332.03	103.38
332.258	104.38
332.486	104.38
332.715	93.38
332.943	95.38
333.172	86.38
333.4	102.38
333.629	117.38
333.857	117.38
334.085	159.38
334.314	208.38
334.542	320.38
334.771	313.38
334.999	136.38
335.227	115.38
335.455	101.38
335.684	100.38
335.912	98.38
336.14	104.38
336.369	95.38
336.597	82.38
336.825	95.38
337.053	94.38
337.281	94.38
337.51	92.38
337.738	98.38
337.966	91.38
338.194	97.38
338.422	106.38
338.65	88.38
338.878	95.38
339.106	89.38
339.334	95.38
339.562	94.38
339.79	104.38
340.018	95.38
340.246	79.38
340.474	88.38
340.702	92.38
340.93	98.38
341.158	89.38
341.386	105.38
341.614	109.38
341.842	92.38
342.07	97.38
342.298	110.38
342.526	78.38
342.754	95.38
342.981	93.38
343.209	100.38
343.437	87.38
343.665	92.38
343.893	100.38
344.12	91.38
344.348	100.38
344.576	98.38
344.804	93.38
345.031	112.38
345.259	106.38
345.487	92.38
345.714	88.38
345.942	94.38
346.17	110.38
346.397	86.38
346.625	102.38
346.853	93.38
347.08	95.38
347.308	100.38
347.535	97.38
347.763	105.38
347.99	98.38
348.218	86.38
348.445	105.38
348.673	94.38
348.9	90.38
349.128	103.38
349.355	97.38
349.583	98.38
349.81	86.38
350.037	85.38
350.265	97.38
350.492	91.38
350.72	90.38
350.947	105.38
351.174	112.38
351.402	104.38
351.629	94.38
351.856	111.38
352.083	106.38
352.311	103.38
352.538	110.38
352.765	110.38
352.992	119.38
353.22	125.38
353.447	101.38
353.674	121.38
353.901	85.38
354.128	97.38
354.355	94.38
354.583	106.38
354.81	92.38
355.037	105.38
355.264	93.38
355.491	89.38
355.718	86.38
355.945	92.38
356.172	83.38
356.399	104.38
356.626	98.38
356.853	94.38
357.08	90.38
357.307	102.38
357.534	89.38
357.761	105.38
357.988	89.38
358.215	101.38
358.441	87.38
358.668	78.38
358.895	84.38
359.122	82.38
359.349	105.38
359.576	107.38
359.802	110.38
360.029	123.38
360.256	126.38
360.483	106.38
360.709	83.38
360.936	84.38
361.163	95.38
361.39	104.38
361.616	96.38
361.843	104.38
362.07	93.38
362.296	88.38
362.523	103.38
362.749	101.38
362.976	87.38
363.203	98.38
363.429	96.38
363.656	89.38
363.882	108.38
364.109	105.38
364.335	102.38
364.562	91.38
364.788	87.38
365.015	86.38
365.241	107.38
365.468	111.38
365.694	112.38
365.92	106.38
366.147	97.38
366.373	75.38
366.599	101.38
366.826	101.38
367.052	81.38
367.278	81.38
367.505	101.38
367.731	105.38
367.957	80.38
368.184	85.38
368.41	85.38
368.636	117.38
368.862	120.38
369.089	102.38
369.315	93.38
369.541	96.38
369.767	86.38
369.993	94.38
370.219	87.38
370.445	80.38
370.672	95.38
370.898	81.38
371.124	80.38
371.35	83.38
371.576	86.38
371.802	77.38
372.028	92.38
372.254	93.38
372.48	89.38
372.706	90.38
372.932	78.38
373.158	91.38
373.384	85.38
373.61	98.38
373.835	93.38
374.061	93.38
374.287	99.38
374.513	85.38
374.739	89.38
374.965	96.38
375.191	91.38
375.416	95.38
375.642	99.38
375.868	90.38
376.094	91.38
376.319	98.38
376.545	83.38
376.771	100.38
376.997	84.38
377.222	91.38
377.448	86.38
377.674	95.38
377.899	84.38
378.125	87.38
378.35	81.38
378.576	88.38
378.802	88.38
379.027	88.38
379.253	89.38
379.478	86.38
379.704	93.38
379.929	95.38
380.155	89.38
380.38	113.38
380.606	94.38
380.831	104.38
381.057	98.38
381.282	96.38
381.507	98.38
381.733	95.38
381.958	106.38
382.184	84.38
382.409	92.38
382.634	112.38
382.86	103.38
383.085	105.38
383.31	80.38
383.535	99.38
383.761	86.38
383.986	96.38
384.211	93.38
384.436	108.38
384.662	101.38
384.887	110.38
385.112	82.38
385.337	97.38
385.562	91.38
385.787	90.38
386.013	107.38
386.238	102.38
386.463	107.38
386.688	109.38
386.913	91.38
387.138	105.38
387.363	95.38
387.588	106.38
387.813	92.38
388.038	108.38
388.263	84.38
388.488	105.38
388.713	99.38
388.938	107.38
389.163	106.38
389.387	92.38
389.612	99.38
389.837	89.38
390.062	80.38
390.287	93.38
390.512	86.38
390.736	77.38
390.961	87.38
391.186	90.38
391.411	103.38
391.636	110.38
391.86	98.38
392.085	87.38
392.31	90.38
392.534	91.38
392.759	98.38
392.984	91.38
393.208	97.38
393.433	73.38
393.658	80.38
393.882	91.38
394.107	78.38
394.331	87.38
394.556	83.38
394.78	90.38
395.005	104.38
395.229	94.38
395.454	80.38
395.678	82.38
395.903	91.38
396.127	90.38
396.352	77.38
396.576	72.38
396.801	81.38
397.025	74.38
397.249	86.38
397.474	74.38
397.698	77.38
397.922	85.38
398.147	89.38
398.371	101.38
398.595	90.38
398.82	96.38
399.044	88.38
399.268	97.38
399.492	90.38
399.717	94.38
399.941	94.38
400.165	99.38
400.389	91.38
400.613	93.38
400.837	89.38
401.062	71.38
401.286	97.38
401.51	84.38
401.734	95.38
401.958	111.38
402.182	122.38
402.406	158.38
402.63	126.38
402.854	96.38
403.078	84.38
403.302	84.38
403.526	93.38
403.75	84.38
403.974	89.38
404.198	81.38
404.422	82.38
404.645	97.38
404.869	90.38
405.093	109.38
405.317	119.38
405.541	117.38
405.765	102.38
405.988	104.38
406.212	180.38
406.436	241.38
406.66	148.38
406.883	98.38
407.107	94.38
407.331	89.38
407.555	101.38
407.778	90.38
408.002	90.38
408.226	95.38
408.449	100.38
408.673	96.38
408.896	82.38
409.12	94.38
409.344	95.38
409.567	87.38
409.791	96.38
410.014	96.38
410.238	91.38
410.461	110.38
410.685	88.38
410.908	108.38
411.132	105.38
411.355	102.38
411.578	94.38
411.802	101.38
412.025	92.38
412.249	109.38
412.472	102.38
412.695	111.38
412.919	106.38
413.142	97.38
413.365	95.38
413.589	75.38
413.812	89.38
414.035	94.38
414.258	72.38
414.482	91.38
414.705	90.38
414.928	69.38
415.151	91.38
415.374	91.38
415.597	85.38
415.821	86.38
416.044	97.38
416.267	98.38
416.49	82.38
416.713	84.38
416.936	87.38
417.159	98.38
417.382	92.38
417.605	91.38
417.828	92.38
418.051	100.38
418.274	86.38
418.497	79.38
418.72	88.38
418.943	77.38
419.166	81.38
419.389	81.38
419.611	85.38
419.834	101.38
420.057	89.38
420.28	86.38
420.503	86.38
420.726	91.38
420.948	89.38
421.171	77.38
421.394	102.38
421.617	101.38
421.839	92.38
422.062	96.38
422.285	104.38
422.507	99.38
422.73	96.38
422.953	88.38
423.175	92.38
423.398	95.38
423.621	87.38
423.843	90.38
424.066	82.38
424.288	89.38
424.511	97.38
424.733	105.38
424.956	106.38
425.178	102.38
425.401	110.38
425.623	104.38
425.846	84.38
426.068	85.38
426.291	90.38
426.513	88.38
426.735	88.38
426.958	105.38
427.18	108.38
427.402	164.38
427.625	195.38
427.847	156.38
428.069	155.38
428.292	98.38
428.514	80.38
428.736	91.38
428.958	78.38
429.181	89.38
429.403	90.38
429.625	89.38
429.847	95.38
430.069	111.38
430.292	93.38
430.514	89.38
430.736	85.38
430.958	77.38
431.18	76.38
431.402	92.38
431.624	100.38
431.846	90.38
432.068	104.38
432.29	93.38
432.512	94.38
432.734	92.38
432.956	82.38
433.178	103.38
433.4	97.38
433.622	91.38
433.844	107.38
434.066	94.38
434.287	79.38
434.509	96.38
434.731	93.38
434.953	93.38
435.175	88.38
435.397	92.38
435.618	88.38
435.84	109.38
436.062	132.38
436.284	122.38
436.505	103.38
436.727	102.38
436.949	94.38
437.17	93.38
437.392	102.38
437.614	100.38
437.835	118.38
438.057	135.38
438.278	112.38
438.5	110.38
438.721	138.38
438.943	108.38
439.165	82.38
439.386	85.38
439.608	106.38
439.829	112.38
440.05	132.38
440.272	168.38
440.493	97.38
440.715	102.38
440.936	93.38
441.158	88.38
441.379	96.38
441.6	96.38
441.822	104.38
442.043	100.38
442.264	103.38
442.486	111.38
442.707	94.38
442.928	96.38
443.149	144.38
443.371	138.38
443.592	112.38
443.813	126.38
444.034	119.38
444.255	100.38
444.476	84.38
444.698	87.38
444.919	90.38
445.14	132.38
445.361	126.38
445.582	115.38
445.803	156.38
446.024	157.38
446.245	159.38
446.466	126.38
446.687	101.38
446.908	97.38
447.129	90.38
447.35	95.38
447.571	112.38
447.792	93.38
448.013	101.38
448.234	85.38
448.455	98.38
448.675	126.38
448.896	129.38
449.117	111.38
449.338	109.38
449.559	141.38
449.779	137.38
450	103.38
450.221	92.38
450.442	82.38
450.662	106.38
450.883	110.38
451.104	109.38
451.324	95.38
451.545	94.38
451.766	101.38
451.986	77.38
452.207	96.38
452.428	104.38
452.648	103.38
452.869	113.38
453.089	118.38
453.31	144.38
453.53	119.38
453.751	93.38
453.971	123.38
454.192	111.38
454.412	84.38
454.633	75.38
454.853	89.38
455.073	90.38
455.294	94.38
455.514	113.38
455.734	96.38
455.955	95.38
456.175	91.38
456.395	94.38
456.616	86.38
456.836	96.38
457.056	86.38
457.276	74.38
457.497	104.38
457.717	77.38
457.937	84.38
458.157	86.38
458.377	94.38
458.598	105.38
458.818	147.38
459.038	162.38
459.258	126.38
459.478	99.38
459.698	96.38
459.918	91.38
460.138	74.38
460.358	84.38
460.578	77.38
460.798	89.38
461.018	101.38
461.238	87.38
461.458	97.38
461.678	91.38
461.898	90.38
462.118	87.38
462.338	84.38
462.558	92.38
462.777	88.38
462.997	85.38
463.217	87.38
463.437	74.38
463.657	86.38
463.876	80.38
464.096	77.38
464.316	75.38
464.536	89.38
464.755	101.38
464.975	118.38
465.195	172.38
465.414	189.38
465.634	101.38
465.854	95.38
466.073	94.38
466.293	79.38
466.512	100.38
466.732	85.38
466.951	81.38
467.171	82.38
467.391	95.38
467.61	97.38
467.829	110.38
468.049	152.38
468.268	184.38
468.488	107.38
468.707	102.38
468.927	79.38
469.146	85.38
469.365	95.38
469.585	98.38
469.804	80.38
470.023	89.38
470.243	96.38
470.462	101.38
470.681	98.38
470.901	97.38
471.12	100.38
471.339	84.38
471.558	94.38
471.777	82.38
471.997	121.38
472.216	226.38
472.435	402.38
472.654	168.38
472.873	105.38
473.092	99.38
473.311	94.38
473.53	82.38
473.749	104.38
473.968	96.38
474.187	106.38
474.406	97.38
474.625	96.38
474.844	101.38
475.063	94.38
475.282	83.38
475.501	96.38
475.72	75.38
475.939	73.38
476.158	82.38
476.377	83.38
476.596	98.38
476.814	107.38
477.033	106.38
477.252	102.38
477.471	90.38
477.69	97.38
477.908	90.38
478.127	89.38
478.346	92.38
478.564	87.38
478.783	103.38
479.002	97.38
479.22	83.38
479.439	94.38
479.658	113.38
479.876	107.38
480.095	89.38
480.313	95.38
480.532	87.38
480.751	126.38
480.969	212.38
481.188	660.38
481.406	447.38
481.624	125.38
481.843	98.38
482.061	79.38
482.28	92.38
482.498	83.38
482.717	86.38
482.935	107.38
483.153	82.38
483.372	85.38
483.59	92.38
483.808	89.38
484.027	90.38
484.245	97.38
484.463	91.38
484.681	93.38
484.9	98.38
485.118	97.38
485.336	94.38
485.554	97.38
485.772	98.38
485.99	106.38
486.209	93.38
486.427	100.38
486.645	91.38
486.863	120.38
487.081	109.38
487.299	107.38
487.517	94.38
487.735	101.38
487.953	99.38
488.171	90.38
488.389	101.38
488.607	91.38
488.825	83.38
489.043	86.38
489.261	98.38
489.479	94.38
489.696	97.38
489.914	93.38
490.132	100.38
490.35	89.38
490.568	104.38
490.786	81.38
491.003	90.38
491.221	90.38
491.439	97.38
491.657	98.38
491.874	104.38
492.092	93.38
492.31	85.38
492.527	85.38
492.745	97.38
492.963	90.38
493.18	97.38
493.398	95.38
493.615	95.38
493.833	87.38
494.05	82.38
494.268	90.38
494.485	94.38
494.703	96.38
494.92	82.38
495.138	93.38
495.355	89.38
495.573	95.38
495.79	86.38
496.008	91.38
496.225	80.38
496.442	89.38
496.66	97.38
496.877	91.38
497.094	96.38
497.312	87.38
497.529	89.38
497.746	87.38
497.963	97.38
498.181	94.38
498.398	98.38
498.615	130.38
498.832	114.38
499.049	96.38
499.267	87.38
499.484	95.38
499.701	78.38
499.918	85.38
500.135	88.38
500.352	85.38
500.569	96.38
500.786	85.38
501.003	95.38
501.22	98.38
501.437	93.38
501.654	88.38
501.871	101.38
502.088	83.38
502.305	91.38
502.522	73.38
502.739	85.38
502.956	86.38
503.172	91.38
503.389	92.38
503.606	109.38
503.823	112.38
504.04	96.38
504.256	95.38
504.473	107.38
504.69	78.38
504.907	116.38
505.123	82.38
505.34	81.38
505.557	104.38
505.773	95.38
505.99	77.38
506.207	99.38
506.423	107.38
506.64	104.38
506.856	103.38
507.073	100.38
507.289	94.38
507.506	97.38
507.722	118.38
507.939	105.38
508.155	95.38
508.372	104.38
508.588	98.38
508.805	93.38
509.021	100.38
509.238	104.38
509.454	104.38
509.67	107.38
509.887	121.38
510.103	137.38
510.319	197.38
510.536	716.38
510.752	2399.38
510.968	698.38
511.184	160.38
511.401	113.38
511.617	110.38
511.833	88.38
512.049	96.38
512.265	103.38
512.481	95.38
512.698	95.38
512.914	98.38
513.13	90.38
513.346	106.38
513.562	94.38
513.778	96.38
513.994	108.38
514.21	107.38
514.426	130.38
514.642	146.38
