Data from Circ_2011_H10_HRD10591_00090.txt Node
Date: Wed Jan 03 10:08:17 EST 2024
User: Yrep
Spectrometer: HR+D1059
Trigger mode: 1
Integration Time (sec): 1.000000E-1
Scans to average: 1
Electric dark correction enabled: true
Nonlinearity correction enabled: false
Boxcar width: 0
XAxis mode: Wavelengths
Number of Pixels in Spectrum: 2048
>>>>>Begin Spectral Data<<<<<
223.165	-21.12
223.4	-21.12
223.635	-21.12
223.869	-20.12
224.104	-19.12
224.338	-3.12
224.573	-28.12
224.808	-19.12
225.042	-13.12
225.277	0.88
225.511	-7.12
225.746	11.88
225.98	3.88
226.215	19.88
226.449	23.88
226.683	14.88
226.918	31.88
227.152	23.88
227.387	37.88
227.621	34.88
227.856	43.88
228.09	35.88
228.324	51.88
228.559	71.88
228.793	62.88
229.027	39.88
229.262	60.88
229.496	74.88
229.73	88.88
229.964	92.88
230.199	67.88
230.433	70.88
230.667	83.88
230.901	56.88
231.136	61.88
231.37	80.88
231.604	74.88
231.838	51.88
232.072	74.88
232.306	80.88
232.541	76.88
232.775	69.88
233.009	88.88
233.243	89.88
233.477	88.88
233.711	77.88
233.945	72.88
234.179	83.88
234.413	76.88
234.647	94.88
234.881	69.88
235.115	86.88
235.349	80.88
235.583	87.88
235.817	87.88
236.051	81.88
236.285	75.88
236.519	69.88
236.753	68.88
236.987	81.88
237.221	89.88
237.455	83.88
237.689	88.88
237.922	76.88
238.156	76.88
238.39	72.88
238.624	79.88
238.858	65.88
239.091	64.88
239.325	65.88
239.559	72.88
239.793	65.88
240.027	87.88
240.26	79.88
240.494	76.88
240.728	77.88
240.961	67.88
241.195	74.88
241.429	73.88
241.662	84.88
241.896	69.88
242.13	78.88
242.363	72.88
242.597	69.88
242.83	82.88
243.064	57.88
243.298	75.88
243.531	77.88
243.765	68.88
243.998	73.88
244.232	88.88
244.465	89.88
244.699	93.88
244.932	80.88
245.166	71.88
245.399	76.88
245.633	73.88
245.866	82.88
246.099	82.88
246.333	71.88
246.566	65.88
246.8	75.88
247.033	74.88
247.266	84.88
247.5	76.88
247.733	72.88
247.966	82.88
248.2	74.88
248.433	85.88
248.666	65.88
248.899	70.88
249.133	80.88
249.366	93.88
249.599	97.88
249.832	88.88
250.066	71.88
250.299	78.88
250.532	87.88
250.765	91.88
250.998	77.88
251.231	78.88
251.465	81.88
251.698	66.88
251.931	69.88
252.164	84.88
252.397	71.88
252.63	75.88
252.863	77.88
253.096	87.88
253.329	69.88
253.562	81.88
253.795	77.88
254.028	82.88
254.261	67.88
254.494	71.88
254.727	69.88
254.96	75.88
255.193	68.88
255.426	81.88
255.659	84.88
255.892	85.88
256.124	89.88
256.357	72.88
256.59	75.88
256.823	85.88
257.056	80.88
257.289	84.88
257.521	71.88
257.754	79.88
257.987	79.88
258.22	70.88
258.452	79.88
258.685	80.88
258.918	84.88
259.151	81.88
259.383	81.88
259.616	68.88
259.849	89.88
260.081	83.88
260.314	75.88
260.547	70.88
260.779	87.88
261.012	88.88
261.244	87.88
261.477	88.88
261.71	95.88
261.942	94.88
262.175	112.88
262.407	80.88
262.64	82.88
262.872	81.88
263.105	73.88
263.337	82.88
263.57	93.88
263.802	95.88
264.035	67.88
264.267	79.88
264.499	92.88
264.732	78.88
264.964	77.88
265.197	84.88
265.429	84.88
265.661	86.88
265.894	89.88
266.126	77.88
266.358	70.88
266.591	80.88
266.823	84.88
267.055	76.88
267.287	85.88
267.52	84.88
267.752	90.88
267.984	80.88
268.216	80.88
268.448	90.88
268.681	68.88
268.913	75.88
269.145	77.88
269.377	79.88
269.609	84.88
269.841	74.88
270.073	87.88
270.306	77.88
270.538	73.88
270.77	90.88
271.002	76.88
271.234	84.88
271.466	76.88
271.698	80.88
271.93	78.88
272.162	83.88
272.394	81.88
272.626	65.88
272.858	87.88
273.09	78.88
273.322	74.88
273.553	78.88
273.785	74.88
274.017	86.88
274.249	95.88
274.481	83.88
274.713	93.88
274.945	81.88
275.176	82.88
275.408	77.88
275.64	76.88
275.872	90.88
276.104	72.88
276.335	76.88
276.567	90.88
276.799	123.88
277.031	106.88
277.262	101.88
277.494	98.88
277.726	93.88
277.957	84.88
278.189	65.88
278.421	88.88
278.652	80.88
278.884	81.88
279.115	84.88
279.347	82.88
279.579	86.88
279.81	102.88
280.042	101.88
280.273	110.88
280.505	83.88
280.736	92.88
280.968	79.88
281.199	69.88
281.431	93.88
281.662	98.88
281.894	69.88
282.125	104.88
282.356	108.88
282.588	130.88
282.819	117.88
283.051	80.88
283.282	98.88
283.513	77.88
283.745	84.88
283.976	81.88
284.207	65.88
284.439	86.88
284.67	82.88
284.901	86.88
285.132	88.88
285.364	99.88
285.595	84.88
285.826	93.88
286.057	77.88
286.288	90.88
286.52	98.88
286.751	92.88
286.982	94.88
287.213	92.88
287.444	81.88
287.675	97.88
287.906	100.88
288.138	99.88
288.369	85.88
288.6	77.88
288.831	100.88
289.062	87.88
289.293	96.88
289.524	88.88
289.755	105.88
289.986	89.88
290.217	71.88
290.448	80.88
290.679	109.88
290.91	84.88
291.141	83.88
291.371	83.88
291.602	84.88
291.833	81.88
292.064	84.88
292.295	94.88
292.526	77.88
292.757	85.88
292.987	95.88
293.218	80.88
293.449	79.88
293.68	97.88
293.91	80.88
294.141	93.88
294.372	105.88
294.603	86.88
294.833	95.88
295.064	92.88
295.295	95.88
295.525	85.88
295.756	106.88
295.987	101.88
296.217	129.88
296.448	116.88
296.679	91.88
296.909	97.88
297.14	91.88
297.37	95.88
297.601	91.88
297.831	84.88
298.062	78.88
298.292	80.88
298.523	58.88
298.753	75.88
298.984	81.88
299.214	72.88
299.445	83.88
299.675	78.88
299.905	84.88
300.136	98.88
300.366	86.88
300.597	88.88
300.827	98.88
301.057	89.88
301.288	97.88
301.518	87.88
301.748	82.88
301.979	98.88
302.209	95.88
302.439	91.88
302.669	85.88
302.9	88.88
303.13	78.88
303.36	98.88
303.59	107.88
303.82	104.88
304.051	94.88
304.281	91.88
304.511	72.88
304.741	83.88
304.971	83.88
305.201	89.88
305.431	82.88
305.661	102.88
305.891	102.88
306.121	96.88
306.352	88.88
306.582	107.88
306.812	86.88
307.042	91.88
307.272	87.88
307.502	104.88
307.731	98.88
307.961	88.88
308.191	74.88
308.421	92.88
308.651	88.88
308.881	103.88
309.111	87.88
309.341	106.88
309.571	90.88
309.8	100.88
310.03	88.88
310.26	98.88
310.49	99.88
310.72	104.88
310.949	103.88
311.179	89.88
311.409	98.88
311.639	81.88
311.868	98.88
312.098	107.88
312.328	103.88
312.557	106.88
312.787	101.88
313.017	100.88
313.246	100.88
313.476	88.88
313.706	85.88
313.935	92.88
314.165	111.88
314.394	95.88
314.624	96.88
314.853	90.88
315.083	99.88
315.312	87.88
315.542	88.88
315.771	80.88
316.001	99.88
316.23	101.88
316.46	94.88
316.689	92.88
316.919	94.88
317.148	81.88
317.377	77.88
317.607	96.88
317.836	72.88
318.065	84.88
318.295	91.88
318.524	84.88
318.753	80.88
318.983	76.88
319.212	98.88
319.441	96.88
319.67	93.88
319.9	92.88
320.129	88.88
320.358	97.88
320.587	103.88
320.816	95.88
321.046	109.88
321.275	100.88
321.504	80.88
321.733	95.88
321.962	92.88
322.191	111.88
322.42	98.88
322.649	108.88
322.878	115.88
323.108	120.88
323.337	134.88
323.566	125.88
323.795	154.88
324.024	234.88
324.253	472.88
324.482	987.88
324.71	2097.88
324.939	2821.88
325.168	1000.88
325.397	277.88
325.626	155.88
325.855	139.88
326.084	133.88
326.313	133.88
326.542	160.88
326.77	260.88
326.999	559.88
327.228	1176.88
327.457	2164.88
327.686	1703.88
327.914	425.88
328.143	238.88
328.372	239.88
328.6	147.88
328.829	131.88
329.058	145.88
329.287	146.88
329.515	127.88
329.744	115.88
329.972	150.88
330.201	220.88
330.43	329.88
330.658	189.88
330.887	161.88
331.115	130.88
331.344	98.88
331.572	82.88
331.801	100.88
332.03	102.88
332.258	98.88
332.486	94.88
332.715	82.88
332.943	91.88
333.172	94.88
333.4	84.88
333.629	117.88
333.857	128.88
334.085	148.88
334.314	243.88
334.542	397.88
334.771	367.88
334.999	142.88
335.227	108.88
335.455	92.88
335.684	104.88
335.912	90.88
336.14	86.88
336.369	98.88
336.597	110.88
336.825	94.88
337.053	80.88
337.281	95.88
337.51	79.88
337.738	85.88
337.966	81.88
338.194	102.88
338.422	93.88
338.65	88.88
338.878	92.88
339.106	82.88
339.334	91.88
339.562	81.88
339.79	83.88
340.018	84.88
340.246	103.88
340.474	100.88
340.702	88.88
340.93	95.88
341.158	89.88
341.386	89.88
341.614	95.88
341.842	87.88
342.07	80.88
342.298	80.88
342.526	91.88
342.754	81.88
342.981	80.88
343.209	84.88
343.437	92.88
343.665	82.88
343.893	91.88
344.12	75.88
344.348	80.88
344.576	99.88
344.804	83.88
345.031	105.88
345.259	87.88
345.487	92.88
345.714	94.88
345.942	95.88
346.17	87.88
346.397	86.88
346.625	99.88
346.853	88.88
347.08	85.88
347.308	87.88
347.535	91.88
347.763	84.88
347.99	96.88
348.218	103.88
348.445	111.88
348.673	96.88
348.9	115.88
349.128	100.88
349.355	92.88
349.583	81.88
349.81	91.88
350.037	93.88
350.265	89.88
350.492	94.88
350.72	76.88
350.947	86.88
351.174	103.88
351.402	89.88
351.629	105.88
351.856	109.88
352.083	99.88
352.311	103.88
352.538	91.88
352.765	105.88
352.992	101.88
353.22	116.88
353.447	101.88
353.674	107.88
353.901	96.88
354.128	85.88
354.355	96.88
354.583	95.88
354.81	95.88
355.037	80.88
355.264	94.88
355.491	93.88
355.718	96.88
355.945	84.88
356.172	96.88
356.399	82.88
356.626	70.88
356.853	97.88
357.08	77.88
357.307	87.88
357.534	85.88
357.761	98.88
357.988	92.88
358.215	85.88
358.441	86.88
358.668	82.88
358.895	94.88
359.122	68.88
359.349	79.88
359.576	105.88
359.802	101.88
360.029	121.88
360.256	114.88
360.483	92.88
360.709	80.88
360.936	83.88
361.163	83.88
361.39	86.88
361.616	99.88
361.843	86.88
362.07	99.88
362.296	93.88
362.523	91.88
362.749	99.88
362.976	100.88
363.203	90.88
363.429	76.88
363.656	83.88
363.882	83.88
364.109	87.88
364.335	93.88
364.562	82.88
364.788	81.88
365.015	74.88
365.241	87.88
365.468	108.88
365.694	112.88
365.92	96.88
366.147	102.88
366.373	88.88
366.599	81.88
366.826	92.88
367.052	80.88
367.278	81.88
367.505	103.88
367.731	66.88
367.957	89.88
368.184	94.88
368.41	93.88
368.636	109.88
368.862	121.88
369.089	98.88
369.315	85.88
369.541	84.88
369.767	84.88
369.993	83.88
370.219	82.88
370.445	75.88
370.672	83.88
370.898	85.88
371.124	92.88
371.35	83.88
371.576	81.88
371.802	78.88
372.028	76.88
372.254	92.88
372.48	88.88
372.706	91.88
372.932	89.88
373.158	58.88
373.384	65.88
373.61	95.88
373.835	87.88
374.061	76.88
374.287	84.88
374.513	82.88
374.739	89.88
374.965	92.88
375.191	81.88
375.416	87.88
375.642	85.88
375.868	83.88
376.094	84.88
376.319	76.88
376.545	94.88
376.771	100.88
376.997	94.88
377.222	104.88
377.448	90.88
377.674	85.88
377.899	85.88
378.125	87.88
378.35	91.88
378.576	108.88
378.802	82.88
379.027	76.88
379.253	95.88
379.478	92.88
379.704	72.88
379.929	84.88
380.155	75.88
380.38	87.88
380.606	85.88
380.831	86.88
381.057	86.88
381.282	86.88
381.507	73.88
381.733	94.88
381.958	90.88
382.184	73.88
382.409	81.88
382.634	101.88
382.86	92.88
383.085	84.88
383.31	94.88
383.535	96.88
383.761	85.88
383.986	94.88
384.211	88.88
384.436	85.88
384.662	95.88
384.887	87.88
385.112	96.88
385.337	80.88
385.562	100.88
385.787	97.88
386.013	101.88
386.238	100.88
386.463	109.88
386.688	104.88
386.913	81.88
387.138	91.88
387.363	83.88
387.588	85.88
387.813	85.88
388.038	101.88
388.263	95.88
388.488	99.88
388.713	93.88
388.938	84.88
389.163	92.88
389.387	83.88
389.612	87.88
389.837	83.88
390.062	85.88
390.287	87.88
390.512	82.88
390.736	78.88
390.961	88.88
391.186	110.88
391.411	85.88
391.636	83.88
391.86	68.88
392.085	90.88
392.31	91.88
392.534	91.88
392.759	91.88
392.984	80.88
393.208	67.88
393.433	89.88
393.658	107.88
393.882	83.88
394.107	85.88
394.331	86.88
394.556	82.88
394.78	84.88
395.005	82.88
395.229	88.88
395.454	87.88
395.678	91.88
395.903	97.88
396.127	77.88
396.352	85.88
396.576	84.88
396.801	90.88
397.025	67.88
397.249	88.88
397.474	90.88
397.698	94.88
397.922	85.88
398.147	93.88
398.371	88.88
398.595	75.88
398.82	81.88
399.044	69.88
399.268	78.88
399.492	92.88
399.717	87.88
399.941	85.88
400.165	75.88
400.389	89.88
400.613	92.88
400.837	75.88
401.062	76.88
401.286	89.88
401.51	79.88
401.734	93.88
401.958	105.88
402.182	112.88
402.406	152.88
402.63	125.88
402.854	91.88
403.078	85.88
403.302	79.88
403.526	78.88
403.75	76.88
403.974	81.88
404.198	93.88
404.422	83.88
404.645	77.88
404.869	84.88
405.093	107.88
405.317	141.88
405.541	105.88
405.765	88.88
405.988	118.88
406.212	176.88
406.436	212.88
406.66	145.88
406.883	89.88
407.107	90.88
407.331	98.88
407.555	97.88
407.778	112.88
408.002	98.88
408.226	95.88
408.449	94.88
408.673	87.88
408.896	97.88
409.12	84.88
409.344	75.88
409.567	77.88
409.791	83.88
410.014	98.88
410.238	88.88
410.461	99.88
410.685	92.88
410.908	99.88
411.132	108.88
411.355	101.88
411.578	96.88
411.802	86.88
412.025	75.88
412.249	90.88
412.472	89.88
412.695	106.88
412.919	80.88
413.142	95.88
413.365	75.88
413.589	80.88
413.812	79.88
414.035	96.88
414.258	85.88
414.482	87.88
414.705	86.88
414.928	76.88
415.151	81.88
415.374	80.88
415.597	95.88
415.821	75.88
416.044	72.88
416.267	84.88
416.49	83.88
416.713	67.88
416.936	98.88
417.159	96.88
417.382	84.88
417.605	83.88
417.828	93.88
418.051	91.88
418.274	78.88
418.497	88.88
418.72	89.88
418.943	80.88
419.166	86.88
419.389	80.88
419.611	92.88
419.834	77.88
420.057	85.88
420.28	91.88
420.503	79.88
420.726	81.88
420.948	96.88
421.171	80.88
421.394	96.88
421.617	95.88
421.839	74.88
422.062	99.88
422.285	100.88
422.507	91.88
422.73	101.88
422.953	84.88
423.175	92.88
423.398	90.88
423.621	80.88
423.843	92.88
424.066	77.88
424.288	83.88
424.511	91.88
424.733	97.88
424.956	112.88
425.178	89.88
425.401	104.88
425.623	96.88
425.846	75.88
426.068	94.88
426.291	98.88
426.513	101.88
426.735	94.88
426.958	96.88
427.18	104.88
427.402	150.88
427.625	181.88
427.847	158.88
428.069	153.88
428.292	89.88
428.514	82.88
428.736	89.88
428.958	87.88
429.181	69.88
429.403	88.88
429.625	89.88
429.847	97.88
430.069	115.88
430.292	96.88
430.514	78.88
430.736	89.88
430.958	84.88
431.18	76.88
431.402	78.88
431.624	96.88
431.846	77.88
432.068	86.88
432.29	86.88
432.512	89.88
432.734	97.88
432.956	93.88
433.178	103.88
433.4	99.88
433.622	75.88
433.844	86.88
434.066	92.88
434.287	85.88
434.509	78.88
434.731	93.88
434.953	92.88
435.175	84.88
435.397	92.88
435.618	74.88
435.84	98.88
436.062	128.88
436.284	133.88
436.505	100.88
436.727	106.88
436.949	92.88
437.17	91.88
437.392	71.88
437.614	84.88
437.835	104.88
438.057	131.88
438.278	129.88
438.5	106.88
438.721	125.88
438.943	116.88
439.165	77.88
439.386	102.88
439.608	85.88
439.829	102.88
440.05	151.88
440.272	170.88
440.493	97.88
440.715	91.88
440.936	76.88
441.158	97.88
441.379	65.88
441.6	85.88
441.822	96.88
442.043	96.88
442.264	116.88
442.486	108.88
442.707	101.88
442.928	84.88
443.149	126.88
443.371	138.88
443.592	116.88
443.813	110.88
444.034	117.88
444.255	88.88
444.476	94.88
444.698	80.88
444.919	90.88
445.14	128.88
445.361	138.88
445.582	132.88
445.803	153.88
446.024	159.88
446.245	152.88
446.466	131.88
446.687	91.88
446.908	86.88
447.129	99.88
447.35	77.88
447.571	83.88
447.792	89.88
448.013	92.88
448.234	99.88
448.455	120.88
448.675	114.88
448.896	115.88
449.117	102.88
449.338	112.88
449.559	151.88
449.779	156.88
450	89.88
450.221	84.88
450.442	87.88
450.662	82.88
450.883	101.88
451.104	101.88
451.324	88.88
451.545	81.88
451.766	79.88
451.986	66.88
452.207	86.88
452.428	90.88
452.648	105.88
452.869	124.88
453.089	98.88
453.31	111.88
453.53	105.88
453.751	96.88
453.971	85.88
454.192	104.88
454.412	97.88
454.633	77.88
454.853	91.88
455.073	83.88
455.294	83.88
455.514	89.88
455.734	107.88
455.955	84.88
456.175	69.88
456.395	89.88
456.616	87.88
456.836	87.88
457.056	91.88
457.276	69.88
457.497	84.88
457.717	89.88
457.937	88.88
458.157	84.88
458.377	85.88
458.598	127.88
458.818	158.88
459.038	177.88
459.258	117.88
459.478	92.88
459.698	88.88
459.918	90.88
460.138	89.88
460.358	84.88
460.578	84.88
460.798	91.88
461.018	91.88
461.238	79.88
461.458	85.88
461.678	80.88
461.898	82.88
462.118	83.88
462.338	87.88
462.558	84.88
462.777	74.88
462.997	80.88
463.217	83.88
463.437	81.88
463.657	75.88
463.876	84.88
464.096	75.88
464.316	76.88
464.536	93.88
464.755	93.88
464.975	113.88
465.195	176.88
465.414	175.88
465.634	102.88
465.854	88.88
466.073	84.88
466.293	67.88
466.512	66.88
466.732	80.88
466.951	85.88
467.171	73.88
467.391	96.88
467.61	106.88
467.829	103.88
468.049	166.88
468.268	200.88
468.488	106.88
468.707	93.88
468.927	67.88
469.146	96.88
469.365	85.88
469.585	85.88
469.804	102.88
470.023	94.88
470.243	85.88
470.462	116.88
470.681	91.88
470.901	82.88
471.12	67.88
471.339	79.88
471.558	83.88
471.777	81.88
471.997	131.88
472.216	254.88
472.435	481.88
472.654	166.88
472.873	87.88
473.092	87.88
473.311	83.88
473.53	80.88
473.749	87.88
473.968	91.88
474.187	103.88
474.406	99.88
474.625	83.88
474.844	78.88
475.063	81.88
475.282	85.88
475.501	79.88
475.72	85.88
475.939	74.88
476.158	77.88
476.377	88.88
476.596	93.88
476.814	105.88
477.033	88.88
477.252	87.88
477.471	101.88
477.69	75.88
477.908	70.88
478.127	105.88
478.346	79.88
478.564	89.88
478.783	90.88
479.002	83.88
479.22	86.88
479.439	108.88
479.658	103.88
479.876	90.88
480.095	98.88
480.313	92.88
480.532	82.88
480.751	113.88
480.969	274.88
481.188	812.88
481.406	543.88
481.624	125.88
481.843	83.88
482.061	68.88
482.28	93.88
482.498	89.88
482.717	89.88
482.935	94.88
483.153	85.88
483.372	80.88
483.59	89.88
483.808	68.88
484.027	92.88
484.245	83.88
484.463	84.88
484.681	89.88
484.9	85.88
485.118	88.88
485.336	96.88
485.554	105.88
485.772	94.88
485.99	97.88
486.209	111.88
486.427	97.88
486.645	111.88
486.863	111.88
487.081	100.88
487.299	97.88
487.517	82.88
487.735	94.88
487.953	81.88
488.171	97.88
488.389	96.88
488.607	92.88
488.825	88.88
489.043	87.88
489.261	90.88
489.479	96.88
489.696	96.88
489.914	89.88
490.132	85.88
490.35	81.88
490.568	79.88
490.786	100.88
491.003	83.88
491.221	92.88
491.439	86.88
491.657	80.88
491.874	81.88
492.092	85.88
492.31	88.88
492.527	90.88
492.745	79.88
492.963	87.88
493.18	94.88
493.398	83.88
493.615	99.88
493.833	73.88
494.05	75.88
494.268	92.88
494.485	81.88
494.703	75.88
494.92	96.88
495.138	75.88
495.355	85.88
495.573	93.88
495.79	98.88
496.008	85.88
496.225	77.88
496.442	80.88
496.66	88.88
496.877	96.88
497.094	91.88
497.312	88.88
497.529	84.88
497.746	80.88
497.963	80.88
498.181	91.88
498.398	108.88
498.615	105.88
498.832	108.88
499.049	79.88
499.267	82.88
499.484	72.88
499.701	81.88
499.918	90.88
500.135	88.88
500.352	76.88
500.569	92.88
500.786	101.88
501.003	95.88
501.22	80.88
501.437	86.88
501.654	92.88
501.871	93.88
502.088	90.88
502.305	94.88
502.522	87.88
502.739	74.88
502.956	93.88
503.172	87.88
503.389	85.88
503.606	101.88
503.823	95.88
504.04	83.88
504.256	79.88
504.473	88.88
504.69	98.88
504.907	84.88
505.123	71.88
505.34	77.88
505.557	84.88
505.773	86.88
505.99	85.88
506.207	96.88
506.423	97.88
506.64	89.88
506.856	79.88
507.073	87.88
507.289	87.88
507.506	87.88
507.722	113.88
507.939	98.88
508.155	84.88
508.372	91.88
508.588	100.88
508.805	88.88
509.021	87.88
509.238	76.88
509.454	87.88
509.67	96.88
509.887	104.88
510.103	130.88
510.319	198.88
510.536	667.88
510.752	2194.88
510.968	632.88
511.184	138.88
511.401	97.88
511.617	97.88
511.833	101.88
512.049	89.88
512.265	94.88
512.481	88.88
512.698	74.88
512.914	98.88
513.13	84.88
513.346	77.88
513.562	91.88
513.778	87.88
513.994	112.88
514.21	96.88
514.426	125.88
514.642	150.88
514.858	120.88
515.074	159.88
515.29	463.88
515.506	1511.88
515.721	549.88
515.937	143.88
516.153	113.88
516.369	120.88
