Data from Circ_2011_H10_HRD10591_00080.txt Node
Date: Wed Jan 03 10:08:15 EST 2024
User: Yrep
Spectrometer: HR+D1059
Trigger mode: 1
Integration Time (sec): 1.000000E-1
Scans to average: 1
Electric dark correction enabled: true
Nonlinearity correction enabled: false
Boxcar width: 0
XAxis mode: Wavelengths
Number of Pixels in Spectrum: 2048
>>>>>Begin Spectral Data<<<<<
223.165	-3.75
223.4	-3.75
223.635	-3.75
223.869	-17.75
224.104	-20.75
224.338	-26.75
224.573	-11.75
224.808	-8.75
225.042	-20.75
225.277	-12.75
225.511	2.25
225.746	14.25
225.98	10.25
226.215	21.25
226.449	17.25
226.683	18.25
226.918	20.25
227.152	19.25
227.387	43.25
227.621	27.25
227.856	44.25
228.09	52.25
228.324	62.25
228.559	59.25
228.793	57.25
229.027	71.25
229.262	73.25
229.496	76.25
229.73	79.25
229.964	93.25
230.199	74.25
230.433	83.25
230.667	86.25
230.901	76.25
231.136	73.25
231.37	68.25
231.604	81.25
231.838	73.25
232.072	82.25
232.306	80.25
232.541	73.25
232.775	86.25
233.009	77.25
233.243	85.25
233.477	69.25
233.711	57.25
233.945	82.25
234.179	74.25
234.413	76.25
234.647	78.25
234.881	75.25
235.115	79.25
235.349	90.25
235.583	62.25
235.817	73.25
236.051	84.25
236.285	90.25
236.519	85.25
236.753	86.25
236.987	69.25
237.221	85.25
237.455	78.25
237.689	75.25
237.922	69.25
238.156	72.25
238.39	71.25
238.624	82.25
238.858	75.25
239.091	78.25
239.325	83.25
239.559	95.25
239.793	71.25
240.027	75.25
240.26	71.25
240.494	79.25
240.728	69.25
240.961	78.25
241.195	87.25
241.429	77.25
241.662	84.25
241.896	86.25
242.13	67.25
242.363	87.25
242.597	88.25
242.83	69.25
243.064	60.25
243.298	79.25
243.531	75.25
243.765	63.25
243.998	75.25
244.232	86.25
244.465	83.25
244.699	76.25
244.932	75.25
245.166	67.25
245.399	79.25
245.633	86.25
245.866	74.25
246.099	72.25
246.333	77.25
246.566	89.25
246.8	76.25
247.033	88.25
247.266	80.25
247.5	77.25
247.733	88.25
247.966	79.25
248.2	69.25
248.433	80.25
248.666	80.25
248.899	79.25
249.133	90.25
249.366	104.25
249.599	104.25
249.832	89.25
250.066	80.25
250.299	91.25
250.532	76.25
250.765	85.25
250.998	90.25
251.231	80.25
251.465	72.25
251.698	97.25
251.931	92.25
252.164	75.25
252.397	84.25
252.63	78.25
252.863	68.25
253.096	70.25
253.329	75.25
253.562	90.25
253.795	79.25
254.028	77.25
254.261	82.25
254.494	75.25
254.727	78.25
254.96	86.25
255.193	77.25
255.426	66.25
255.659	70.25
255.892	76.25
256.124	72.25
256.357	72.25
256.59	95.25
256.823	72.25
257.056	64.25
257.289	89.25
257.521	70.25
257.754	86.25
257.987	83.25
258.22	82.25
258.452	87.25
258.685	82.25
258.918	75.25
259.151	79.25
259.383	76.25
259.616	78.25
259.849	75.25
260.081	81.25
260.314	85.25
260.547	101.25
260.779	84.25
261.012	75.25
261.244	86.25
261.477	84.25
261.71	101.25
261.942	101.25
262.175	147.25
262.407	80.25
262.64	94.25
262.872	77.25
263.105	77.25
263.337	94.25
263.57	84.25
263.802	85.25
264.035	88.25
264.267	69.25
264.499	66.25
264.732	80.25
264.964	82.25
265.197	88.25
265.429	71.25
265.661	75.25
265.894	77.25
266.126	63.25
266.358	72.25
266.591	85.25
266.823	80.25
267.055	86.25
267.287	83.25
267.52	72.25
267.752	74.25
267.984	78.25
268.216	88.25
268.448	83.25
268.681	84.25
268.913	98.25
269.145	86.25
269.377	76.25
269.609	79.25
269.841	85.25
270.073	76.25
270.306	89.25
270.538	76.25
270.77	74.25
271.002	93.25
271.234	93.25
271.466	83.25
271.698	85.25
271.93	94.25
272.162	90.25
272.394	93.25
272.626	96.25
272.858	86.25
273.09	86.25
273.322	81.25
273.553	85.25
273.785	65.25
274.017	94.25
274.249	89.25
274.481	82.25
274.713	77.25
274.945	91.25
275.176	78.25
275.408	87.25
275.64	83.25
275.872	83.25
276.104	90.25
276.335	113.25
276.567	100.25
276.799	119.25
277.031	111.25
277.262	84.25
277.494	107.25
277.726	92.25
277.957	86.25
278.189	84.25
278.421	66.25
278.652	74.25
278.884	78.25
279.115	90.25
279.347	90.25
279.579	76.25
279.81	89.25
280.042	91.25
280.273	109.25
280.505	96.25
280.736	74.25
280.968	76.25
281.199	93.25
281.431	67.25
281.662	77.25
281.894	94.25
282.125	94.25
282.356	131.25
282.588	162.25
282.819	128.25
283.051	98.25
283.282	101.25
283.513	91.25
283.745	78.25
283.976	83.25
284.207	72.25
284.439	83.25
284.67	87.25
284.901	104.25
285.132	77.25
285.364	90.25
285.595	93.25
285.826	77.25
286.057	99.25
286.288	87.25
286.52	99.25
286.751	94.25
286.982	80.25
287.213	70.25
287.444	85.25
287.675	91.25
287.906	88.25
288.138	94.25
288.369	91.25
288.6	91.25
288.831	92.25
289.062	90.25
289.293	84.25
289.524	82.25
289.755	94.25
289.986	82.25
290.217	97.25
290.448	94.25
290.679	76.25
290.91	87.25
291.141	80.25
291.371	79.25
291.602	86.25
291.833	85.25
292.064	106.25
292.295	89.25
292.526	85.25
292.757	80.25
292.987	93.25
293.218	98.25
293.449	77.25
293.68	84.25
293.91	114.25
294.141	79.25
294.372	87.25
294.603	90.25
294.833	93.25
295.064	86.25
295.295	91.25
295.525	99.25
295.756	98.25
295.987	127.25
296.217	141.25
296.448	130.25
296.679	95.25
296.909	99.25
297.14	92.25
297.37	88.25
297.601	90.25
297.831	95.25
298.062	80.25
298.292	82.25
298.523	102.25
298.753	81.25
298.984	91.25
299.214	93.25
299.445	89.25
299.675	86.25
299.905	106.25
300.136	84.25
300.366	95.25
300.597	93.25
300.827	104.25
301.057	93.25
301.288	98.25
301.518	99.25
301.748	99.25
301.979	99.25
302.209	103.25
302.439	93.25
302.669	91.25
302.9	92.25
303.13	75.25
303.36	98.25
303.59	107.25
303.82	109.25
304.051	87.25
304.281	88.25
304.511	79.25
304.741	86.25
304.971	86.25
305.201	90.25
305.431	90.25
305.661	95.25
305.891	95.25
306.121	107.25
306.352	100.25
306.582	104.25
306.812	99.25
307.042	84.25
307.272	112.25
307.502	97.25
307.731	105.25
307.961	90.25
308.191	101.25
308.421	74.25
308.651	99.25
308.881	109.25
309.111	94.25
309.341	104.25
309.571	94.25
309.8	91.25
310.03	100.25
310.26	106.25
310.49	104.25
310.72	102.25
310.949	96.25
311.179	103.25
311.409	98.25
311.639	95.25
311.868	98.25
312.098	105.25
312.328	94.25
312.557	111.25
312.787	114.25
313.017	105.25
313.246	90.25
313.476	93.25
313.706	81.25
313.935	97.25
314.165	105.25
314.394	101.25
314.624	100.25
314.853	105.25
315.083	99.25
315.312	92.25
315.542	92.25
315.771	94.25
316.001	97.25
316.23	104.25
316.46	72.25
316.689	76.25
316.919	86.25
317.148	85.25
317.377	89.25
317.607	102.25
317.836	115.25
318.065	100.25
318.295	98.25
318.524	90.25
318.753	95.25
318.983	104.25
319.212	106.25
319.441	113.25
319.67	102.25
319.9	102.25
320.129	93.25
320.358	93.25
320.587	102.25
320.816	108.25
321.046	94.25
321.275	91.25
321.504	95.25
321.733	103.25
321.962	100.25
322.191	114.25
322.42	111.25
322.649	119.25
322.878	118.25
323.108	119.25
323.337	126.25
323.566	142.25
323.795	183.25
324.024	246.25
324.253	492.25
324.482	1113.25
324.71	2352.25
324.939	3040.25
325.168	1046.25
325.397	293.25
325.626	171.25
325.855	136.25
326.084	140.25
326.313	144.25
326.542	181.25
326.77	294.25
326.999	615.25
327.228	1255.25
327.457	2268.25
327.686	1838.25
327.914	493.25
328.143	265.25
328.372	247.25
328.6	175.25
328.829	128.25
329.058	141.25
329.287	153.25
329.515	106.25
329.744	118.25
329.972	166.25
330.201	266.25
330.43	372.25
330.658	238.25
330.887	155.25
331.115	150.25
331.344	111.25
331.572	95.25
331.801	115.25
332.03	114.25
332.258	103.25
332.486	94.25
332.715	92.25
332.943	95.25
333.172	101.25
333.4	114.25
333.629	95.25
333.857	144.25
334.085	186.25
334.314	271.25
334.542	446.25
334.771	406.25
334.999	165.25
335.227	110.25
335.455	106.25
335.684	96.25
335.912	97.25
336.14	107.25
336.369	86.25
336.597	93.25
336.825	89.25
337.053	94.25
337.281	86.25
337.51	98.25
337.738	101.25
337.966	86.25
338.194	85.25
338.422	91.25
338.65	92.25
338.878	102.25
339.106	99.25
339.334	95.25
339.562	93.25
339.79	97.25
340.018	91.25
340.246	96.25
340.474	103.25
340.702	95.25
340.93	102.25
341.158	88.25
341.386	91.25
341.614	96.25
341.842	96.25
342.07	85.25
342.298	83.25
342.526	109.25
342.754	92.25
342.981	91.25
343.209	96.25
343.437	88.25
343.665	79.25
343.893	83.25
344.12	84.25
344.348	90.25
344.576	95.25
344.804	85.25
345.031	90.25
345.259	104.25
345.487	88.25
345.714	97.25
345.942	96.25
346.17	94.25
346.397	88.25
346.625	115.25
346.853	99.25
347.08	107.25
347.308	114.25
347.535	98.25
347.763	97.25
347.99	95.25
348.218	105.25
348.445	101.25
348.673	98.25
348.9	88.25
349.128	94.25
349.355	89.25
349.583	90.25
349.81	82.25
350.037	88.25
350.265	92.25
350.492	93.25
350.72	103.25
350.947	104.25
351.174	108.25
351.402	126.25
351.629	111.25
351.856	94.25
352.083	92.25
352.311	107.25
352.538	116.25
352.765	105.25
352.992	105.25
353.22	104.25
353.447	95.25
353.674	102.25
353.901	95.25
354.128	86.25
354.355	104.25
354.583	97.25
354.81	101.25
355.037	86.25
355.264	100.25
355.491	98.25
355.718	95.25
355.945	85.25
356.172	87.25
356.399	102.25
356.626	87.25
356.853	84.25
357.08	96.25
357.307	103.25
357.534	88.25
357.761	93.25
357.988	93.25
358.215	96.25
358.441	93.25
358.668	106.25
358.895	89.25
359.122	75.25
359.349	78.25
359.576	100.25
359.802	105.25
360.029	112.25
360.256	111.25
360.483	98.25
360.709	95.25
360.936	103.25
361.163	101.25
361.39	104.25
361.616	112.25
361.843	86.25
362.07	106.25
362.296	90.25
362.523	98.25
362.749	99.25
362.976	103.25
363.203	93.25
363.429	100.25
363.656	95.25
363.882	89.25
364.109	86.25
364.335	103.25
364.562	86.25
364.788	86.25
365.015	94.25
365.241	105.25
365.468	117.25
365.694	122.25
365.92	89.25
366.147	100.25
366.373	93.25
366.599	93.25
366.826	84.25
367.052	77.25
367.278	80.25
367.505	84.25
367.731	100.25
367.957	94.25
368.184	113.25
368.41	106.25
368.636	107.25
368.862	106.25
369.089	102.25
369.315	100.25
369.541	93.25
369.767	94.25
369.993	93.25
370.219	94.25
370.445	77.25
370.672	88.25
370.898	77.25
371.124	95.25
371.35	85.25
371.576	77.25
371.802	79.25
372.028	79.25
372.254	102.25
372.48	104.25
372.706	89.25
372.932	94.25
373.158	87.25
373.384	79.25
373.61	93.25
373.835	85.25
374.061	75.25
374.287	81.25
374.513	89.25
374.739	84.25
374.965	94.25
375.191	84.25
375.416	92.25
375.642	91.25
375.868	86.25
376.094	83.25
376.319	100.25
376.545	94.25
376.771	85.25
376.997	84.25
377.222	98.25
377.448	97.25
377.674	83.25
377.899	88.25
378.125	90.25
378.35	96.25
378.576	77.25
378.802	102.25
379.027	101.25
379.253	95.25
379.478	101.25
379.704	99.25
379.929	86.25
380.155	83.25
380.38	102.25
380.606	88.25
380.831	99.25
381.057	106.25
381.282	95.25
381.507	93.25
381.733	106.25
381.958	93.25
382.184	93.25
382.409	98.25
382.634	96.25
382.86	95.25
383.085	91.25
383.31	100.25
383.535	93.25
383.761	93.25
383.986	94.25
384.211	99.25
384.436	103.25
384.662	100.25
384.887	90.25
385.112	93.25
385.337	105.25
385.562	95.25
385.787	94.25
386.013	98.25
386.238	106.25
386.463	85.25
386.688	114.25
386.913	96.25
387.138	108.25
387.363	90.25
387.588	100.25
387.813	91.25
388.038	88.25
388.263	86.25
388.488	110.25
388.713	105.25
388.938	96.25
389.163	82.25
389.387	92.25
389.612	107.25
389.837	87.25
390.062	80.25
390.287	88.25
390.512	98.25
390.736	99.25
390.961	87.25
391.186	78.25
391.411	73.25
391.636	89.25
391.86	90.25
392.085	84.25
392.31	66.25
392.534	79.25
392.759	97.25
392.984	99.25
393.208	84.25
393.433	85.25
393.658	102.25
393.882	85.25
394.107	91.25
394.331	75.25
394.556	100.25
394.78	86.25
395.005	87.25
395.229	89.25
395.454	88.25
395.678	88.25
395.903	78.25
396.127	87.25
396.352	105.25
396.576	80.25
396.801	81.25
397.025	73.25
397.249	94.25
397.474	93.25
397.698	81.25
397.922	81.25
398.147	70.25
398.371	72.25
398.595	93.25
398.82	76.25
399.044	87.25
399.268	77.25
399.492	100.25
399.717	93.25
399.941	96.25
400.165	107.25
400.389	102.25
400.613	74.25
400.837	81.25
401.062	66.25
401.286	80.25
401.51	88.25
401.734	94.25
401.958	83.25
402.182	131.25
402.406	186.25
402.63	130.25
402.854	81.25
403.078	77.25
403.302	93.25
403.526	100.25
403.75	75.25
403.974	83.25
404.198	79.25
404.422	96.25
404.645	78.25
404.869	97.25
405.093	95.25
405.317	109.25
405.541	98.25
405.765	83.25
405.988	119.25
406.212	191.25
406.436	256.25
406.66	153.25
406.883	108.25
407.107	103.25
407.331	104.25
407.555	109.25
407.778	95.25
408.002	79.25
408.226	86.25
408.449	93.25
408.673	94.25
408.896	93.25
409.12	103.25
409.344	87.25
409.567	81.25
409.791	71.25
410.014	92.25
410.238	94.25
410.461	92.25
410.685	96.25
410.908	93.25
411.132	105.25
411.355	89.25
411.578	99.25
411.802	97.25
412.025	101.25
412.249	99.25
412.472	114.25
412.695	107.25
412.919	91.25
413.142	86.25
413.365	80.25
413.589	88.25
413.812	92.25
414.035	87.25
414.258	75.25
414.482	84.25
414.705	89.25
414.928	99.25
415.151	99.25
415.374	91.25
415.597	85.25
415.821	91.25
416.044	83.25
416.267	89.25
416.49	83.25
416.713	87.25
416.936	99.25
417.159	98.25
417.382	81.25
417.605	94.25
417.828	100.25
418.051	86.25
418.274	75.25
418.497	72.25
418.72	96.25
418.943	102.25
419.166	83.25
419.389	86.25
419.611	86.25
419.834	75.25
420.057	89.25
420.28	74.25
420.503	97.25
420.726	87.25
420.948	96.25
421.171	114.25
421.394	98.25
421.617	96.25
421.839	94.25
422.062	101.25
422.285	91.25
422.507	103.25
422.73	102.25
422.953	92.25
423.175	88.25
423.398	92.25
423.621	92.25
423.843	82.25
424.066	90.25
424.288	91.25
424.511	108.25
424.733	87.25
424.956	109.25
425.178	117.25
425.401	101.25
425.623	118.25
425.846	90.25
426.068	99.25
426.291	106.25
426.513	94.25
426.735	94.25
426.958	109.25
427.18	117.25
427.402	164.25
427.625	226.25
427.847	180.25
428.069	168.25
428.292	103.25
428.514	101.25
428.736	91.25
428.958	88.25
429.181	84.25
429.403	83.25
429.625	94.25
429.847	84.25
430.069	102.25
430.292	78.25
430.514	75.25
430.736	81.25
430.958	90.25
431.18	80.25
431.402	71.25
431.624	85.25
431.846	98.25
432.068	93.25
432.29	107.25
432.512	96.25
432.734	95.25
432.956	76.25
433.178	101.25
433.4	103.25
433.622	102.25
433.844	80.25
434.066	90.25
434.287	86.25
434.509	87.25
434.731	99.25
434.953	95.25
435.175	87.25
435.397	96.25
435.618	87.25
435.84	108.25
436.062	149.25
436.284	131.25
436.505	104.25
436.727	100.25
436.949	92.25
437.17	92.25
437.392	100.25
437.614	82.25
437.835	113.25
438.057	125.25
438.278	138.25
438.5	111.25
438.721	127.25
438.943	108.25
439.165	97.25
439.386	93.25
439.608	94.25
439.829	92.25
440.05	155.25
440.272	175.25
440.493	112.25
440.715	94.25
440.936	89.25
441.158	92.25
441.379	75.25
441.6	71.25
441.822	84.25
442.043	99.25
442.264	110.25
442.486	116.25
442.707	100.25
442.928	98.25
443.149	160.25
443.371	158.25
443.592	130.25
443.813	141.25
444.034	115.25
444.255	94.25
444.476	91.25
444.698	90.25
444.919	77.25
445.14	134.25
445.361	133.25
445.582	143.25
445.803	178.25
446.024	157.25
446.245	148.25
446.466	126.25
446.687	93.25
446.908	94.25
447.129	74.25
447.35	86.25
447.571	92.25
447.792	86.25
448.013	95.25
448.234	105.25
448.455	103.25
448.675	142.25
448.896	128.25
449.117	112.25
449.338	111.25
449.559	150.25
449.779	152.25
450	99.25
450.221	91.25
450.442	93.25
450.662	99.25
450.883	104.25
451.104	128.25
451.324	103.25
451.545	97.25
451.766	98.25
451.986	89.25
452.207	94.25
452.428	82.25
452.648	111.25
452.869	109.25
453.089	120.25
453.31	126.25
453.53	95.25
453.751	99.25
453.971	110.25
454.192	124.25
454.412	88.25
454.633	89.25
454.853	99.25
455.073	91.25
455.294	73.25
455.514	114.25
455.734	95.25
455.955	87.25
456.175	81.25
456.395	83.25
456.616	87.25
456.836	83.25
457.056	97.25
457.276	74.25
457.497	84.25
457.717	72.25
457.937	85.25
458.157	71.25
458.377	75.25
458.598	114.25
458.818	178.25
459.038	188.25
459.258	137.25
459.478	108.25
459.698	87.25
459.918	74.25
460.138	89.25
460.358	86.25
460.578	94.25
460.798	81.25
461.018	82.25
461.238	75.25
461.458	91.25
461.678	101.25
461.898	96.25
462.118	90.25
462.338	84.25
462.558	85.25
462.777	78.25
462.997	104.25
463.217	88.25
463.437	99.25
463.657	70.25
463.876	83.25
464.096	92.25
464.316	94.25
464.536	93.25
464.755	101.25
464.975	117.25
465.195	181.25
465.414	183.25
465.634	108.25
465.854	80.25
466.073	90.25
466.293	72.25
466.512	83.25
466.732	84.25
466.951	97.25
467.171	99.25
467.391	97.25
467.61	119.25
467.829	124.25
468.049	180.25
468.268	210.25
468.488	103.25
468.707	85.25
468.927	93.25
469.146	79.25
469.365	82.25
469.585	87.25
469.804	104.25
470.023	103.25
470.243	96.25
470.462	107.25
470.681	112.25
470.901	84.25
471.12	91.25
471.339	79.25
471.558	86.25
471.777	100.25
471.997	145.25
472.216	298.25
472.435	542.25
472.654	176.25
472.873	99.25
473.092	85.25
473.311	74.25
473.53	90.25
473.749	80.25
473.968	104.25
474.187	122.25
474.406	116.25
474.625	96.25
474.844	82.25
475.063	86.25
475.282	96.25
475.501	102.25
475.72	82.25
475.939	80.25
476.158	99.25
476.377	86.25
476.596	81.25
476.814	102.25
477.033	97.25
477.252	86.25
477.471	92.25
477.69	84.25
477.908	77.25
478.127	82.25
478.346	88.25
478.564	95.25
478.783	99.25
479.002	92.25
479.22	91.25
479.439	115.25
479.658	123.25
479.876	90.25
480.095	107.25
480.313	120.25
480.532	117.25
480.751	132.25
480.969	273.25
481.188	903.25
481.406	590.25
481.624	166.25
481.843	103.25
482.061	89.25
482.28	85.25
482.498	93.25
482.717	77.25
482.935	92.25
483.153	93.25
483.372	90.25
483.59	92.25
483.808	98.25
484.027	91.25
484.245	89.25
484.463	96.25
484.681	105.25
484.9	101.25
485.118	96.25
485.336	101.25
485.554	83.25
485.772	102.25
485.99	91.25
486.209	108.25
486.427	115.25
486.645	104.25
486.863	103.25
487.081	94.25
487.299	102.25
487.517	80.25
487.735	84.25
487.953	88.25
488.171	91.25
488.389	86.25
488.607	96.25
488.825	101.25
489.043	78.25
489.261	84.25
489.479	87.25
489.696	88.25
489.914	88.25
490.132	86.25
490.35	74.25
490.568	73.25
490.786	67.25
491.003	88.25
491.221	90.25
491.439	88.25
491.657	87.25
491.874	82.25
492.092	81.25
492.31	95.25
492.527	85.25
492.745	93.25
492.963	86.25
493.18	91.25
493.398	94.25
493.615	91.25
493.833	94.25
494.05	102.25
494.268	97.25
494.485	91.25
494.703	95.25
494.92	89.25
495.138	93.25
495.355	71.25
495.573	86.25
495.79	107.25
496.008	96.25
496.225	87.25
496.442	83.25
496.66	95.25
496.877	85.25
497.094	105.25
497.312	101.25
497.529	98.25
497.746	84.25
497.963	94.25
498.181	81.25
498.398	103.25
498.615	104.25
498.832	102.25
499.049	104.25
499.267	82.25
499.484	77.25
499.701	71.25
499.918	83.25
500.135	83.25
500.352	94.25
500.569	100.25
500.786	82.25
501.003	85.25
501.22	85.25
501.437	88.25
501.654	93.25
501.871	106.25
502.088	101.25
502.305	86.25
502.522	83.25
502.739	84.25
502.956	94.25
503.172	83.25
503.389	92.25
503.606	118.25
503.823	96.25
504.04	97.25
504.256	92.25
504.473	90.25
504.69	90.25
504.907	94.25
505.123	98.25
505.34	91.25
505.557	91.25
505.773	105.25
505.99	88.25
506.207	87.25
506.423	81.25
506.64	90.25
506.856	83.25
507.073	100.25
507.289	96.25
507.506	96.25
507.722	111.25
507.939	119.25
508.155	90.25
508.372	77.25
508.588	88.25
508.805	86.25
509.021	101.25
509.238	96.25
509.454	94.25
509.67	89.25
509.887	103.25
510.103	140.25
510.319	205.25
510.536	826.25
510.752	2678.25
510.968	758.25
511.184	168.25
511.401	120.25
511.617	110.25
511.833	92.25
512.049	88.25
512.265	88.25
512.481	79.25
512.698	77.25
512.914	94.25
513.13	87.25
513.346	90.25
513.562	102.25
513.778	99.25
513.994	91.25
514.21	112.25
514.426	136.25
514.642	136.25
514.858	137.25
