Data from Circ_2011_H10_HRD10591_00023.txt Node
Date: Wed Jan 03 10:08:03 EST 2024
User: Yrep
Spectrometer: HR+D1059
Trigger mode: 1
Integration Time (sec): 1.000000E-1
Scans to average: 1
Electric dark correction enabled: true
Nonlinearity correction enabled: false
Boxcar width: 0
XAxis mode: Wavelengths
Number of Pixels in Spectrum: 2048
>>>>>Begin Spectral Data<<<<<
223.165	-7.75
223.4	-7.75
223.635	-7.75
223.869	-14.75
224.104	-4.75
224.338	-12.75
224.573	-22.75
224.808	-13.75
225.042	-6.75
225.277	-10.75
225.511	-7.75
225.746	-4.75
225.98	6.25
226.215	9.25
226.449	15.25
226.683	21.25
226.918	23.25
227.152	31.25
227.387	35.25
227.621	29.25
227.856	28.25
228.09	42.25
228.324	42.25
228.559	50.25
228.793	61.25
229.027	42.25
229.262	71.25
229.496	56.25
229.73	83.25
229.964	63.25
230.199	71.25
230.433	66.25
230.667	74.25
230.901	69.25
231.136	72.25
231.37	78.25
231.604	74.25
231.838	72.25
232.072	76.25
232.306	83.25
232.541	83.25
232.775	85.25
233.009	79.25
233.243	79.25
233.477	69.25
233.711	83.25
233.945	77.25
234.179	76.25
234.413	82.25
234.647	81.25
234.881	67.25
235.115	74.25
235.349	72.25
235.583	85.25
235.817	87.25
236.051	80.25
236.285	69.25
236.519	80.25
236.753	77.25
236.987	85.25
237.221	79.25
237.455	81.25
237.689	55.25
237.922	81.25
238.156	85.25
238.39	76.25
238.624	79.25
238.858	82.25
239.091	77.25
239.325	73.25
239.559	73.25
239.793	85.25
240.027	70.25
240.26	73.25
240.494	87.25
240.728	78.25
240.961	68.25
241.195	71.25
241.429	84.25
241.662	78.25
241.896	89.25
242.13	82.25
242.363	82.25
242.597	78.25
242.83	74.25
243.064	69.25
243.298	81.25
243.531	69.25
243.765	71.25
243.998	69.25
244.232	78.25
244.465	85.25
244.699	79.25
244.932	82.25
245.166	89.25
245.399	87.25
245.633	78.25
245.866	71.25
246.099	73.25
246.333	69.25
246.566	71.25
246.8	63.25
247.033	63.25
247.266	72.25
247.5	71.25
247.733	76.25
247.966	81.25
248.2	83.25
248.433	84.25
248.666	74.25
248.899	72.25
249.133	89.25
249.366	87.25
249.599	87.25
249.832	78.25
250.066	83.25
250.299	81.25
250.532	82.25
250.765	67.25
250.998	85.25
251.231	81.25
251.465	74.25
251.698	66.25
251.931	72.25
252.164	78.25
252.397	91.25
252.63	80.25
252.863	86.25
253.096	65.25
253.329	71.25
253.562	63.25
253.795	78.25
254.028	93.25
254.261	75.25
254.494	66.25
254.727	82.25
254.96	86.25
255.193	85.25
255.426	73.25
255.659	72.25
255.892	73.25
256.124	80.25
256.357	83.25
256.59	87.25
256.823	83.25
257.056	79.25
257.289	77.25
257.521	79.25
257.754	78.25
257.987	72.25
258.22	85.25
258.452	88.25
258.685	86.25
258.918	75.25
259.151	74.25
259.383	81.25
259.616	80.25
259.849	76.25
260.081	90.25
260.314	83.25
260.547	83.25
260.779	88.25
261.012	90.25
261.244	85.25
261.477	87.25
261.71	70.25
261.942	95.25
262.175	94.25
262.407	82.25
262.64	76.25
262.872	85.25
263.105	81.25
263.337	73.25
263.57	74.25
263.802	82.25
264.035	94.25
264.267	75.25
264.499	85.25
264.732	91.25
264.964	86.25
265.197	76.25
265.429	82.25
265.661	80.25
265.894	76.25
266.126	82.25
266.358	82.25
266.591	86.25
266.823	91.25
267.055	97.25
267.287	89.25
267.52	74.25
267.752	77.25
267.984	73.25
268.216	82.25
268.448	82.25
268.681	76.25
268.913	77.25
269.145	85.25
269.377	77.25
269.609	86.25
269.841	78.25
270.073	76.25
270.306	82.25
270.538	83.25
270.77	74.25
271.002	86.25
271.234	68.25
271.466	83.25
271.698	66.25
271.93	79.25
272.162	77.25
272.394	85.25
272.626	74.25
272.858	75.25
273.09	78.25
273.322	76.25
273.553	87.25
273.785	81.25
274.017	67.25
274.249	91.25
274.481	87.25
274.713	90.25
274.945	83.25
275.176	101.25
275.408	93.25
275.64	84.25
275.872	94.25
276.104	92.25
276.335	82.25
276.567	79.25
276.799	95.25
277.031	88.25
277.262	89.25
277.494	88.25
277.726	78.25
277.957	88.25
278.189	90.25
278.421	84.25
278.652	83.25
278.884	77.25
279.115	77.25
279.347	74.25
279.579	90.25
279.81	76.25
280.042	76.25
280.273	94.25
280.505	85.25
280.736	82.25
280.968	85.25
281.199	86.25
281.431	77.25
281.662	76.25
281.894	86.25
282.125	87.25
282.356	107.25
282.588	117.25
282.819	104.25
283.051	71.25
283.282	66.25
283.513	86.25
283.745	92.25
283.976	76.25
284.207	79.25
284.439	83.25
284.67	89.25
284.901	86.25
285.132	67.25
285.364	86.25
285.595	76.25
285.826	81.25
286.057	68.25
286.288	76.25
286.52	76.25
286.751	79.25
286.982	95.25
287.213	78.25
287.444	95.25
287.675	85.25
287.906	82.25
288.138	89.25
288.369	87.25
288.6	73.25
288.831	80.25
289.062	89.25
289.293	88.25
289.524	81.25
289.755	88.25
289.986	79.25
290.217	77.25
290.448	77.25
290.679	91.25
290.91	90.25
291.141	92.25
291.371	88.25
291.602	90.25
291.833	90.25
292.064	74.25
292.295	78.25
292.526	84.25
292.757	82.25
292.987	91.25
293.218	90.25
293.449	75.25
293.68	87.25
293.91	76.25
294.141	76.25
294.372	83.25
294.603	89.25
294.833	92.25
295.064	72.25
295.295	99.25
295.525	79.25
295.756	90.25
295.987	116.25
296.217	117.25
296.448	115.25
296.679	98.25
296.909	95.25
297.14	92.25
297.37	81.25
297.601	70.25
297.831	85.25
298.062	90.25
298.292	88.25
298.523	95.25
298.753	83.25
298.984	87.25
299.214	91.25
299.445	82.25
299.675	84.25
299.905	93.25
300.136	89.25
300.366	79.25
300.597	86.25
300.827	90.25
301.057	81.25
301.288	100.25
301.518	87.25
301.748	78.25
301.979	99.25
302.209	89.25
302.439	76.25
302.669	84.25
302.9	103.25
303.13	94.25
303.36	82.25
303.59	107.25
303.82	80.25
304.051	92.25
304.281	88.25
304.511	106.25
304.741	85.25
304.971	76.25
305.201	85.25
305.431	74.25
305.661	97.25
305.891	90.25
306.121	103.25
306.352	98.25
306.582	103.25
306.812	75.25
307.042	86.25
307.272	88.25
307.502	91.25
307.731	81.25
307.961	91.25
308.191	77.25
308.421	78.25
308.651	87.25
308.881	94.25
309.111	86.25
309.341	88.25
309.571	93.25
309.8	76.25
310.03	82.25
310.26	95.25
310.49	94.25
310.72	98.25
310.949	93.25
311.179	84.25
311.409	79.25
311.639	91.25
311.868	80.25
312.098	98.25
312.328	94.25
312.557	93.25
312.787	92.25
313.017	106.25
313.246	83.25
313.476	73.25
313.706	87.25
313.935	86.25
314.165	92.25
314.394	95.25
314.624	91.25
314.853	95.25
315.083	98.25
315.312	87.25
315.542	83.25
315.771	88.25
316.001	84.25
316.23	77.25
316.46	86.25
316.689	99.25
316.919	89.25
317.148	83.25
317.377	90.25
317.607	92.25
317.836	89.25
318.065	99.25
318.295	93.25
318.524	95.25
318.753	92.25
318.983	77.25
319.212	92.25
319.441	90.25
319.67	86.25
319.9	90.25
320.129	77.25
320.358	109.25
320.587	93.25
320.816	99.25
321.046	94.25
321.275	100.25
321.504	97.25
321.733	89.25
321.962	112.25
322.191	104.25
322.42	99.25
322.649	114.25
322.878	93.25
323.108	96.25
323.337	96.25
323.566	116.25
323.795	141.25
324.024	197.25
324.253	356.25
324.482	755.25
324.71	1503.25
324.939	1992.25
325.168	731.25
325.397	226.25
325.626	127.25
325.855	97.25
326.084	117.25
326.313	126.25
326.542	134.25
326.77	217.25
326.999	447.25
327.228	859.25
327.457	1520.25
327.686	1240.25
327.914	344.25
328.143	197.25
328.372	156.25
328.6	117.25
328.829	108.25
329.058	107.25
329.287	111.25
329.515	94.25
329.744	109.25
329.972	138.25
330.201	148.25
330.43	162.25
330.658	129.25
330.887	122.25
331.115	97.25
331.344	84.25
331.572	95.25
331.801	106.25
332.03	88.25
332.258	93.25
332.486	90.25
332.715	90.25
332.943	80.25
333.172	105.25
333.4	88.25
333.629	81.25
333.857	111.25
334.085	117.25
334.314	143.25
334.542	174.25
334.771	175.25
334.999	113.25
335.227	103.25
335.455	94.25
335.684	94.25
335.912	89.25
336.14	85.25
336.369	97.25
336.597	98.25
336.825	91.25
337.053	89.25
337.281	100.25
337.51	77.25
337.738	101.25
337.966	86.25
338.194	91.25
338.422	97.25
338.65	91.25
338.878	77.25
339.106	91.25
339.334	93.25
339.562	81.25
339.79	84.25
340.018	90.25
340.246	87.25
340.474	69.25
340.702	89.25
340.93	84.25
341.158	75.25
341.386	87.25
341.614	91.25
341.842	92.25
342.07	112.25
342.298	101.25
342.526	102.25
342.754	74.25
342.981	104.25
343.209	90.25
343.437	93.25
343.665	70.25
343.893	88.25
344.12	86.25
344.348	71.25
344.576	76.25
344.804	87.25
345.031	98.25
345.259	93.25
345.487	105.25
345.714	103.25
345.942	103.25
346.17	98.25
346.397	72.25
346.625	96.25
346.853	95.25
347.08	86.25
347.308	89.25
347.535	95.25
347.763	116.25
347.99	100.25
348.218	99.25
348.445	99.25
348.673	86.25
348.9	97.25
349.128	102.25
349.355	86.25
349.583	95.25
349.81	96.25
350.037	79.25
350.265	76.25
350.492	85.25
350.72	74.25
350.947	98.25
351.174	109.25
351.402	96.25
351.629	115.25
351.856	106.25
352.083	111.25
352.311	97.25
352.538	89.25
352.765	109.25
352.992	100.25
353.22	112.25
353.447	100.25
353.674	101.25
353.901	102.25
354.128	106.25
354.355	99.25
354.583	108.25
354.81	92.25
355.037	89.25
355.264	90.25
355.491	82.25
355.718	79.25
355.945	91.25
356.172	106.25
356.399	98.25
356.626	83.25
356.853	80.25
357.08	92.25
357.307	94.25
357.534	73.25
357.761	85.25
357.988	83.25
358.215	88.25
358.441	96.25
358.668	83.25
358.895	84.25
359.122	83.25
359.349	101.25
359.576	78.25
359.802	103.25
360.029	99.25
360.256	82.25
360.483	90.25
360.709	90.25
360.936	99.25
361.163	85.25
361.39	89.25
361.616	90.25
361.843	101.25
362.07	86.25
362.296	90.25
362.523	92.25
362.749	73.25
362.976	87.25
363.203	83.25
363.429	74.25
363.656	87.25
363.882	92.25
364.109	80.25
364.335	83.25
364.562	93.25
364.788	91.25
365.015	86.25
365.241	90.25
365.468	91.25
365.694	95.25
365.92	93.25
366.147	85.25
366.373	69.25
366.599	82.25
366.826	104.25
367.052	87.25
367.278	81.25
367.505	92.25
367.731	88.25
367.957	78.25
368.184	87.25
368.41	95.25
368.636	99.25
368.862	102.25
369.089	82.25
369.315	90.25
369.541	79.25
369.767	101.25
369.993	93.25
370.219	87.25
370.445	86.25
370.672	76.25
370.898	90.25
371.124	78.25
371.35	86.25
371.576	94.25
371.802	97.25
372.028	71.25
372.254	83.25
372.48	79.25
372.706	89.25
372.932	99.25
373.158	89.25
373.384	84.25
373.61	94.25
373.835	88.25
374.061	86.25
374.287	77.25
374.513	71.25
374.739	93.25
374.965	96.25
375.191	83.25
375.416	93.25
375.642	75.25
375.868	88.25
376.094	85.25
376.319	85.25
376.545	95.25
376.771	86.25
376.997	91.25
377.222	86.25
377.448	91.25
377.674	73.25
377.899	82.25
378.125	89.25
378.35	84.25
378.576	84.25
378.802	99.25
379.027	91.25
379.253	79.25
379.478	102.25
379.704	86.25
379.929	94.25
380.155	88.25
380.38	87.25
380.606	80.25
380.831	88.25
381.057	76.25
381.282	84.25
381.507	79.25
381.733	73.25
381.958	90.25
382.184	96.25
382.409	103.25
382.634	89.25
382.86	97.25
383.085	85.25
383.31	90.25
383.535	99.25
383.761	82.25
383.986	87.25
384.211	84.25
384.436	93.25
384.662	89.25
384.887	95.25
385.112	87.25
385.337	93.25
385.562	93.25
385.787	79.25
386.013	85.25
386.238	101.25
386.463	97.25
386.688	112.25
386.913	105.25
387.138	101.25
387.363	97.25
387.588	89.25
387.813	93.25
388.038	98.25
388.263	105.25
388.488	104.25
388.713	97.25
388.938	88.25
389.163	84.25
389.387	102.25
389.612	95.25
389.837	87.25
390.062	83.25
390.287	94.25
390.512	104.25
390.736	88.25
390.961	89.25
391.186	102.25
391.411	102.25
391.636	94.25
391.86	88.25
392.085	90.25
392.31	79.25
392.534	88.25
392.759	79.25
392.984	88.25
393.208	73.25
393.433	67.25
393.658	88.25
393.882	85.25
394.107	92.25
394.331	94.25
394.556	88.25
394.78	85.25
395.005	77.25
395.229	91.25
395.454	77.25
395.678	83.25
395.903	92.25
396.127	81.25
396.352	76.25
396.576	93.25
396.801	85.25
397.025	101.25
397.249	93.25
397.474	87.25
397.698	77.25
397.922	90.25
398.147	82.25
398.371	68.25
398.595	87.25
398.82	86.25
399.044	80.25
399.268	78.25
399.492	95.25
399.717	95.25
399.941	69.25
400.165	91.25
400.389	85.25
400.613	88.25
400.837	64.25
401.062	69.25
401.286	93.25
401.51	86.25
401.734	86.25
401.958	89.25
402.182	117.25
402.406	140.25
402.63	98.25
402.854	85.25
403.078	80.25
403.302	85.25
403.526	85.25
403.75	91.25
403.974	82.25
404.198	73.25
404.422	88.25
404.645	84.25
404.869	81.25
405.093	79.25
405.317	96.25
405.541	108.25
405.765	87.25
405.988	86.25
406.212	156.25
406.436	196.25
406.66	116.25
406.883	111.25
407.107	92.25
407.331	89.25
407.555	89.25
407.778	94.25
408.002	80.25
408.226	78.25
408.449	76.25
408.673	88.25
408.896	91.25
409.12	86.25
409.344	98.25
409.567	83.25
409.791	106.25
410.014	84.25
410.238	82.25
410.461	91.25
410.685	78.25
410.908	74.25
411.132	107.25
411.355	98.25
411.578	93.25
411.802	91.25
412.025	91.25
412.249	83.25
412.472	81.25
412.695	89.25
412.919	87.25
413.142	84.25
413.365	83.25
413.589	83.25
413.812	79.25
414.035	89.25
414.258	84.25
414.482	96.25
414.705	90.25
414.928	78.25
415.151	95.25
415.374	79.25
415.597	73.25
415.821	87.25
416.044	83.25
416.267	76.25
416.49	79.25
416.713	77.25
416.936	67.25
417.159	78.25
417.382	94.25
417.605	83.25
417.828	87.25
418.051	71.25
418.274	82.25
418.497	81.25
418.72	74.25
418.943	83.25
419.166	100.25
419.389	99.25
419.611	85.25
419.834	82.25
420.057	99.25
420.28	59.25
420.503	66.25
420.726	86.25
420.948	88.25
421.171	94.25
421.394	80.25
421.617	77.25
421.839	87.25
422.062	95.25
422.285	85.25
422.507	79.25
422.73	91.25
422.953	80.25
423.175	87.25
423.398	71.25
423.621	86.25
423.843	85.25
424.066	71.25
424.288	82.25
424.511	91.25
424.733	85.25
424.956	90.25
425.178	96.25
425.401	106.25
425.623	111.25
425.846	82.25
426.068	88.25
426.291	91.25
426.513	86.25
426.735	93.25
426.958	90.25
427.18	91.25
427.402	133.25
427.625	149.25
427.847	110.25
428.069	119.25
428.292	98.25
428.514	87.25
428.736	79.25
428.958	79.25
429.181	95.25
429.403	85.25
429.625	80.25
429.847	72.25
430.069	88.25
430.292	72.25
430.514	76.25
430.736	84.25
430.958	96.25
431.18	99.25
431.402	76.25
431.624	82.25
431.846	77.25
432.068	73.25
432.29	78.25
432.512	78.25
432.734	76.25
432.956	88.25
433.178	88.25
433.4	76.25
433.622	97.25
433.844	81.25
434.066	76.25
434.287	98.25
434.509	95.25
434.731	105.25
434.953	99.25
435.175	83.25
435.397	90.25
435.618	94.25
435.84	107.25
436.062	113.25
436.284	106.25
436.505	94.25
436.727	115.25
436.949	91.25
437.17	95.25
437.392	88.25
437.614	88.25
437.835	87.25
438.057	99.25
438.278	93.25
438.5	101.25
438.721	108.25
438.943	95.25
439.165	89.25
439.386	82.25
439.608	85.25
439.829	104.25
440.05	118.25
440.272	137.25
440.493	93.25
440.715	79.25
440.936	87.25
441.158	90.25
441.379	82.25
441.6	77.25
441.822	84.25
442.043	98.25
442.264	96.25
442.486	95.25
442.707	80.25
442.928	105.25
443.149	125.25
443.371	114.25
443.592	98.25
443.813	110.25
444.034	99.25
444.255	72.25
444.476	87.25
444.698	92.25
444.919	78.25
445.14	122.25
445.361	109.25
445.582	108.25
445.803	103.25
446.024	106.25
446.245	110.25
446.466	110.25
446.687	91.25
446.908	75.25
447.129	102.25
447.35	94.25
447.571	82.25
447.792	86.25
448.013	95.25
448.234	109.25
448.455	91.25
448.675	109.25
448.896	116.25
449.117	82.25
449.338	105.25
449.559	118.25
449.779	113.25
450	94.25
450.221	87.25
450.442	91.25
450.662	83.25
450.883	93.25
451.104	92.25
451.324	90.25
451.545	96.25
451.766	84.25
451.986	76.25
452.207	72.25
452.428	85.25
452.648	89.25
452.869	109.25
453.089	109.25
453.31	103.25
453.53	94.25
453.751	89.25
453.971	108.25
454.192	82.25
454.412	88.25
454.633	75.25
454.853	82.25
455.073	86.25
455.294	77.25
455.514	106.25
455.734	96.25
455.955	75.25
456.175	73.25
456.395	76.25
456.616	98.25
456.836	101.25
457.056	87.25
457.276	90.25
457.497	86.25
457.717	80.25
457.937	81.25
458.157	82.25
458.377	83.25
458.598	92.25
458.818	111.25
459.038	130.25
459.258	97.25
459.478	71.25
459.698	78.25
459.918	77.25
460.138	79.25
460.358	80.25
460.578	84.25
460.798	84.25
461.018	97.25
461.238	97.25
461.458	73.25
461.678	85.25
461.898	88.25
462.118	80.25
462.338	89.25
462.558	89.25
462.777	101.25
462.997	81.25
463.217	97.25
463.437	89.25
463.657	80.25
463.876	95.25
464.096	81.25
464.316	88.25
464.536	76.25
464.755	94.25
464.975	104.25
465.195	135.25
465.414	152.25
465.634	105.25
465.854	89.25
466.073	83.25
466.293	79.25
466.512	94.25
466.732	96.25
466.951	98.25
467.171	83.25
467.391	88.25
467.61	95.25
467.829	87.25
468.049	113.25
468.268	123.25
468.488	79.25
468.707	85.25
468.927	79.25
469.146	91.25
469.365	84.25
469.585	79.25
469.804	91.25
470.023	86.25
470.243	80.25
470.462	83.25
470.681	109.25
470.901	87.25
471.12	88.25
471.339	88.25
471.558	89.25
471.777	95.25
471.997	101.25
472.216	174.25
472.435	234.25
472.654	119.25
472.873	103.25
473.092	84.25
473.311	79.25
473.53	88.25
473.749	79.25
473.968	90.25
474.187	107.25
474.406	81.25
474.625	72.25
474.844	75.25
475.063	88.25
475.282	74.25
475.501	79.25
475.72	73.25
475.939	78.25
476.158	81.25
476.377	96.25
476.596	85.25
476.814	99.25
477.033	86.25
477.252	81.25
477.471	94.25
477.69	84.25
477.908	79.25
478.127	89.25
478.346	107.25
478.564	111.25
478.783	75.25
479.002	83.25
479.22	89.25
479.439	106.25
479.658	99.25
479.876	90.25
480.095	76.25
480.313	87.25
480.532	92.25
480.751	101.25
480.969	150.25
481.188	346.25
481.406	248.25
481.624	94.25
481.843	99.25
482.061	79.25
482.28	78.25
482.498	94.25
482.717	89.25
482.935	92.25
483.153	92.25
483.372	86.25
483.59	89.25
483.808	84.25
484.027	82.25
484.245	92.25
484.463	86.25
484.681	86.25
484.9	100.25
485.118	92.25
485.336	90.25
485.554	84.25
485.772	89.25
485.99	99.25
486.209	102.25
486.427	97.25
486.645	86.25
486.863	108.25
487.081	100.25
487.299	102.25
487.517	99.25
487.735	91.25
487.953	93.25
488.171	85.25
488.389	110.25
488.607	80.25
488.825	100.25
489.043	95.25
489.261	96.25
489.479	82.25
489.696	82.25
489.914	94.25
490.132	85.25
490.35	79.25
490.568	99.25
490.786	89.25
491.003	95.25
491.221	101.25
491.439	93.25
491.657	100.25
491.874	103.25
492.092	94.25
492.31	74.25
492.527	92.25
492.745	79.25
492.963	94.25
493.18	93.25
493.398	89.25
493.615	92.25
493.833	81.25
494.05	85.25
494.268	86.25
494.485	107.25
494.703	85.25
494.92	98.25
495.138	87.25
495.355	84.25
495.573	84.25
495.79	94.25
496.008	89.25
496.225	78.25
496.442	94.25
496.66	84.25
496.877	89.25
497.094	100.25
497.312	95.25
497.529	95.25
497.746	79.25
497.963	80.25
498.181	78.25
498.398	81.25
498.615	109.25
498.832	88.25
499.049	87.25
499.267	85.25
499.484	79.25
499.701	89.25
499.918	84.25
500.135	84.25
500.352	84.25
500.569	84.25
500.786	83.25
501.003	83.25
501.22	98.25
501.437	81.25
501.654	94.25
501.871	105.25
502.088	90.25
502.305	94.25
502.522	94.25
502.739	86.25
502.956	104.25
503.172	85.25
503.389	90.25
503.606	106.25
503.823	105.25
504.04	88.25
504.256	82.25
504.473	98.25
504.69	97.25
504.907	87.25
505.123	83.25
505.34	88.25
505.557	87.25
505.773	90.25
505.99	87.25
506.207	91.25
506.423	82.25
506.64	79.25
506.856	94.25
507.073	90.25
507.289	86.25
507.506	105.25
507.722	97.25
507.939	91.25
508.155	100.25
508.372	96.25
508.588	86.25
508.805	92.25
509.021	102.25
509.238	101.25
509.454	100.25
509.67	113.25
509.887	97.25
510.103	119.25
510.319	177.25
510.536	613.25
510.752	1886.25
510.968	578.25
511.184	137.25
511.401	94.25
511.617	94.25
511.833	104.25
512.049	86.25
512.265	97.25
512.481	91.25
512.698	87.25
512.914	100.25
513.13	87.25
513.346	87.25
513.562	86.25
513.778	104.25
513.994	87.25
514.21	79.25
514.426	113.25
514.642	125.25
514.858	129.25
515.074	153.25
515.29	359.25
515.506	1144.25
515.721	469.25
515.937	133.25
516.153	100.25
516.369	106.25
516.585	81.25
516.801	75.25
517.016	87.25
