Data from Circ_2011_H10_HRD10591_00034.txt Node
Date: Wed Jan 03 10:08:05 EST 2024
User: Yrep
Spectrometer: HR+D1059
Trigger mode: 1
Integration Time (sec): 1.000000E-1
Scans to average: 1
Electric dark correction enabled: true
Nonlinearity correction enabled: false
Boxcar width: 0
XAxis mode: Wavelengths
Number of Pixels in Spectrum: 2048
>>>>>Begin Spectral Data<<<<<
223.165	-19.44
223.4	-19.44
223.635	-19.44
223.869	-18.44
224.104	-22.44
224.338	-13.44
224.573	-13.44
224.808	-5.44
225.042	-5.44
225.277	1.56
225.511	-8.44
225.746	6.56
225.98	5.56
226.215	11.56
226.449	22.56
226.683	10.56
226.918	24.56
227.152	23.56
227.387	40.56
227.621	44.56
227.856	45.56
228.09	44.56
228.324	60.56
228.559	54.56
228.793	62.56
229.027	72.56
229.262	55.56
229.496	70.56
229.73	83.56
229.964	74.56
230.199	77.56
230.433	63.56
230.667	78.56
230.901	78.56
231.136	77.56
231.37	94.56
231.604	78.56
231.838	69.56
232.072	73.56
232.306	90.56
232.541	83.56
232.775	81.56
233.009	79.56
233.243	78.56
233.477	77.56
233.711	80.56
233.945	77.56
234.179	68.56
234.413	74.56
234.647	83.56
234.881	71.56
235.115	64.56
235.349	69.56
235.583	78.56
235.817	77.56
236.051	82.56
236.285	77.56
236.519	71.56
236.753	91.56
236.987	83.56
237.221	80.56
237.455	84.56
237.689	89.56
237.922	55.56
238.156	94.56
238.39	78.56
238.624	76.56
238.858	81.56
239.091	80.56
239.325	69.56
239.559	94.56
239.793	69.56
240.027	85.56
240.26	73.56
240.494	89.56
240.728	78.56
240.961	79.56
241.195	71.56
241.429	74.56
241.662	71.56
241.896	80.56
242.13	78.56
242.363	67.56
242.597	63.56
242.83	78.56
243.064	75.56
243.298	73.56
243.531	86.56
243.765	62.56
243.998	77.56
244.232	71.56
244.465	79.56
244.699	84.56
244.932	81.56
245.166	65.56
245.399	76.56
245.633	85.56
245.866	82.56
246.099	76.56
246.333	84.56
246.566	77.56
246.8	75.56
247.033	80.56
247.266	82.56
247.5	82.56
247.733	66.56
247.966	75.56
248.2	78.56
248.433	66.56
248.666	83.56
248.899	78.56
249.133	87.56
249.366	88.56
249.599	96.56
249.832	76.56
250.066	73.56
250.299	74.56
250.532	75.56
250.765	86.56
250.998	89.56
251.231	83.56
251.465	100.56
251.698	74.56
251.931	95.56
252.164	63.56
252.397	80.56
252.63	79.56
252.863	84.56
253.096	77.56
253.329	91.56
253.562	79.56
253.795	76.56
254.028	74.56
254.261	83.56
254.494	78.56
254.727	92.56
254.96	74.56
255.193	89.56
255.426	87.56
255.659	75.56
255.892	80.56
256.124	77.56
256.357	92.56
256.59	82.56
256.823	88.56
257.056	78.56
257.289	85.56
257.521	81.56
257.754	81.56
257.987	79.56
258.22	81.56
258.452	82.56
258.685	73.56
258.918	84.56
259.151	66.56
259.383	82.56
259.616	78.56
259.849	92.56
260.081	79.56
260.314	85.56
260.547	86.56
260.779	77.56
261.012	74.56
261.244	80.56
261.477	79.56
261.71	95.56
261.942	115.56
262.175	110.56
262.407	92.56
262.64	90.56
262.872	91.56
263.105	104.56
263.337	88.56
263.57	70.56
263.802	69.56
264.035	82.56
264.267	77.56
264.499	79.56
264.732	85.56
264.964	82.56
265.197	75.56
265.429	79.56
265.661	75.56
265.894	92.56
266.126	80.56
266.358	90.56
266.591	90.56
266.823	74.56
267.055	90.56
267.287	72.56
267.52	77.56
267.752	76.56
267.984	77.56
268.216	82.56
268.448	68.56
268.681	90.56
268.913	83.56
269.145	80.56
269.377	80.56
269.609	79.56
269.841	84.56
270.073	86.56
270.306	74.56
270.538	91.56
270.77	99.56
271.002	78.56
271.234	85.56
271.466	82.56
271.698	76.56
271.93	77.56
272.162	79.56
272.394	83.56
272.626	96.56
272.858	86.56
273.09	89.56
273.322	83.56
273.553	79.56
273.785	92.56
274.017	75.56
274.249	90.56
274.481	96.56
274.713	94.56
274.945	86.56
275.176	85.56
275.408	75.56
275.64	89.56
275.872	88.56
276.104	83.56
276.335	99.56
276.567	103.56
276.799	102.56
277.031	100.56
277.262	86.56
277.494	90.56
277.726	77.56
277.957	70.56
278.189	80.56
278.421	91.56
278.652	92.56
278.884	87.56
279.115	84.56
279.347	84.56
279.579	95.56
279.81	93.56
280.042	85.56
280.273	89.56
280.505	90.56
280.736	90.56
280.968	76.56
281.199	83.56
281.431	93.56
281.662	78.56
281.894	75.56
282.125	99.56
282.356	96.56
282.588	157.56
282.819	108.56
283.051	86.56
283.282	83.56
283.513	96.56
283.745	90.56
283.976	84.56
284.207	88.56
284.439	80.56
284.67	96.56
284.901	78.56
285.132	83.56
285.364	77.56
285.595	87.56
285.826	86.56
286.057	92.56
286.288	84.56
286.52	85.56
286.751	83.56
286.982	83.56
287.213	65.56
287.444	90.56
287.675	100.56
287.906	89.56
288.138	91.56
288.369	93.56
288.6	89.56
288.831	85.56
289.062	88.56
289.293	82.56
289.524	74.56
289.755	77.56
289.986	79.56
290.217	92.56
290.448	88.56
290.679	88.56
290.91	79.56
291.141	78.56
291.371	84.56
291.602	67.56
291.833	87.56
292.064	86.56
292.295	79.56
292.526	89.56
292.757	85.56
292.987	92.56
293.218	79.56
293.449	84.56
293.68	90.56
293.91	80.56
294.141	102.56
294.372	93.56
294.603	74.56
294.833	81.56
295.064	100.56
295.295	89.56
295.525	97.56
295.756	114.56
295.987	109.56
296.217	142.56
296.448	114.56
296.679	92.56
296.909	100.56
297.14	88.56
297.37	92.56
297.601	88.56
297.831	92.56
298.062	96.56
298.292	84.56
298.523	91.56
298.753	94.56
298.984	86.56
299.214	70.56
299.445	78.56
299.675	78.56
299.905	98.56
300.136	98.56
300.366	96.56
300.597	84.56
300.827	95.56
301.057	103.56
301.288	111.56
301.518	91.56
301.748	90.56
301.979	91.56
302.209	99.56
302.439	96.56
302.669	88.56
302.9	101.56
303.13	86.56
303.36	79.56
303.59	84.56
303.82	95.56
304.051	105.56
304.281	77.56
304.511	86.56
304.741	76.56
304.971	73.56
305.201	99.56
305.431	88.56
305.661	89.56
305.891	92.56
306.121	93.56
306.352	89.56
306.582	98.56
306.812	95.56
307.042	95.56
307.272	92.56
307.502	93.56
307.731	79.56
307.961	95.56
308.191	91.56
308.421	77.56
308.651	85.56
308.881	90.56
309.111	81.56
309.341	99.56
309.571	94.56
309.8	82.56
310.03	116.56
310.26	99.56
310.49	90.56
310.72	96.56
310.949	101.56
311.179	94.56
311.409	109.56
311.639	111.56
311.868	109.56
312.098	92.56
312.328	91.56
312.557	106.56
312.787	106.56
313.017	99.56
313.246	91.56
313.476	69.56
313.706	80.56
313.935	89.56
314.165	87.56
314.394	93.56
314.624	87.56
314.853	93.56
315.083	95.56
315.312	97.56
315.542	91.56
315.771	89.56
316.001	79.56
316.23	78.56
316.46	81.56
316.689	93.56
316.919	93.56
317.148	87.56
317.377	78.56
317.607	95.56
317.836	98.56
318.065	92.56
318.295	85.56
318.524	98.56
318.753	91.56
318.983	109.56
319.212	114.56
319.441	103.56
319.67	97.56
319.9	99.56
320.129	97.56
320.358	85.56
320.587	82.56
320.816	98.56
321.046	101.56
321.275	114.56
321.504	93.56
321.733	80.56
321.962	91.56
322.191	104.56
322.42	108.56
322.649	111.56
322.878	111.56
323.108	106.56
323.337	98.56
323.566	123.56
323.795	157.56
324.024	220.56
324.253	424.56
324.482	918.56
324.71	1884.56
324.939	2425.56
325.168	898.56
325.397	258.56
325.626	153.56
325.855	139.56
326.084	134.56
326.313	129.56
326.542	165.56
326.77	254.56
326.999	501.56
327.228	1050.56
327.457	1928.56
327.686	1515.56
327.914	404.56
328.143	223.56
328.372	178.56
328.6	128.56
328.829	121.56
329.058	133.56
329.287	141.56
329.515	107.56
329.744	111.56
329.972	126.56
330.201	168.56
330.43	217.56
330.658	161.56
330.887	158.56
331.115	129.56
331.344	104.56
331.572	98.56
331.801	92.56
332.03	109.56
332.258	100.56
332.486	88.56
332.715	92.56
332.943	101.56
333.172	88.56
333.4	102.56
333.629	108.56
333.857	110.56
334.085	133.56
334.314	167.56
334.542	222.56
334.771	215.56
334.999	124.56
335.227	88.56
335.455	94.56
335.684	83.56
335.912	91.56
336.14	95.56
336.369	94.56
336.597	102.56
336.825	99.56
337.053	100.56
337.281	85.56
337.51	95.56
337.738	88.56
337.966	95.56
338.194	85.56
338.422	105.56
338.65	94.56
338.878	86.56
339.106	80.56
339.334	81.56
339.562	93.56
339.79	81.56
340.018	89.56
340.246	92.56
340.474	98.56
340.702	98.56
340.93	78.56
341.158	103.56
341.386	94.56
341.614	88.56
341.842	99.56
342.07	108.56
342.298	94.56
342.526	89.56
342.754	87.56
342.981	92.56
343.209	98.56
343.437	107.56
343.665	99.56
343.893	88.56
344.12	84.56
344.348	91.56
344.576	103.56
344.804	84.56
345.031	108.56
345.259	87.56
345.487	87.56
345.714	79.56
345.942	94.56
346.17	92.56
346.397	85.56
346.625	92.56
346.853	96.56
347.08	83.56
347.308	87.56
347.535	101.56
347.763	91.56
347.99	95.56
348.218	100.56
348.445	108.56
348.673	98.56
348.9	76.56
349.128	84.56
349.355	94.56
349.583	86.56
349.81	89.56
350.037	103.56
350.265	88.56
350.492	93.56
350.72	92.56
350.947	101.56
351.174	101.56
351.402	111.56
351.629	89.56
351.856	98.56
352.083	108.56
352.311	99.56
352.538	110.56
352.765	103.56
352.992	102.56
353.22	111.56
353.447	116.56
353.674	84.56
353.901	99.56
354.128	98.56
354.355	98.56
354.583	101.56
354.81	101.56
355.037	94.56
355.264	101.56
355.491	84.56
355.718	89.56
355.945	97.56
356.172	105.56
356.399	92.56
356.626	85.56
356.853	91.56
357.08	83.56
357.307	106.56
357.534	83.56
357.761	96.56
357.988	101.56
358.215	100.56
358.441	73.56
358.668	92.56
358.895	89.56
359.122	77.56
359.349	84.56
359.576	85.56
359.802	101.56
360.029	115.56
360.256	108.56
360.483	100.56
360.709	102.56
360.936	102.56
361.163	88.56
361.39	87.56
361.616	110.56
361.843	94.56
362.07	95.56
362.296	93.56
362.523	84.56
362.749	78.56
362.976	59.56
363.203	99.56
363.429	93.56
363.656	82.56
363.882	100.56
364.109	85.56
364.335	105.56
364.562	94.56
364.788	93.56
365.015	89.56
365.241	103.56
365.468	104.56
365.694	133.56
365.92	98.56
366.147	89.56
366.373	86.56
366.599	96.56
366.826	95.56
367.052	86.56
367.278	84.56
367.505	84.56
367.731	86.56
367.957	94.56
368.184	89.56
368.41	97.56
368.636	105.56
368.862	128.56
369.089	112.56
369.315	99.56
369.541	90.56
369.767	90.56
369.993	82.56
370.219	86.56
370.445	95.56
370.672	90.56
370.898	88.56
371.124	78.56
371.35	88.56
371.576	91.56
371.802	87.56
372.028	76.56
372.254	73.56
372.48	96.56
372.706	88.56
372.932	78.56
373.158	88.56
373.384	91.56
373.61	85.56
373.835	88.56
374.061	81.56
374.287	93.56
374.513	94.56
374.739	91.56
374.965	83.56
375.191	77.56
375.416	88.56
375.642	91.56
375.868	101.56
376.094	87.56
376.319	85.56
376.545	79.56
376.771	94.56
376.997	91.56
377.222	83.56
377.448	82.56
377.674	86.56
377.899	76.56
378.125	77.56
378.35	101.56
378.576	98.56
378.802	94.56
379.027	93.56
379.253	89.56
379.478	82.56
379.704	83.56
379.929	98.56
380.155	101.56
380.38	99.56
380.606	95.56
380.831	84.56
381.057	94.56
381.282	90.56
381.507	86.56
381.733	89.56
381.958	89.56
382.184	87.56
382.409	87.56
382.634	95.56
382.86	99.56
383.085	111.56
383.31	93.56
383.535	100.56
383.761	92.56
383.986	78.56
384.211	109.56
384.436	88.56
384.662	89.56
384.887	99.56
385.112	106.56
385.337	98.56
385.562	83.56
385.787	100.56
386.013	106.56
386.238	100.56
386.463	111.56
386.688	115.56
386.913	94.56
387.138	78.56
387.363	93.56
387.588	96.56
387.813	90.56
388.038	107.56
388.263	93.56
388.488	104.56
388.713	98.56
388.938	83.56
389.163	87.56
389.387	93.56
389.612	87.56
389.837	94.56
390.062	97.56
390.287	95.56
390.512	98.56
390.736	89.56
390.961	76.56
391.186	86.56
391.411	81.56
391.636	92.56
391.86	92.56
392.085	80.56
392.31	76.56
392.534	99.56
392.759	90.56
392.984	94.56
393.208	104.56
393.433	87.56
393.658	101.56
393.882	94.56
394.107	77.56
394.331	78.56
394.556	73.56
394.78	96.56
395.005	99.56
395.229	88.56
395.454	101.56
395.678	81.56
395.903	76.56
396.127	102.56
396.352	80.56
396.576	74.56
396.801	92.56
397.025	88.56
397.249	83.56
397.474	83.56
397.698	82.56
397.922	101.56
398.147	89.56
398.371	86.56
398.595	83.56
398.82	87.56
399.044	90.56
399.268	84.56
399.492	93.56
399.717	84.56
399.941	83.56
400.165	88.56
400.389	77.56
400.613	106.56
400.837	83.56
401.062	87.56
401.286	81.56
401.51	84.56
401.734	95.56
401.958	103.56
402.182	140.56
402.406	167.56
402.63	105.56
402.854	85.56
403.078	82.56
403.302	87.56
403.526	80.56
403.75	83.56
403.974	84.56
404.198	87.56
404.422	84.56
404.645	81.56
404.869	99.56
405.093	99.56
405.317	102.56
405.541	99.56
405.765	100.56
405.988	124.56
406.212	181.56
406.436	220.56
406.66	152.56
406.883	92.56
407.107	92.56
407.331	90.56
407.555	105.56
407.778	99.56
408.002	90.56
408.226	88.56
408.449	83.56
408.673	105.56
408.896	86.56
409.12	103.56
409.344	101.56
409.567	91.56
409.791	95.56
410.014	94.56
410.238	73.56
410.461	79.56
410.685	97.56
410.908	99.56
411.132	99.56
411.355	107.56
411.578	83.56
411.802	98.56
412.025	92.56
412.249	83.56
412.472	97.56
412.695	111.56
412.919	101.56
413.142	96.56
413.365	92.56
413.589	96.56
413.812	91.56
414.035	107.56
414.258	85.56
414.482	89.56
414.705	87.56
414.928	101.56
415.151	98.56
415.374	86.56
415.597	80.56
415.821	83.56
416.044	86.56
416.267	104.56
416.49	65.56
416.713	73.56
416.936	91.56
417.159	86.56
417.382	83.56
417.605	101.56
417.828	87.56
418.051	107.56
418.274	91.56
418.497	77.56
418.72	81.56
418.943	99.56
419.166	83.56
419.389	95.56
419.611	87.56
419.834	87.56
420.057	85.56
420.28	90.56
420.503	77.56
420.726	78.56
420.948	79.56
421.171	87.56
421.394	89.56
421.617	87.56
421.839	90.56
422.062	78.56
422.285	95.56
422.507	104.56
422.73	107.56
422.953	93.56
423.175	81.56
423.398	81.56
423.621	89.56
423.843	83.56
424.066	91.56
424.288	83.56
424.511	90.56
424.733	90.56
424.956	89.56
425.178	98.56
425.401	111.56
425.623	104.56
425.846	99.56
426.068	86.56
426.291	89.56
426.513	86.56
426.735	94.56
426.958	88.56
427.18	106.56
427.402	135.56
427.625	163.56
427.847	147.56
428.069	132.56
428.292	99.56
428.514	102.56
428.736	76.56
428.958	92.56
429.181	87.56
429.403	92.56
429.625	72.56
429.847	92.56
430.069	87.56
430.292	91.56
430.514	102.56
430.736	87.56
430.958	92.56
431.18	88.56
431.402	80.56
431.624	84.56
431.846	82.56
432.068	81.56
432.29	80.56
432.512	87.56
432.734	84.56
432.956	81.56
433.178	108.56
433.4	109.56
433.622	98.56
433.844	99.56
434.066	91.56
434.287	88.56
434.509	88.56
434.731	93.56
434.953	93.56
435.175	79.56
435.397	82.56
435.618	74.56
435.84	96.56
436.062	141.56
436.284	111.56
436.505	110.56
436.727	87.56
436.949	97.56
437.17	101.56
437.392	86.56
437.614	100.56
437.835	118.56
438.057	126.56
438.278	107.56
438.5	92.56
438.721	120.56
438.943	101.56
439.165	96.56
439.386	77.56
439.608	90.56
439.829	104.56
440.05	114.56
440.272	152.56
440.493	106.56
440.715	100.56
440.936	79.56
441.158	83.56
441.379	101.56
441.6	81.56
441.822	96.56
442.043	90.56
442.264	110.56
442.486	121.56
442.707	95.56
442.928	96.56
443.149	126.56
443.371	140.56
443.592	108.56
443.813	108.56
444.034	105.56
444.255	97.56
444.476	81.56
444.698	92.56
444.919	88.56
445.14	128.56
445.361	116.56
445.582	99.56
445.803	149.56
446.024	141.56
446.245	139.56
446.466	110.56
446.687	95.56
446.908	94.56
447.129	82.56
447.35	90.56
447.571	96.56
447.792	85.56
448.013	93.56
448.234	111.56
448.455	99.56
448.675	114.56
448.896	107.56
449.117	98.56
449.338	109.56
449.559	149.56
449.779	134.56
450	92.56
450.221	82.56
450.442	87.56
450.662	86.56
450.883	97.56
451.104	120.56
451.324	78.56
451.545	84.56
451.766	90.56
451.986	82.56
452.207	111.56
452.428	89.56
452.648	84.56
452.869	122.56
453.089	106.56
453.31	114.56
453.53	103.56
453.751	92.56
453.971	112.56
454.192	99.56
454.412	108.56
454.633	81.56
454.853	82.56
455.073	76.56
455.294	85.56
455.514	109.56
455.734	98.56
455.955	84.56
456.175	83.56
456.395	89.56
456.616	82.56
456.836	88.56
457.056	93.56
457.276	87.56
457.497	87.56
457.717	73.56
457.937	83.56
458.157	73.56
458.377	98.56
458.598	98.56
458.818	148.56
459.038	182.56
459.258	119.56
459.478	74.56
459.698	87.56
459.918	88.56
460.138	85.56
460.358	90.56
460.578	93.56
460.798	94.56
461.018	109.56
461.238	92.56
461.458	82.56
461.678	77.56
461.898	75.56
462.118	79.56
462.338	76.56
462.558	90.56
462.777	75.56
462.997	82.56
463.217	91.56
463.437	80.56
463.657	80.56
463.876	77.56
464.096	92.56
464.316	87.56
464.536	91.56
464.755	106.56
464.975	108.56
465.195	164.56
465.414	169.56
465.634	88.56
465.854	100.56
466.073	87.56
466.293	86.56
466.512	80.56
466.732	78.56
466.951	86.56
467.171	90.56
467.391	91.56
467.61	98.56
467.829	104.56
468.049	135.56
468.268	154.56
468.488	104.56
468.707	87.56
468.927	85.56
469.146	86.56
469.365	83.56
469.585	87.56
469.804	103.56
470.023	91.56
470.243	90.56
470.462	93.56
470.681	110.56
470.901	95.56
471.12	87.56
471.339	92.56
471.558	91.56
471.777	93.56
471.997	111.56
472.216	165.56
472.435	299.56
472.654	134.56
472.873	102.56
473.092	88.56
473.311	92.56
473.53	85.56
473.749	85.56
473.968	77.56
474.187	120.56
474.406	115.56
474.625	97.56
474.844	94.56
475.063	87.56
475.282	90.56
475.501	91.56
475.72	85.56
475.939	86.56
476.158	92.56
476.377	79.56
476.596	82.56
476.814	96.56
477.033	95.56
477.252	92.56
477.471	102.56
477.69	84.56
477.908	93.56
478.127	87.56
478.346	86.56
478.564	94.56
478.783	92.56
479.002	94.56
479.22	86.56
479.439	97.56
479.658	111.56
479.876	101.56
480.095	79.56
480.313	81.56
480.532	84.56
480.751	110.56
480.969	194.56
481.188	471.56
481.406	327.56
481.624	109.56
481.843	84.56
482.061	88.56
482.28	78.56
482.498	76.56
482.717	78.56
482.935	98.56
483.153	98.56
483.372	90.56
483.59	100.56
483.808	91.56
484.027	89.56
484.245	90.56
484.463	99.56
484.681	83.56
484.9	97.56
485.118	99.56
485.336	82.56
485.554	111.56
485.772	98.56
485.99	110.56
486.209	119.56
486.427	95.56
486.645	109.56
486.863	116.56
487.081	107.56
487.299	100.56
487.517	93.56
487.735	84.56
487.953	82.56
488.171	85.56
488.389	92.56
488.607	87.56
488.825	89.56
489.043	78.56
489.261	96.56
489.479	85.56
489.696	95.56
489.914	70.56
490.132	88.56
490.35	89.56
490.568	90.56
490.786	86.56
491.003	84.56
491.221	88.56
491.439	107.56
491.657	83.56
491.874	99.56
492.092	89.56
492.31	93.56
492.527	94.56
492.745	95.56
492.963	96.56
493.18	96.56
493.398	111.56
493.615	88.56
493.833	85.56
494.05	87.56
494.268	79.56
494.485	85.56
494.703	79.56
494.92	100.56
495.138	105.56
495.355	97.56
495.573	83.56
495.79	84.56
496.008	86.56
496.225	95.56
496.442	90.56
496.66	101.56
496.877	85.56
497.094	90.56
497.312	81.56
497.529	85.56
497.746	70.56
497.963	77.56
498.181	104.56
498.398	92.56
498.615	104.56
498.832	104.56
499.049	93.56
499.267	83.56
499.484	92.56
499.701	92.56
499.918	91.56
500.135	103.56
500.352	86.56
500.569	90.56
500.786	97.56
501.003	98.56
501.22	92.56
501.437	95.56
501.654	93.56
501.871	102.56
502.088	102.56
502.305	103.56
502.522	91.56
502.739	86.56
502.956	89.56
503.172	85.56
503.389	85.56
503.606	109.56
503.823	97.56
504.04	90.56
504.256	89.56
504.473	81.56
504.69	77.56
504.907	100.56
505.123	94.56
505.34	83.56
505.557	81.56
505.773	87.56
505.99	88.56
506.207	95.56
506.423	110.56
506.64	101.56
506.856	85.56
507.073	86.56
507.289	99.56
507.506	87.56
507.722	103.56
507.939	105.56
508.155	104.56
508.372	87.56
508.588	94.56
508.805	79.56
509.021	115.56
509.238	100.56
509.454	95.56
509.67	98.56
509.887	102.56
510.103	125.56
510.319	209.56
510.536	770.56
510.752	2460.56
510.968	695.56
511.184	164.56
511.401	111.56
511.617	106.56
511.833	89.56
512.049	95.56
512.265	89.56
512.481	87.56
512.698	93.56
512.914	85.56
513.13	91.56
513.346	97.56
513.562	88.56
513.778	103.56
513.994	104.56
514.21	112.56
514.426	116.56
514.642	134.56
514.858	120.56
515.074	173.56
515.29	480.56
515.506	1564.56
515.721	578.56
