Data from Circ_2011_H10_HRD10591_00074.txt Node
Date: Wed Jan 03 10:08:13 EST 2024
User: Yrep
Spectrometer: HR+D1059
Trigger mode: 1
Integration Time (sec): 1.000000E-1
Scans to average: 1
Electric dark correction enabled: true
Nonlinearity correction enabled: false
Boxcar width: 0
XAxis mode: Wavelengths
Number of Pixels in Spectrum: 2048
>>>>>Begin Spectral Data<<<<<
223.165	-6.69
223.4	-6.69
223.635	-6.69
223.869	-5.69
224.104	-14.69
224.338	-18.69
224.573	-11.69
224.808	-16.69
225.042	-12.69
225.277	-7.69
225.511	-7.69
225.746	8.31
225.98	-8.69
226.215	11.31
226.449	13.31
226.683	14.31
226.918	36.31
227.152	27.31
227.387	34.31
227.621	20.31
227.856	51.31
228.09	48.31
228.324	45.31
228.559	39.31
228.793	52.31
229.027	57.31
229.262	57.31
229.496	70.31
229.73	65.31
229.964	87.31
230.199	79.31
230.433	71.31
230.667	81.31
230.901	83.31
231.136	71.31
231.37	74.31
231.604	85.31
231.838	85.31
232.072	61.31
232.306	81.31
232.541	70.31
232.775	81.31
233.009	77.31
233.243	74.31
233.477	77.31
233.711	79.31
233.945	82.31
234.179	76.31
234.413	91.31
234.647	64.31
234.881	80.31
235.115	76.31
235.349	83.31
235.583	78.31
235.817	68.31
236.051	86.31
236.285	84.31
236.519	70.31
236.753	79.31
236.987	68.31
237.221	81.31
237.455	91.31
237.689	90.31
237.922	60.31
238.156	76.31
238.39	67.31
238.624	80.31
238.858	71.31
239.091	73.31
239.325	72.31
239.559	71.31
239.793	81.31
240.027	70.31
240.26	68.31
240.494	68.31
240.728	68.31
240.961	71.31
241.195	73.31
241.429	75.31
241.662	70.31
241.896	59.31
242.13	71.31
242.363	70.31
242.597	87.31
242.83	69.31
243.064	72.31
243.298	75.31
243.531	77.31
243.765	75.31
243.998	88.31
244.232	76.31
244.465	92.31
244.699	70.31
244.932	76.31
245.166	64.31
245.399	60.31
245.633	81.31
245.866	88.31
246.099	80.31
246.333	73.31
246.566	82.31
246.8	82.31
247.033	71.31
247.266	65.31
247.5	79.31
247.733	74.31
247.966	89.31
248.2	57.31
248.433	87.31
248.666	71.31
248.899	79.31
249.133	86.31
249.366	96.31
249.599	99.31
249.832	69.31
250.066	78.31
250.299	81.31
250.532	70.31
250.765	83.31
250.998	71.31
251.231	85.31
251.465	70.31
251.698	80.31
251.931	72.31
252.164	76.31
252.397	65.31
252.63	65.31
252.863	74.31
253.096	78.31
253.329	85.31
253.562	82.31
253.795	78.31
254.028	84.31
254.261	88.31
254.494	80.31
254.727	75.31
254.96	70.31
255.193	78.31
255.426	82.31
255.659	74.31
255.892	81.31
256.124	76.31
256.357	75.31
256.59	70.31
256.823	73.31
257.056	75.31
257.289	80.31
257.521	86.31
257.754	70.31
257.987	88.31
258.22	83.31
258.452	74.31
258.685	74.31
258.918	62.31
259.151	82.31
259.383	82.31
259.616	79.31
259.849	75.31
260.081	77.31
260.314	73.31
260.547	69.31
260.779	82.31
261.012	88.31
261.244	82.31
261.477	104.31
261.71	88.31
261.942	105.31
262.175	117.31
262.407	73.31
262.64	70.31
262.872	84.31
263.105	91.31
263.337	77.31
263.57	77.31
263.802	80.31
264.035	74.31
264.267	75.31
264.499	79.31
264.732	61.31
264.964	67.31
265.197	81.31
265.429	76.31
265.661	84.31
265.894	83.31
266.126	77.31
266.358	83.31
266.591	72.31
266.823	68.31
267.055	77.31
267.287	84.31
267.52	88.31
267.752	68.31
267.984	98.31
268.216	77.31
268.448	92.31
268.681	85.31
268.913	69.31
269.145	78.31
269.377	78.31
269.609	70.31
269.841	76.31
270.073	82.31
270.306	79.31
270.538	87.31
270.77	94.31
271.002	82.31
271.234	84.31
271.466	92.31
271.698	85.31
271.93	97.31
272.162	98.31
272.394	86.31
272.626	58.31
272.858	81.31
273.09	93.31
273.322	89.31
273.553	85.31
273.785	84.31
274.017	82.31
274.249	85.31
274.481	78.31
274.713	83.31
274.945	92.31
275.176	85.31
275.408	96.31
275.64	81.31
275.872	86.31
276.104	92.31
276.335	84.31
276.567	93.31
276.799	109.31
277.031	92.31
277.262	103.31
277.494	83.31
277.726	85.31
277.957	88.31
278.189	93.31
278.421	90.31
278.652	75.31
278.884	74.31
279.115	89.31
279.347	86.31
279.579	83.31
279.81	92.31
280.042	97.31
280.273	104.31
280.505	81.31
280.736	77.31
280.968	78.31
281.199	82.31
281.431	84.31
281.662	95.31
281.894	95.31
282.125	96.31
282.356	122.31
282.588	113.31
282.819	104.31
283.051	100.31
283.282	80.31
283.513	82.31
283.745	98.31
283.976	89.31
284.207	85.31
284.439	80.31
284.67	82.31
284.901	91.31
285.132	96.31
285.364	93.31
285.595	67.31
285.826	83.31
286.057	88.31
286.288	77.31
286.52	74.31
286.751	73.31
286.982	72.31
287.213	83.31
287.444	92.31
287.675	82.31
287.906	78.31
288.138	86.31
288.369	86.31
288.6	95.31
288.831	82.31
289.062	85.31
289.293	87.31
289.524	92.31
289.755	87.31
289.986	77.31
290.217	75.31
290.448	82.31
290.679	82.31
290.91	93.31
291.141	87.31
291.371	84.31
291.602	81.31
291.833	87.31
292.064	78.31
292.295	76.31
292.526	73.31
292.757	90.31
292.987	75.31
293.218	79.31
293.449	82.31
293.68	89.31
293.91	84.31
294.141	88.31
294.372	85.31
294.603	78.31
294.833	71.31
295.064	74.31
295.295	82.31
295.525	73.31
295.756	89.31
295.987	106.31
296.217	127.31
296.448	113.31
296.679	78.31
296.909	87.31
297.14	86.31
297.37	80.31
297.601	88.31
297.831	90.31
298.062	77.31
298.292	96.31
298.523	81.31
298.753	81.31
298.984	79.31
299.214	81.31
299.445	72.31
299.675	74.31
299.905	82.31
300.136	89.31
300.366	92.31
300.597	82.31
300.827	82.31
301.057	68.31
301.288	101.31
301.518	88.31
301.748	85.31
301.979	97.31
302.209	88.31
302.439	71.31
302.669	86.31
302.9	81.31
303.13	82.31
303.36	93.31
303.59	89.31
303.82	94.31
304.051	95.31
304.281	86.31
304.511	94.31
304.741	88.31
304.971	84.31
305.201	90.31
305.431	85.31
305.661	75.31
305.891	98.31
306.121	83.31
306.352	88.31
306.582	99.31
306.812	84.31
307.042	78.31
307.272	100.31
307.502	97.31
307.731	88.31
307.961	82.31
308.191	73.31
308.421	83.31
308.651	82.31
308.881	82.31
309.111	96.31
309.341	75.31
309.571	91.31
309.8	109.31
310.03	81.31
310.26	88.31
310.49	103.31
310.72	108.31
310.949	100.31
311.179	114.31
311.409	91.31
311.639	88.31
311.868	77.31
312.098	86.31
312.328	71.31
312.557	86.31
312.787	109.31
313.017	95.31
313.246	84.31
313.476	73.31
313.706	82.31
313.935	83.31
314.165	98.31
314.394	89.31
314.624	105.31
314.853	88.31
315.083	82.31
315.312	93.31
315.542	86.31
315.771	93.31
316.001	87.31
316.23	74.31
316.46	97.31
316.689	96.31
316.919	86.31
317.148	89.31
317.377	105.31
317.607	83.31
317.836	84.31
318.065	94.31
318.295	83.31
318.524	95.31
318.753	91.31
318.983	87.31
319.212	102.31
319.441	97.31
319.67	111.31
319.9	90.31
320.129	100.31
320.358	89.31
320.587	94.31
320.816	84.31
321.046	86.31
321.275	88.31
321.504	97.31
321.733	88.31
321.962	94.31
322.191	98.31
322.42	92.31
322.649	92.31
322.878	103.31
323.108	104.31
323.337	117.31
323.566	132.31
323.795	149.31
324.024	213.31
324.253	393.31
324.482	841.31
324.71	1736.31
324.939	2330.31
325.168	847.31
325.397	236.31
325.626	150.31
325.855	128.31
326.084	118.31
326.313	137.31
326.542	155.31
326.77	225.31
326.999	491.31
327.228	974.31
327.457	1807.31
327.686	1444.31
327.914	388.31
328.143	221.31
328.372	195.31
328.6	125.31
328.829	105.31
329.058	126.31
329.287	112.31
329.515	120.31
329.744	102.31
329.972	139.31
330.201	188.31
330.43	261.31
330.658	152.31
330.887	152.31
331.115	128.31
331.344	106.31
331.572	93.31
331.801	96.31
332.03	91.31
332.258	83.31
332.486	83.31
332.715	91.31
332.943	89.31
333.172	101.31
333.4	100.31
333.629	116.31
333.857	117.31
334.085	146.31
334.314	204.31
334.542	316.31
334.771	284.31
334.999	146.31
335.227	93.31
335.455	100.31
335.684	88.31
335.912	82.31
336.14	80.31
336.369	84.31
336.597	96.31
336.825	97.31
337.053	89.31
337.281	84.31
337.51	74.31
337.738	80.31
337.966	89.31
338.194	90.31
338.422	91.31
338.65	87.31
338.878	87.31
339.106	91.31
339.334	91.31
339.562	84.31
339.79	82.31
340.018	77.31
340.246	84.31
340.474	84.31
340.702	82.31
340.93	82.31
341.158	92.31
341.386	99.31
341.614	84.31
341.842	88.31
342.07	98.31
342.298	90.31
342.526	82.31
342.754	83.31
342.981	91.31
343.209	77.31
343.437	92.31
343.665	91.31
343.893	87.31
344.12	88.31
344.348	82.31
344.576	82.31
344.804	91.31
345.031	97.31
345.259	85.31
345.487	82.31
345.714	91.31
345.942	91.31
346.17	74.31
346.397	93.31
346.625	95.31
346.853	83.31
347.08	87.31
347.308	82.31
347.535	85.31
347.763	89.31
347.99	78.31
348.218	96.31
348.445	106.31
348.673	97.31
348.9	90.31
349.128	95.31
349.355	86.31
349.583	100.31
349.81	83.31
350.037	98.31
350.265	97.31
350.492	82.31
350.72	92.31
350.947	93.31
351.174	99.31
351.402	99.31
351.629	94.31
351.856	86.31
352.083	84.31
352.311	83.31
352.538	85.31
352.765	102.31
352.992	99.31
353.22	102.31
353.447	102.31
353.674	84.31
353.901	82.31
354.128	98.31
354.355	85.31
354.583	89.31
354.81	100.31
355.037	97.31
355.264	91.31
355.491	78.31
355.718	82.31
355.945	78.31
356.172	92.31
356.399	82.31
356.626	92.31
356.853	87.31
357.08	90.31
357.307	89.31
357.534	92.31
357.761	69.31
357.988	98.31
358.215	97.31
358.441	83.31
358.668	92.31
358.895	93.31
359.122	82.31
359.349	71.31
359.576	91.31
359.802	99.31
360.029	97.31
360.256	106.31
360.483	89.31
360.709	81.31
360.936	86.31
361.163	91.31
361.39	85.31
361.616	85.31
361.843	84.31
362.07	89.31
362.296	90.31
362.523	84.31
362.749	75.31
362.976	90.31
363.203	89.31
363.429	79.31
363.656	82.31
363.882	84.31
364.109	77.31
364.335	83.31
364.562	84.31
364.788	79.31
365.015	91.31
365.241	99.31
365.468	103.31
365.694	103.31
365.92	93.31
366.147	91.31
366.373	85.31
366.599	87.31
366.826	69.31
367.052	89.31
367.278	94.31
367.505	77.31
367.731	90.31
367.957	87.31
368.184	94.31
368.41	98.31
368.636	93.31
368.862	107.31
369.089	100.31
369.315	95.31
369.541	107.31
369.767	68.31
369.993	88.31
370.219	83.31
370.445	80.31
370.672	65.31
370.898	90.31
371.124	77.31
371.35	83.31
371.576	71.31
371.802	79.31
372.028	89.31
372.254	92.31
372.48	97.31
372.706	78.31
372.932	87.31
373.158	91.31
373.384	64.31
373.61	86.31
373.835	89.31
374.061	86.31
374.287	93.31
374.513	78.31
374.739	67.31
374.965	77.31
375.191	96.31
375.416	83.31
375.642	91.31
375.868	74.31
376.094	82.31
376.319	84.31
376.545	85.31
376.771	78.31
376.997	86.31
377.222	83.31
377.448	72.31
377.674	82.31
377.899	87.31
378.125	77.31
378.35	81.31
378.576	88.31
378.802	80.31
379.027	94.31
379.253	96.31
379.478	78.31
379.704	94.31
379.929	75.31
380.155	96.31
380.38	86.31
380.606	101.31
380.831	86.31
381.057	92.31
381.282	87.31
381.507	92.31
381.733	80.31
381.958	98.31
382.184	93.31
382.409	95.31
382.634	93.31
382.86	79.31
383.085	107.31
383.31	93.31
383.535	91.31
383.761	87.31
383.986	89.31
384.211	94.31
384.436	90.31
384.662	92.31
384.887	96.31
385.112	86.31
385.337	106.31
385.562	113.31
385.787	97.31
386.013	98.31
386.238	96.31
386.463	86.31
386.688	89.31
386.913	98.31
387.138	90.31
387.363	89.31
387.588	100.31
387.813	75.31
388.038	107.31
388.263	92.31
388.488	98.31
388.713	86.31
388.938	86.31
389.163	92.31
389.387	98.31
389.612	81.31
389.837	94.31
390.062	89.31
390.287	81.31
390.512	84.31
390.736	87.31
390.961	94.31
391.186	78.31
391.411	87.31
391.636	96.31
391.86	84.31
392.085	84.31
392.31	82.31
392.534	84.31
392.759	88.31
392.984	88.31
393.208	75.31
393.433	78.31
393.658	92.31
393.882	81.31
394.107	84.31
394.331	69.31
394.556	86.31
394.78	82.31
395.005	86.31
395.229	83.31
395.454	70.31
395.678	87.31
395.903	97.31
396.127	79.31
396.352	81.31
396.576	90.31
396.801	81.31
397.025	92.31
397.249	95.31
397.474	87.31
397.698	98.31
397.922	80.31
398.147	73.31
398.371	79.31
398.595	99.31
398.82	77.31
399.044	89.31
399.268	96.31
399.492	95.31
399.717	80.31
399.941	91.31
400.165	86.31
400.389	76.31
400.613	85.31
400.837	84.31
401.062	88.31
401.286	99.31
401.51	99.31
401.734	90.31
401.958	88.31
402.182	112.31
402.406	152.31
402.63	111.31
402.854	87.31
403.078	88.31
403.302	87.31
403.526	69.31
403.75	78.31
403.974	81.31
404.198	88.31
404.422	87.31
404.645	77.31
404.869	93.31
405.093	97.31
405.317	109.31
405.541	93.31
405.765	83.31
405.988	117.31
406.212	157.31
406.436	209.31
406.66	140.31
406.883	96.31
407.107	81.31
407.331	87.31
407.555	102.31
407.778	96.31
408.002	90.31
408.226	92.31
408.449	83.31
408.673	77.31
408.896	98.31
409.12	97.31
409.344	97.31
409.567	95.31
409.791	75.31
410.014	103.31
410.238	82.31
410.461	94.31
410.685	87.31
410.908	108.31
411.132	104.31
411.355	83.31
411.578	102.31
411.802	81.31
412.025	83.31
412.249	91.31
412.472	90.31
412.695	89.31
412.919	86.31
413.142	87.31
413.365	88.31
413.589	74.31
413.812	83.31
414.035	85.31
414.258	93.31
414.482	88.31
414.705	90.31
414.928	100.31
415.151	68.31
415.374	79.31
415.597	72.31
415.821	86.31
416.044	73.31
416.267	89.31
416.49	98.31
416.713	84.31
416.936	91.31
417.159	75.31
417.382	86.31
417.605	88.31
417.828	94.31
418.051	86.31
418.274	87.31
418.497	94.31
418.72	77.31
418.943	83.31
419.166	92.31
419.389	74.31
419.611	89.31
419.834	75.31
420.057	90.31
420.28	83.31
420.503	100.31
420.726	79.31
420.948	85.31
421.171	83.31
421.394	88.31
421.617	77.31
421.839	72.31
422.062	89.31
422.285	97.31
422.507	83.31
422.73	101.31
422.953	91.31
423.175	91.31
423.398	86.31
423.621	71.31
423.843	76.31
424.066	85.31
424.288	86.31
424.511	85.31
424.733	102.31
424.956	87.31
425.178	105.31
425.401	104.31
425.623	97.31
425.846	84.31
426.068	82.31
426.291	99.31
426.513	95.31
426.735	92.31
426.958	96.31
427.18	106.31
427.402	132.31
427.625	170.31
427.847	141.31
428.069	142.31
428.292	105.31
428.514	99.31
428.736	98.31
428.958	90.31
429.181	77.31
429.403	79.31
429.625	90.31
429.847	100.31
430.069	90.31
430.292	90.31
430.514	79.31
430.736	83.31
430.958	80.31
431.18	80.31
431.402	69.31
431.624	89.31
431.846	77.31
432.068	93.31
432.29	74.31
432.512	70.31
432.734	88.31
432.956	102.31
433.178	91.31
433.4	105.31
433.622	101.31
433.844	88.31
434.066	77.31
434.287	82.31
434.509	85.31
434.731	80.31
434.953	87.31
435.175	97.31
435.397	89.31
435.618	91.31
435.84	90.31
436.062	120.31
436.284	127.31
436.505	103.31
436.727	101.31
436.949	83.31
437.17	80.31
437.392	79.31
437.614	101.31
437.835	106.31
438.057	117.31
438.278	107.31
438.5	95.31
438.721	113.31
438.943	105.31
439.165	104.31
439.386	82.31
439.608	86.31
439.829	104.31
440.05	126.31
440.272	132.31
440.493	88.31
440.715	80.31
440.936	86.31
441.158	92.31
441.379	93.31
441.6	97.31
441.822	92.31
442.043	93.31
442.264	97.31
442.486	116.31
442.707	84.31
442.928	108.31
443.149	140.31
443.371	134.31
443.592	119.31
443.813	117.31
444.034	97.31
444.255	87.31
444.476	86.31
444.698	94.31
444.919	79.31
445.14	140.31
445.361	102.31
445.582	123.31
445.803	146.31
446.024	136.31
446.245	128.31
446.466	116.31
446.687	102.31
446.908	97.31
447.129	87.31
447.35	98.31
447.571	86.31
447.792	84.31
448.013	82.31
448.234	85.31
448.455	96.31
448.675	120.31
448.896	122.31
449.117	96.31
449.338	104.31
449.559	130.31
449.779	140.31
450	91.31
450.221	96.31
450.442	84.31
450.662	96.31
450.883	101.31
451.104	118.31
451.324	86.31
451.545	84.31
451.766	85.31
451.986	83.31
452.207	82.31
452.428	90.31
452.648	102.31
452.869	88.31
453.089	105.31
453.31	97.31
453.53	88.31
453.751	84.31
453.971	108.31
454.192	100.31
454.412	92.31
454.633	96.31
454.853	84.31
455.073	88.31
455.294	88.31
455.514	96.31
455.734	97.31
455.955	69.31
456.175	87.31
456.395	76.31
456.616	85.31
456.836	97.31
457.056	78.31
457.276	86.31
457.497	72.31
457.717	86.31
457.937	92.31
458.157	87.31
458.377	88.31
458.598	109.31
458.818	129.31
459.038	166.31
459.258	116.31
459.478	83.31
459.698	94.31
459.918	82.31
460.138	72.31
460.358	78.31
460.578	79.31
460.798	91.31
461.018	104.31
461.238	84.31
461.458	82.31
461.678	77.31
461.898	92.31
462.118	90.31
462.338	76.31
462.558	79.31
462.777	83.31
462.997	90.31
463.217	86.31
463.437	99.31
463.657	72.31
463.876	82.31
464.096	90.31
464.316	98.31
464.536	103.31
464.755	93.31
464.975	105.31
465.195	157.31
465.414	155.31
465.634	103.31
465.854	76.31
466.073	87.31
466.293	97.31
466.512	96.31
466.732	82.31
466.951	72.31
467.171	69.31
467.391	88.31
467.61	116.31
467.829	107.31
468.049	143.31
468.268	155.31
468.488	92.31
468.707	92.31
468.927	93.31
469.146	86.31
469.365	90.31
469.585	93.31
469.804	90.31
470.023	106.31
470.243	88.31
470.462	83.31
470.681	84.31
470.901	81.31
471.12	92.31
471.339	86.31
471.558	82.31
471.777	81.31
471.997	105.31
472.216	212.31
472.435	392.31
472.654	165.31
472.873	88.31
473.092	81.31
473.311	71.31
473.53	85.31
473.749	84.31
473.968	81.31
474.187	99.31
474.406	81.31
474.625	79.31
474.844	86.31
475.063	78.31
475.282	87.31
475.501	77.31
475.72	83.31
475.939	77.31
476.158	89.31
476.377	73.31
476.596	98.31
476.814	97.31
477.033	100.31
477.252	75.31
477.471	83.31
477.69	81.31
477.908	79.31
478.127	77.31
478.346	74.31
478.564	81.31
478.783	96.31
479.002	88.31
479.22	96.31
479.439	99.31
479.658	93.31
479.876	79.31
480.095	95.31
480.313	89.31
480.532	86.31
480.751	104.31
480.969	213.31
481.188	626.31
481.406	410.31
481.624	125.31
481.843	93.31
482.061	88.31
482.28	85.31
482.498	78.31
482.717	84.31
482.935	81.31
483.153	81.31
483.372	92.31
483.59	80.31
483.808	77.31
484.027	82.31
484.245	94.31
484.463	100.31
484.681	90.31
484.9	96.31
485.118	94.31
485.336	85.31
485.554	82.31
485.772	86.31
485.99	100.31
486.209	89.31
486.427	91.31
486.645	106.31
486.863	109.31
487.081	100.31
487.299	98.31
487.517	87.31
487.735	92.31
487.953	82.31
488.171	90.31
488.389	92.31
488.607	94.31
488.825	93.31
489.043	91.31
489.261	96.31
489.479	86.31
489.696	86.31
489.914	82.31
490.132	80.31
490.35	94.31
490.568	84.31
490.786	88.31
491.003	92.31
491.221	86.31
491.439	85.31
491.657	88.31
491.874	103.31
492.092	96.31
492.31	82.31
492.527	87.31
492.745	83.31
492.963	93.31
493.18	82.31
493.398	96.31
493.615	91.31
493.833	89.31
494.05	97.31
494.268	93.31
494.485	87.31
494.703	76.31
494.92	84.31
495.138	62.31
495.355	78.31
495.573	73.31
495.79	88.31
496.008	84.31
496.225	94.31
496.442	70.31
496.66	96.31
496.877	88.31
497.094	89.31
497.312	94.31
497.529	74.31
497.746	84.31
497.963	86.31
498.181	87.31
498.398	98.31
498.615	110.31
498.832	100.31
499.049	86.31
499.267	90.31
499.484	97.31
499.701	76.31
499.918	86.31
500.135	94.31
500.352	86.31
500.569	93.31
500.786	92.31
501.003	90.31
501.22	91.31
501.437	89.31
501.654	94.31
501.871	98.31
502.088	85.31
502.305	89.31
502.522	82.31
502.739	76.31
502.956	97.31
503.172	90.31
503.389	85.31
503.606	91.31
503.823	88.31
504.04	88.31
504.256	91.31
504.473	72.31
504.69	87.31
504.907	92.31
505.123	87.31
505.34	89.31
505.557	84.31
505.773	80.31
505.99	82.31
506.207	89.31
506.423	77.31
506.64	80.31
506.856	84.31
507.073	76.31
507.289	77.31
507.506	94.31
507.722	113.31
507.939	119.31
508.155	98.31
508.372	91.31
508.588	80.31
508.805	74.31
509.021	103.31
509.238	97.31
509.454	95.31
509.67	106.31
509.887	93.31
510.103	118.31
510.319	192.31
510.536	633.31
510.752	2005.31
510.968	605.31
511.184	164.31
511.401	116.31
511.617	87.31
511.833	84.31
512.049	85.31
512.265	100.31
512.481	80.31
512.698	75.31
512.914	101.31
513.13	92.31
513.346	87.31
513.562	97.31
513.778	85.31
513.994	81.31
514.21	101.31
514.426	120.31
514.642	136.31
514.858	114.31
515.074	137.31
515.29	401.31
515.506	1318.31
515.721	490.31
515.937	143.31
516.153	101.31
516.369	93.31
516.585	100.31
516.801	81.31
517.016	93.31
