Data from Circ_2011_H10_HRD10591_00075.txt Node
Date: Wed Jan 03 10:08:14 EST 2024
User: Yrep
Spectrometer: HR+D1059
Trigger mode: 1
Integration Time (sec): 1.000000E-1
Scans to average: 1
Electric dark correction enabled: true
Nonlinearity correction enabled: false
Boxcar width: 0
XAxis mode: Wavelengths
Number of Pixels in Spectrum: 2048
>>>>>Begin Spectral Data<<<<<
223.165	-11.06
223.4	-11.06
223.635	-11.06
223.869	-10.06
224.104	-12.06
224.338	-5.06
224.573	-6.06
224.808	-11.06
225.042	-16.06
225.277	2.94
225.511	-1.06
225.746	2.94
225.98	6.94
226.215	14.94
226.449	-3.06
226.683	3.94
226.918	19.94
227.152	23.94
227.387	25.94
227.621	32.94
227.856	39.94
228.09	51.94
228.324	62.94
228.559	45.94
228.793	42.94
229.027	64.94
229.262	56.94
229.496	65.94
229.73	87.94
229.964	80.94
230.199	63.94
230.433	67.94
230.667	88.94
230.901	70.94
231.136	61.94
231.37	74.94
231.604	61.94
231.838	69.94
232.072	95.94
232.306	87.94
232.541	58.94
232.775	77.94
233.009	75.94
233.243	68.94
233.477	76.94
233.711	65.94
233.945	75.94
234.179	70.94
234.413	74.94
234.647	75.94
234.881	69.94
235.115	56.94
235.349	62.94
235.583	65.94
235.817	80.94
236.051	66.94
236.285	75.94
236.519	79.94
236.753	64.94
236.987	71.94
237.221	71.94
237.455	75.94
237.689	82.94
237.922	82.94
238.156	63.94
238.39	78.94
238.624	72.94
238.858	78.94
239.091	78.94
239.325	75.94
239.559	79.94
239.793	73.94
240.027	78.94
240.26	64.94
240.494	74.94
240.728	82.94
240.961	62.94
241.195	87.94
241.429	84.94
241.662	73.94
241.896	64.94
242.13	62.94
242.363	67.94
242.597	72.94
242.83	76.94
243.064	68.94
243.298	93.94
243.531	67.94
243.765	58.94
243.998	76.94
244.232	75.94
244.465	60.94
244.699	68.94
244.932	86.94
245.166	78.94
245.399	71.94
245.633	81.94
245.866	66.94
246.099	70.94
246.333	85.94
246.566	63.94
246.8	82.94
247.033	70.94
247.266	64.94
247.5	67.94
247.733	75.94
247.966	71.94
248.2	62.94
248.433	75.94
248.666	78.94
248.899	62.94
249.133	60.94
249.366	90.94
249.599	96.94
249.832	79.94
250.066	89.94
250.299	74.94
250.532	88.94
250.765	65.94
250.998	67.94
251.231	76.94
251.465	82.94
251.698	74.94
251.931	86.94
252.164	65.94
252.397	78.94
252.63	71.94
252.863	49.94
253.096	69.94
253.329	69.94
253.562	69.94
253.795	73.94
254.028	84.94
254.261	75.94
254.494	81.94
254.727	80.94
254.96	72.94
255.193	70.94
255.426	64.94
255.659	79.94
255.892	71.94
256.124	69.94
256.357	83.94
256.59	80.94
256.823	74.94
257.056	84.94
257.289	70.94
257.521	81.94
257.754	66.94
257.987	80.94
258.22	69.94
258.452	62.94
258.685	76.94
258.918	60.94
259.151	91.94
259.383	81.94
259.616	81.94
259.849	67.94
260.081	87.94
260.314	74.94
260.547	65.94
260.779	82.94
261.012	75.94
261.244	66.94
261.477	80.94
261.71	86.94
261.942	91.94
262.175	97.94
262.407	80.94
262.64	69.94
262.872	58.94
263.105	78.94
263.337	72.94
263.57	90.94
263.802	89.94
264.035	74.94
264.267	65.94
264.499	78.94
264.732	82.94
264.964	73.94
265.197	86.94
265.429	73.94
265.661	80.94
265.894	84.94
266.126	83.94
266.358	80.94
266.591	66.94
266.823	67.94
267.055	68.94
267.287	76.94
267.52	75.94
267.752	80.94
267.984	82.94
268.216	57.94
268.448	82.94
268.681	76.94
268.913	76.94
269.145	83.94
269.377	88.94
269.609	79.94
269.841	68.94
270.073	80.94
270.306	83.94
270.538	72.94
270.77	78.94
271.002	75.94
271.234	75.94
271.466	72.94
271.698	83.94
271.93	81.94
272.162	78.94
272.394	80.94
272.626	83.94
272.858	62.94
273.09	71.94
273.322	83.94
273.553	65.94
273.785	80.94
274.017	61.94
274.249	69.94
274.481	75.94
274.713	74.94
274.945	85.94
275.176	72.94
275.408	89.94
275.64	92.94
275.872	73.94
276.104	82.94
276.335	94.94
276.567	99.94
276.799	112.94
277.031	80.94
277.262	78.94
277.494	92.94
277.726	71.94
277.957	84.94
278.189	80.94
278.421	70.94
278.652	85.94
278.884	89.94
279.115	84.94
279.347	81.94
279.579	81.94
279.81	88.94
280.042	75.94
280.273	107.94
280.505	91.94
280.736	61.94
280.968	74.94
281.199	88.94
281.431	85.94
281.662	79.94
281.894	84.94
282.125	82.94
282.356	112.94
282.588	117.94
282.819	98.94
283.051	87.94
283.282	78.94
283.513	105.94
283.745	67.94
283.976	66.94
284.207	73.94
284.439	77.94
284.67	90.94
284.901	94.94
285.132	87.94
285.364	82.94
285.595	69.94
285.826	71.94
286.057	83.94
286.288	85.94
286.52	84.94
286.751	78.94
286.982	65.94
287.213	74.94
287.444	81.94
287.675	78.94
287.906	86.94
288.138	79.94
288.369	84.94
288.6	86.94
288.831	81.94
289.062	70.94
289.293	79.94
289.524	70.94
289.755	85.94
289.986	71.94
290.217	98.94
290.448	98.94
290.679	64.94
290.91	77.94
291.141	89.94
291.371	75.94
291.602	95.94
291.833	79.94
292.064	81.94
292.295	86.94
292.526	85.94
292.757	78.94
292.987	81.94
293.218	82.94
293.449	89.94
293.68	83.94
293.91	82.94
294.141	72.94
294.372	88.94
294.603	80.94
294.833	74.94
295.064	80.94
295.295	86.94
295.525	82.94
295.756	102.94
295.987	105.94
296.217	148.94
296.448	115.94
296.679	86.94
296.909	81.94
297.14	72.94
297.37	89.94
297.601	72.94
297.831	74.94
298.062	81.94
298.292	74.94
298.523	88.94
298.753	86.94
298.984	85.94
299.214	79.94
299.445	72.94
299.675	90.94
299.905	83.94
300.136	84.94
300.366	80.94
300.597	80.94
300.827	70.94
301.057	79.94
301.288	84.94
301.518	90.94
301.748	80.94
301.979	96.94
302.209	89.94
302.439	88.94
302.669	76.94
302.9	80.94
303.13	83.94
303.36	79.94
303.59	92.94
303.82	91.94
304.051	98.94
304.281	71.94
304.511	74.94
304.741	74.94
304.971	66.94
305.201	98.94
305.431	73.94
305.661	80.94
305.891	80.94
306.121	98.94
306.352	92.94
306.582	98.94
306.812	93.94
307.042	74.94
307.272	75.94
307.502	85.94
307.731	101.94
307.961	85.94
308.191	80.94
308.421	89.94
308.651	80.94
308.881	99.94
309.111	75.94
309.341	104.94
309.571	103.94
309.8	96.94
310.03	83.94
310.26	75.94
310.49	97.94
310.72	73.94
310.949	103.94
311.179	114.94
311.409	97.94
311.639	104.94
311.868	89.94
312.098	78.94
312.328	90.94
312.557	104.94
312.787	90.94
313.017	90.94
313.246	79.94
313.476	87.94
313.706	87.94
313.935	94.94
314.165	99.94
314.394	77.94
314.624	99.94
314.853	82.94
315.083	86.94
315.312	83.94
315.542	75.94
315.771	88.94
316.001	80.94
316.23	80.94
316.46	77.94
316.689	83.94
316.919	75.94
317.148	94.94
317.377	86.94
317.607	88.94
317.836	83.94
318.065	85.94
318.295	84.94
318.524	85.94
318.753	78.94
318.983	89.94
319.212	95.94
319.441	101.94
319.67	100.94
319.9	80.94
320.129	90.94
320.358	92.94
320.587	79.94
320.816	86.94
321.046	89.94
321.275	93.94
321.504	94.94
321.733	92.94
321.962	82.94
322.191	90.94
322.42	103.94
322.649	101.94
322.878	94.94
323.108	116.94
323.337	110.94
323.566	139.94
323.795	147.94
324.024	200.94
324.253	410.94
324.482	855.94
324.71	1756.94
324.939	2273.94
325.168	850.94
325.397	227.94
325.626	150.94
325.855	134.94
326.084	129.94
326.313	114.94
326.542	153.94
326.77	244.94
326.999	459.94
327.228	1000.94
327.457	1751.94
327.686	1408.94
327.914	395.94
328.143	216.94
328.372	195.94
328.6	129.94
328.829	134.94
329.058	131.94
329.287	132.94
329.515	112.94
329.744	122.94
329.972	146.94
330.201	187.94
330.43	223.94
330.658	163.94
330.887	147.94
331.115	120.94
331.344	82.94
331.572	75.94
331.801	86.94
332.03	94.94
332.258	87.94
332.486	103.94
332.715	104.94
332.943	101.94
333.172	90.94
333.4	101.94
333.629	105.94
333.857	98.94
334.085	128.94
334.314	190.94
334.542	280.94
334.771	284.94
334.999	127.94
335.227	103.94
335.455	90.94
335.684	95.94
335.912	80.94
336.14	88.94
336.369	90.94
336.597	90.94
336.825	81.94
337.053	83.94
337.281	85.94
337.51	88.94
337.738	78.94
337.966	73.94
338.194	71.94
338.422	95.94
338.65	98.94
338.878	87.94
339.106	99.94
339.334	95.94
339.562	88.94
339.79	91.94
340.018	102.94
340.246	84.94
340.474	81.94
340.702	92.94
340.93	63.94
341.158	86.94
341.386	87.94
341.614	89.94
341.842	87.94
342.07	106.94
342.298	79.94
342.526	82.94
342.754	78.94
342.981	74.94
343.209	77.94
343.437	95.94
343.665	78.94
343.893	87.94
344.12	82.94
344.348	75.94
344.576	82.94
344.804	79.94
345.031	82.94
345.259	104.94
345.487	82.94
345.714	92.94
345.942	84.94
346.17	91.94
346.397	92.94
346.625	87.94
346.853	98.94
347.08	79.94
347.308	91.94
347.535	98.94
347.763	93.94
347.99	94.94
348.218	96.94
348.445	103.94
348.673	87.94
348.9	85.94
349.128	88.94
349.355	80.94
349.583	89.94
349.81	81.94
350.037	83.94
350.265	75.94
350.492	86.94
350.72	80.94
350.947	95.94
351.174	109.94
351.402	105.94
351.629	101.94
351.856	86.94
352.083	89.94
352.311	104.94
352.538	113.94
352.765	97.94
352.992	98.94
353.22	112.94
353.447	98.94
353.674	100.94
353.901	87.94
354.128	88.94
354.355	82.94
354.583	92.94
354.81	92.94
355.037	99.94
355.264	101.94
355.491	77.94
355.718	73.94
355.945	90.94
356.172	87.94
356.399	71.94
356.626	90.94
356.853	97.94
357.08	98.94
357.307	75.94
357.534	83.94
357.761	90.94
357.988	91.94
358.215	90.94
358.441	83.94
358.668	85.94
358.895	72.94
359.122	82.94
359.349	74.94
359.576	86.94
359.802	80.94
360.029	113.94
360.256	104.94
360.483	106.94
360.709	72.94
360.936	89.94
361.163	84.94
361.39	99.94
361.616	79.94
361.843	78.94
362.07	94.94
362.296	94.94
362.523	74.94
362.749	99.94
362.976	79.94
363.203	81.94
363.429	80.94
363.656	80.94
363.882	72.94
364.109	86.94
364.335	81.94
364.562	82.94
364.788	86.94
365.015	84.94
365.241	106.94
365.468	105.94
365.694	103.94
365.92	97.94
366.147	91.94
366.373	79.94
366.599	92.94
366.826	78.94
367.052	82.94
367.278	87.94
367.505	94.94
367.731	83.94
367.957	86.94
368.184	78.94
368.41	94.94
368.636	110.94
368.862	112.94
369.089	111.94
369.315	91.94
369.541	73.94
369.767	83.94
369.993	89.94
370.219	83.94
370.445	67.94
370.672	83.94
370.898	84.94
371.124	84.94
371.35	82.94
371.576	83.94
371.802	89.94
372.028	86.94
372.254	76.94
372.48	86.94
372.706	92.94
372.932	81.94
373.158	86.94
373.384	76.94
373.61	78.94
373.835	84.94
374.061	86.94
374.287	87.94
374.513	86.94
374.739	72.94
374.965	76.94
375.191	83.94
375.416	82.94
375.642	94.94
375.868	85.94
376.094	97.94
376.319	94.94
376.545	73.94
376.771	86.94
376.997	78.94
377.222	86.94
377.448	91.94
377.674	96.94
377.899	77.94
378.125	86.94
378.35	88.94
378.576	88.94
378.802	73.94
379.027	86.94
379.253	68.94
379.478	76.94
379.704	89.94
379.929	93.94
380.155	82.94
380.38	87.94
380.606	79.94
380.831	85.94
381.057	95.94
381.282	71.94
381.507	94.94
381.733	90.94
381.958	75.94
382.184	88.94
382.409	96.94
382.634	95.94
382.86	87.94
383.085	74.94
383.31	86.94
383.535	103.94
383.761	91.94
383.986	90.94
384.211	92.94
384.436	93.94
384.662	87.94
384.887	89.94
385.112	84.94
385.337	97.94
385.562	79.94
385.787	103.94
386.013	102.94
386.238	97.94
386.463	98.94
386.688	101.94
386.913	89.94
387.138	96.94
387.363	88.94
387.588	79.94
387.813	92.94
388.038	94.94
388.263	96.94
388.488	99.94
388.713	85.94
388.938	89.94
389.163	83.94
389.387	97.94
389.612	95.94
389.837	75.94
390.062	76.94
390.287	98.94
390.512	95.94
390.736	78.94
390.961	92.94
391.186	83.94
391.411	92.94
391.636	89.94
391.86	85.94
392.085	79.94
392.31	91.94
392.534	80.94
392.759	74.94
392.984	88.94
393.208	81.94
393.433	84.94
393.658	86.94
393.882	88.94
394.107	89.94
394.331	69.94
394.556	80.94
394.78	95.94
395.005	81.94
395.229	63.94
395.454	95.94
395.678	92.94
395.903	77.94
396.127	84.94
396.352	82.94
396.576	90.94
396.801	84.94
397.025	87.94
397.249	84.94
397.474	69.94
397.698	89.94
397.922	91.94
398.147	84.94
398.371	87.94
398.595	74.94
398.82	67.94
399.044	66.94
399.268	87.94
399.492	83.94
399.717	106.94
399.941	77.94
400.165	95.94
400.389	103.94
400.613	91.94
400.837	82.94
401.062	94.94
401.286	81.94
401.51	86.94
401.734	89.94
401.958	100.94
402.182	117.94
402.406	154.94
402.63	107.94
402.854	77.94
403.078	82.94
403.302	87.94
403.526	88.94
403.75	86.94
403.974	81.94
404.198	86.94
404.422	89.94
404.645	76.94
404.869	81.94
405.093	100.94
405.317	110.94
405.541	87.94
405.765	100.94
405.988	119.94
406.212	184.94
406.436	228.94
406.66	149.94
406.883	91.94
407.107	93.94
407.331	84.94
407.555	92.94
407.778	96.94
408.002	94.94
408.226	70.94
408.449	84.94
408.673	67.94
408.896	81.94
409.12	86.94
409.344	93.94
409.567	86.94
409.791	78.94
410.014	85.94
410.238	79.94
410.461	93.94
410.685	96.94
410.908	103.94
411.132	99.94
411.355	90.94
411.578	101.94
411.802	76.94
412.025	70.94
412.249	102.94
412.472	88.94
412.695	87.94
412.919	79.94
413.142	89.94
413.365	87.94
413.589	83.94
413.812	76.94
414.035	87.94
414.258	92.94
414.482	74.94
414.705	66.94
414.928	81.94
415.151	82.94
415.374	87.94
415.597	88.94
415.821	73.94
416.044	83.94
416.267	87.94
416.49	80.94
416.713	93.94
416.936	83.94
417.159	85.94
417.382	71.94
417.605	95.94
417.828	81.94
418.051	81.94
418.274	80.94
418.497	76.94
418.72	86.94
418.943	72.94
419.166	87.94
419.389	82.94
419.611	92.94
419.834	94.94
420.057	83.94
420.28	86.94
420.503	78.94
420.726	85.94
420.948	74.94
421.171	94.94
421.394	69.94
421.617	83.94
421.839	73.94
422.062	88.94
422.285	85.94
422.507	85.94
422.73	90.94
422.953	82.94
423.175	84.94
423.398	74.94
423.621	77.94
423.843	74.94
424.066	81.94
424.288	82.94
424.511	71.94
424.733	103.94
424.956	101.94
425.178	90.94
425.401	98.94
425.623	88.94
425.846	85.94
426.068	88.94
426.291	83.94
426.513	92.94
426.735	81.94
426.958	89.94
427.18	97.94
427.402	122.94
427.625	178.94
427.847	155.94
428.069	125.94
428.292	76.94
428.514	88.94
428.736	79.94
428.958	77.94
429.181	78.94
429.403	80.94
429.625	88.94
429.847	85.94
430.069	86.94
430.292	83.94
430.514	91.94
430.736	85.94
430.958	67.94
431.18	79.94
431.402	71.94
431.624	76.94
431.846	78.94
432.068	85.94
432.29	73.94
432.512	81.94
432.734	83.94
432.956	74.94
433.178	97.94
433.4	88.94
433.622	84.94
433.844	87.94
434.066	85.94
434.287	94.94
434.509	86.94
434.731	76.94
434.953	89.94
435.175	80.94
435.397	74.94
435.618	108.94
435.84	107.94
436.062	113.94
436.284	106.94
436.505	87.94
436.727	104.94
436.949	72.94
437.17	84.94
437.392	76.94
437.614	84.94
437.835	104.94
438.057	116.94
438.278	94.94
438.5	95.94
438.721	105.94
438.943	89.94
439.165	83.94
439.386	91.94
439.608	91.94
439.829	95.94
440.05	118.94
440.272	132.94
440.493	99.94
440.715	80.94
440.936	95.94
441.158	86.94
441.379	86.94
441.6	84.94
441.822	91.94
442.043	92.94
442.264	104.94
442.486	92.94
442.707	103.94
442.928	99.94
443.149	129.94
443.371	109.94
443.592	119.94
443.813	89.94
444.034	92.94
444.255	75.94
444.476	70.94
444.698	79.94
444.919	88.94
445.14	114.94
445.361	114.94
445.582	112.94
445.803	126.94
446.024	118.94
446.245	129.94
446.466	93.94
446.687	87.94
446.908	95.94
447.129	95.94
447.35	82.94
447.571	86.94
447.792	97.94
448.013	104.94
448.234	103.94
448.455	101.94
448.675	119.94
448.896	104.94
449.117	104.94
449.338	104.94
449.559	128.94
449.779	121.94
450	75.94
450.221	77.94
450.442	71.94
450.662	95.94
450.883	93.94
451.104	110.94
451.324	85.94
451.545	88.94
451.766	79.94
451.986	76.94
452.207	81.94
452.428	92.94
452.648	95.94
452.869	94.94
453.089	112.94
453.31	101.94
453.53	95.94
453.751	95.94
453.971	100.94
454.192	107.94
454.412	83.94
454.633	90.94
454.853	89.94
455.073	92.94
455.294	94.94
455.514	76.94
455.734	60.94
455.955	80.94
456.175	74.94
456.395	64.94
456.616	80.94
456.836	97.94
457.056	88.94
457.276	77.94
457.497	79.94
457.717	71.94
457.937	93.94
458.157	83.94
458.377	85.94
458.598	108.94
458.818	140.94
459.038	152.94
459.258	110.94
459.478	97.94
459.698	84.94
459.918	90.94
460.138	110.94
460.358	74.94
460.578	96.94
460.798	87.94
461.018	80.94
461.238	75.94
461.458	70.94
461.678	72.94
461.898	74.94
462.118	80.94
462.338	81.94
462.558	82.94
462.777	93.94
462.997	82.94
463.217	75.94
463.437	71.94
463.657	76.94
463.876	78.94
464.096	86.94
464.316	92.94
464.536	98.94
464.755	88.94
464.975	112.94
465.195	151.94
465.414	164.94
465.634	96.94
465.854	72.94
466.073	90.94
466.293	95.94
466.512	81.94
466.732	89.94
466.951	82.94
467.171	79.94
467.391	79.94
467.61	105.94
467.829	97.94
468.049	129.94
468.268	153.94
468.488	88.94
468.707	74.94
468.927	77.94
469.146	70.94
469.365	73.94
469.585	86.94
469.804	97.94
470.023	88.94
470.243	86.94
470.462	89.94
470.681	102.94
470.901	88.94
471.12	68.94
471.339	81.94
471.558	97.94
471.777	95.94
471.997	94.94
472.216	205.94
472.435	359.94
472.654	152.94
472.873	90.94
473.092	73.94
473.311	100.94
473.53	66.94
473.749	68.94
473.968	73.94
474.187	92.94
474.406	99.94
474.625	69.94
474.844	85.94
475.063	71.94
475.282	80.94
475.501	71.94
475.72	82.94
475.939	98.94
476.158	83.94
476.377	69.94
476.596	73.94
476.814	89.94
477.033	86.94
477.252	90.94
477.471	86.94
477.69	83.94
477.908	85.94
478.127	88.94
478.346	90.94
478.564	94.94
478.783	94.94
479.002	108.94
479.22	95.94
479.439	90.94
479.658	100.94
479.876	95.94
480.095	82.94
480.313	80.94
480.532	108.94
480.751	96.94
480.969	207.94
481.188	603.94
481.406	390.94
481.624	118.94
481.843	97.94
482.061	99.94
482.28	88.94
482.498	97.94
482.717	72.94
482.935	80.94
483.153	76.94
483.372	92.94
483.59	80.94
483.808	89.94
484.027	83.94
484.245	78.94
484.463	96.94
484.681	72.94
484.9	89.94
485.118	90.94
485.336	76.94
485.554	96.94
485.772	101.94
485.99	101.94
486.209	80.94
486.427	73.94
486.645	104.94
486.863	102.94
487.081	79.94
487.299	91.94
487.517	93.94
487.735	89.94
487.953	84.94
488.171	82.94
488.389	91.94
488.607	98.94
488.825	96.94
489.043	88.94
489.261	93.94
489.479	86.94
489.696	91.94
489.914	87.94
490.132	82.94
490.35	85.94
490.568	90.94
490.786	110.94
491.003	97.94
491.221	84.94
491.439	84.94
491.657	79.94
491.874	83.94
492.092	95.94
492.31	83.94
492.527	81.94
492.745	89.94
492.963	87.94
493.18	75.94
493.398	84.94
493.615	83.94
493.833	77.94
494.05	80.94
494.268	93.94
494.485	70.94
494.703	84.94
494.92	89.94
495.138	82.94
495.355	92.94
495.573	81.94
495.79	90.94
496.008	90.94
496.225	89.94
496.442	65.94
496.66	97.94
496.877	90.94
497.094	89.94
497.312	91.94
497.529	76.94
497.746	92.94
497.963	101.94
498.181	88.94
498.398	83.94
498.615	88.94
498.832	79.94
499.049	79.94
499.267	82.94
499.484	78.94
499.701	89.94
499.918	83.94
500.135	83.94
500.352	84.94
500.569	97.94
500.786	93.94
501.003	104.94
501.22	89.94
501.437	80.94
501.654	85.94
501.871	99.94
502.088	80.94
502.305	92.94
502.522	78.94
502.739	86.94
502.956	96.94
503.172	82.94
503.389	91.94
503.606	97.94
503.823	95.94
504.04	94.94
504.256	102.94
504.473	102.94
504.69	90.94
504.907	95.94
505.123	94.94
505.34	92.94
505.557	91.94
505.773	76.94
505.99	82.94
506.207	108.94
506.423	86.94
506.64	83.94
506.856	91.94
507.073	81.94
507.289	81.94
507.506	106.94
507.722	118.94
507.939	117.94
508.155	91.94
508.372	81.94
508.588	88.94
508.805	103.94
509.021	90.94
509.238	110.94
509.454	87.94
509.67	88.94
509.887	119.94
510.103	130.94
510.319	226.94
510.536	776.94
510.752	2413.94
510.968	697.94
511.184	158.94
511.401	99.94
511.617	89.94
511.833	82.94
512.049	97.94
512.265	83.94
512.481	86.94
512.698	93.94
512.914	79.94
513.13	86.94
513.346	98.94
513.562	82.94
513.778	107.94
513.994	81.94
514.21	97.94
514.426	123.94
514.642	126.94
514.858	118.94
515.074	156.94
515.29	465.94
515.506	1530.94
515.721	556.94
515.937	139.94
516.153	108.94
516.369	84.94
516.585	90.94
516.801	108.94
517.016	95.94
517.232	85.94
