Data from Circ_2011_H10_HRD10591_00036.txt Node
Date: Wed Jan 03 10:08:06 EST 2024
User: Yrep
Spectrometer: HR+D1059
Trigger mode: 1
Integration Time (sec): 1.000000E-1
Scans to average: 1
Electric dark correction enabled: true
Nonlinearity correction enabled: false
Boxcar width: 0
XAxis mode: Wavelengths
Number of Pixels in Spectrum: 2048
>>>>>Begin Spectral Data<<<<<
223.165	-12.56
223.4	-12.56
223.635	-12.56
223.869	-23.56
224.104	-25.56
224.338	-13.56
224.573	-6.56
224.808	-7.56
225.042	-1.56
225.277	2.44
225.511	-4.56
225.746	-1.56
225.98	13.44
226.215	8.44
226.449	8.44
226.683	15.44
226.918	22.44
227.152	26.44
227.387	34.44
227.621	38.44
227.856	44.44
228.09	42.44
228.324	58.44
228.559	70.44
228.793	58.44
229.027	67.44
229.262	73.44
229.496	65.44
229.73	84.44
229.964	87.44
230.199	75.44
230.433	77.44
230.667	87.44
230.901	74.44
231.136	66.44
231.37	77.44
231.604	82.44
231.838	95.44
232.072	83.44
232.306	94.44
232.541	72.44
232.775	79.44
233.009	91.44
233.243	76.44
233.477	85.44
233.711	92.44
233.945	76.44
234.179	75.44
234.413	74.44
234.647	65.44
234.881	80.44
235.115	82.44
235.349	73.44
235.583	83.44
235.817	74.44
236.051	66.44
236.285	74.44
236.519	89.44
236.753	74.44
236.987	76.44
237.221	95.44
237.455	86.44
237.689	65.44
237.922	75.44
238.156	73.44
238.39	71.44
238.624	78.44
238.858	77.44
239.091	74.44
239.325	90.44
239.559	78.44
239.793	69.44
240.027	85.44
240.26	80.44
240.494	66.44
240.728	84.44
240.961	84.44
241.195	82.44
241.429	77.44
241.662	79.44
241.896	72.44
242.13	87.44
242.363	71.44
242.597	75.44
242.83	84.44
243.064	74.44
243.298	62.44
243.531	63.44
243.765	78.44
243.998	74.44
244.232	86.44
244.465	89.44
244.699	80.44
244.932	86.44
245.166	70.44
245.399	78.44
245.633	68.44
245.866	80.44
246.099	74.44
246.333	67.44
246.566	81.44
246.8	89.44
247.033	73.44
247.266	70.44
247.5	68.44
247.733	77.44
247.966	84.44
248.2	68.44
248.433	82.44
248.666	96.44
248.899	73.44
249.133	79.44
249.366	94.44
249.599	104.44
249.832	78.44
250.066	85.44
250.299	77.44
250.532	89.44
250.765	78.44
250.998	80.44
251.231	78.44
251.465	78.44
251.698	74.44
251.931	93.44
252.164	70.44
252.397	84.44
252.63	76.44
252.863	77.44
253.096	75.44
253.329	74.44
253.562	87.44
253.795	86.44
254.028	77.44
254.261	87.44
254.494	89.44
254.727	91.44
254.96	83.44
255.193	72.44
255.426	81.44
255.659	72.44
255.892	77.44
256.124	77.44
256.357	80.44
256.59	90.44
256.823	97.44
257.056	84.44
257.289	94.44
257.521	75.44
257.754	75.44
257.987	87.44
258.22	96.44
258.452	92.44
258.685	82.44
258.918	86.44
259.151	85.44
259.383	88.44
259.616	86.44
259.849	76.44
260.081	81.44
260.314	77.44
260.547	93.44
260.779	96.44
261.012	87.44
261.244	84.44
261.477	80.44
261.71	78.44
261.942	102.44
262.175	100.44
262.407	88.44
262.64	83.44
262.872	93.44
263.105	78.44
263.337	83.44
263.57	75.44
263.802	84.44
264.035	69.44
264.267	76.44
264.499	89.44
264.732	99.44
264.964	85.44
265.197	74.44
265.429	90.44
265.661	85.44
265.894	94.44
266.126	84.44
266.358	75.44
266.591	78.44
266.823	83.44
267.055	80.44
267.287	86.44
267.52	89.44
267.752	72.44
267.984	96.44
268.216	72.44
268.448	75.44
268.681	99.44
268.913	84.44
269.145	84.44
269.377	87.44
269.609	85.44
269.841	91.44
270.073	78.44
270.306	77.44
270.538	83.44
270.77	95.44
271.002	84.44
271.234	94.44
271.466	83.44
271.698	77.44
271.93	84.44
272.162	93.44
272.394	102.44
272.626	77.44
272.858	96.44
273.09	85.44
273.322	85.44
273.553	69.44
273.785	83.44
274.017	81.44
274.249	83.44
274.481	89.44
274.713	93.44
274.945	83.44
275.176	83.44
275.408	87.44
275.64	104.44
275.872	90.44
276.104	93.44
276.335	88.44
276.567	95.44
276.799	94.44
277.031	98.44
277.262	87.44
277.494	83.44
277.726	72.44
277.957	102.44
278.189	70.44
278.421	81.44
278.652	86.44
278.884	93.44
279.115	83.44
279.347	87.44
279.579	83.44
279.81	72.44
280.042	91.44
280.273	94.44
280.505	85.44
280.736	86.44
280.968	86.44
281.199	71.44
281.431	74.44
281.662	70.44
281.894	95.44
282.125	107.44
282.356	129.44
282.588	127.44
282.819	108.44
283.051	79.44
283.282	74.44
283.513	95.44
283.745	97.44
283.976	86.44
284.207	74.44
284.439	81.44
284.67	91.44
284.901	78.44
285.132	85.44
285.364	89.44
285.595	84.44
285.826	84.44
286.057	97.44
286.288	82.44
286.52	88.44
286.751	85.44
286.982	85.44
287.213	78.44
287.444	72.44
287.675	75.44
287.906	94.44
288.138	93.44
288.369	86.44
288.6	88.44
288.831	69.44
289.062	84.44
289.293	83.44
289.524	77.44
289.755	90.44
289.986	94.44
290.217	89.44
290.448	79.44
290.679	92.44
290.91	93.44
291.141	75.44
291.371	64.44
291.602	81.44
291.833	90.44
292.064	83.44
292.295	81.44
292.526	80.44
292.757	95.44
292.987	104.44
293.218	100.44
293.449	83.44
293.68	89.44
293.91	87.44
294.141	86.44
294.372	74.44
294.603	78.44
294.833	104.44
295.064	94.44
295.295	83.44
295.525	86.44
295.756	91.44
295.987	114.44
296.217	139.44
296.448	130.44
296.679	92.44
296.909	76.44
297.14	90.44
297.37	85.44
297.601	95.44
297.831	87.44
298.062	87.44
298.292	94.44
298.523	97.44
298.753	87.44
298.984	83.44
299.214	92.44
299.445	83.44
299.675	99.44
299.905	84.44
300.136	90.44
300.366	96.44
300.597	84.44
300.827	88.44
301.057	104.44
301.288	98.44
301.518	83.44
301.748	86.44
301.979	111.44
302.209	97.44
302.439	87.44
302.669	86.44
302.9	85.44
303.13	88.44
303.36	107.44
303.59	106.44
303.82	101.44
304.051	82.44
304.281	98.44
304.511	96.44
304.741	95.44
304.971	90.44
305.201	71.44
305.431	87.44
305.661	91.44
305.891	95.44
306.121	98.44
306.352	98.44
306.582	105.44
306.812	92.44
307.042	98.44
307.272	87.44
307.502	93.44
307.731	102.44
307.961	89.44
308.191	79.44
308.421	94.44
308.651	91.44
308.881	86.44
309.111	75.44
309.341	92.44
309.571	110.44
309.8	107.44
310.03	105.44
310.26	90.44
310.49	81.44
310.72	95.44
310.949	91.44
311.179	103.44
311.409	86.44
311.639	96.44
311.868	99.44
312.098	90.44
312.328	98.44
312.557	96.44
312.787	91.44
313.017	86.44
313.246	86.44
313.476	98.44
313.706	71.44
313.935	83.44
314.165	99.44
314.394	87.44
314.624	92.44
314.853	105.44
315.083	101.44
315.312	104.44
315.542	83.44
315.771	82.44
316.001	89.44
316.23	92.44
316.46	74.44
316.689	90.44
316.919	89.44
317.148	91.44
317.377	98.44
317.607	120.44
317.836	91.44
318.065	83.44
318.295	96.44
318.524	98.44
318.753	78.44
318.983	90.44
319.212	101.44
319.441	90.44
319.67	99.44
319.9	95.44
320.129	106.44
320.358	83.44
320.587	95.44
320.816	105.44
321.046	104.44
321.275	104.44
321.504	85.44
321.733	83.44
321.962	89.44
322.191	102.44
322.42	110.44
322.649	105.44
322.878	109.44
323.108	126.44
323.337	116.44
323.566	138.44
323.795	154.44
324.024	225.44
324.253	402.44
324.482	898.44
324.71	1802.44
324.939	2373.44
325.168	863.44
325.397	246.44
325.626	149.44
325.855	129.44
326.084	118.44
326.313	132.44
326.542	148.44
326.77	249.44
326.999	489.44
327.228	1014.44
327.457	1833.44
327.686	1436.44
327.914	372.44
328.143	214.44
328.372	185.44
328.6	144.44
328.829	133.44
329.058	133.44
329.287	126.44
329.515	123.44
329.744	114.44
329.972	134.44
330.201	178.44
330.43	214.44
330.658	155.44
330.887	138.44
331.115	129.44
331.344	115.44
331.572	94.44
331.801	96.44
332.03	104.44
332.258	106.44
332.486	100.44
332.715	88.44
332.943	84.44
333.172	80.44
333.4	102.44
333.629	105.44
333.857	110.44
334.085	121.44
334.314	175.44
334.542	248.44
334.771	243.44
334.999	129.44
335.227	97.44
335.455	104.44
335.684	88.44
335.912	89.44
336.14	97.44
336.369	89.44
336.597	89.44
336.825	84.44
337.053	94.44
337.281	90.44
337.51	88.44
337.738	87.44
337.966	76.44
338.194	107.44
338.422	81.44
338.65	94.44
338.878	80.44
339.106	89.44
339.334	108.44
339.562	90.44
339.79	92.44
340.018	84.44
340.246	93.44
340.474	91.44
340.702	104.44
340.93	103.44
341.158	103.44
341.386	83.44
341.614	95.44
341.842	87.44
342.07	86.44
342.298	97.44
342.526	95.44
342.754	73.44
342.981	84.44
343.209	75.44
343.437	90.44
343.665	92.44
343.893	98.44
344.12	86.44
344.348	86.44
344.576	91.44
344.804	88.44
345.031	99.44
345.259	96.44
345.487	93.44
345.714	74.44
345.942	83.44
346.17	80.44
346.397	94.44
346.625	90.44
346.853	85.44
347.08	90.44
347.308	88.44
347.535	94.44
347.763	94.44
347.99	99.44
348.218	102.44
348.445	108.44
348.673	99.44
348.9	106.44
349.128	104.44
349.355	87.44
349.583	89.44
349.81	98.44
350.037	83.44
350.265	92.44
350.492	89.44
350.72	81.44
350.947	95.44
351.174	104.44
351.402	101.44
351.629	103.44
351.856	100.44
352.083	102.44
352.311	91.44
352.538	100.44
352.765	113.44
352.992	104.44
353.22	107.44
353.447	98.44
353.674	102.44
353.901	99.44
354.128	79.44
354.355	98.44
354.583	87.44
354.81	99.44
355.037	90.44
355.264	99.44
355.491	87.44
355.718	83.44
355.945	96.44
356.172	86.44
356.399	109.44
356.626	99.44
356.853	95.44
357.08	88.44
357.307	92.44
357.534	94.44
357.761	92.44
357.988	93.44
358.215	98.44
358.441	102.44
358.668	104.44
358.895	102.44
359.122	92.44
359.349	81.44
359.576	91.44
359.802	109.44
360.029	99.44
360.256	119.44
360.483	90.44
360.709	77.44
360.936	102.44
361.163	93.44
361.39	98.44
361.616	96.44
361.843	82.44
362.07	86.44
362.296	92.44
362.523	90.44
362.749	86.44
362.976	88.44
363.203	93.44
363.429	90.44
363.656	92.44
363.882	80.44
364.109	88.44
364.335	92.44
364.562	92.44
364.788	86.44
365.015	79.44
365.241	112.44
365.468	108.44
365.694	103.44
365.92	110.44
366.147	79.44
366.373	79.44
366.599	87.44
366.826	83.44
367.052	93.44
367.278	91.44
367.505	94.44
367.731	94.44
367.957	78.44
368.184	98.44
368.41	85.44
368.636	110.44
368.862	111.44
369.089	108.44
369.315	105.44
369.541	97.44
369.767	77.44
369.993	88.44
370.219	86.44
370.445	92.44
370.672	91.44
370.898	91.44
371.124	92.44
371.35	71.44
371.576	80.44
371.802	95.44
372.028	91.44
372.254	84.44
372.48	85.44
372.706	89.44
372.932	84.44
373.158	94.44
373.384	83.44
373.61	90.44
373.835	97.44
374.061	91.44
374.287	86.44
374.513	92.44
374.739	69.44
374.965	95.44
375.191	97.44
375.416	84.44
375.642	88.44
375.868	95.44
376.094	96.44
376.319	89.44
376.545	84.44
376.771	87.44
376.997	102.44
377.222	93.44
377.448	83.44
377.674	75.44
377.899	91.44
378.125	79.44
378.35	94.44
378.576	91.44
378.802	91.44
379.027	93.44
379.253	84.44
379.478	74.44
379.704	85.44
379.929	92.44
380.155	105.44
380.38	98.44
380.606	92.44
380.831	83.44
381.057	79.44
381.282	88.44
381.507	86.44
381.733	92.44
381.958	115.44
382.184	92.44
382.409	88.44
382.634	91.44
382.86	107.44
383.085	101.44
383.31	90.44
383.535	97.44
383.761	82.44
383.986	92.44
384.211	92.44
384.436	86.44
384.662	91.44
384.887	92.44
385.112	82.44
385.337	94.44
385.562	99.44
385.787	104.44
386.013	94.44
386.238	100.44
386.463	90.44
386.688	109.44
386.913	85.44
387.138	87.44
387.363	97.44
387.588	93.44
387.813	100.44
388.038	84.44
388.263	112.44
388.488	94.44
388.713	95.44
388.938	94.44
389.163	94.44
389.387	84.44
389.612	99.44
389.837	96.44
390.062	91.44
390.287	95.44
390.512	85.44
390.736	88.44
390.961	91.44
391.186	90.44
391.411	86.44
391.636	107.44
391.86	81.44
392.085	99.44
392.31	86.44
392.534	93.44
392.759	88.44
392.984	84.44
393.208	91.44
393.433	82.44
393.658	73.44
393.882	85.44
394.107	98.44
394.331	96.44
394.556	71.44
394.78	79.44
395.005	98.44
395.229	79.44
395.454	80.44
395.678	89.44
395.903	78.44
396.127	81.44
396.352	91.44
396.576	94.44
396.801	72.44
397.025	78.44
397.249	86.44
397.474	87.44
397.698	74.44
397.922	93.44
398.147	87.44
398.371	93.44
398.595	94.44
398.82	74.44
399.044	84.44
399.268	92.44
399.492	91.44
399.717	87.44
399.941	101.44
400.165	102.44
400.389	84.44
400.613	76.44
400.837	80.44
401.062	98.44
401.286	91.44
401.51	88.44
401.734	93.44
401.958	99.44
402.182	115.44
402.406	146.44
402.63	112.44
402.854	90.44
403.078	86.44
403.302	89.44
403.526	91.44
403.75	93.44
403.974	93.44
404.198	94.44
404.422	99.44
404.645	80.44
404.869	95.44
405.093	106.44
405.317	117.44
405.541	99.44
405.765	100.44
405.988	120.44
406.212	161.44
406.436	197.44
406.66	142.44
406.883	99.44
407.107	85.44
407.331	99.44
407.555	109.44
407.778	93.44
408.002	93.44
408.226	87.44
408.449	90.44
408.673	83.44
408.896	83.44
409.12	101.44
409.344	84.44
409.567	95.44
409.791	81.44
410.014	88.44
410.238	98.44
410.461	91.44
410.685	87.44
410.908	103.44
411.132	100.44
411.355	100.44
411.578	82.44
411.802	87.44
412.025	99.44
412.249	106.44
412.472	101.44
412.695	109.44
412.919	87.44
413.142	93.44
413.365	88.44
413.589	87.44
413.812	70.44
414.035	95.44
414.258	85.44
414.482	92.44
414.705	90.44
414.928	82.44
415.151	87.44
415.374	95.44
415.597	101.44
415.821	80.44
416.044	85.44
416.267	87.44
416.49	89.44
416.713	84.44
416.936	67.44
417.159	89.44
417.382	106.44
417.605	83.44
417.828	84.44
418.051	90.44
418.274	85.44
418.497	86.44
418.72	96.44
418.943	92.44
419.166	102.44
419.389	90.44
419.611	75.44
419.834	81.44
420.057	99.44
420.28	95.44
420.503	75.44
420.726	87.44
420.948	81.44
421.171	89.44
421.394	83.44
421.617	92.44
421.839	80.44
422.062	80.44
422.285	89.44
422.507	87.44
422.73	90.44
422.953	96.44
423.175	93.44
423.398	90.44
423.621	94.44
423.843	90.44
424.066	85.44
424.288	98.44
424.511	96.44
424.733	105.44
424.956	111.44
425.178	100.44
425.401	101.44
425.623	96.44
425.846	83.44
426.068	84.44
426.291	82.44
426.513	96.44
426.735	77.44
426.958	101.44
427.18	100.44
427.402	154.44
427.625	179.44
427.847	142.44
428.069	133.44
428.292	103.44
428.514	91.44
428.736	89.44
428.958	82.44
429.181	80.44
429.403	83.44
429.625	90.44
429.847	89.44
430.069	124.44
430.292	110.44
430.514	98.44
430.736	86.44
430.958	80.44
431.18	83.44
431.402	87.44
431.624	88.44
431.846	84.44
432.068	90.44
432.29	72.44
432.512	87.44
432.734	80.44
432.956	98.44
433.178	98.44
433.4	101.44
433.622	90.44
433.844	83.44
434.066	90.44
434.287	89.44
434.509	85.44
434.731	80.44
434.953	83.44
435.175	98.44
435.397	95.44
435.618	100.44
435.84	99.44
436.062	120.44
436.284	126.44
436.505	106.44
436.727	95.44
436.949	91.44
437.17	72.44
437.392	81.44
437.614	100.44
437.835	113.44
438.057	126.44
438.278	116.44
438.5	110.44
438.721	119.44
438.943	113.44
439.165	79.44
439.386	94.44
439.608	82.44
439.829	92.44
440.05	119.44
440.272	152.44
440.493	103.44
440.715	88.44
440.936	90.44
441.158	88.44
441.379	91.44
441.6	89.44
441.822	98.44
442.043	96.44
442.264	104.44
442.486	96.44
442.707	91.44
442.928	89.44
443.149	129.44
443.371	133.44
443.592	102.44
443.813	132.44
444.034	103.44
444.255	84.44
444.476	80.44
444.698	70.44
444.919	97.44
445.14	130.44
445.361	107.44
445.582	120.44
445.803	143.44
446.024	136.44
446.245	146.44
446.466	109.44
446.687	81.44
446.908	76.44
447.129	90.44
447.35	85.44
447.571	88.44
447.792	95.44
448.013	107.44
448.234	117.44
448.455	108.44
448.675	121.44
448.896	133.44
449.117	99.44
449.338	110.44
449.559	133.44
449.779	145.44
450	102.44
450.221	87.44
450.442	85.44
450.662	107.44
450.883	96.44
451.104	104.44
451.324	83.44
451.545	82.44
451.766	86.44
451.986	78.44
452.207	74.44
452.428	103.44
452.648	93.44
452.869	107.44
453.089	106.44
453.31	118.44
453.53	78.44
453.751	91.44
453.971	108.44
454.192	111.44
454.412	103.44
454.633	98.44
454.853	97.44
455.073	82.44
455.294	101.44
455.514	106.44
455.734	78.44
455.955	95.44
456.175	75.44
456.395	91.44
456.616	83.44
456.836	74.44
457.056	87.44
457.276	84.44
457.497	80.44
457.717	94.44
457.937	84.44
458.157	84.44
458.377	103.44
458.598	111.44
458.818	151.44
459.038	148.44
459.258	115.44
459.478	80.44
459.698	82.44
459.918	101.44
460.138	93.44
460.358	85.44
460.578	80.44
460.798	80.44
461.018	90.44
461.238	86.44
461.458	72.44
461.678	74.44
461.898	89.44
462.118	85.44
462.338	78.44
462.558	88.44
462.777	92.44
462.997	84.44
463.217	83.44
463.437	100.44
463.657	79.44
463.876	94.44
464.096	84.44
464.316	90.44
464.536	98.44
464.755	82.44
464.975	105.44
465.195	162.44
465.414	155.44
465.634	99.44
465.854	83.44
466.073	101.44
466.293	90.44
466.512	72.44
466.732	78.44
466.951	87.44
467.171	90.44
467.391	94.44
467.61	85.44
467.829	95.44
468.049	137.44
468.268	151.44
468.488	90.44
468.707	93.44
468.927	86.44
469.146	76.44
469.365	88.44
469.585	80.44
469.804	82.44
470.023	98.44
470.243	86.44
470.462	98.44
470.681	93.44
470.901	90.44
471.12	94.44
471.339	89.44
471.558	73.44
471.777	92.44
471.997	114.44
472.216	194.44
472.435	283.44
472.654	120.44
472.873	96.44
473.092	77.44
473.311	83.44
473.53	77.44
473.749	96.44
473.968	89.44
474.187	118.44
474.406	95.44
474.625	76.44
474.844	93.44
475.063	77.44
475.282	92.44
475.501	83.44
475.72	91.44
475.939	89.44
476.158	78.44
476.377	71.44
476.596	86.44
476.814	86.44
477.033	89.44
477.252	95.44
477.471	94.44
477.69	85.44
477.908	85.44
478.127	93.44
478.346	87.44
478.564	89.44
478.783	92.44
479.002	91.44
479.22	96.44
479.439	101.44
479.658	82.44
479.876	80.44
480.095	93.44
480.313	99.44
480.532	101.44
480.751	102.44
480.969	193.44
481.188	487.44
481.406	322.44
481.624	116.44
481.843	86.44
482.061	96.44
482.28	85.44
482.498	85.44
482.717	92.44
482.935	88.44
483.153	90.44
483.372	107.44
483.59	75.44
483.808	90.44
484.027	89.44
484.245	95.44
484.463	86.44
484.681	86.44
484.9	95.44
485.118	98.44
485.336	95.44
485.554	99.44
485.772	92.44
485.99	104.44
486.209	108.44
486.427	101.44
486.645	108.44
486.863	114.44
487.081	108.44
487.299	86.44
487.517	98.44
487.735	98.44
487.953	106.44
488.171	93.44
488.389	93.44
488.607	98.44
488.825	96.44
489.043	98.44
489.261	96.44
489.479	90.44
489.696	77.44
489.914	104.44
490.132	95.44
490.35	78.44
490.568	90.44
490.786	95.44
491.003	87.44
491.221	95.44
491.439	108.44
491.657	86.44
491.874	80.44
492.092	98.44
492.31	89.44
492.527	71.44
492.745	102.44
492.963	97.44
493.18	98.44
493.398	90.44
493.615	94.44
493.833	76.44
494.05	78.44
494.268	85.44
494.485	98.44
494.703	78.44
494.92	98.44
495.138	103.44
495.355	87.44
495.573	95.44
495.79	94.44
496.008	100.44
496.225	93.44
496.442	95.44
496.66	89.44
496.877	85.44
497.094	103.44
497.312	86.44
497.529	82.44
497.746	92.44
497.963	90.44
498.181	100.44
498.398	90.44
498.615	114.44
498.832	109.44
499.049	80.44
499.267	99.44
499.484	94.44
499.701	77.44
499.918	94.44
500.135	100.44
500.352	79.44
500.569	91.44
500.786	94.44
501.003	86.44
501.22	99.44
501.437	106.44
501.654	97.44
501.871	103.44
502.088	80.44
502.305	84.44
502.522	93.44
502.739	91.44
502.956	92.44
503.172	93.44
503.389	98.44
503.606	111.44
503.823	101.44
504.04	80.44
504.256	98.44
504.473	87.44
504.69	92.44
504.907	98.44
505.123	87.44
505.34	94.44
505.557	86.44
505.773	91.44
505.99	88.44
506.207	87.44
506.423	88.44
506.64	98.44
506.856	95.44
507.073	75.44
507.289	72.44
507.506	89.44
507.722	117.44
507.939	103.44
508.155	88.44
508.372	100.44
508.588	88.44
508.805	87.44
509.021	97.44
509.238	92.44
509.454	91.44
509.67	103.44
509.887	109.44
510.103	125.44
510.319	188.44
510.536	663.44
510.752	2109.44
510.968	620.44
511.184	160.44
511.401	107.44
511.617	95.44
511.833	92.44
512.049	102.44
512.265	73.44
512.481	96.44
512.698	90.44
512.914	103.44
513.13	84.44
513.346	92.44
513.562	91.44
513.778	97.44
513.994	103.44
514.21	104.44
514.426	106.44
514.642	144.44
514.858	124.44
515.074	162.44
515.29	425.44
515.506	1324.44
515.721	514.44
515.937	134.44
