Data from Circ_2011_H10_HRD10591_00065.txt Node
Date: Wed Jan 03 10:08:12 EST 2024
User: Yrep
Spectrometer: HR+D1059
Trigger mode: 1
Integration Time (sec): 1.000000E-1
Scans to average: 1
Electric dark correction enabled: true
Nonlinearity correction enabled: false
Boxcar width: 0
XAxis mode: Wavelengths
Number of Pixels in Spectrum: 2048
>>>>>Begin Spectral Data<<<<<
223.165	-7.25
223.4	-7.25
223.635	-7.25
223.869	-26.25
224.104	-24.25
224.338	-13.25
224.573	-24.25
224.808	-11.25
225.042	2.75
225.277	3.75
225.511	-6.25
225.746	-1.25
225.98	1.75
226.215	14.75
226.449	16.75
226.683	16.75
226.918	33.75
227.152	23.75
227.387	36.75
227.621	27.75
227.856	42.75
228.09	33.75
228.324	60.75
228.559	58.75
228.793	46.75
229.027	75.75
229.262	75.75
229.496	87.75
229.73	93.75
229.964	101.75
230.199	73.75
230.433	76.75
230.667	91.75
230.901	87.75
231.136	67.75
231.37	77.75
231.604	69.75
231.838	67.75
232.072	86.75
232.306	81.75
232.541	82.75
232.775	71.75
233.009	75.75
233.243	83.75
233.477	72.75
233.711	78.75
233.945	76.75
234.179	75.75
234.413	91.75
234.647	77.75
234.881	78.75
235.115	74.75
235.349	65.75
235.583	74.75
235.817	92.75
236.051	87.75
236.285	67.75
236.519	74.75
236.753	78.75
236.987	70.75
237.221	86.75
237.455	89.75
237.689	82.75
237.922	74.75
238.156	76.75
238.39	84.75
238.624	86.75
238.858	70.75
239.091	75.75
239.325	90.75
239.559	84.75
239.793	72.75
240.027	67.75
240.26	82.75
240.494	87.75
240.728	69.75
240.961	76.75
241.195	58.75
241.429	69.75
241.662	71.75
241.896	84.75
242.13	71.75
242.363	77.75
242.597	71.75
242.83	89.75
243.064	77.75
243.298	83.75
243.531	87.75
243.765	89.75
243.998	89.75
244.232	82.75
244.465	79.75
244.699	83.75
244.932	81.75
245.166	74.75
245.399	87.75
245.633	85.75
245.866	80.75
246.099	74.75
246.333	78.75
246.566	70.75
246.8	62.75
247.033	86.75
247.266	91.75
247.5	83.75
247.733	92.75
247.966	86.75
248.2	83.75
248.433	68.75
248.666	66.75
248.899	84.75
249.133	79.75
249.366	101.75
249.599	92.75
249.832	87.75
250.066	83.75
250.299	69.75
250.532	72.75
250.765	80.75
250.998	90.75
251.231	70.75
251.465	75.75
251.698	87.75
251.931	82.75
252.164	84.75
252.397	71.75
252.63	80.75
252.863	61.75
253.096	73.75
253.329	89.75
253.562	91.75
253.795	78.75
254.028	78.75
254.261	83.75
254.494	74.75
254.727	86.75
254.96	76.75
255.193	68.75
255.426	84.75
255.659	75.75
255.892	80.75
256.124	87.75
256.357	73.75
256.59	76.75
256.823	78.75
257.056	70.75
257.289	85.75
257.521	78.75
257.754	77.75
257.987	84.75
258.22	84.75
258.452	83.75
258.685	81.75
258.918	79.75
259.151	89.75
259.383	96.75
259.616	83.75
259.849	86.75
260.081	77.75
260.314	86.75
260.547	81.75
260.779	79.75
261.012	89.75
261.244	93.75
261.477	78.75
261.71	90.75
261.942	114.75
262.175	116.75
262.407	80.75
262.64	82.75
262.872	82.75
263.105	93.75
263.337	91.75
263.57	73.75
263.802	97.75
264.035	83.75
264.267	76.75
264.499	79.75
264.732	78.75
264.964	94.75
265.197	80.75
265.429	56.75
265.661	91.75
265.894	82.75
266.126	87.75
266.358	80.75
266.591	88.75
266.823	81.75
267.055	77.75
267.287	90.75
267.52	84.75
267.752	86.75
267.984	79.75
268.216	84.75
268.448	84.75
268.681	69.75
268.913	91.75
269.145	86.75
269.377	95.75
269.609	93.75
269.841	91.75
270.073	86.75
270.306	78.75
270.538	93.75
270.77	92.75
271.002	88.75
271.234	84.75
271.466	82.75
271.698	95.75
271.93	94.75
272.162	85.75
272.394	93.75
272.626	94.75
272.858	87.75
273.09	92.75
273.322	77.75
273.553	90.75
273.785	77.75
274.017	85.75
274.249	88.75
274.481	91.75
274.713	86.75
274.945	87.75
275.176	77.75
275.408	89.75
275.64	83.75
275.872	87.75
276.104	85.75
276.335	86.75
276.567	94.75
276.799	117.75
277.031	111.75
277.262	89.75
277.494	112.75
277.726	106.75
277.957	90.75
278.189	79.75
278.421	86.75
278.652	88.75
278.884	92.75
279.115	87.75
279.347	94.75
279.579	80.75
279.81	87.75
280.042	94.75
280.273	121.75
280.505	107.75
280.736	76.75
280.968	83.75
281.199	86.75
281.431	107.75
281.662	79.75
281.894	81.75
282.125	99.75
282.356	115.75
282.588	146.75
282.819	116.75
283.051	80.75
283.282	94.75
283.513	95.75
283.745	82.75
283.976	68.75
284.207	91.75
284.439	99.75
284.67	84.75
284.901	86.75
285.132	89.75
285.364	74.75
285.595	79.75
285.826	94.75
286.057	83.75
286.288	94.75
286.52	86.75
286.751	75.75
286.982	74.75
287.213	88.75
287.444	93.75
287.675	86.75
287.906	92.75
288.138	76.75
288.369	82.75
288.6	95.75
288.831	91.75
289.062	95.75
289.293	103.75
289.524	87.75
289.755	82.75
289.986	87.75
290.217	86.75
290.448	89.75
290.679	95.75
290.91	90.75
291.141	87.75
291.371	90.75
291.602	91.75
291.833	77.75
292.064	78.75
292.295	99.75
292.526	92.75
292.757	91.75
292.987	78.75
293.218	95.75
293.449	80.75
293.68	89.75
293.91	82.75
294.141	95.75
294.372	90.75
294.603	79.75
294.833	100.75
295.064	96.75
295.295	79.75
295.525	81.75
295.756	85.75
295.987	117.75
296.217	137.75
296.448	126.75
296.679	83.75
296.909	99.75
297.14	101.75
297.37	96.75
297.601	86.75
297.831	90.75
298.062	80.75
298.292	93.75
298.523	92.75
298.753	83.75
298.984	84.75
299.214	103.75
299.445	87.75
299.675	99.75
299.905	88.75
300.136	79.75
300.366	74.75
300.597	100.75
300.827	86.75
301.057	88.75
301.288	89.75
301.518	100.75
301.748	92.75
301.979	102.75
302.209	85.75
302.439	95.75
302.669	87.75
302.9	89.75
303.13	91.75
303.36	96.75
303.59	106.75
303.82	118.75
304.051	85.75
304.281	94.75
304.511	94.75
304.741	86.75
304.971	73.75
305.201	76.75
305.431	82.75
305.661	93.75
305.891	85.75
306.121	95.75
306.352	91.75
306.582	94.75
306.812	93.75
307.042	93.75
307.272	87.75
307.502	100.75
307.731	97.75
307.961	98.75
308.191	88.75
308.421	95.75
308.651	116.75
308.881	90.75
309.111	86.75
309.341	88.75
309.571	94.75
309.8	101.75
310.03	93.75
310.26	92.75
310.49	100.75
310.72	112.75
310.949	103.75
311.179	100.75
311.409	89.75
311.639	89.75
311.868	95.75
312.098	91.75
312.328	88.75
312.557	102.75
312.787	101.75
313.017	97.75
313.246	102.75
313.476	81.75
313.706	84.75
313.935	101.75
314.165	87.75
314.394	105.75
314.624	107.75
314.853	108.75
315.083	94.75
315.312	94.75
315.542	87.75
315.771	91.75
316.001	101.75
316.23	92.75
316.46	83.75
316.689	87.75
316.919	98.75
317.148	89.75
317.377	87.75
317.607	92.75
317.836	98.75
318.065	88.75
318.295	84.75
318.524	84.75
318.753	91.75
318.983	104.75
319.212	101.75
319.441	111.75
319.67	107.75
319.9	84.75
320.129	92.75
320.358	94.75
320.587	88.75
320.816	93.75
321.046	95.75
321.275	104.75
321.504	106.75
321.733	103.75
321.962	93.75
322.191	100.75
322.42	111.75
322.649	118.75
322.878	106.75
323.108	132.75
323.337	127.75
323.566	148.75
323.795	160.75
324.024	220.75
324.253	438.75
324.482	952.75
324.71	2018.75
324.939	2617.75
325.168	936.75
325.397	278.75
325.626	161.75
325.855	141.75
326.084	130.75
326.313	143.75
326.542	163.75
326.77	250.75
326.999	548.75
327.228	1144.75
327.457	2060.75
327.686	1666.75
327.914	449.75
328.143	246.75
328.372	231.75
328.6	186.75
328.829	148.75
329.058	138.75
329.287	141.75
329.515	128.75
329.744	130.75
329.972	170.75
330.201	256.75
330.43	331.75
330.658	209.75
330.887	175.75
331.115	114.75
331.344	118.75
331.572	120.75
331.801	100.75
332.03	100.75
332.258	94.75
332.486	86.75
332.715	96.75
332.943	102.75
333.172	109.75
333.4	97.75
333.629	117.75
333.857	127.75
334.085	168.75
334.314	244.75
334.542	412.75
334.771	389.75
334.999	147.75
335.227	104.75
335.455	103.75
335.684	99.75
335.912	101.75
336.14	98.75
336.369	98.75
336.597	103.75
336.825	102.75
337.053	100.75
337.281	85.75
337.51	80.75
337.738	91.75
337.966	91.75
338.194	89.75
338.422	104.75
338.65	88.75
338.878	88.75
339.106	73.75
339.334	96.75
339.562	91.75
339.79	87.75
340.018	91.75
340.246	90.75
340.474	86.75
340.702	97.75
340.93	93.75
341.158	78.75
341.386	101.75
341.614	92.75
341.842	74.75
342.07	92.75
342.298	102.75
342.526	85.75
342.754	79.75
342.981	85.75
343.209	87.75
343.437	92.75
343.665	95.75
343.893	79.75
344.12	103.75
344.348	86.75
344.576	91.75
344.804	87.75
345.031	107.75
345.259	100.75
345.487	100.75
345.714	83.75
345.942	85.75
346.17	85.75
346.397	92.75
346.625	98.75
346.853	102.75
347.08	84.75
347.308	93.75
347.535	100.75
347.763	99.75
347.99	109.75
348.218	100.75
348.445	92.75
348.673	100.75
348.9	94.75
349.128	91.75
349.355	90.75
349.583	105.75
349.81	99.75
350.037	95.75
350.265	94.75
350.492	103.75
350.72	107.75
350.947	113.75
351.174	108.75
351.402	110.75
351.629	101.75
351.856	87.75
352.083	102.75
352.311	114.75
352.538	104.75
352.765	98.75
352.992	109.75
353.22	118.75
353.447	100.75
353.674	97.75
353.901	94.75
354.128	101.75
354.355	74.75
354.583	77.75
354.81	100.75
355.037	94.75
355.264	92.75
355.491	81.75
355.718	98.75
355.945	108.75
356.172	91.75
356.399	103.75
356.626	97.75
356.853	93.75
357.08	97.75
357.307	99.75
357.534	98.75
357.761	100.75
357.988	92.75
358.215	90.75
358.441	96.75
358.668	98.75
358.895	85.75
359.122	90.75
359.349	96.75
359.576	93.75
359.802	108.75
360.029	116.75
360.256	114.75
360.483	90.75
360.709	93.75
360.936	112.75
361.163	98.75
361.39	105.75
361.616	97.75
361.843	98.75
362.07	84.75
362.296	94.75
362.523	89.75
362.749	74.75
362.976	99.75
363.203	89.75
363.429	75.75
363.656	90.75
363.882	83.75
364.109	89.75
364.335	90.75
364.562	90.75
364.788	86.75
365.015	91.75
365.241	109.75
365.468	117.75
365.694	107.75
365.92	95.75
366.147	108.75
366.373	90.75
366.599	86.75
366.826	74.75
367.052	79.75
367.278	94.75
367.505	84.75
367.731	99.75
367.957	91.75
368.184	93.75
368.41	98.75
368.636	115.75
368.862	120.75
369.089	107.75
369.315	88.75
369.541	91.75
369.767	87.75
369.993	93.75
370.219	93.75
370.445	98.75
370.672	82.75
370.898	69.75
371.124	91.75
371.35	103.75
371.576	78.75
371.802	93.75
372.028	80.75
372.254	89.75
372.48	85.75
372.706	88.75
372.932	88.75
373.158	97.75
373.384	105.75
373.61	83.75
373.835	94.75
374.061	84.75
374.287	95.75
374.513	86.75
374.739	86.75
374.965	72.75
375.191	66.75
375.416	87.75
375.642	79.75
375.868	93.75
376.094	89.75
376.319	86.75
376.545	71.75
376.771	88.75
376.997	83.75
377.222	99.75
377.448	95.75
377.674	76.75
377.899	85.75
378.125	99.75
378.35	91.75
378.576	92.75
378.802	87.75
379.027	96.75
379.253	99.75
379.478	93.75
379.704	84.75
379.929	93.75
380.155	82.75
380.38	93.75
380.606	98.75
380.831	80.75
381.057	99.75
381.282	91.75
381.507	88.75
381.733	97.75
381.958	84.75
382.184	99.75
382.409	92.75
382.634	98.75
382.86	90.75
383.085	85.75
383.31	99.75
383.535	101.75
383.761	96.75
383.986	94.75
384.211	86.75
384.436	88.75
384.662	90.75
384.887	92.75
385.112	94.75
385.337	100.75
385.562	94.75
385.787	91.75
386.013	105.75
386.238	99.75
386.463	99.75
386.688	102.75
386.913	91.75
387.138	91.75
387.363	86.75
387.588	97.75
387.813	88.75
388.038	100.75
388.263	114.75
388.488	90.75
388.713	91.75
388.938	91.75
389.163	88.75
389.387	94.75
389.612	84.75
389.837	83.75
390.062	97.75
390.287	90.75
390.512	73.75
390.736	88.75
390.961	101.75
391.186	83.75
391.411	101.75
391.636	90.75
391.86	79.75
392.085	88.75
392.31	74.75
392.534	78.75
392.759	89.75
392.984	90.75
393.208	93.75
393.433	74.75
393.658	74.75
393.882	67.75
394.107	98.75
394.331	87.75
394.556	79.75
394.78	80.75
395.005	98.75
395.229	91.75
395.454	103.75
395.678	86.75
395.903	80.75
396.127	80.75
396.352	74.75
396.576	91.75
396.801	102.75
397.025	92.75
397.249	79.75
397.474	78.75
397.698	94.75
397.922	78.75
398.147	84.75
398.371	90.75
398.595	80.75
398.82	98.75
399.044	92.75
399.268	90.75
399.492	86.75
399.717	90.75
399.941	84.75
400.165	91.75
400.389	100.75
400.613	90.75
400.837	88.75
401.062	103.75
401.286	91.75
401.51	82.75
401.734	95.75
401.958	91.75
402.182	135.75
402.406	156.75
402.63	125.75
402.854	92.75
403.078	84.75
403.302	98.75
403.526	78.75
403.75	80.75
403.974	87.75
404.198	100.75
404.422	75.75
404.645	79.75
404.869	104.75
405.093	120.75
405.317	116.75
405.541	107.75
405.765	101.75
405.988	128.75
406.212	180.75
406.436	252.75
406.66	155.75
406.883	106.75
407.107	104.75
407.331	98.75
407.555	108.75
407.778	95.75
408.002	83.75
408.226	89.75
408.449	92.75
408.673	88.75
408.896	104.75
409.12	109.75
409.344	88.75
409.567	98.75
409.791	93.75
410.014	90.75
410.238	84.75
410.461	84.75
410.685	91.75
410.908	78.75
411.132	94.75
411.355	95.75
411.578	99.75
411.802	98.75
412.025	87.75
412.249	88.75
412.472	93.75
412.695	112.75
412.919	105.75
413.142	81.75
413.365	92.75
413.589	88.75
413.812	96.75
414.035	86.75
414.258	95.75
414.482	84.75
414.705	90.75
414.928	92.75
415.151	77.75
415.374	88.75
415.597	97.75
415.821	95.75
416.044	92.75
416.267	96.75
416.49	92.75
416.713	83.75
416.936	87.75
417.159	87.75
417.382	79.75
417.605	79.75
417.828	92.75
418.051	84.75
418.274	87.75
418.497	89.75
418.72	83.75
418.943	94.75
419.166	77.75
419.389	89.75
419.611	92.75
419.834	91.75
420.057	91.75
420.28	87.75
420.503	91.75
420.726	86.75
420.948	78.75
421.171	116.75
421.394	94.75
421.617	90.75
421.839	101.75
422.062	88.75
422.285	92.75
422.507	99.75
422.73	101.75
422.953	98.75
423.175	98.75
423.398	87.75
423.621	88.75
423.843	92.75
424.066	82.75
424.288	96.75
424.511	94.75
424.733	109.75
424.956	121.75
425.178	105.75
425.401	95.75
425.623	114.75
425.846	102.75
426.068	98.75
426.291	87.75
426.513	97.75
426.735	95.75
426.958	103.75
427.18	112.75
427.402	149.75
427.625	202.75
427.847	168.75
428.069	156.75
428.292	105.75
428.514	87.75
428.736	81.75
428.958	83.75
429.181	84.75
429.403	86.75
429.625	85.75
429.847	91.75
430.069	103.75
430.292	106.75
430.514	87.75
430.736	71.75
430.958	78.75
431.18	83.75
431.402	81.75
431.624	90.75
431.846	88.75
432.068	86.75
432.29	74.75
432.512	99.75
432.734	77.75
432.956	79.75
433.178	105.75
433.4	102.75
433.622	87.75
433.844	92.75
434.066	95.75
434.287	89.75
434.509	77.75
434.731	92.75
434.953	84.75
435.175	89.75
435.397	90.75
435.618	101.75
435.84	107.75
436.062	148.75
436.284	131.75
436.505	109.75
436.727	100.75
436.949	95.75
437.17	87.75
437.392	82.75
437.614	86.75
437.835	117.75
438.057	136.75
438.278	127.75
438.5	111.75
438.721	153.75
438.943	106.75
439.165	80.75
439.386	86.75
439.608	98.75
439.829	114.75
440.05	126.75
440.272	155.75
440.493	115.75
440.715	92.75
440.936	90.75
441.158	87.75
441.379	95.75
441.6	84.75
441.822	79.75
442.043	89.75
442.264	123.75
442.486	102.75
442.707	90.75
442.928	126.75
443.149	149.75
443.371	147.75
443.592	120.75
443.813	111.75
444.034	110.75
444.255	95.75
444.476	86.75
444.698	84.75
444.919	86.75
445.14	130.75
445.361	130.75
445.582	130.75
445.803	153.75
446.024	156.75
446.245	156.75
446.466	119.75
446.687	93.75
446.908	106.75
447.129	87.75
447.35	81.75
447.571	86.75
447.792	88.75
448.013	95.75
448.234	112.75
448.455	119.75
448.675	105.75
448.896	133.75
449.117	99.75
449.338	116.75
449.559	148.75
449.779	141.75
450	98.75
450.221	92.75
450.442	95.75
450.662	106.75
450.883	116.75
451.104	125.75
451.324	102.75
451.545	89.75
451.766	79.75
451.986	86.75
452.207	85.75
452.428	106.75
452.648	111.75
452.869	103.75
453.089	116.75
453.31	111.75
453.53	100.75
453.751	93.75
453.971	103.75
454.192	102.75
454.412	91.75
454.633	76.75
454.853	75.75
455.073	100.75
455.294	107.75
455.514	99.75
455.734	92.75
455.955	91.75
456.175	92.75
456.395	92.75
456.616	83.75
456.836	77.75
457.056	92.75
457.276	84.75
457.497	79.75
457.717	97.75
457.937	82.75
458.157	90.75
458.377	89.75
458.598	100.75
458.818	166.75
459.038	182.75
459.258	118.75
459.478	101.75
459.698	78.75
459.918	92.75
460.138	77.75
460.358	82.75
460.578	92.75
460.798	83.75
461.018	92.75
461.238	88.75
461.458	91.75
461.678	87.75
461.898	84.75
462.118	86.75
462.338	91.75
462.558	84.75
462.777	70.75
462.997	65.75
463.217	107.75
463.437	91.75
463.657	71.75
463.876	91.75
464.096	106.75
464.316	86.75
464.536	92.75
464.755	86.75
464.975	123.75
465.195	182.75
465.414	189.75
465.634	95.75
465.854	101.75
466.073	92.75
466.293	90.75
466.512	75.75
466.732	82.75
466.951	91.75
467.171	91.75
467.391	82.75
467.61	125.75
467.829	112.75
468.049	178.75
468.268	198.75
468.488	91.75
468.707	88.75
468.927	84.75
469.146	85.75
469.365	86.75
469.585	83.75
469.804	98.75
470.023	104.75
470.243	90.75
470.462	96.75
470.681	111.75
470.901	87.75
471.12	99.75
471.339	103.75
471.558	88.75
471.777	90.75
471.997	133.75
472.216	245.75
472.435	477.75
472.654	188.75
472.873	118.75
473.092	89.75
473.311	80.75
473.53	81.75
473.749	89.75
473.968	97.75
474.187	106.75
474.406	104.75
474.625	85.75
474.844	86.75
475.063	80.75
475.282	96.75
475.501	94.75
475.72	85.75
475.939	93.75
476.158	93.75
476.377	85.75
476.596	85.75
476.814	94.75
477.033	85.75
477.252	91.75
477.471	78.75
477.69	99.75
477.908	97.75
478.127	77.75
478.346	92.75
478.564	98.75
478.783	94.75
479.002	87.75
479.22	97.75
479.439	116.75
479.658	107.75
479.876	104.75
480.095	94.75
480.313	104.75
480.532	117.75
480.751	121.75
480.969	268.75
481.188	824.75
481.406	542.75
481.624	146.75
481.843	99.75
482.061	94.75
482.28	106.75
482.498	101.75
482.717	87.75
482.935	91.75
483.153	92.75
483.372	99.75
483.59	94.75
483.808	93.75
484.027	95.75
484.245	88.75
484.463	79.75
484.681	92.75
484.9	107.75
485.118	94.75
485.336	94.75
485.554	92.75
485.772	96.75
485.99	108.75
486.209	93.75
486.427	102.75
486.645	111.75
486.863	121.75
487.081	116.75
487.299	102.75
487.517	81.75
487.735	86.75
487.953	95.75
488.171	83.75
488.389	96.75
488.607	91.75
488.825	97.75
489.043	78.75
489.261	92.75
489.479	90.75
489.696	98.75
489.914	80.75
490.132	80.75
490.35	92.75
490.568	75.75
490.786	87.75
491.003	80.75
491.221	80.75
491.439	97.75
491.657	86.75
491.874	86.75
492.092	97.75
492.31	76.75
492.527	87.75
492.745	93.75
492.963	94.75
493.18	95.75
493.398	89.75
493.615	102.75
493.833	102.75
494.05	80.75
494.268	81.75
494.485	88.75
494.703	83.75
494.92	87.75
495.138	94.75
495.355	78.75
495.573	101.75
495.79	107.75
496.008	93.75
496.225	87.75
496.442	93.75
496.66	95.75
496.877	109.75
497.094	104.75
497.312	94.75
497.529	102.75
497.746	90.75
497.963	98.75
498.181	90.75
498.398	88.75
498.615	117.75
498.832	109.75
499.049	89.75
499.267	85.75
499.484	106.75
499.701	94.75
499.918	88.75
500.135	91.75
500.352	98.75
500.569	88.75
500.786	101.75
501.003	86.75
501.22	85.75
501.437	99.75
501.654	85.75
501.871	111.75
502.088	90.75
502.305	87.75
502.522	108.75
502.739	98.75
502.956	95.75
503.172	95.75
503.389	84.75
503.606	85.75
503.823	93.75
504.04	96.75
504.256	88.75
504.473	87.75
504.69	92.75
504.907	92.75
505.123	91.75
505.34	87.75
505.557	84.75
505.773	84.75
505.99	73.75
506.207	65.75
506.423	83.75
506.64	84.75
506.856	99.75
507.073	99.75
507.289	96.75
507.506	114.75
507.722	125.75
507.939	116.75
508.155	110.75
508.372	91.75
508.588	95.75
508.805	91.75
509.021	91.75
509.238	107.75
509.454	111.75
509.67	104.75
509.887	106.75
510.103	143.75
510.319	228.75
510.536	747.75
510.752	2442.75
510.968	704.75
511.184	158.75
511.401	118.75
511.617	90.75
511.833	91.75
512.049	93.75
512.265	99.75
512.481	97.75
512.698	87.75
512.914	92.75
513.13	88.75
513.346	92.75
513.562	95.75
513.778	90.75
513.994	81.75
514.21	100.75
514.426	132.75
514.642	139.75
514.858	122.75
515.074	182.75
515.29	519.75
