Data from Circ_2011_H10_HRD10591_00058.txt Node
Date: Wed Jan 03 10:08:10 EST 2024
User: Yrep
Spectrometer: HR+D1059
Trigger mode: 1
Integration Time (sec): 1.000000E-1
Scans to average: 1
Electric dark correction enabled: true
Nonlinearity correction enabled: false
Boxcar width: 0
XAxis mode: Wavelengths
Number of Pixels in Spectrum: 2048
>>>>>Begin Spectral Data<<<<<
223.165	-30.06
223.4	-30.06
223.635	-30.06
223.869	-23.06
224.104	-19.06
224.338	-18.06
224.573	-7.06
224.808	-4.06
225.042	-19.06
225.277	7.94
225.511	3.94
225.746	-5.06
225.98	4.94
226.215	3.94
226.449	4.94
226.683	14.94
226.918	35.94
227.152	48.94
227.387	33.94
227.621	36.94
227.856	47.94
228.09	47.94
228.324	59.94
228.559	49.94
228.793	44.94
229.027	53.94
229.262	51.94
229.496	64.94
229.73	75.94
229.964	86.94
230.199	71.94
230.433	56.94
230.667	80.94
230.901	78.94
231.136	73.94
231.37	78.94
231.604	82.94
231.838	73.94
232.072	85.94
232.306	85.94
232.541	82.94
232.775	83.94
233.009	75.94
233.243	88.94
233.477	74.94
233.711	74.94
233.945	89.94
234.179	73.94
234.413	80.94
234.647	66.94
234.881	90.94
235.115	90.94
235.349	98.94
235.583	76.94
235.817	95.94
236.051	69.94
236.285	81.94
236.519	81.94
236.753	88.94
236.987	81.94
237.221	82.94
237.455	76.94
237.689	84.94
237.922	69.94
238.156	84.94
238.39	77.94
238.624	78.94
238.858	73.94
239.091	81.94
239.325	71.94
239.559	92.94
239.793	78.94
240.027	77.94
240.26	84.94
240.494	82.94
240.728	83.94
240.961	77.94
241.195	73.94
241.429	73.94
241.662	77.94
241.896	58.94
242.13	76.94
242.363	66.94
242.597	83.94
242.83	77.94
243.064	57.94
243.298	66.94
243.531	74.94
243.765	72.94
243.998	72.94
244.232	95.94
244.465	76.94
244.699	62.94
244.932	71.94
245.166	83.94
245.399	66.94
245.633	75.94
245.866	77.94
246.099	86.94
246.333	78.94
246.566	75.94
246.8	76.94
247.033	74.94
247.266	71.94
247.5	83.94
247.733	70.94
247.966	81.94
248.2	71.94
248.433	77.94
248.666	88.94
248.899	97.94
249.133	85.94
249.366	99.94
249.599	108.94
249.832	80.94
250.066	74.94
250.299	77.94
250.532	90.94
250.765	73.94
250.998	64.94
251.231	81.94
251.465	67.94
251.698	69.94
251.931	80.94
252.164	90.94
252.397	77.94
252.63	66.94
252.863	63.94
253.096	82.94
253.329	67.94
253.562	80.94
253.795	73.94
254.028	83.94
254.261	72.94
254.494	72.94
254.727	72.94
254.96	85.94
255.193	77.94
255.426	73.94
255.659	91.94
255.892	68.94
256.124	74.94
256.357	72.94
256.59	85.94
256.823	79.94
257.056	68.94
257.289	79.94
257.521	84.94
257.754	80.94
257.987	69.94
258.22	79.94
258.452	80.94
258.685	68.94
258.918	69.94
259.151	84.94
259.383	74.94
259.616	73.94
259.849	66.94
260.081	79.94
260.314	73.94
260.547	87.94
260.779	86.94
261.012	81.94
261.244	77.94
261.477	92.94
261.71	93.94
261.942	112.94
262.175	108.94
262.407	93.94
262.64	81.94
262.872	77.94
263.105	80.94
263.337	83.94
263.57	77.94
263.802	84.94
264.035	81.94
264.267	80.94
264.499	86.94
264.732	87.94
264.964	90.94
265.197	82.94
265.429	76.94
265.661	82.94
265.894	90.94
266.126	74.94
266.358	91.94
266.591	76.94
266.823	61.94
267.055	89.94
267.287	88.94
267.52	81.94
267.752	90.94
267.984	91.94
268.216	79.94
268.448	86.94
268.681	83.94
268.913	91.94
269.145	78.94
269.377	74.94
269.609	81.94
269.841	88.94
270.073	75.94
270.306	76.94
270.538	84.94
270.77	88.94
271.002	82.94
271.234	83.94
271.466	93.94
271.698	88.94
271.93	84.94
272.162	80.94
272.394	81.94
272.626	75.94
272.858	87.94
273.09	82.94
273.322	79.94
273.553	80.94
273.785	87.94
274.017	90.94
274.249	83.94
274.481	76.94
274.713	85.94
274.945	81.94
275.176	79.94
275.408	82.94
275.64	84.94
275.872	94.94
276.104	84.94
276.335	96.94
276.567	96.94
276.799	114.94
277.031	113.94
277.262	95.94
277.494	86.94
277.726	103.94
277.957	90.94
278.189	86.94
278.421	78.94
278.652	89.94
278.884	82.94
279.115	84.94
279.347	85.94
279.579	80.94
279.81	99.94
280.042	91.94
280.273	108.94
280.505	87.94
280.736	77.94
280.968	76.94
281.199	89.94
281.431	78.94
281.662	81.94
281.894	97.94
282.125	102.94
282.356	114.94
282.588	139.94
282.819	122.94
283.051	84.94
283.282	75.94
283.513	71.94
283.745	88.94
283.976	82.94
284.207	81.94
284.439	81.94
284.67	95.94
284.901	80.94
285.132	94.94
285.364	75.94
285.595	79.94
285.826	72.94
286.057	84.94
286.288	82.94
286.52	98.94
286.751	95.94
286.982	86.94
287.213	88.94
287.444	84.94
287.675	81.94
287.906	87.94
288.138	84.94
288.369	79.94
288.6	83.94
288.831	82.94
289.062	83.94
289.293	86.94
289.524	91.94
289.755	77.94
289.986	86.94
290.217	86.94
290.448	77.94
290.679	81.94
290.91	100.94
291.141	81.94
291.371	98.94
291.602	90.94
291.833	77.94
292.064	100.94
292.295	101.94
292.526	86.94
292.757	81.94
292.987	76.94
293.218	81.94
293.449	89.94
293.68	80.94
293.91	91.94
294.141	81.94
294.372	100.94
294.603	76.94
294.833	88.94
295.064	81.94
295.295	91.94
295.525	82.94
295.756	90.94
295.987	114.94
296.217	132.94
296.448	131.94
296.679	90.94
296.909	83.94
297.14	95.94
297.37	72.94
297.601	84.94
297.831	78.94
298.062	88.94
298.292	88.94
298.523	84.94
298.753	88.94
298.984	85.94
299.214	80.94
299.445	88.94
299.675	88.94
299.905	90.94
300.136	72.94
300.366	89.94
300.597	88.94
300.827	91.94
301.057	85.94
301.288	93.94
301.518	94.94
301.748	87.94
301.979	129.94
302.209	91.94
302.439	92.94
302.669	85.94
302.9	71.94
303.13	87.94
303.36	97.94
303.59	103.94
303.82	98.94
304.051	87.94
304.281	101.94
304.511	87.94
304.741	91.94
304.971	75.94
305.201	100.94
305.431	83.94
305.661	93.94
305.891	99.94
306.121	97.94
306.352	92.94
306.582	97.94
306.812	83.94
307.042	77.94
307.272	98.94
307.502	94.94
307.731	101.94
307.961	97.94
308.191	96.94
308.421	76.94
308.651	77.94
308.881	73.94
309.111	100.94
309.341	82.94
309.571	91.94
309.8	98.94
310.03	103.94
310.26	103.94
310.49	92.94
310.72	104.94
310.949	104.94
311.179	93.94
311.409	93.94
311.639	93.94
311.868	99.94
312.098	92.94
312.328	91.94
312.557	92.94
312.787	92.94
313.017	114.94
313.246	100.94
313.476	91.94
313.706	96.94
313.935	104.94
314.165	92.94
314.394	111.94
314.624	103.94
314.853	97.94
315.083	83.94
315.312	72.94
315.542	97.94
315.771	92.94
316.001	98.94
316.23	84.94
316.46	80.94
316.689	99.94
316.919	91.94
317.148	97.94
317.377	101.94
317.607	97.94
317.836	99.94
318.065	89.94
318.295	85.94
318.524	88.94
318.753	93.94
318.983	94.94
319.212	100.94
319.441	109.94
319.67	113.94
319.9	89.94
320.129	98.94
320.358	90.94
320.587	90.94
320.816	80.94
321.046	102.94
321.275	77.94
321.504	104.94
321.733	85.94
321.962	111.94
322.191	98.94
322.42	116.94
322.649	107.94
322.878	107.94
323.108	121.94
323.337	114.94
323.566	139.94
323.795	157.94
324.024	224.94
324.253	453.94
324.482	976.94
324.71	2038.94
324.939	2666.94
325.168	977.94
325.397	264.94
325.626	164.94
325.855	137.94
326.084	140.94
326.313	138.94
326.542	165.94
326.77	259.94
326.999	529.94
327.228	1111.94
327.457	2065.94
327.686	1617.94
327.914	450.94
328.143	249.94
328.372	220.94
328.6	169.94
328.829	111.94
329.058	139.94
329.287	160.94
329.515	134.94
329.744	134.94
329.972	143.94
330.201	235.94
330.43	297.94
330.658	200.94
330.887	181.94
331.115	129.94
331.344	95.94
331.572	118.94
331.801	115.94
332.03	104.94
332.258	101.94
332.486	102.94
332.715	92.94
332.943	94.94
333.172	85.94
333.4	92.94
333.629	123.94
333.857	111.94
334.085	147.94
334.314	230.94
334.542	385.94
334.771	357.94
334.999	133.94
335.227	94.94
335.455	103.94
335.684	98.94
335.912	98.94
336.14	90.94
336.369	109.94
336.597	100.94
336.825	86.94
337.053	111.94
337.281	101.94
337.51	100.94
337.738	80.94
337.966	75.94
338.194	85.94
338.422	99.94
338.65	95.94
338.878	101.94
339.106	91.94
339.334	88.94
339.562	96.94
339.79	80.94
340.018	95.94
340.246	71.94
340.474	100.94
340.702	95.94
340.93	89.94
341.158	85.94
341.386	105.94
341.614	98.94
341.842	102.94
342.07	93.94
342.298	77.94
342.526	79.94
342.754	79.94
342.981	92.94
343.209	90.94
343.437	101.94
343.665	96.94
343.893	87.94
344.12	93.94
344.348	93.94
344.576	95.94
344.804	79.94
345.031	101.94
345.259	103.94
345.487	103.94
345.714	86.94
345.942	92.94
346.17	87.94
346.397	87.94
346.625	88.94
346.853	97.94
347.08	99.94
347.308	86.94
347.535	101.94
347.763	80.94
347.99	87.94
348.218	91.94
348.445	95.94
348.673	95.94
348.9	99.94
349.128	90.94
349.355	90.94
349.583	96.94
349.81	95.94
350.037	102.94
350.265	89.94
350.492	95.94
350.72	102.94
350.947	106.94
351.174	117.94
351.402	104.94
351.629	107.94
351.856	102.94
352.083	99.94
352.311	115.94
352.538	105.94
352.765	107.94
352.992	97.94
353.22	103.94
353.447	108.94
353.674	105.94
353.901	98.94
354.128	84.94
354.355	90.94
354.583	104.94
354.81	113.94
355.037	93.94
355.264	100.94
355.491	83.94
355.718	94.94
355.945	90.94
356.172	82.94
356.399	80.94
356.626	95.94
356.853	90.94
357.08	86.94
357.307	89.94
357.534	94.94
357.761	83.94
357.988	87.94
358.215	102.94
358.441	92.94
358.668	83.94
358.895	82.94
359.122	87.94
359.349	92.94
359.576	88.94
359.802	103.94
360.029	120.94
360.256	114.94
360.483	111.94
360.709	86.94
360.936	96.94
361.163	94.94
361.39	94.94
361.616	94.94
361.843	89.94
362.07	93.94
362.296	102.94
362.523	98.94
362.749	83.94
362.976	95.94
363.203	85.94
363.429	89.94
363.656	98.94
363.882	87.94
364.109	85.94
364.335	87.94
364.562	87.94
364.788	77.94
365.015	93.94
365.241	89.94
365.468	97.94
365.694	101.94
365.92	105.94
366.147	82.94
366.373	92.94
366.599	101.94
366.826	89.94
367.052	93.94
367.278	74.94
367.505	96.94
367.731	79.94
367.957	99.94
368.184	91.94
368.41	103.94
368.636	127.94
368.862	97.94
369.089	117.94
369.315	86.94
369.541	80.94
369.767	85.94
369.993	84.94
370.219	86.94
370.445	68.94
370.672	87.94
370.898	88.94
371.124	89.94
371.35	89.94
371.576	90.94
371.802	85.94
372.028	85.94
372.254	95.94
372.48	89.94
372.706	75.94
372.932	86.94
373.158	87.94
373.384	91.94
373.61	70.94
373.835	89.94
374.061	88.94
374.287	97.94
374.513	82.94
374.739	77.94
374.965	92.94
375.191	88.94
375.416	96.94
375.642	87.94
375.868	86.94
376.094	94.94
376.319	88.94
376.545	84.94
376.771	95.94
376.997	98.94
377.222	82.94
377.448	87.94
377.674	86.94
377.899	89.94
378.125	82.94
378.35	84.94
378.576	88.94
378.802	68.94
379.027	73.94
379.253	102.94
379.478	88.94
379.704	93.94
379.929	88.94
380.155	81.94
380.38	85.94
380.606	96.94
380.831	96.94
381.057	71.94
381.282	76.94
381.507	76.94
381.733	98.94
381.958	100.94
382.184	98.94
382.409	96.94
382.634	96.94
382.86	95.94
383.085	99.94
383.31	83.94
383.535	89.94
383.761	91.94
383.986	84.94
384.211	103.94
384.436	99.94
384.662	85.94
384.887	90.94
385.112	104.94
385.337	101.94
385.562	95.94
385.787	100.94
386.013	98.94
386.238	97.94
386.463	85.94
386.688	96.94
386.913	96.94
387.138	106.94
387.363	90.94
387.588	84.94
387.813	84.94
388.038	106.94
388.263	101.94
388.488	114.94
388.713	87.94
388.938	98.94
389.163	97.94
389.387	106.94
389.612	88.94
389.837	93.94
390.062	88.94
390.287	81.94
390.512	90.94
390.736	92.94
390.961	85.94
391.186	86.94
391.411	93.94
391.636	85.94
391.86	82.94
392.085	92.94
392.31	90.94
392.534	83.94
392.759	76.94
392.984	76.94
393.208	79.94
393.433	90.94
393.658	78.94
393.882	76.94
394.107	75.94
394.331	73.94
394.556	83.94
394.78	89.94
395.005	73.94
395.229	73.94
395.454	84.94
395.678	82.94
395.903	82.94
396.127	81.94
396.352	83.94
396.576	86.94
396.801	83.94
397.025	84.94
397.249	86.94
397.474	92.94
397.698	88.94
397.922	90.94
398.147	93.94
398.371	89.94
398.595	77.94
398.82	80.94
399.044	82.94
399.268	91.94
399.492	75.94
399.717	91.94
399.941	91.94
400.165	80.94
400.389	89.94
400.613	92.94
400.837	89.94
401.062	83.94
401.286	85.94
401.51	84.94
401.734	78.94
401.958	105.94
402.182	133.94
402.406	163.94
402.63	120.94
402.854	95.94
403.078	71.94
403.302	71.94
403.526	75.94
403.75	75.94
403.974	91.94
404.198	92.94
404.422	91.94
404.645	81.94
404.869	89.94
405.093	102.94
405.317	118.94
405.541	117.94
405.765	97.94
405.988	123.94
406.212	171.94
406.436	218.94
406.66	148.94
406.883	100.94
407.107	97.94
407.331	102.94
407.555	112.94
407.778	96.94
408.002	90.94
408.226	89.94
408.449	101.94
408.673	87.94
408.896	97.94
409.12	99.94
409.344	92.94
409.567	91.94
409.791	87.94
410.014	79.94
410.238	88.94
410.461	89.94
410.685	81.94
410.908	97.94
411.132	109.94
411.355	110.94
411.578	92.94
411.802	66.94
412.025	77.94
412.249	77.94
412.472	113.94
412.695	105.94
412.919	95.94
413.142	77.94
413.365	85.94
413.589	101.94
413.812	98.94
414.035	106.94
414.258	108.94
414.482	71.94
414.705	88.94
414.928	97.94
415.151	91.94
415.374	91.94
415.597	90.94
415.821	70.94
416.044	81.94
416.267	77.94
416.49	88.94
416.713	81.94
416.936	97.94
417.159	70.94
417.382	88.94
417.605	78.94
417.828	89.94
418.051	103.94
418.274	94.94
418.497	82.94
418.72	75.94
418.943	73.94
419.166	89.94
419.389	101.94
419.611	99.94
419.834	90.94
420.057	95.94
420.28	90.94
420.503	86.94
420.726	77.94
420.948	104.94
421.171	117.94
421.394	86.94
421.617	85.94
421.839	71.94
422.062	98.94
422.285	94.94
422.507	104.94
422.73	112.94
422.953	87.94
423.175	87.94
423.398	94.94
423.621	86.94
423.843	85.94
424.066	77.94
424.288	83.94
424.511	87.94
424.733	92.94
424.956	117.94
425.178	101.94
425.401	93.94
425.623	102.94
425.846	89.94
426.068	98.94
426.291	98.94
426.513	84.94
426.735	81.94
426.958	85.94
427.18	95.94
427.402	153.94
427.625	186.94
427.847	158.94
428.069	140.94
428.292	101.94
428.514	102.94
428.736	81.94
428.958	74.94
429.181	90.94
429.403	82.94
429.625	84.94
429.847	94.94
430.069	108.94
430.292	86.94
430.514	71.94
430.736	74.94
430.958	82.94
431.18	86.94
431.402	80.94
431.624	78.94
431.846	71.94
432.068	90.94
432.29	77.94
432.512	86.94
432.734	92.94
432.956	97.94
433.178	103.94
433.4	99.94
433.622	74.94
433.844	90.94
434.066	84.94
434.287	88.94
434.509	100.94
434.731	91.94
434.953	74.94
435.175	73.94
435.397	77.94
435.618	86.94
435.84	107.94
436.062	144.94
436.284	139.94
436.505	103.94
436.727	115.94
436.949	82.94
437.17	82.94
437.392	91.94
437.614	87.94
437.835	100.94
438.057	133.94
438.278	132.94
438.5	106.94
438.721	130.94
438.943	115.94
439.165	81.94
439.386	107.94
439.608	110.94
439.829	93.94
440.05	146.94
440.272	159.94
440.493	84.94
440.715	95.94
440.936	88.94
441.158	87.94
441.379	89.94
441.6	104.94
441.822	114.94
442.043	111.94
442.264	106.94
442.486	97.94
442.707	90.94
442.928	109.94
443.149	134.94
443.371	134.94
443.592	120.94
443.813	117.94
444.034	117.94
444.255	96.94
444.476	77.94
444.698	85.94
444.919	81.94
445.14	141.94
445.361	131.94
445.582	140.94
445.803	156.94
446.024	169.94
446.245	151.94
446.466	109.94
446.687	88.94
446.908	88.94
447.129	96.94
447.35	85.94
447.571	73.94
447.792	84.94
448.013	100.94
448.234	99.94
448.455	117.94
448.675	135.94
448.896	125.94
449.117	96.94
449.338	105.94
449.559	145.94
449.779	158.94
450	102.94
450.221	76.94
450.442	77.94
450.662	87.94
450.883	112.94
451.104	118.94
451.324	93.94
451.545	96.94
451.766	88.94
451.986	87.94
452.207	92.94
452.428	86.94
452.648	98.94
452.869	116.94
453.089	114.94
453.31	113.94
453.53	93.94
453.751	86.94
453.971	90.94
454.192	110.94
454.412	87.94
454.633	86.94
454.853	93.94
455.073	76.94
455.294	83.94
455.514	97.94
455.734	84.94
455.955	78.94
456.175	86.94
456.395	88.94
456.616	80.94
456.836	83.94
457.056	76.94
457.276	82.94
457.497	84.94
457.717	81.94
457.937	92.94
458.157	81.94
458.377	95.94
458.598	112.94
458.818	163.94
459.038	178.94
459.258	125.94
459.478	79.94
459.698	78.94
459.918	76.94
460.138	79.94
460.358	81.94
460.578	93.94
460.798	88.94
461.018	85.94
461.238	81.94
461.458	90.94
461.678	94.94
461.898	89.94
462.118	94.94
462.338	83.94
462.558	82.94
462.777	88.94
462.997	76.94
463.217	78.94
463.437	67.94
463.657	67.94
463.876	82.94
464.096	88.94
464.316	76.94
464.536	98.94
464.755	94.94
464.975	118.94
465.195	186.94
465.414	181.94
465.634	102.94
465.854	83.94
466.073	83.94
466.293	83.94
466.512	86.94
466.732	70.94
466.951	70.94
467.171	88.94
467.391	96.94
467.61	103.94
467.829	90.94
468.049	161.94
468.268	182.94
468.488	97.94
468.707	78.94
468.927	79.94
469.146	95.94
469.365	78.94
469.585	83.94
469.804	74.94
470.023	92.94
470.243	78.94
470.462	93.94
470.681	113.94
470.901	107.94
471.12	82.94
471.339	89.94
471.558	98.94
471.777	92.94
471.997	114.94
472.216	241.94
472.435	433.94
472.654	178.94
472.873	80.94
473.092	76.94
473.311	75.94
473.53	89.94
473.749	85.94
473.968	89.94
474.187	115.94
474.406	94.94
474.625	92.94
474.844	70.94
475.063	82.94
475.282	88.94
475.501	86.94
475.72	85.94
475.939	86.94
476.158	79.94
476.377	73.94
476.596	84.94
476.814	82.94
477.033	93.94
477.252	87.94
477.471	74.94
477.69	83.94
477.908	89.94
478.127	73.94
478.346	86.94
478.564	82.94
478.783	94.94
479.002	83.94
479.22	100.94
479.439	107.94
479.658	104.94
479.876	97.94
480.095	80.94
480.313	93.94
480.532	87.94
480.751	134.94
480.969	231.94
481.188	725.94
481.406	481.94
481.624	132.94
481.843	97.94
482.061	87.94
482.28	91.94
482.498	100.94
482.717	89.94
482.935	87.94
483.153	82.94
483.372	91.94
483.59	76.94
483.808	82.94
484.027	88.94
484.245	76.94
484.463	91.94
484.681	93.94
484.9	91.94
485.118	80.94
485.336	76.94
485.554	97.94
485.772	97.94
485.99	95.94
486.209	92.94
486.427	104.94
486.645	119.94
486.863	105.94
487.081	109.94
487.299	95.94
487.517	90.94
487.735	85.94
487.953	73.94
488.171	97.94
488.389	103.94
488.607	95.94
488.825	80.94
489.043	89.94
489.261	81.94
489.479	68.94
489.696	87.94
489.914	96.94
490.132	79.94
490.35	83.94
490.568	88.94
490.786	82.94
491.003	79.94
491.221	85.94
491.439	89.94
491.657	70.94
491.874	92.94
492.092	79.94
492.31	95.94
492.527	87.94
492.745	84.94
492.963	90.94
493.18	77.94
493.398	90.94
493.615	85.94
493.833	95.94
494.05	83.94
494.268	71.94
494.485	95.94
494.703	98.94
494.92	85.94
495.138	93.94
495.355	81.94
495.573	85.94
495.79	87.94
496.008	81.94
496.225	81.94
496.442	102.94
496.66	81.94
496.877	90.94
497.094	91.94
497.312	90.94
497.529	84.94
497.746	83.94
497.963	85.94
498.181	89.94
498.398	88.94
498.615	115.94
498.832	101.94
499.049	92.94
499.267	87.94
499.484	84.94
499.701	79.94
499.918	82.94
500.135	88.94
500.352	100.94
500.569	77.94
500.786	84.94
501.003	75.94
501.22	88.94
501.437	86.94
501.654	89.94
501.871	99.94
502.088	76.94
502.305	91.94
502.522	92.94
502.739	77.94
502.956	91.94
503.172	95.94
503.389	87.94
503.606	116.94
503.823	88.94
504.04	94.94
504.256	66.94
504.473	84.94
504.69	81.94
504.907	75.94
505.123	89.94
505.34	89.94
505.557	99.94
505.773	88.94
505.99	86.94
506.207	81.94
506.423	68.94
506.64	81.94
506.856	84.94
507.073	101.94
507.289	84.94
507.506	94.94
507.722	105.94
507.939	123.94
508.155	95.94
508.372	93.94
508.588	91.94
508.805	91.94
509.021	96.94
509.238	80.94
509.454	97.94
509.67	105.94
509.887	105.94
510.103	125.94
510.319	192.94
510.536	696.94
510.752	2292.94
510.968	665.94
511.184	164.94
511.401	112.94
511.617	96.94
511.833	112.94
512.049	90.94
512.265	94.94
512.481	107.94
512.698	88.94
512.914	95.94
513.13	88.94
513.346	91.94
513.562	97.94
513.778	91.94
513.994	105.94
514.21	96.94
514.426	104.94
514.642	147.94
514.858	128.94
515.074	160.94
515.29	481.94
515.506	1633.94
515.721	611.94
515.937	180.94
