Data from Circ_2011_H10_HRD10591_00084.txt Node
Date: Wed Jan 03 10:08:15 EST 2024
User: Yrep
Spectrometer: HR+D1059
Trigger mode: 1
Integration Time (sec): 1.000000E-1
Scans to average: 1
Electric dark correction enabled: true
Nonlinearity correction enabled: false
Boxcar width: 0
XAxis mode: Wavelengths
Number of Pixels in Spectrum: 2048
>>>>>Begin Spectral Data<<<<<
223.165	-6.19
223.4	-6.19
223.635	-6.19
223.869	-23.19
224.104	-12.19
224.338	-20.19
224.573	-12.19
224.808	-23.19
225.042	-2.19
225.277	-4.19
225.511	3.81
225.746	6.81
225.98	2.81
226.215	4.81
226.449	19.81
226.683	6.81
226.918	27.81
227.152	30.81
227.387	36.81
227.621	35.81
227.856	63.81
228.09	48.81
228.324	51.81
228.559	64.81
228.793	59.81
229.027	54.81
229.262	51.81
229.496	59.81
229.73	80.81
229.964	91.81
230.199	66.81
230.433	53.81
230.667	81.81
230.901	77.81
231.136	84.81
231.37	80.81
231.604	92.81
231.838	94.81
232.072	81.81
232.306	88.81
232.541	89.81
232.775	77.81
233.009	98.81
233.243	90.81
233.477	73.81
233.711	82.81
233.945	74.81
234.179	93.81
234.413	80.81
234.647	78.81
234.881	79.81
235.115	76.81
235.349	87.81
235.583	77.81
235.817	77.81
236.051	80.81
236.285	86.81
236.519	88.81
236.753	85.81
236.987	89.81
237.221	86.81
237.455	92.81
237.689	78.81
237.922	75.81
238.156	72.81
238.39	83.81
238.624	73.81
238.858	76.81
239.091	74.81
239.325	93.81
239.559	86.81
239.793	74.81
240.027	79.81
240.26	81.81
240.494	76.81
240.728	76.81
240.961	70.81
241.195	78.81
241.429	71.81
241.662	86.81
241.896	70.81
242.13	72.81
242.363	80.81
242.597	80.81
242.83	79.81
243.064	74.81
243.298	74.81
243.531	72.81
243.765	85.81
243.998	81.81
244.232	91.81
244.465	81.81
244.699	77.81
244.932	89.81
245.166	65.81
245.399	75.81
245.633	77.81
245.866	67.81
246.099	64.81
246.333	75.81
246.566	77.81
246.8	72.81
247.033	84.81
247.266	90.81
247.5	86.81
247.733	87.81
247.966	78.81
248.2	64.81
248.433	72.81
248.666	80.81
248.899	81.81
249.133	85.81
249.366	105.81
249.599	99.81
249.832	81.81
250.066	74.81
250.299	69.81
250.532	84.81
250.765	78.81
250.998	75.81
251.231	80.81
251.465	74.81
251.698	88.81
251.931	84.81
252.164	80.81
252.397	70.81
252.63	80.81
252.863	86.81
253.096	75.81
253.329	86.81
253.562	86.81
253.795	93.81
254.028	89.81
254.261	80.81
254.494	66.81
254.727	74.81
254.96	84.81
255.193	77.81
255.426	90.81
255.659	78.81
255.892	87.81
256.124	90.81
256.357	89.81
256.59	81.81
256.823	81.81
257.056	92.81
257.289	73.81
257.521	84.81
257.754	86.81
257.987	78.81
258.22	87.81
258.452	103.81
258.685	86.81
258.918	80.81
259.151	71.81
259.383	76.81
259.616	85.81
259.849	85.81
260.081	87.81
260.314	80.81
260.547	63.81
260.779	87.81
261.012	81.81
261.244	91.81
261.477	100.81
261.71	97.81
261.942	95.81
262.175	116.81
262.407	93.81
262.64	81.81
262.872	85.81
263.105	78.81
263.337	73.81
263.57	85.81
263.802	92.81
264.035	92.81
264.267	81.81
264.499	77.81
264.732	92.81
264.964	78.81
265.197	71.81
265.429	76.81
265.661	78.81
265.894	97.81
266.126	99.81
266.358	92.81
266.591	76.81
266.823	77.81
267.055	98.81
267.287	76.81
267.52	91.81
267.752	82.81
267.984	108.81
268.216	85.81
268.448	80.81
268.681	86.81
268.913	81.81
269.145	94.81
269.377	73.81
269.609	85.81
269.841	77.81
270.073	80.81
270.306	91.81
270.538	82.81
270.77	76.81
271.002	83.81
271.234	88.81
271.466	79.81
271.698	80.81
271.93	80.81
272.162	81.81
272.394	87.81
272.626	87.81
272.858	81.81
273.09	92.81
273.322	79.81
273.553	84.81
273.785	65.81
274.017	102.81
274.249	76.81
274.481	84.81
274.713	81.81
274.945	89.81
275.176	75.81
275.408	92.81
275.64	88.81
275.872	89.81
276.104	80.81
276.335	102.81
276.567	104.81
276.799	92.81
277.031	100.81
277.262	102.81
277.494	94.81
277.726	86.81
277.957	83.81
278.189	85.81
278.421	93.81
278.652	94.81
278.884	75.81
279.115	69.81
279.347	77.81
279.579	103.81
279.81	99.81
280.042	106.81
280.273	98.81
280.505	91.81
280.736	91.81
280.968	96.81
281.199	78.81
281.431	93.81
281.662	92.81
281.894	97.81
282.125	116.81
282.356	103.81
282.588	131.81
282.819	108.81
283.051	95.81
283.282	77.81
283.513	96.81
283.745	100.81
283.976	94.81
284.207	84.81
284.439	73.81
284.67	78.81
284.901	85.81
285.132	76.81
285.364	79.81
285.595	78.81
285.826	90.81
286.057	81.81
286.288	87.81
286.52	94.81
286.751	82.81
286.982	91.81
287.213	96.81
287.444	87.81
287.675	95.81
287.906	100.81
288.138	89.81
288.369	86.81
288.6	83.81
288.831	84.81
289.062	79.81
289.293	90.81
289.524	99.81
289.755	86.81
289.986	92.81
290.217	84.81
290.448	83.81
290.679	72.81
290.91	81.81
291.141	73.81
291.371	87.81
291.602	87.81
291.833	71.81
292.064	85.81
292.295	87.81
292.526	81.81
292.757	86.81
292.987	91.81
293.218	98.81
293.449	84.81
293.68	78.81
293.91	79.81
294.141	89.81
294.372	99.81
294.603	79.81
294.833	95.81
295.064	85.81
295.295	95.81
295.525	102.81
295.756	101.81
295.987	128.81
296.217	149.81
296.448	128.81
296.679	100.81
296.909	95.81
297.14	97.81
297.37	91.81
297.601	95.81
297.831	82.81
298.062	92.81
298.292	95.81
298.523	95.81
298.753	73.81
298.984	82.81
299.214	92.81
299.445	91.81
299.675	87.81
299.905	96.81
300.136	84.81
300.366	77.81
300.597	99.81
300.827	80.81
301.057	86.81
301.288	120.81
301.518	96.81
301.748	84.81
301.979	108.81
302.209	111.81
302.439	72.81
302.669	102.81
302.9	85.81
303.13	93.81
303.36	85.81
303.59	92.81
303.82	92.81
304.051	92.81
304.281	90.81
304.511	84.81
304.741	94.81
304.971	84.81
305.201	81.81
305.431	99.81
305.661	95.81
305.891	94.81
306.121	95.81
306.352	105.81
306.582	101.81
306.812	90.81
307.042	90.81
307.272	88.81
307.502	106.81
307.731	99.81
307.961	95.81
308.191	108.81
308.421	94.81
308.651	88.81
308.881	100.81
309.111	89.81
309.341	112.81
309.571	98.81
309.8	88.81
310.03	97.81
310.26	103.81
310.49	102.81
310.72	83.81
310.949	102.81
311.179	95.81
311.409	96.81
311.639	98.81
311.868	79.81
312.098	102.81
312.328	90.81
312.557	105.81
312.787	114.81
313.017	94.81
313.246	85.81
313.476	86.81
313.706	95.81
313.935	92.81
314.165	99.81
314.394	97.81
314.624	89.81
314.853	89.81
315.083	96.81
315.312	90.81
315.542	89.81
315.771	99.81
316.001	93.81
316.23	86.81
316.46	91.81
316.689	93.81
316.919	96.81
317.148	96.81
317.377	98.81
317.607	90.81
317.836	85.81
318.065	84.81
318.295	80.81
318.524	78.81
318.753	91.81
318.983	90.81
319.212	95.81
319.441	96.81
319.67	103.81
319.9	84.81
320.129	79.81
320.358	92.81
320.587	101.81
320.816	106.81
321.046	106.81
321.275	105.81
321.504	89.81
321.733	88.81
321.962	103.81
322.191	93.81
322.42	100.81
322.649	103.81
322.878	111.81
323.108	121.81
323.337	137.81
323.566	135.81
323.795	163.81
324.024	217.81
324.253	423.81
324.482	900.81
324.71	1909.81
324.939	2494.81
325.168	921.81
325.397	274.81
325.626	160.81
325.855	122.81
326.084	135.81
326.313	126.81
326.542	150.81
326.77	250.81
326.999	499.81
327.228	1068.81
327.457	1931.81
327.686	1511.81
327.914	413.81
328.143	238.81
328.372	202.81
328.6	152.81
328.829	110.81
329.058	135.81
329.287	123.81
329.515	125.81
329.744	127.81
329.972	153.81
330.201	222.81
330.43	276.81
330.658	196.81
330.887	145.81
331.115	131.81
331.344	113.81
331.572	116.81
331.801	132.81
332.03	108.81
332.258	96.81
332.486	102.81
332.715	104.81
332.943	100.81
333.172	84.81
333.4	93.81
333.629	89.81
333.857	133.81
334.085	135.81
334.314	217.81
334.542	331.81
334.771	324.81
334.999	154.81
335.227	95.81
335.455	100.81
335.684	99.81
335.912	115.81
336.14	109.81
336.369	113.81
336.597	107.81
336.825	96.81
337.053	95.81
337.281	88.81
337.51	92.81
337.738	100.81
337.966	100.81
338.194	94.81
338.422	91.81
338.65	99.81
338.878	87.81
339.106	107.81
339.334	93.81
339.562	92.81
339.79	87.81
340.018	80.81
340.246	87.81
340.474	101.81
340.702	96.81
340.93	87.81
341.158	87.81
341.386	90.81
341.614	83.81
341.842	85.81
342.07	82.81
342.298	92.81
342.526	86.81
342.754	96.81
342.981	82.81
343.209	85.81
343.437	107.81
343.665	89.81
343.893	84.81
344.12	86.81
344.348	91.81
344.576	86.81
344.804	101.81
345.031	80.81
345.259	83.81
345.487	107.81
345.714	79.81
345.942	88.81
346.17	85.81
346.397	80.81
346.625	99.81
346.853	97.81
347.08	90.81
347.308	77.81
347.535	78.81
347.763	91.81
347.99	88.81
348.218	107.81
348.445	100.81
348.673	112.81
348.9	108.81
349.128	93.81
349.355	79.81
349.583	103.81
349.81	91.81
350.037	74.81
350.265	87.81
350.492	92.81
350.72	95.81
350.947	94.81
351.174	118.81
351.402	110.81
351.629	100.81
351.856	105.81
352.083	83.81
352.311	109.81
352.538	104.81
352.765	115.81
352.992	109.81
353.22	123.81
353.447	99.81
353.674	104.81
353.901	95.81
354.128	89.81
354.355	90.81
354.583	95.81
354.81	105.81
355.037	98.81
355.264	101.81
355.491	104.81
355.718	88.81
355.945	102.81
356.172	94.81
356.399	93.81
356.626	89.81
356.853	84.81
357.08	89.81
357.307	87.81
357.534	92.81
357.761	86.81
357.988	85.81
358.215	88.81
358.441	88.81
358.668	94.81
358.895	97.81
359.122	84.81
359.349	90.81
359.576	85.81
359.802	94.81
360.029	102.81
360.256	112.81
360.483	115.81
360.709	80.81
360.936	106.81
361.163	99.81
361.39	113.81
361.616	84.81
361.843	81.81
362.07	80.81
362.296	93.81
362.523	92.81
362.749	85.81
362.976	92.81
363.203	88.81
363.429	81.81
363.656	94.81
363.882	102.81
364.109	83.81
364.335	106.81
364.562	86.81
364.788	95.81
365.015	88.81
365.241	97.81
365.468	94.81
365.694	108.81
365.92	101.81
366.147	85.81
366.373	84.81
366.599	105.81
366.826	88.81
367.052	84.81
367.278	89.81
367.505	96.81
367.731	96.81
367.957	99.81
368.184	83.81
368.41	94.81
368.636	124.81
368.862	119.81
369.089	100.81
369.315	95.81
369.541	87.81
369.767	94.81
369.993	102.81
370.219	80.81
370.445	77.81
370.672	84.81
370.898	90.81
371.124	79.81
371.35	81.81
371.576	92.81
371.802	89.81
372.028	87.81
372.254	102.81
372.48	86.81
372.706	86.81
372.932	83.81
373.158	85.81
373.384	100.81
373.61	88.81
373.835	93.81
374.061	80.81
374.287	89.81
374.513	71.81
374.739	83.81
374.965	94.81
375.191	90.81
375.416	76.81
375.642	86.81
375.868	106.81
376.094	97.81
376.319	95.81
376.545	87.81
376.771	88.81
376.997	96.81
377.222	102.81
377.448	94.81
377.674	95.81
377.899	101.81
378.125	103.81
378.35	74.81
378.576	93.81
378.802	84.81
379.027	104.81
379.253	91.81
379.478	91.81
379.704	91.81
379.929	92.81
380.155	91.81
380.38	102.81
380.606	100.81
380.831	85.81
381.057	86.81
381.282	99.81
381.507	88.81
381.733	108.81
381.958	104.81
382.184	92.81
382.409	79.81
382.634	100.81
382.86	89.81
383.085	97.81
383.31	89.81
383.535	83.81
383.761	93.81
383.986	95.81
384.211	77.81
384.436	90.81
384.662	95.81
384.887	104.81
385.112	102.81
385.337	100.81
385.562	99.81
385.787	95.81
386.013	92.81
386.238	104.81
386.463	97.81
386.688	96.81
386.913	90.81
387.138	83.81
387.363	83.81
387.588	93.81
387.813	101.81
388.038	80.81
388.263	108.81
388.488	105.81
388.713	109.81
388.938	102.81
389.163	92.81
389.387	94.81
389.612	88.81
389.837	105.81
390.062	97.81
390.287	85.81
390.512	87.81
390.736	95.81
390.961	80.81
391.186	86.81
391.411	90.81
391.636	84.81
391.86	90.81
392.085	80.81
392.31	79.81
392.534	85.81
392.759	81.81
392.984	77.81
393.208	77.81
393.433	79.81
393.658	83.81
393.882	85.81
394.107	83.81
394.331	93.81
394.556	93.81
394.78	96.81
395.005	92.81
395.229	100.81
395.454	84.81
395.678	83.81
395.903	84.81
396.127	91.81
396.352	92.81
396.576	84.81
396.801	87.81
397.025	74.81
397.249	94.81
397.474	84.81
397.698	86.81
397.922	88.81
398.147	99.81
398.371	93.81
398.595	73.81
398.82	87.81
399.044	96.81
399.268	79.81
399.492	80.81
399.717	80.81
399.941	80.81
400.165	95.81
400.389	84.81
400.613	75.81
400.837	86.81
401.062	97.81
401.286	101.81
401.51	99.81
401.734	91.81
401.958	103.81
402.182	118.81
402.406	148.81
402.63	106.81
402.854	90.81
403.078	87.81
403.302	96.81
403.526	78.81
403.75	82.81
403.974	78.81
404.198	82.81
404.422	89.81
404.645	94.81
404.869	81.81
405.093	95.81
405.317	124.81
405.541	110.81
405.765	104.81
405.988	102.81
406.212	193.81
406.436	246.81
406.66	152.81
406.883	109.81
407.107	84.81
407.331	108.81
407.555	107.81
407.778	104.81
408.002	99.81
408.226	81.81
408.449	87.81
408.673	88.81
408.896	95.81
409.12	107.81
409.344	85.81
409.567	97.81
409.791	86.81
410.014	87.81
410.238	101.81
410.461	104.81
410.685	92.81
410.908	108.81
411.132	104.81
411.355	92.81
411.578	84.81
411.802	71.81
412.025	77.81
412.249	91.81
412.472	97.81
412.695	95.81
412.919	95.81
413.142	80.81
413.365	87.81
413.589	94.81
413.812	74.81
414.035	82.81
414.258	77.81
414.482	71.81
414.705	84.81
414.928	70.81
415.151	81.81
415.374	102.81
415.597	89.81
415.821	86.81
416.044	95.81
416.267	79.81
416.49	85.81
416.713	100.81
416.936	87.81
417.159	91.81
417.382	97.81
417.605	105.81
417.828	91.81
418.051	104.81
418.274	88.81
418.497	79.81
418.72	93.81
418.943	94.81
419.166	97.81
419.389	98.81
419.611	86.81
419.834	94.81
420.057	97.81
420.28	93.81
420.503	88.81
420.726	88.81
420.948	85.81
421.171	99.81
421.394	102.81
421.617	79.81
421.839	100.81
422.062	88.81
422.285	89.81
422.507	88.81
422.73	92.81
422.953	90.81
423.175	92.81
423.398	85.81
423.621	75.81
423.843	91.81
424.066	89.81
424.288	92.81
424.511	80.81
424.733	101.81
424.956	98.81
425.178	100.81
425.401	91.81
425.623	98.81
425.846	92.81
426.068	88.81
426.291	91.81
426.513	87.81
426.735	80.81
426.958	81.81
427.18	97.81
427.402	149.81
427.625	188.81
427.847	153.81
428.069	147.81
428.292	107.81
428.514	86.81
428.736	90.81
428.958	83.81
429.181	95.81
429.403	83.81
429.625	77.81
429.847	101.81
430.069	102.81
430.292	101.81
430.514	95.81
430.736	67.81
430.958	84.81
431.18	86.81
431.402	91.81
431.624	85.81
431.846	85.81
432.068	81.81
432.29	79.81
432.512	102.81
432.734	96.81
432.956	86.81
433.178	87.81
433.4	101.81
433.622	87.81
433.844	92.81
434.066	92.81
434.287	92.81
434.509	90.81
434.731	85.81
434.953	92.81
435.175	88.81
435.397	93.81
435.618	101.81
435.84	110.81
436.062	108.81
436.284	99.81
436.505	101.81
436.727	108.81
436.949	99.81
437.17	98.81
437.392	92.81
437.614	89.81
437.835	99.81
438.057	125.81
438.278	108.81
438.5	104.81
438.721	133.81
438.943	106.81
439.165	89.81
439.386	86.81
439.608	84.81
439.829	96.81
440.05	111.81
440.272	147.81
440.493	100.81
440.715	84.81
440.936	77.81
441.158	83.81
441.379	93.81
441.6	86.81
441.822	107.81
442.043	93.81
442.264	106.81
442.486	101.81
442.707	78.81
442.928	111.81
443.149	146.81
443.371	129.81
443.592	121.81
443.813	119.81
444.034	126.81
444.255	85.81
444.476	96.81
444.698	82.81
444.919	93.81
445.14	125.81
445.361	117.81
445.582	120.81
445.803	145.81
446.024	144.81
446.245	144.81
446.466	102.81
446.687	92.81
446.908	87.81
447.129	91.81
447.35	98.81
447.571	89.81
447.792	81.81
448.013	116.81
448.234	106.81
448.455	102.81
448.675	104.81
448.896	134.81
449.117	99.81
449.338	100.81
449.559	135.81
449.779	126.81
450	89.81
450.221	85.81
450.442	86.81
450.662	108.81
450.883	113.81
451.104	120.81
451.324	95.81
451.545	96.81
451.766	95.81
451.986	83.81
452.207	83.81
452.428	99.81
452.648	96.81
452.869	104.81
453.089	118.81
453.31	121.81
453.53	99.81
453.751	78.81
453.971	94.81
454.192	104.81
454.412	115.81
454.633	86.81
454.853	84.81
455.073	93.81
455.294	75.81
455.514	94.81
455.734	94.81
455.955	95.81
456.175	95.81
456.395	91.81
456.616	100.81
456.836	94.81
457.056	74.81
457.276	86.81
457.497	84.81
457.717	81.81
457.937	93.81
458.157	81.81
458.377	84.81
458.598	90.81
458.818	138.81
459.038	172.81
459.258	125.81
459.478	93.81
459.698	91.81
459.918	92.81
460.138	92.81
460.358	102.81
460.578	106.81
460.798	91.81
461.018	93.81
461.238	86.81
461.458	85.81
461.678	83.81
461.898	80.81
462.118	85.81
462.338	95.81
462.558	88.81
462.777	91.81
462.997	80.81
463.217	79.81
463.437	85.81
463.657	93.81
463.876	99.81
464.096	76.81
464.316	104.81
464.536	88.81
464.755	86.81
464.975	103.81
465.195	171.81
465.414	153.81
465.634	100.81
465.854	83.81
466.073	74.81
466.293	81.81
466.512	100.81
466.732	91.81
466.951	88.81
467.171	93.81
467.391	92.81
467.61	110.81
467.829	118.81
468.049	160.81
468.268	178.81
468.488	102.81
468.707	84.81
468.927	84.81
469.146	87.81
469.365	85.81
469.585	79.81
469.804	91.81
470.023	98.81
470.243	92.81
470.462	99.81
470.681	127.81
470.901	103.81
471.12	76.81
471.339	99.81
471.558	102.81
471.777	97.81
471.997	116.81
472.216	233.81
472.435	440.81
472.654	168.81
472.873	97.81
473.092	89.81
473.311	100.81
473.53	87.81
473.749	87.81
473.968	100.81
474.187	107.81
474.406	106.81
474.625	101.81
474.844	84.81
475.063	95.81
475.282	86.81
475.501	86.81
475.72	85.81
475.939	91.81
476.158	100.81
476.377	84.81
476.596	92.81
476.814	87.81
477.033	94.81
477.252	95.81
477.471	92.81
477.69	79.81
477.908	101.81
478.127	100.81
478.346	86.81
478.564	92.81
478.783	97.81
479.002	88.81
479.22	95.81
479.439	101.81
479.658	97.81
479.876	99.81
480.095	102.81
480.313	107.81
480.532	98.81
480.751	137.81
480.969	218.81
481.188	715.81
481.406	469.81
481.624	139.81
481.843	94.81
482.061	86.81
482.28	86.81
482.498	83.81
482.717	83.81
482.935	83.81
483.153	81.81
483.372	85.81
483.59	83.81
483.808	91.81
484.027	97.81
484.245	92.81
484.463	89.81
484.681	83.81
484.9	101.81
485.118	103.81
485.336	93.81
485.554	107.81
485.772	103.81
485.99	104.81
486.209	93.81
486.427	101.81
486.645	107.81
486.863	103.81
487.081	102.81
487.299	89.81
487.517	88.81
487.735	83.81
487.953	95.81
488.171	101.81
488.389	96.81
488.607	87.81
488.825	96.81
489.043	81.81
489.261	90.81
489.479	92.81
489.696	81.81
489.914	93.81
490.132	95.81
490.35	95.81
490.568	73.81
490.786	81.81
491.003	94.81
491.221	95.81
491.439	96.81
491.657	99.81
491.874	103.81
492.092	92.81
492.31	88.81
492.527	102.81
492.745	88.81
492.963	84.81
493.18	80.81
493.398	88.81
493.615	79.81
493.833	92.81
494.05	76.81
494.268	80.81
494.485	84.81
494.703	86.81
494.92	84.81
495.138	79.81
495.355	85.81
495.573	89.81
495.79	87.81
496.008	98.81
496.225	81.81
496.442	95.81
496.66	102.81
496.877	95.81
497.094	81.81
497.312	81.81
497.529	89.81
497.746	83.81
497.963	95.81
498.181	99.81
498.398	95.81
498.615	96.81
498.832	103.81
499.049	101.81
499.267	88.81
499.484	88.81
499.701	91.81
499.918	90.81
500.135	80.81
500.352	100.81
500.569	92.81
500.786	104.81
501.003	89.81
501.22	80.81
501.437	80.81
501.654	109.81
501.871	107.81
502.088	97.81
502.305	80.81
502.522	72.81
502.739	89.81
502.956	84.81
503.172	79.81
503.389	101.81
503.606	110.81
503.823	102.81
504.04	84.81
504.256	94.81
504.473	80.81
504.69	85.81
504.907	97.81
505.123	78.81
505.34	95.81
505.557	91.81
505.773	90.81
505.99	80.81
506.207	91.81
506.423	86.81
506.64	100.81
506.856	96.81
507.073	75.81
507.289	95.81
507.506	99.81
507.722	113.81
507.939	109.81
508.155	103.81
508.372	78.81
508.588	99.81
508.805	104.81
509.021	99.81
509.238	93.81
509.454	90.81
509.67	99.81
509.887	108.81
510.103	113.81
510.319	193.81
510.536	733.81
510.752	2276.81
510.968	636.81
511.184	163.81
511.401	110.81
511.617	95.81
511.833	89.81
512.049	80.81
512.265	88.81
512.481	93.81
512.698	93.81
512.914	94.81
513.13	87.81
513.346	95.81
513.562	104.81
513.778	95.81
513.994	111.81
514.21	106.81
514.426	128.81
514.642	128.81
514.858	121.81
515.074	156.81
515.29	464.81
