Data from Circ_2011_H10_HRD10591_00003.txt Node
Date: Wed Jan 03 10:07:59 EST 2024
User: Yrep
Spectrometer: HR+D1059
Trigger mode: 1
Integration Time (sec): 1.000000E-1
Scans to average: 1
Electric dark correction enabled: true
Nonlinearity correction enabled: false
Boxcar width: 0
XAxis mode: Wavelengths
Number of Pixels in Spectrum: 2048
>>>>>Begin Spectral Data<<<<<
223.165	-23.88
223.4	-23.88
223.635	-23.88
223.869	-13.88
224.104	-17.88
224.338	-11.88
224.573	-7.88
224.808	-6.88
225.042	-2.88
225.277	-9.88
225.511	-0.88
225.746	11.12
225.98	6.12
226.215	9.12
226.449	2.12
226.683	15.12
226.918	26.12
227.152	26.12
227.387	38.12
227.621	25.12
227.856	48.12
228.09	60.12
228.324	58.12
228.559	47.12
228.793	48.12
229.027	78.12
229.262	71.12
229.496	83.12
229.73	88.12
229.964	87.12
230.199	70.12
230.433	78.12
230.667	86.12
230.901	78.12
231.136	73.12
231.37	80.12
231.604	87.12
231.838	78.12
232.072	81.12
232.306	79.12
232.541	84.12
232.775	82.12
233.009	80.12
233.243	77.12
233.477	73.12
233.711	79.12
233.945	72.12
234.179	70.12
234.413	80.12
234.647	64.12
234.881	83.12
235.115	84.12
235.349	73.12
235.583	82.12
235.817	81.12
236.051	95.12
236.285	88.12
236.519	94.12
236.753	84.12
236.987	80.12
237.221	69.12
237.455	85.12
237.689	78.12
237.922	65.12
238.156	77.12
238.39	82.12
238.624	71.12
238.858	54.12
239.091	76.12
239.325	78.12
239.559	66.12
239.793	85.12
240.027	76.12
240.26	74.12
240.494	74.12
240.728	71.12
240.961	62.12
241.195	79.12
241.429	80.12
241.662	71.12
241.896	71.12
242.13	75.12
242.363	74.12
242.597	74.12
242.83	80.12
243.064	82.12
243.298	59.12
243.531	71.12
243.765	87.12
243.998	62.12
244.232	84.12
244.465	78.12
244.699	67.12
244.932	76.12
245.166	62.12
245.399	99.12
245.633	70.12
245.866	70.12
246.099	83.12
246.333	80.12
246.566	67.12
246.8	78.12
247.033	82.12
247.266	61.12
247.5	69.12
247.733	90.12
247.966	77.12
248.2	74.12
248.433	66.12
248.666	84.12
248.899	73.12
249.133	91.12
249.366	90.12
249.599	92.12
249.832	87.12
250.066	79.12
250.299	75.12
250.532	89.12
250.765	64.12
250.998	62.12
251.231	79.12
251.465	88.12
251.698	91.12
251.931	83.12
252.164	109.12
252.397	81.12
252.63	69.12
252.863	78.12
253.096	77.12
253.329	78.12
253.562	74.12
253.795	74.12
254.028	73.12
254.261	84.12
254.494	88.12
254.727	73.12
254.96	86.12
255.193	71.12
255.426	87.12
255.659	79.12
255.892	81.12
256.124	80.12
256.357	78.12
256.59	76.12
256.823	72.12
257.056	84.12
257.289	67.12
257.521	80.12
257.754	74.12
257.987	77.12
258.22	82.12
258.452	83.12
258.685	85.12
258.918	66.12
259.151	73.12
259.383	74.12
259.616	71.12
259.849	71.12
260.081	75.12
260.314	78.12
260.547	80.12
260.779	97.12
261.012	91.12
261.244	76.12
261.477	70.12
261.71	85.12
261.942	105.12
262.175	126.12
262.407	92.12
262.64	74.12
262.872	70.12
263.105	78.12
263.337	80.12
263.57	73.12
263.802	85.12
264.035	89.12
264.267	85.12
264.499	94.12
264.732	76.12
264.964	76.12
265.197	75.12
265.429	74.12
265.661	66.12
265.894	84.12
266.126	90.12
266.358	81.12
266.591	84.12
266.823	78.12
267.055	85.12
267.287	90.12
267.52	91.12
267.752	88.12
267.984	80.12
268.216	82.12
268.448	72.12
268.681	91.12
268.913	86.12
269.145	84.12
269.377	79.12
269.609	76.12
269.841	71.12
270.073	93.12
270.306	71.12
270.538	90.12
270.77	74.12
271.002	76.12
271.234	83.12
271.466	84.12
271.698	79.12
271.93	78.12
272.162	74.12
272.394	71.12
272.626	86.12
272.858	92.12
273.09	82.12
273.322	82.12
273.553	91.12
273.785	64.12
274.017	81.12
274.249	74.12
274.481	90.12
274.713	78.12
274.945	84.12
275.176	87.12
275.408	88.12
275.64	92.12
275.872	84.12
276.104	106.12
276.335	88.12
276.567	93.12
276.799	93.12
277.031	102.12
277.262	78.12
277.494	92.12
277.726	77.12
277.957	100.12
278.189	79.12
278.421	87.12
278.652	71.12
278.884	62.12
279.115	95.12
279.347	86.12
279.579	82.12
279.81	94.12
280.042	101.12
280.273	83.12
280.505	86.12
280.736	71.12
280.968	103.12
281.199	91.12
281.431	90.12
281.662	73.12
281.894	90.12
282.125	96.12
282.356	110.12
282.588	134.12
282.819	106.12
283.051	85.12
283.282	83.12
283.513	83.12
283.745	80.12
283.976	80.12
284.207	89.12
284.439	90.12
284.67	71.12
284.901	77.12
285.132	87.12
285.364	79.12
285.595	86.12
285.826	86.12
286.057	75.12
286.288	89.12
286.52	84.12
286.751	73.12
286.982	94.12
287.213	80.12
287.444	78.12
287.675	71.12
287.906	92.12
288.138	94.12
288.369	93.12
288.6	102.12
288.831	88.12
289.062	89.12
289.293	88.12
289.524	97.12
289.755	102.12
289.986	90.12
290.217	74.12
290.448	76.12
290.679	85.12
290.91	80.12
291.141	93.12
291.371	85.12
291.602	83.12
291.833	83.12
292.064	101.12
292.295	101.12
292.526	78.12
292.757	83.12
292.987	88.12
293.218	81.12
293.449	80.12
293.68	94.12
293.91	99.12
294.141	92.12
294.372	82.12
294.603	82.12
294.833	80.12
295.064	93.12
295.295	93.12
295.525	83.12
295.756	105.12
295.987	96.12
296.217	150.12
296.448	122.12
296.679	102.12
296.909	78.12
297.14	91.12
297.37	96.12
297.601	85.12
297.831	94.12
298.062	99.12
298.292	95.12
298.523	79.12
298.753	68.12
298.984	88.12
299.214	73.12
299.445	83.12
299.675	91.12
299.905	93.12
300.136	75.12
300.366	88.12
300.597	76.12
300.827	77.12
301.057	95.12
301.288	110.12
301.518	83.12
301.748	83.12
301.979	95.12
302.209	85.12
302.439	80.12
302.669	82.12
302.9	78.12
303.13	100.12
303.36	99.12
303.59	94.12
303.82	95.12
304.051	96.12
304.281	98.12
304.511	98.12
304.741	87.12
304.971	78.12
305.201	88.12
305.431	84.12
305.661	87.12
305.891	82.12
306.121	79.12
306.352	98.12
306.582	100.12
306.812	93.12
307.042	93.12
307.272	100.12
307.502	103.12
307.731	93.12
307.961	76.12
308.191	76.12
308.421	95.12
308.651	85.12
308.881	91.12
309.111	80.12
309.341	98.12
309.571	103.12
309.8	86.12
310.03	98.12
310.26	85.12
310.49	90.12
310.72	83.12
310.949	95.12
311.179	87.12
311.409	88.12
311.639	83.12
311.868	84.12
312.098	106.12
312.328	92.12
312.557	103.12
312.787	106.12
313.017	91.12
313.246	86.12
313.476	93.12
313.706	77.12
313.935	86.12
314.165	99.12
314.394	112.12
314.624	106.12
314.853	94.12
315.083	90.12
315.312	80.12
315.542	86.12
315.771	86.12
316.001	91.12
316.23	90.12
316.46	79.12
316.689	100.12
316.919	101.12
317.148	96.12
317.377	101.12
317.607	88.12
317.836	92.12
318.065	94.12
318.295	83.12
318.524	81.12
318.753	91.12
318.983	92.12
319.212	100.12
319.441	95.12
319.67	116.12
319.9	108.12
320.129	92.12
320.358	90.12
320.587	93.12
320.816	92.12
321.046	98.12
321.275	100.12
321.504	89.12
321.733	88.12
321.962	101.12
322.191	109.12
322.42	97.12
322.649	95.12
322.878	110.12
323.108	125.12
323.337	142.12
323.566	145.12
323.795	170.12
324.024	205.12
324.253	407.12
324.482	880.12
324.71	1890.12
324.939	2451.12
325.168	904.12
325.397	251.12
325.626	146.12
325.855	132.12
326.084	129.12
326.313	127.12
326.542	157.12
326.77	266.12
326.999	516.12
327.228	1048.12
327.457	1896.12
327.686	1519.12
327.914	420.12
328.143	214.12
328.372	158.12
328.6	138.12
328.829	127.12
329.058	148.12
329.287	128.12
329.515	112.12
329.744	100.12
329.972	122.12
330.201	165.12
330.43	191.12
330.658	124.12
330.887	137.12
331.115	116.12
331.344	107.12
331.572	103.12
331.801	87.12
332.03	112.12
332.258	98.12
332.486	98.12
332.715	95.12
332.943	95.12
333.172	88.12
333.4	92.12
333.629	112.12
333.857	122.12
334.085	116.12
334.314	151.12
334.542	213.12
334.771	208.12
334.999	118.12
335.227	95.12
335.455	99.12
335.684	94.12
335.912	99.12
336.14	102.12
336.369	112.12
336.597	106.12
336.825	103.12
337.053	85.12
337.281	88.12
337.51	101.12
337.738	88.12
337.966	87.12
338.194	80.12
338.422	93.12
338.65	75.12
338.878	82.12
339.106	106.12
339.334	109.12
339.562	69.12
339.79	77.12
340.018	90.12
340.246	86.12
340.474	81.12
340.702	95.12
340.93	93.12
341.158	95.12
341.386	91.12
341.614	90.12
341.842	83.12
342.07	78.12
342.298	78.12
342.526	80.12
342.754	92.12
342.981	94.12
343.209	99.12
343.437	84.12
343.665	86.12
343.893	86.12
344.12	92.12
344.348	83.12
344.576	88.12
344.804	86.12
345.031	88.12
345.259	96.12
345.487	86.12
345.714	91.12
345.942	89.12
346.17	80.12
346.397	80.12
346.625	99.12
346.853	96.12
347.08	94.12
347.308	82.12
347.535	88.12
347.763	98.12
347.99	102.12
348.218	99.12
348.445	86.12
348.673	106.12
348.9	106.12
349.128	90.12
349.355	88.12
349.583	98.12
349.81	82.12
350.037	101.12
350.265	93.12
350.492	95.12
350.72	100.12
350.947	95.12
351.174	109.12
351.402	94.12
351.629	89.12
351.856	99.12
352.083	108.12
352.311	92.12
352.538	94.12
352.765	108.12
352.992	109.12
353.22	111.12
353.447	94.12
353.674	98.12
353.901	96.12
354.128	99.12
354.355	90.12
354.583	108.12
354.81	91.12
355.037	74.12
355.264	88.12
355.491	93.12
355.718	95.12
355.945	107.12
356.172	89.12
356.399	102.12
356.626	100.12
356.853	90.12
357.08	84.12
357.307	95.12
357.534	89.12
357.761	79.12
357.988	91.12
358.215	90.12
358.441	94.12
358.668	86.12
358.895	84.12
359.122	73.12
359.349	85.12
359.576	93.12
359.802	97.12
360.029	100.12
360.256	95.12
360.483	112.12
360.709	99.12
360.936	85.12
361.163	82.12
361.39	92.12
361.616	99.12
361.843	77.12
362.07	79.12
362.296	98.12
362.523	105.12
362.749	89.12
362.976	93.12
363.203	99.12
363.429	61.12
363.656	66.12
363.882	86.12
364.109	88.12
364.335	94.12
364.562	86.12
364.788	86.12
365.015	90.12
365.241	90.12
365.468	113.12
365.694	95.12
365.92	93.12
366.147	85.12
366.373	86.12
366.599	87.12
366.826	88.12
367.052	77.12
367.278	93.12
367.505	86.12
367.731	99.12
367.957	91.12
368.184	84.12
368.41	98.12
368.636	96.12
368.862	120.12
369.089	103.12
369.315	83.12
369.541	92.12
369.767	87.12
369.993	83.12
370.219	75.12
370.445	95.12
370.672	76.12
370.898	80.12
371.124	97.12
371.35	83.12
371.576	77.12
371.802	75.12
372.028	92.12
372.254	78.12
372.48	100.12
372.706	93.12
372.932	71.12
373.158	66.12
373.384	86.12
373.61	80.12
373.835	94.12
374.061	83.12
374.287	88.12
374.513	101.12
374.739	85.12
374.965	72.12
375.191	87.12
375.416	89.12
375.642	97.12
375.868	89.12
376.094	83.12
376.319	80.12
376.545	89.12
376.771	97.12
376.997	99.12
377.222	80.12
377.448	89.12
377.674	88.12
377.899	79.12
378.125	100.12
378.35	95.12
378.576	96.12
378.802	92.12
379.027	102.12
379.253	93.12
379.478	93.12
379.704	96.12
379.929	96.12
380.155	74.12
380.38	99.12
380.606	89.12
380.831	95.12
381.057	95.12
381.282	87.12
381.507	93.12
381.733	97.12
381.958	95.12
382.184	105.12
382.409	98.12
382.634	96.12
382.86	81.12
383.085	90.12
383.31	103.12
383.535	95.12
383.761	97.12
383.986	93.12
384.211	90.12
384.436	95.12
384.662	92.12
384.887	98.12
385.112	110.12
385.337	100.12
385.562	92.12
385.787	71.12
386.013	124.12
386.238	109.12
386.463	104.12
386.688	112.12
386.913	95.12
387.138	92.12
387.363	87.12
387.588	87.12
387.813	92.12
388.038	102.12
388.263	97.12
388.488	97.12
388.713	104.12
388.938	105.12
389.163	92.12
389.387	95.12
389.612	104.12
389.837	90.12
390.062	82.12
390.287	95.12
390.512	86.12
390.736	83.12
390.961	90.12
391.186	102.12
391.411	101.12
391.636	88.12
391.86	87.12
392.085	83.12
392.31	71.12
392.534	83.12
392.759	90.12
392.984	78.12
393.208	86.12
393.433	105.12
393.658	92.12
393.882	80.12
394.107	97.12
394.331	80.12
394.556	78.12
394.78	95.12
395.005	87.12
395.229	83.12
395.454	86.12
395.678	89.12
395.903	103.12
396.127	87.12
396.352	89.12
396.576	77.12
396.801	89.12
397.025	84.12
397.249	85.12
397.474	96.12
397.698	83.12
397.922	83.12
398.147	88.12
398.371	91.12
398.595	92.12
398.82	79.12
399.044	90.12
399.268	88.12
399.492	89.12
399.717	81.12
399.941	96.12
400.165	102.12
400.389	103.12
400.613	91.12
400.837	81.12
401.062	84.12
401.286	97.12
401.51	99.12
401.734	90.12
401.958	113.12
402.182	137.12
402.406	159.12
402.63	115.12
402.854	89.12
403.078	81.12
403.302	91.12
403.526	93.12
403.75	86.12
403.974	92.12
404.198	93.12
404.422	88.12
404.645	98.12
404.869	103.12
405.093	102.12
405.317	92.12
405.541	103.12
405.765	108.12
405.988	101.12
406.212	153.12
406.436	213.12
406.66	145.12
406.883	94.12
407.107	90.12
407.331	93.12
407.555	93.12
407.778	111.12
408.002	100.12
408.226	102.12
408.449	83.12
408.673	92.12
408.896	79.12
409.12	88.12
409.344	92.12
409.567	98.12
409.791	88.12
410.014	90.12
410.238	87.12
410.461	95.12
410.685	105.12
410.908	93.12
411.132	91.12
411.355	101.12
411.578	99.12
411.802	74.12
412.025	83.12
412.249	89.12
412.472	108.12
412.695	98.12
412.919	75.12
413.142	80.12
413.365	89.12
413.589	88.12
413.812	80.12
414.035	93.12
414.258	88.12
414.482	110.12
414.705	87.12
414.928	87.12
415.151	91.12
415.374	99.12
415.597	103.12
415.821	92.12
416.044	82.12
416.267	82.12
416.49	90.12
416.713	68.12
416.936	86.12
417.159	82.12
417.382	88.12
417.605	75.12
417.828	90.12
418.051	93.12
418.274	96.12
418.497	93.12
418.72	86.12
418.943	93.12
419.166	84.12
419.389	89.12
419.611	71.12
419.834	94.12
420.057	84.12
420.28	82.12
420.503	85.12
420.726	90.12
420.948	83.12
421.171	95.12
421.394	95.12
421.617	96.12
421.839	85.12
422.062	79.12
422.285	89.12
422.507	91.12
422.73	100.12
422.953	109.12
423.175	85.12
423.398	89.12
423.621	85.12
423.843	92.12
424.066	90.12
424.288	87.12
424.511	96.12
424.733	91.12
424.956	115.12
425.178	100.12
425.401	102.12
425.623	93.12
425.846	90.12
426.068	91.12
426.291	81.12
426.513	90.12
426.735	87.12
426.958	95.12
427.18	121.12
427.402	138.12
427.625	178.12
427.847	130.12
428.069	134.12
428.292	88.12
428.514	88.12
428.736	95.12
428.958	83.12
429.181	93.12
429.403	78.12
429.625	84.12
429.847	102.12
430.069	87.12
430.292	93.12
430.514	92.12
430.736	86.12
430.958	95.12
431.18	90.12
431.402	87.12
431.624	79.12
431.846	77.12
432.068	85.12
432.29	97.12
432.512	81.12
432.734	98.12
432.956	75.12
433.178	95.12
433.4	104.12
433.622	91.12
433.844	84.12
434.066	102.12
434.287	76.12
434.509	79.12
434.731	83.12
434.953	87.12
435.175	88.12
435.397	92.12
435.618	93.12
435.84	94.12
436.062	122.12
436.284	117.12
436.505	103.12
436.727	101.12
436.949	84.12
437.17	86.12
437.392	74.12
437.614	86.12
437.835	117.12
438.057	121.12
438.278	104.12
438.5	92.12
438.721	126.12
438.943	106.12
439.165	92.12
439.386	90.12
439.608	84.12
439.829	92.12
440.05	135.12
440.272	140.12
440.493	73.12
440.715	81.12
440.936	94.12
441.158	93.12
441.379	94.12
441.6	94.12
441.822	91.12
442.043	83.12
442.264	94.12
442.486	100.12
442.707	106.12
442.928	102.12
443.149	120.12
443.371	130.12
443.592	118.12
443.813	123.12
444.034	99.12
444.255	85.12
444.476	90.12
444.698	91.12
444.919	88.12
445.14	139.12
445.361	112.12
445.582	115.12
445.803	139.12
446.024	111.12
446.245	134.12
446.466	111.12
446.687	84.12
446.908	109.12
447.129	99.12
447.35	78.12
447.571	91.12
447.792	85.12
448.013	107.12
448.234	115.12
448.455	111.12
448.675	94.12
448.896	119.12
449.117	89.12
449.338	115.12
449.559	116.12
449.779	141.12
450	84.12
450.221	95.12
450.442	83.12
450.662	99.12
450.883	73.12
451.104	106.12
451.324	112.12
451.545	87.12
451.766	86.12
451.986	85.12
452.207	96.12
452.428	92.12
452.648	84.12
452.869	92.12
453.089	102.12
453.31	114.12
453.53	95.12
453.751	90.12
453.971	92.12
454.192	110.12
454.412	91.12
454.633	87.12
454.853	86.12
455.073	91.12
455.294	82.12
455.514	96.12
455.734	89.12
455.955	96.12
456.175	79.12
456.395	89.12
456.616	87.12
456.836	78.12
457.056	89.12
457.276	93.12
457.497	83.12
457.717	78.12
457.937	82.12
458.157	90.12
458.377	91.12
458.598	104.12
458.818	135.12
459.038	153.12
459.258	107.12
459.478	83.12
459.698	82.12
459.918	99.12
460.138	78.12
460.358	94.12
460.578	85.12
460.798	100.12
461.018	88.12
461.238	87.12
461.458	81.12
461.678	87.12
461.898	85.12
462.118	93.12
462.338	83.12
462.558	85.12
462.777	92.12
462.997	91.12
463.217	85.12
463.437	95.12
463.657	83.12
463.876	109.12
464.096	89.12
464.316	87.12
464.536	99.12
464.755	84.12
464.975	114.12
465.195	164.12
465.414	145.12
465.634	101.12
465.854	85.12
466.073	84.12
466.293	87.12
466.512	95.12
466.732	82.12
466.951	85.12
467.171	76.12
467.391	109.12
467.61	104.12
467.829	103.12
468.049	127.12
468.268	136.12
468.488	97.12
468.707	79.12
468.927	79.12
469.146	86.12
469.365	97.12
469.585	89.12
469.804	78.12
470.023	99.12
470.243	102.12
470.462	86.12
470.681	119.12
470.901	86.12
471.12	88.12
471.339	90.12
471.558	88.12
471.777	101.12
471.997	114.12
472.216	149.12
472.435	263.12
472.654	127.12
472.873	83.12
473.092	99.12
473.311	91.12
473.53	77.12
473.749	84.12
473.968	95.12
474.187	92.12
474.406	95.12
474.625	85.12
474.844	78.12
475.063	88.12
475.282	102.12
475.501	83.12
475.72	89.12
475.939	91.12
476.158	92.12
476.377	83.12
476.596	87.12
476.814	74.12
477.033	87.12
477.252	79.12
477.471	79.12
477.69	88.12
477.908	91.12
478.127	83.12
478.346	91.12
478.564	83.12
478.783	95.12
479.002	111.12
479.22	93.12
479.439	109.12
479.658	101.12
479.876	92.12
480.095	79.12
480.313	97.12
480.532	102.12
480.751	110.12
480.969	177.12
481.188	412.12
481.406	278.12
481.624	124.12
481.843	87.12
482.061	86.12
482.28	76.12
482.498	92.12
482.717	90.12
482.935	73.12
483.153	88.12
483.372	93.12
483.59	79.12
483.808	79.12
484.027	90.12
484.245	87.12
484.463	89.12
484.681	104.12
484.9	95.12
485.118	83.12
485.336	77.12
485.554	94.12
485.772	97.12
485.99	102.12
486.209	94.12
486.427	105.12
486.645	126.12
486.863	111.12
487.081	101.12
487.299	105.12
487.517	93.12
487.735	97.12
487.953	80.12
488.171	87.12
488.389	91.12
488.607	100.12
488.825	94.12
489.043	96.12
489.261	84.12
489.479	94.12
489.696	102.12
489.914	80.12
490.132	80.12
490.35	104.12
490.568	100.12
490.786	92.12
491.003	92.12
491.221	86.12
491.439	84.12
491.657	88.12
491.874	93.12
492.092	98.12
492.31	94.12
492.527	99.12
492.745	89.12
492.963	88.12
493.18	94.12
493.398	95.12
493.615	102.12
493.833	102.12
494.05	84.12
494.268	87.12
494.485	76.12
494.703	80.12
494.92	89.12
495.138	98.12
495.355	87.12
495.573	95.12
495.79	90.12
496.008	101.12
496.225	97.12
496.442	84.12
496.66	88.12
496.877	83.12
497.094	88.12
497.312	95.12
497.529	94.12
497.746	79.12
497.963	100.12
498.181	98.12
498.398	107.12
498.615	115.12
498.832	105.12
499.049	87.12
499.267	77.12
499.484	99.12
499.701	100.12
499.918	81.12
500.135	91.12
500.352	101.12
500.569	88.12
500.786	83.12
501.003	89.12
501.22	92.12
501.437	86.12
501.654	93.12
501.871	94.12
502.088	94.12
502.305	100.12
502.522	82.12
502.739	98.12
502.956	91.12
503.172	100.12
503.389	107.12
503.606	110.12
503.823	102.12
504.04	100.12
504.256	92.12
504.473	92.12
504.69	92.12
504.907	88.12
505.123	89.12
505.34	84.12
505.557	91.12
505.773	92.12
505.99	100.12
506.207	81.12
506.423	82.12
506.64	93.12
506.856	93.12
507.073	90.12
507.289	96.12
507.506	110.12
507.722	98.12
507.939	111.12
508.155	102.12
508.372	82.12
508.588	79.12
508.805	105.12
509.021	77.12
509.238	103.12
509.454	116.12
509.67	104.12
509.887	112.12
510.103	147.12
510.319	210.12
510.536	760.12
510.752	2376.12
510.968	658.12
511.184	150.12
511.401	115.12
511.617	101.12
511.833	94.12
512.049	88.12
512.265	91.12
512.481	86.12
512.698	106.12
512.914	90.12
513.13	92.12
513.346	95.12
513.562	95.12
513.778	91.12
513.994	95.12
514.21	100.12
514.426	115.12
514.642	137.12
514.858	132.12
515.074	171.12
515.29	450.12
515.506	1541.12
515.721	572.12
515.937	177.12
