Data from Circ_2011_H10_HRD10591_00035.txt Node
Date: Wed Jan 03 10:08:06 EST 2024
User: Yrep
Spectrometer: HR+D1059
Trigger mode: 1
Integration Time (sec): 1.000000E-1
Scans to average: 1
Electric dark correction enabled: true
Nonlinearity correction enabled: false
Boxcar width: 0
XAxis mode: Wavelengths
Number of Pixels in Spectrum: 2048
>>>>>Begin Spectral Data<<<<<
223.165	-22.06
223.4	-22.06
223.635	-22.06
223.869	-16.06
224.104	-29.06
224.338	-17.06
224.573	-22.06
224.808	-1.06
225.042	-2.06
225.277	0.94
225.511	6.94
225.746	-5.06
225.98	8.94
226.215	19.94
226.449	23.94
226.683	12.94
226.918	15.94
227.152	24.94
227.387	30.94
227.621	31.94
227.856	47.94
228.09	55.94
228.324	35.94
228.559	56.94
228.793	49.94
229.027	57.94
229.262	59.94
229.496	74.94
229.73	74.94
229.964	85.94
230.199	74.94
230.433	81.94
230.667	69.94
230.901	82.94
231.136	80.94
231.37	86.94
231.604	89.94
231.838	83.94
232.072	75.94
232.306	85.94
232.541	92.94
232.775	72.94
233.009	71.94
233.243	81.94
233.477	90.94
233.711	80.94
233.945	87.94
234.179	68.94
234.413	76.94
234.647	79.94
234.881	83.94
235.115	87.94
235.349	79.94
235.583	64.94
235.817	75.94
236.051	61.94
236.285	70.94
236.519	79.94
236.753	83.94
236.987	75.94
237.221	79.94
237.455	87.94
237.689	74.94
237.922	82.94
238.156	73.94
238.39	63.94
238.624	71.94
238.858	72.94
239.091	71.94
239.325	78.94
239.559	84.94
239.793	82.94
240.027	78.94
240.26	81.94
240.494	77.94
240.728	94.94
240.961	86.94
241.195	84.94
241.429	63.94
241.662	84.94
241.896	85.94
242.13	74.94
242.363	68.94
242.597	77.94
242.83	83.94
243.064	65.94
243.298	77.94
243.531	78.94
243.765	60.94
243.998	62.94
244.232	83.94
244.465	92.94
244.699	81.94
244.932	85.94
245.166	85.94
245.399	74.94
245.633	69.94
245.866	66.94
246.099	78.94
246.333	78.94
246.566	85.94
246.8	80.94
247.033	79.94
247.266	86.94
247.5	80.94
247.733	62.94
247.966	78.94
248.2	66.94
248.433	68.94
248.666	74.94
248.899	75.94
249.133	82.94
249.366	103.94
249.599	88.94
249.832	67.94
250.066	76.94
250.299	92.94
250.532	83.94
250.765	83.94
250.998	67.94
251.231	77.94
251.465	89.94
251.698	76.94
251.931	80.94
252.164	88.94
252.397	86.94
252.63	69.94
252.863	66.94
253.096	72.94
253.329	89.94
253.562	71.94
253.795	71.94
254.028	84.94
254.261	74.94
254.494	65.94
254.727	74.94
254.96	96.94
255.193	85.94
255.426	81.94
255.659	67.94
255.892	91.94
256.124	90.94
256.357	81.94
256.59	75.94
256.823	75.94
257.056	82.94
257.289	71.94
257.521	82.94
257.754	75.94
257.987	77.94
258.22	76.94
258.452	64.94
258.685	69.94
258.918	77.94
259.151	81.94
259.383	79.94
259.616	85.94
259.849	82.94
260.081	92.94
260.314	65.94
260.547	82.94
260.779	74.94
261.012	86.94
261.244	89.94
261.477	81.94
261.71	98.94
261.942	117.94
262.175	117.94
262.407	85.94
262.64	80.94
262.872	78.94
263.105	83.94
263.337	82.94
263.57	79.94
263.802	91.94
264.035	86.94
264.267	74.94
264.499	83.94
264.732	94.94
264.964	89.94
265.197	87.94
265.429	89.94
265.661	85.94
265.894	90.94
266.126	77.94
266.358	73.94
266.591	87.94
266.823	80.94
267.055	76.94
267.287	88.94
267.52	74.94
267.752	81.94
267.984	79.94
268.216	86.94
268.448	79.94
268.681	79.94
268.913	86.94
269.145	88.94
269.377	80.94
269.609	88.94
269.841	83.94
270.073	86.94
270.306	83.94
270.538	88.94
270.77	86.94
271.002	77.94
271.234	79.94
271.466	75.94
271.698	88.94
271.93	85.94
272.162	94.94
272.394	103.94
272.626	82.94
272.858	81.94
273.09	96.94
273.322	79.94
273.553	86.94
273.785	73.94
274.017	90.94
274.249	86.94
274.481	83.94
274.713	80.94
274.945	78.94
275.176	81.94
275.408	82.94
275.64	86.94
275.872	90.94
276.104	94.94
276.335	88.94
276.567	98.94
276.799	101.94
277.031	105.94
277.262	105.94
277.494	96.94
277.726	88.94
277.957	77.94
278.189	75.94
278.421	83.94
278.652	96.94
278.884	73.94
279.115	80.94
279.347	84.94
279.579	87.94
279.81	83.94
280.042	94.94
280.273	95.94
280.505	86.94
280.736	76.94
280.968	76.94
281.199	78.94
281.431	74.94
281.662	78.94
281.894	92.94
282.125	92.94
282.356	124.94
282.588	136.94
282.819	120.94
283.051	87.94
283.282	91.94
283.513	77.94
283.745	103.94
283.976	93.94
284.207	67.94
284.439	78.94
284.67	88.94
284.901	86.94
285.132	76.94
285.364	95.94
285.595	89.94
285.826	89.94
286.057	90.94
286.288	88.94
286.52	104.94
286.751	86.94
286.982	90.94
287.213	71.94
287.444	88.94
287.675	87.94
287.906	84.94
288.138	93.94
288.369	76.94
288.6	87.94
288.831	100.94
289.062	77.94
289.293	86.94
289.524	73.94
289.755	99.94
289.986	92.94
290.217	94.94
290.448	97.94
290.679	105.94
290.91	88.94
291.141	89.94
291.371	79.94
291.602	83.94
291.833	85.94
292.064	81.94
292.295	94.94
292.526	82.94
292.757	102.94
292.987	99.94
293.218	82.94
293.449	92.94
293.68	89.94
293.91	94.94
294.141	83.94
294.372	82.94
294.603	76.94
294.833	76.94
295.064	98.94
295.295	88.94
295.525	82.94
295.756	105.94
295.987	117.94
296.217	148.94
296.448	139.94
296.679	85.94
296.909	90.94
297.14	65.94
297.37	88.94
297.601	84.94
297.831	89.94
298.062	99.94
298.292	85.94
298.523	86.94
298.753	98.94
298.984	79.94
299.214	107.94
299.445	103.94
299.675	86.94
299.905	86.94
300.136	79.94
300.366	79.94
300.597	86.94
300.827	98.94
301.057	84.94
301.288	98.94
301.518	103.94
301.748	85.94
301.979	90.94
302.209	93.94
302.439	88.94
302.669	95.94
302.9	84.94
303.13	93.94
303.36	108.94
303.59	115.94
303.82	108.94
304.051	81.94
304.281	84.94
304.511	72.94
304.741	85.94
304.971	91.94
305.201	87.94
305.431	73.94
305.661	91.94
305.891	81.94
306.121	92.94
306.352	96.94
306.582	104.94
306.812	90.94
307.042	79.94
307.272	85.94
307.502	86.94
307.731	87.94
307.961	78.94
308.191	85.94
308.421	87.94
308.651	84.94
308.881	90.94
309.111	99.94
309.341	95.94
309.571	99.94
309.8	82.94
310.03	98.94
310.26	94.94
310.49	90.94
310.72	114.94
310.949	101.94
311.179	97.94
311.409	78.94
311.639	87.94
311.868	102.94
312.098	94.94
312.328	92.94
312.557	104.94
312.787	109.94
313.017	108.94
313.246	98.94
313.476	98.94
313.706	97.94
313.935	84.94
314.165	95.94
314.394	94.94
314.624	102.94
314.853	105.94
315.083	93.94
315.312	78.94
315.542	92.94
315.771	96.94
316.001	91.94
316.23	101.94
316.46	83.94
316.689	93.94
316.919	80.94
317.148	98.94
317.377	100.94
317.607	91.94
317.836	97.94
318.065	86.94
318.295	92.94
318.524	84.94
318.753	106.94
318.983	84.94
319.212	103.94
319.441	97.94
319.67	104.94
319.9	103.94
320.129	76.94
320.358	109.94
320.587	98.94
320.816	92.94
321.046	94.94
321.275	110.94
321.504	86.94
321.733	105.94
321.962	79.94
322.191	106.94
322.42	104.94
322.649	98.94
322.878	96.94
323.108	108.94
323.337	116.94
323.566	113.94
323.795	162.94
324.024	223.94
324.253	421.94
324.482	929.94
324.71	1942.94
324.939	2530.94
325.168	939.94
325.397	273.94
325.626	157.94
325.855	131.94
326.084	121.94
326.313	146.94
326.542	148.94
326.77	238.94
326.999	518.94
327.228	1081.94
327.457	1950.94
327.686	1554.94
327.914	420.94
328.143	236.94
328.372	193.94
328.6	133.94
328.829	137.94
329.058	126.94
329.287	132.94
329.515	106.94
329.744	127.94
329.972	123.94
330.201	186.94
330.43	239.94
330.658	178.94
330.887	133.94
331.115	135.94
331.344	101.94
331.572	98.94
331.801	94.94
332.03	109.94
332.258	105.94
332.486	88.94
332.715	95.94
332.943	110.94
333.172	109.94
333.4	97.94
333.629	103.94
333.857	124.94
334.085	141.94
334.314	173.94
334.542	250.94
334.771	241.94
334.999	130.94
335.227	89.94
335.455	87.94
335.684	106.94
335.912	97.94
336.14	110.94
336.369	94.94
336.597	90.94
336.825	101.94
337.053	85.94
337.281	84.94
337.51	86.94
337.738	87.94
337.966	78.94
338.194	93.94
338.422	107.94
338.65	104.94
338.878	79.94
339.106	84.94
339.334	85.94
339.562	92.94
339.79	87.94
340.018	89.94
340.246	81.94
340.474	93.94
340.702	92.94
340.93	75.94
341.158	91.94
341.386	83.94
341.614	97.94
341.842	97.94
342.07	99.94
342.298	75.94
342.526	91.94
342.754	92.94
342.981	74.94
343.209	92.94
343.437	104.94
343.665	84.94
343.893	93.94
344.12	88.94
344.348	94.94
344.576	103.94
344.804	85.94
345.031	105.94
345.259	96.94
345.487	76.94
345.714	92.94
345.942	92.94
346.17	90.94
346.397	91.94
346.625	97.94
346.853	84.94
347.08	105.94
347.308	87.94
347.535	93.94
347.763	101.94
347.99	101.94
348.218	93.94
348.445	99.94
348.673	98.94
348.9	94.94
349.128	87.94
349.355	87.94
349.583	78.94
349.81	87.94
350.037	101.94
350.265	93.94
350.492	119.94
350.72	100.94
350.947	113.94
351.174	119.94
351.402	117.94
351.629	107.94
351.856	101.94
352.083	101.94
352.311	119.94
352.538	122.94
352.765	106.94
352.992	117.94
353.22	119.94
353.447	107.94
353.674	96.94
353.901	82.94
354.128	76.94
354.355	101.94
354.583	110.94
354.81	95.94
355.037	89.94
355.264	99.94
355.491	87.94
355.718	97.94
355.945	100.94
356.172	89.94
356.399	94.94
356.626	91.94
356.853	91.94
357.08	75.94
357.307	114.94
357.534	87.94
357.761	80.94
357.988	86.94
358.215	80.94
358.441	96.94
358.668	85.94
358.895	78.94
359.122	88.94
359.349	79.94
359.576	98.94
359.802	92.94
360.029	112.94
360.256	108.94
360.483	105.94
360.709	73.94
360.936	90.94
361.163	103.94
361.39	100.94
361.616	103.94
361.843	98.94
362.07	93.94
362.296	94.94
362.523	94.94
362.749	87.94
362.976	91.94
363.203	88.94
363.429	95.94
363.656	93.94
363.882	84.94
364.109	100.94
364.335	105.94
364.562	91.94
364.788	101.94
365.015	100.94
365.241	107.94
365.468	110.94
365.694	104.94
365.92	67.94
366.147	100.94
366.373	82.94
366.599	89.94
366.826	74.94
367.052	78.94
367.278	85.94
367.505	98.94
367.731	86.94
367.957	79.94
368.184	87.94
368.41	81.94
368.636	102.94
368.862	113.94
369.089	103.94
369.315	78.94
369.541	79.94
369.767	91.94
369.993	86.94
370.219	77.94
370.445	98.94
370.672	95.94
370.898	93.94
371.124	97.94
371.35	83.94
371.576	91.94
371.802	90.94
372.028	90.94
372.254	91.94
372.48	89.94
372.706	76.94
372.932	76.94
373.158	79.94
373.384	84.94
373.61	84.94
373.835	75.94
374.061	96.94
374.287	97.94
374.513	94.94
374.739	77.94
374.965	86.94
375.191	78.94
375.416	90.94
375.642	77.94
375.868	98.94
376.094	89.94
376.319	84.94
376.545	88.94
376.771	76.94
376.997	101.94
377.222	84.94
377.448	84.94
377.674	96.94
377.899	90.94
378.125	100.94
378.35	67.94
378.576	90.94
378.802	90.94
379.027	84.94
379.253	89.94
379.478	95.94
379.704	91.94
379.929	104.94
380.155	87.94
380.38	91.94
380.606	79.94
380.831	92.94
381.057	98.94
381.282	94.94
381.507	97.94
381.733	86.94
381.958	102.94
382.184	73.94
382.409	87.94
382.634	95.94
382.86	95.94
383.085	113.94
383.31	89.94
383.535	89.94
383.761	95.94
383.986	97.94
384.211	92.94
384.436	92.94
384.662	104.94
384.887	86.94
385.112	95.94
385.337	93.94
385.562	102.94
385.787	100.94
386.013	94.94
386.238	117.94
386.463	96.94
386.688	114.94
386.913	94.94
387.138	92.94
387.363	85.94
387.588	103.94
387.813	85.94
388.038	96.94
388.263	100.94
388.488	91.94
388.713	85.94
388.938	93.94
389.163	76.94
389.387	95.94
389.612	99.94
389.837	82.94
390.062	85.94
390.287	91.94
390.512	91.94
390.736	99.94
390.961	98.94
391.186	89.94
391.411	101.94
391.636	98.94
391.86	92.94
392.085	70.94
392.31	74.94
392.534	99.94
392.759	92.94
392.984	78.94
393.208	85.94
393.433	84.94
393.658	75.94
393.882	77.94
394.107	83.94
394.331	80.94
394.556	82.94
394.78	88.94
395.005	89.94
395.229	78.94
395.454	99.94
395.678	79.94
395.903	71.94
396.127	86.94
396.352	77.94
396.576	73.94
396.801	69.94
397.025	76.94
397.249	86.94
397.474	79.94
397.698	78.94
397.922	84.94
398.147	86.94
398.371	70.94
398.595	84.94
398.82	77.94
399.044	70.94
399.268	72.94
399.492	74.94
399.717	84.94
399.941	79.94
400.165	97.94
400.389	87.94
400.613	102.94
400.837	97.94
401.062	82.94
401.286	87.94
401.51	85.94
401.734	87.94
401.958	91.94
402.182	114.94
402.406	166.94
402.63	129.94
402.854	105.94
403.078	100.94
403.302	87.94
403.526	80.94
403.75	72.94
403.974	88.94
404.198	86.94
404.422	73.94
404.645	94.94
404.869	91.94
405.093	103.94
405.317	104.94
405.541	94.94
405.765	110.94
405.988	108.94
406.212	172.94
406.436	238.94
406.66	165.94
406.883	94.94
407.107	101.94
407.331	93.94
407.555	99.94
407.778	99.94
408.002	76.94
408.226	88.94
408.449	81.94
408.673	79.94
408.896	90.94
409.12	101.94
409.344	83.94
409.567	88.94
409.791	83.94
410.014	94.94
410.238	96.94
410.461	97.94
410.685	90.94
410.908	110.94
411.132	103.94
411.355	97.94
411.578	78.94
411.802	72.94
412.025	83.94
412.249	97.94
412.472	85.94
412.695	103.94
412.919	91.94
413.142	86.94
413.365	84.94
413.589	94.94
413.812	104.94
414.035	80.94
414.258	90.94
414.482	95.94
414.705	85.94
414.928	87.94
415.151	89.94
415.374	88.94
415.597	97.94
415.821	83.94
416.044	73.94
416.267	90.94
416.49	93.94
416.713	80.94
416.936	101.94
417.159	83.94
417.382	77.94
417.605	89.94
417.828	89.94
418.051	102.94
418.274	95.94
418.497	95.94
418.72	96.94
418.943	80.94
419.166	96.94
419.389	94.94
419.611	86.94
419.834	92.94
420.057	94.94
420.28	84.94
420.503	80.94
420.726	85.94
420.948	78.94
421.171	111.94
421.394	87.94
421.617	97.94
421.839	98.94
422.062	84.94
422.285	93.94
422.507	102.94
422.73	110.94
422.953	93.94
423.175	87.94
423.398	103.94
423.621	90.94
423.843	75.94
424.066	79.94
424.288	79.94
424.511	82.94
424.733	100.94
424.956	110.94
425.178	100.94
425.401	102.94
425.623	98.94
425.846	95.94
426.068	93.94
426.291	95.94
426.513	86.94
426.735	83.94
426.958	84.94
427.18	99.94
427.402	152.94
427.625	167.94
427.847	152.94
428.069	138.94
428.292	98.94
428.514	94.94
428.736	92.94
428.958	86.94
429.181	82.94
429.403	91.94
429.625	78.94
429.847	94.94
430.069	91.94
430.292	84.94
430.514	76.94
430.736	83.94
430.958	91.94
431.18	90.94
431.402	81.94
431.624	83.94
431.846	80.94
432.068	88.94
432.29	70.94
432.512	87.94
432.734	91.94
432.956	90.94
433.178	93.94
433.4	105.94
433.622	93.94
433.844	77.94
434.066	93.94
434.287	106.94
434.509	86.94
434.731	78.94
434.953	88.94
435.175	94.94
435.397	95.94
435.618	98.94
435.84	110.94
436.062	122.94
436.284	130.94
436.505	100.94
436.727	87.94
436.949	91.94
437.17	90.94
437.392	73.94
437.614	95.94
437.835	87.94
438.057	121.94
438.278	110.94
438.5	112.94
438.721	125.94
438.943	94.94
439.165	92.94
439.386	74.94
439.608	83.94
439.829	105.94
440.05	103.94
440.272	136.94
440.493	100.94
440.715	83.94
440.936	89.94
441.158	91.94
441.379	85.94
441.6	84.94
441.822	76.94
442.043	88.94
442.264	95.94
442.486	113.94
442.707	87.94
442.928	103.94
443.149	140.94
443.371	126.94
443.592	110.94
443.813	113.94
444.034	102.94
444.255	92.94
444.476	91.94
444.698	90.94
444.919	78.94
445.14	128.94
445.361	117.94
445.582	122.94
445.803	149.94
446.024	155.94
446.245	143.94
446.466	119.94
446.687	95.94
446.908	95.94
447.129	80.94
447.35	91.94
447.571	82.94
447.792	84.94
448.013	101.94
448.234	92.94
448.455	109.94
448.675	133.94
448.896	126.94
449.117	105.94
449.338	86.94
449.559	112.94
449.779	142.94
450	95.94
450.221	83.94
450.442	92.94
450.662	95.94
450.883	94.94
451.104	101.94
451.324	90.94
451.545	80.94
451.766	93.94
451.986	92.94
452.207	79.94
452.428	90.94
452.648	103.94
452.869	113.94
453.089	102.94
453.31	110.94
453.53	79.94
453.751	92.94
453.971	98.94
454.192	113.94
454.412	92.94
454.633	80.94
454.853	83.94
455.073	79.94
455.294	91.94
455.514	106.94
455.734	86.94
455.955	79.94
456.175	77.94
456.395	89.94
456.616	100.94
456.836	83.94
457.056	62.94
457.276	86.94
457.497	85.94
457.717	83.94
457.937	93.94
458.157	80.94
458.377	85.94
458.598	122.94
458.818	173.94
459.038	166.94
459.258	121.94
459.478	98.94
459.698	79.94
459.918	100.94
460.138	79.94
460.358	69.94
460.578	94.94
460.798	88.94
461.018	91.94
461.238	86.94
461.458	80.94
461.678	88.94
461.898	79.94
462.118	88.94
462.338	77.94
462.558	90.94
462.777	85.94
462.997	92.94
463.217	95.94
463.437	80.94
463.657	86.94
463.876	69.94
464.096	66.94
464.316	78.94
464.536	82.94
464.755	86.94
464.975	100.94
465.195	162.94
465.414	185.94
465.634	95.94
465.854	81.94
466.073	71.94
466.293	70.94
466.512	101.94
466.732	91.94
466.951	87.94
467.171	94.94
467.391	95.94
467.61	100.94
467.829	98.94
468.049	125.94
468.268	149.94
468.488	83.94
468.707	77.94
468.927	81.94
469.146	90.94
469.365	80.94
469.585	89.94
469.804	97.94
470.023	94.94
470.243	87.94
470.462	99.94
470.681	114.94
470.901	95.94
471.12	91.94
471.339	86.94
471.558	86.94
471.777	89.94
471.997	109.94
472.216	196.94
472.435	325.94
472.654	133.94
472.873	92.94
473.092	83.94
473.311	78.94
473.53	78.94
473.749	83.94
473.968	77.94
474.187	104.94
474.406	91.94
474.625	89.94
474.844	76.94
475.063	94.94
475.282	89.94
475.501	79.94
475.72	83.94
475.939	84.94
476.158	83.94
476.377	80.94
476.596	82.94
476.814	97.94
477.033	94.94
477.252	85.94
477.471	74.94
477.69	76.94
477.908	102.94
478.127	80.94
478.346	85.94
478.564	83.94
478.783	101.94
479.002	99.94
479.22	91.94
479.439	84.94
479.658	94.94
479.876	88.94
480.095	76.94
480.313	91.94
480.532	109.94
480.751	105.94
480.969	198.94
481.188	523.94
481.406	323.94
481.624	106.94
481.843	98.94
482.061	85.94
482.28	92.94
482.498	84.94
482.717	98.94
482.935	81.94
483.153	82.94
483.372	63.94
483.59	91.94
483.808	89.94
484.027	83.94
484.245	109.94
484.463	101.94
484.681	93.94
484.9	86.94
485.118	95.94
485.336	94.94
485.554	114.94
485.772	115.94
485.99	91.94
486.209	104.94
486.427	93.94
486.645	117.94
486.863	114.94
487.081	110.94
487.299	88.94
487.517	92.94
487.735	94.94
487.953	85.94
488.171	80.94
488.389	87.94
488.607	103.94
488.825	101.94
489.043	85.94
489.261	95.94
489.479	84.94
489.696	90.94
489.914	76.94
490.132	83.94
490.35	91.94
490.568	105.94
490.786	88.94
491.003	81.94
491.221	98.94
491.439	97.94
491.657	101.94
491.874	74.94
492.092	79.94
492.31	83.94
492.527	81.94
492.745	102.94
492.963	103.94
493.18	84.94
493.398	94.94
493.615	88.94
493.833	81.94
494.05	89.94
494.268	98.94
494.485	96.94
494.703	75.94
494.92	93.94
495.138	85.94
495.355	83.94
495.573	83.94
495.79	84.94
496.008	85.94
496.225	91.94
496.442	67.94
496.66	83.94
496.877	95.94
497.094	95.94
497.312	89.94
497.529	93.94
497.746	81.94
497.963	89.94
498.181	86.94
498.398	96.94
498.615	100.94
498.832	102.94
499.049	84.94
499.267	90.94
499.484	97.94
499.701	79.94
499.918	92.94
500.135	89.94
500.352	86.94
500.569	90.94
500.786	82.94
501.003	96.94
501.22	94.94
501.437	111.94
501.654	106.94
501.871	98.94
502.088	95.94
502.305	81.94
502.522	94.94
502.739	84.94
502.956	80.94
503.172	82.94
503.389	97.94
503.606	108.94
503.823	89.94
504.04	77.94
504.256	76.94
504.473	93.94
504.69	98.94
504.907	107.94
505.123	90.94
505.34	86.94
505.557	94.94
505.773	93.94
505.99	87.94
506.207	98.94
506.423	84.94
506.64	90.94
506.856	96.94
507.073	92.94
507.289	90.94
507.506	90.94
507.722	128.94
507.939	125.94
508.155	90.94
508.372	97.94
508.588	90.94
508.805	93.94
509.021	87.94
509.238	93.94
509.454	100.94
509.67	83.94
509.887	109.94
510.103	134.94
510.319	243.94
510.536	750.94
510.752	2446.94
510.968	711.94
511.184	158.94
511.401	127.94
511.617	107.94
511.833	84.94
512.049	83.94
512.265	91.94
512.481	82.94
512.698	94.94
512.914	82.94
513.13	82.94
513.346	93.94
513.562	93.94
513.778	105.94
513.994	88.94
514.21	94.94
514.426	129.94
514.642	138.94
514.858	129.94
515.074	178.94
515.29	452.94
515.506	1594.94
515.721	589.94
515.937	151.94
