Data from Circ_2011_H10_HRD10591_00083.txt Node
Date: Wed Jan 03 10:08:15 EST 2024
User: Yrep
Spectrometer: HR+D1059
Trigger mode: 1
Integration Time (sec): 1.000000E-1
Scans to average: 1
Electric dark correction enabled: true
Nonlinearity correction enabled: false
Boxcar width: 0
XAxis mode: Wavelengths
Number of Pixels in Spectrum: 2048
>>>>>Begin Spectral Data<<<<<
223.165	-21.44
223.4	-21.44
223.635	-21.44
223.869	-19.44
224.104	-10.44
224.338	-30.44
224.573	-18.44
224.808	-14.44
225.042	-9.44
225.277	-7.44
225.511	-1.44
225.746	10.56
225.98	4.56
226.215	18.56
226.449	21.56
226.683	7.56
226.918	25.56
227.152	44.56
227.387	39.56
227.621	46.56
227.856	42.56
228.09	52.56
228.324	57.56
228.559	67.56
228.793	69.56
229.027	53.56
229.262	61.56
229.496	71.56
229.73	73.56
229.964	95.56
230.199	91.56
230.433	79.56
230.667	95.56
230.901	85.56
231.136	82.56
231.37	89.56
231.604	87.56
231.838	76.56
232.072	80.56
232.306	76.56
232.541	77.56
232.775	76.56
233.009	83.56
233.243	82.56
233.477	69.56
233.711	94.56
233.945	71.56
234.179	81.56
234.413	86.56
234.647	75.56
234.881	65.56
235.115	74.56
235.349	85.56
235.583	74.56
235.817	92.56
236.051	78.56
236.285	74.56
236.519	84.56
236.753	80.56
236.987	72.56
237.221	85.56
237.455	89.56
237.689	85.56
237.922	85.56
238.156	75.56
238.39	85.56
238.624	68.56
238.858	65.56
239.091	77.56
239.325	72.56
239.559	80.56
239.793	70.56
240.027	77.56
240.26	77.56
240.494	76.56
240.728	81.56
240.961	81.56
241.195	80.56
241.429	79.56
241.662	92.56
241.896	81.56
242.13	85.56
242.363	59.56
242.597	75.56
242.83	84.56
243.064	95.56
243.298	71.56
243.531	76.56
243.765	78.56
243.998	91.56
244.232	87.56
244.465	91.56
244.699	83.56
244.932	79.56
245.166	83.56
245.399	77.56
245.633	70.56
245.866	81.56
246.099	75.56
246.333	70.56
246.566	85.56
246.8	68.56
247.033	83.56
247.266	90.56
247.5	59.56
247.733	76.56
247.966	81.56
248.2	79.56
248.433	72.56
248.666	79.56
248.899	89.56
249.133	98.56
249.366	99.56
249.599	95.56
249.832	99.56
250.066	87.56
250.299	68.56
250.532	91.56
250.765	72.56
250.998	98.56
251.231	89.56
251.465	81.56
251.698	81.56
251.931	84.56
252.164	108.56
252.397	90.56
252.63	107.56
252.863	89.56
253.096	88.56
253.329	89.56
253.562	90.56
253.795	97.56
254.028	97.56
254.261	83.56
254.494	73.56
254.727	63.56
254.96	85.56
255.193	71.56
255.426	85.56
255.659	79.56
255.892	92.56
256.124	88.56
256.357	79.56
256.59	87.56
256.823	85.56
257.056	93.56
257.289	89.56
257.521	87.56
257.754	82.56
257.987	68.56
258.22	89.56
258.452	73.56
258.685	79.56
258.918	91.56
259.151	88.56
259.383	101.56
259.616	81.56
259.849	86.56
260.081	75.56
260.314	89.56
260.547	91.56
260.779	80.56
261.012	99.56
261.244	92.56
261.477	92.56
261.71	99.56
261.942	117.56
262.175	111.56
262.407	77.56
262.64	86.56
262.872	92.56
263.105	93.56
263.337	97.56
263.57	86.56
263.802	83.56
264.035	87.56
264.267	88.56
264.499	83.56
264.732	72.56
264.964	91.56
265.197	88.56
265.429	92.56
265.661	92.56
265.894	96.56
266.126	75.56
266.358	96.56
266.591	81.56
266.823	90.56
267.055	91.56
267.287	75.56
267.52	73.56
267.752	85.56
267.984	76.56
268.216	88.56
268.448	73.56
268.681	85.56
268.913	85.56
269.145	84.56
269.377	74.56
269.609	87.56
269.841	92.56
270.073	96.56
270.306	84.56
270.538	80.56
270.77	80.56
271.002	82.56
271.234	85.56
271.466	96.56
271.698	67.56
271.93	84.56
272.162	98.56
272.394	86.56
272.626	83.56
272.858	88.56
273.09	86.56
273.322	65.56
273.553	73.56
273.785	88.56
274.017	88.56
274.249	99.56
274.481	80.56
274.713	75.56
274.945	88.56
275.176	88.56
275.408	81.56
275.64	89.56
275.872	88.56
276.104	98.56
276.335	96.56
276.567	87.56
276.799	109.56
277.031	102.56
277.262	107.56
277.494	91.56
277.726	94.56
277.957	85.56
278.189	100.56
278.421	101.56
278.652	86.56
278.884	76.56
279.115	89.56
279.347	89.56
279.579	97.56
279.81	93.56
280.042	95.56
280.273	106.56
280.505	90.56
280.736	82.56
280.968	85.56
281.199	88.56
281.431	88.56
281.662	75.56
281.894	93.56
282.125	101.56
282.356	133.56
282.588	137.56
282.819	118.56
283.051	80.56
283.282	90.56
283.513	104.56
283.745	97.56
283.976	78.56
284.207	95.56
284.439	81.56
284.67	76.56
284.901	77.56
285.132	83.56
285.364	79.56
285.595	74.56
285.826	85.56
286.057	87.56
286.288	81.56
286.52	82.56
286.751	76.56
286.982	87.56
287.213	89.56
287.444	96.56
287.675	88.56
287.906	90.56
288.138	89.56
288.369	100.56
288.6	87.56
288.831	90.56
289.062	95.56
289.293	91.56
289.524	91.56
289.755	94.56
289.986	108.56
290.217	83.56
290.448	95.56
290.679	95.56
290.91	90.56
291.141	87.56
291.371	82.56
291.602	88.56
291.833	90.56
292.064	83.56
292.295	102.56
292.526	80.56
292.757	82.56
292.987	94.56
293.218	95.56
293.449	90.56
293.68	77.56
293.91	91.56
294.141	91.56
294.372	87.56
294.603	104.56
294.833	85.56
295.064	76.56
295.295	88.56
295.525	100.56
295.756	101.56
295.987	122.56
296.217	134.56
296.448	116.56
296.679	87.56
296.909	96.56
297.14	84.56
297.37	108.56
297.601	90.56
297.831	80.56
298.062	94.56
298.292	75.56
298.523	87.56
298.753	92.56
298.984	86.56
299.214	86.56
299.445	81.56
299.675	104.56
299.905	94.56
300.136	95.56
300.366	87.56
300.597	83.56
300.827	84.56
301.057	97.56
301.288	107.56
301.518	105.56
301.748	97.56
301.979	110.56
302.209	94.56
302.439	93.56
302.669	100.56
302.9	74.56
303.13	95.56
303.36	86.56
303.59	100.56
303.82	100.56
304.051	87.56
304.281	90.56
304.511	93.56
304.741	96.56
304.971	80.56
305.201	86.56
305.431	87.56
305.661	92.56
305.891	90.56
306.121	94.56
306.352	95.56
306.582	104.56
306.812	89.56
307.042	101.56
307.272	98.56
307.502	104.56
307.731	103.56
307.961	99.56
308.191	87.56
308.421	89.56
308.651	105.56
308.881	84.56
309.111	95.56
309.341	89.56
309.571	96.56
309.8	95.56
310.03	101.56
310.26	93.56
310.49	97.56
310.72	109.56
310.949	105.56
311.179	112.56
311.409	97.56
311.639	91.56
311.868	106.56
312.098	106.56
312.328	109.56
312.557	90.56
312.787	108.56
313.017	100.56
313.246	104.56
313.476	95.56
313.706	97.56
313.935	101.56
314.165	104.56
314.394	102.56
314.624	90.56
314.853	87.56
315.083	105.56
315.312	93.56
315.542	102.56
315.771	81.56
316.001	81.56
316.23	105.56
316.46	101.56
316.689	93.56
316.919	82.56
317.148	105.56
317.377	85.56
317.607	99.56
317.836	92.56
318.065	92.56
318.295	105.56
318.524	93.56
318.753	79.56
318.983	97.56
319.212	94.56
319.441	101.56
319.67	112.56
319.9	81.56
320.129	101.56
320.358	99.56
320.587	102.56
320.816	100.56
321.046	100.56
321.275	117.56
321.504	98.56
321.733	103.56
321.962	95.56
322.191	100.56
322.42	115.56
322.649	111.56
322.878	103.56
323.108	117.56
323.337	126.56
323.566	133.56
323.795	154.56
324.024	190.56
324.253	411.56
324.482	835.56
324.71	1704.56
324.939	2234.56
325.168	797.56
325.397	247.56
325.626	140.56
325.855	129.56
326.084	118.56
326.313	124.56
326.542	160.56
326.77	232.56
326.999	497.56
327.228	938.56
327.457	1750.56
327.686	1387.56
327.914	369.56
328.143	222.56
328.372	196.56
328.6	136.56
328.829	126.56
329.058	123.56
329.287	143.56
329.515	102.56
329.744	118.56
329.972	150.56
330.201	221.56
330.43	281.56
330.658	189.56
330.887	143.56
331.115	136.56
331.344	110.56
331.572	99.56
331.801	100.56
332.03	107.56
332.258	101.56
332.486	101.56
332.715	93.56
332.943	93.56
333.172	97.56
333.4	96.56
333.629	112.56
333.857	119.56
334.085	158.56
334.314	231.56
334.542	340.56
334.771	327.56
334.999	146.56
335.227	119.56
335.455	96.56
335.684	99.56
335.912	104.56
336.14	92.56
336.369	96.56
336.597	92.56
336.825	99.56
337.053	94.56
337.281	86.56
337.51	83.56
337.738	77.56
337.966	92.56
338.194	93.56
338.422	111.56
338.65	90.56
338.878	76.56
339.106	98.56
339.334	95.56
339.562	77.56
339.79	83.56
340.018	93.56
340.246	98.56
340.474	74.56
340.702	88.56
340.93	87.56
341.158	94.56
341.386	110.56
341.614	97.56
341.842	78.56
342.07	88.56
342.298	96.56
342.526	83.56
342.754	95.56
342.981	74.56
343.209	77.56
343.437	95.56
343.665	97.56
343.893	93.56
344.12	86.56
344.348	96.56
344.576	91.56
344.804	92.56
345.031	108.56
345.259	90.56
345.487	97.56
345.714	92.56
345.942	84.56
346.17	88.56
346.397	78.56
346.625	94.56
346.853	95.56
347.08	93.56
347.308	101.56
347.535	104.56
347.763	92.56
347.99	84.56
348.218	103.56
348.445	126.56
348.673	102.56
348.9	110.56
349.128	89.56
349.355	82.56
349.583	101.56
349.81	86.56
350.037	87.56
350.265	101.56
350.492	98.56
350.72	94.56
350.947	95.56
351.174	106.56
351.402	103.56
351.629	104.56
351.856	104.56
352.083	93.56
352.311	86.56
352.538	94.56
352.765	109.56
352.992	123.56
353.22	96.56
353.447	107.56
353.674	107.56
353.901	108.56
354.128	99.56
354.355	89.56
354.583	90.56
354.81	96.56
355.037	84.56
355.264	101.56
355.491	85.56
355.718	73.56
355.945	100.56
356.172	95.56
356.399	91.56
356.626	101.56
356.853	92.56
357.08	91.56
357.307	92.56
357.534	93.56
357.761	109.56
357.988	106.56
358.215	109.56
358.441	96.56
358.668	96.56
358.895	100.56
359.122	95.56
359.349	94.56
359.576	76.56
359.802	102.56
360.029	111.56
360.256	96.56
360.483	88.56
360.709	79.56
360.936	92.56
361.163	96.56
361.39	96.56
361.616	94.56
361.843	86.56
362.07	102.56
362.296	95.56
362.523	92.56
362.749	86.56
362.976	92.56
363.203	87.56
363.429	93.56
363.656	84.56
363.882	85.56
364.109	103.56
364.335	106.56
364.562	84.56
364.788	88.56
365.015	82.56
365.241	112.56
365.468	120.56
365.694	97.56
365.92	100.56
366.147	95.56
366.373	87.56
366.599	99.56
366.826	85.56
367.052	85.56
367.278	92.56
367.505	81.56
367.731	88.56
367.957	90.56
368.184	84.56
368.41	96.56
368.636	117.56
368.862	124.56
369.089	112.56
369.315	93.56
369.541	81.56
369.767	98.56
369.993	83.56
370.219	92.56
370.445	85.56
370.672	94.56
370.898	90.56
371.124	95.56
371.35	90.56
371.576	100.56
371.802	84.56
372.028	93.56
372.254	75.56
372.48	76.56
372.706	94.56
372.932	81.56
373.158	81.56
373.384	91.56
373.61	93.56
373.835	92.56
374.061	90.56
374.287	92.56
374.513	92.56
374.739	80.56
374.965	92.56
375.191	85.56
375.416	100.56
375.642	91.56
375.868	94.56
376.094	80.56
376.319	96.56
376.545	80.56
376.771	87.56
376.997	91.56
377.222	75.56
377.448	87.56
377.674	95.56
377.899	95.56
378.125	111.56
378.35	82.56
378.576	81.56
378.802	86.56
379.027	88.56
379.253	94.56
379.478	103.56
379.704	83.56
379.929	95.56
380.155	103.56
380.38	95.56
380.606	89.56
380.831	91.56
381.057	104.56
381.282	94.56
381.507	93.56
381.733	90.56
381.958	105.56
382.184	75.56
382.409	105.56
382.634	89.56
382.86	85.56
383.085	98.56
383.31	95.56
383.535	87.56
383.761	97.56
383.986	91.56
384.211	86.56
384.436	107.56
384.662	84.56
384.887	85.56
385.112	97.56
385.337	98.56
385.562	103.56
385.787	86.56
386.013	104.56
386.238	109.56
386.463	106.56
386.688	97.56
386.913	102.56
387.138	108.56
387.363	104.56
387.588	103.56
387.813	97.56
388.038	92.56
388.263	112.56
388.488	103.56
388.713	93.56
388.938	92.56
389.163	102.56
389.387	87.56
389.612	90.56
389.837	85.56
390.062	104.56
390.287	96.56
390.512	79.56
390.736	92.56
390.961	89.56
391.186	79.56
391.411	77.56
391.636	85.56
391.86	81.56
392.085	81.56
392.31	72.56
392.534	83.56
392.759	74.56
392.984	95.56
393.208	86.56
393.433	80.56
393.658	95.56
393.882	86.56
394.107	79.56
394.331	90.56
394.556	78.56
394.78	78.56
395.005	94.56
395.229	90.56
395.454	83.56
395.678	86.56
395.903	87.56
396.127	84.56
396.352	88.56
396.576	98.56
396.801	86.56
397.025	96.56
397.249	85.56
397.474	99.56
397.698	98.56
397.922	79.56
398.147	89.56
398.371	75.56
398.595	82.56
398.82	95.56
399.044	88.56
399.268	89.56
399.492	70.56
399.717	87.56
399.941	99.56
400.165	91.56
400.389	79.56
400.613	80.56
400.837	83.56
401.062	98.56
401.286	81.56
401.51	93.56
401.734	100.56
401.958	103.56
402.182	118.56
402.406	138.56
402.63	120.56
402.854	93.56
403.078	96.56
403.302	93.56
403.526	92.56
403.75	72.56
403.974	108.56
404.198	80.56
404.422	86.56
404.645	64.56
404.869	78.56
405.093	97.56
405.317	104.56
405.541	107.56
405.765	100.56
405.988	114.56
406.212	168.56
406.436	202.56
406.66	147.56
406.883	96.56
407.107	86.56
407.331	93.56
407.555	96.56
407.778	121.56
408.002	74.56
408.226	96.56
408.449	97.56
408.673	92.56
408.896	96.56
409.12	81.56
409.344	103.56
409.567	83.56
409.791	81.56
410.014	82.56
410.238	102.56
410.461	100.56
410.685	94.56
410.908	93.56
411.132	99.56
411.355	102.56
411.578	91.56
411.802	79.56
412.025	95.56
412.249	96.56
412.472	101.56
412.695	106.56
412.919	94.56
413.142	97.56
413.365	103.56
413.589	93.56
413.812	84.56
414.035	85.56
414.258	76.56
414.482	84.56
414.705	92.56
414.928	95.56
415.151	99.56
415.374	94.56
415.597	75.56
415.821	87.56
416.044	87.56
416.267	96.56
416.49	84.56
416.713	91.56
416.936	116.56
417.159	98.56
417.382	78.56
417.605	89.56
417.828	80.56
418.051	102.56
418.274	101.56
418.497	79.56
418.72	85.56
418.943	78.56
419.166	90.56
419.389	92.56
419.611	90.56
419.834	93.56
420.057	94.56
420.28	86.56
420.503	95.56
420.726	89.56
420.948	89.56
421.171	89.56
421.394	95.56
421.617	94.56
421.839	99.56
422.062	80.56
422.285	95.56
422.507	97.56
422.73	90.56
422.953	93.56
423.175	88.56
423.398	105.56
423.621	81.56
423.843	88.56
424.066	93.56
424.288	87.56
424.511	99.56
424.733	104.56
424.956	123.56
425.178	97.56
425.401	90.56
425.623	108.56
425.846	95.56
426.068	93.56
426.291	85.56
426.513	100.56
426.735	94.56
426.958	79.56
427.18	99.56
427.402	145.56
427.625	165.56
427.847	142.56
428.069	156.56
428.292	88.56
428.514	74.56
428.736	81.56
428.958	88.56
429.181	106.56
429.403	74.56
429.625	95.56
429.847	98.56
430.069	97.56
430.292	98.56
430.514	85.56
430.736	80.56
430.958	75.56
431.18	85.56
431.402	102.56
431.624	93.56
431.846	91.56
432.068	79.56
432.29	77.56
432.512	79.56
432.734	84.56
432.956	100.56
433.178	108.56
433.4	92.56
433.622	81.56
433.844	83.56
434.066	87.56
434.287	83.56
434.509	87.56
434.731	90.56
434.953	105.56
435.175	87.56
435.397	87.56
435.618	94.56
435.84	114.56
436.062	114.56
436.284	110.56
436.505	80.56
436.727	99.56
436.949	92.56
437.17	101.56
437.392	89.56
437.614	105.56
437.835	110.56
438.057	110.56
438.278	117.56
438.5	109.56
438.721	119.56
438.943	99.56
439.165	99.56
439.386	86.56
439.608	93.56
439.829	102.56
440.05	121.56
440.272	136.56
440.493	94.56
440.715	90.56
440.936	88.56
441.158	101.56
441.379	99.56
441.6	91.56
441.822	90.56
442.043	96.56
442.264	107.56
442.486	99.56
442.707	85.56
442.928	90.56
443.149	120.56
443.371	115.56
443.592	104.56
443.813	111.56
444.034	117.56
444.255	99.56
444.476	95.56
444.698	96.56
444.919	95.56
445.14	146.56
445.361	117.56
445.582	113.56
445.803	129.56
446.024	137.56
446.245	136.56
446.466	120.56
446.687	91.56
446.908	98.56
447.129	89.56
447.35	83.56
447.571	99.56
447.792	95.56
448.013	102.56
448.234	106.56
448.455	108.56
448.675	110.56
448.896	120.56
449.117	104.56
449.338	117.56
449.559	132.56
449.779	140.56
450	82.56
450.221	83.56
450.442	85.56
450.662	95.56
450.883	109.56
451.104	112.56
451.324	99.56
451.545	97.56
451.766	84.56
451.986	88.56
452.207	80.56
452.428	92.56
452.648	91.56
452.869	101.56
453.089	115.56
453.31	99.56
453.53	87.56
453.751	87.56
453.971	95.56
454.192	100.56
454.412	93.56
454.633	84.56
454.853	88.56
455.073	83.56
455.294	86.56
455.514	86.56
455.734	86.56
455.955	86.56
456.175	86.56
456.395	87.56
456.616	103.56
456.836	85.56
457.056	76.56
457.276	86.56
457.497	80.56
457.717	95.56
457.937	84.56
458.157	89.56
458.377	92.56
458.598	110.56
458.818	153.56
459.038	143.56
459.258	120.56
459.478	99.56
459.698	78.56
459.918	80.56
460.138	79.56
460.358	91.56
460.578	80.56
460.798	96.56
461.018	94.56
461.238	73.56
461.458	87.56
461.678	95.56
461.898	80.56
462.118	99.56
462.338	88.56
462.558	91.56
462.777	77.56
462.997	76.56
463.217	105.56
463.437	71.56
463.657	78.56
463.876	81.56
464.096	90.56
464.316	91.56
464.536	102.56
464.755	94.56
464.975	93.56
465.195	167.56
465.414	157.56
465.634	93.56
465.854	88.56
466.073	117.56
466.293	84.56
466.512	75.56
466.732	71.56
466.951	80.56
467.171	85.56
467.391	91.56
467.61	96.56
467.829	92.56
468.049	155.56
468.268	173.56
468.488	109.56
468.707	99.56
468.927	79.56
469.146	90.56
469.365	78.56
469.585	83.56
469.804	102.56
470.023	88.56
470.243	96.56
470.462	102.56
470.681	111.56
470.901	71.56
471.12	86.56
471.339	88.56
471.558	80.56
471.777	111.56
471.997	125.56
472.216	256.56
472.435	424.56
472.654	158.56
472.873	85.56
473.092	79.56
473.311	73.56
473.53	91.56
473.749	87.56
473.968	89.56
474.187	104.56
474.406	100.56
474.625	92.56
474.844	75.56
475.063	77.56
475.282	103.56
475.501	73.56
475.72	79.56
475.939	85.56
476.158	80.56
476.377	88.56
476.596	93.56
476.814	94.56
477.033	79.56
477.252	80.56
477.471	99.56
477.69	92.56
477.908	88.56
478.127	84.56
478.346	100.56
478.564	84.56
478.783	103.56
479.002	99.56
479.22	90.56
479.439	107.56
479.658	109.56
479.876	92.56
480.095	85.56
480.313	100.56
480.532	101.56
480.751	123.56
480.969	230.56
481.188	719.56
481.406	443.56
481.624	124.56
481.843	98.56
482.061	88.56
482.28	96.56
482.498	83.56
482.717	93.56
482.935	90.56
483.153	85.56
483.372	81.56
483.59	99.56
483.808	79.56
484.027	95.56
484.245	92.56
484.463	100.56
484.681	87.56
484.9	93.56
485.118	109.56
485.336	88.56
485.554	98.56
485.772	100.56
485.99	99.56
486.209	100.56
486.427	112.56
486.645	95.56
486.863	125.56
487.081	97.56
487.299	91.56
487.517	74.56
487.735	88.56
487.953	95.56
488.171	89.56
488.389	98.56
488.607	115.56
488.825	102.56
489.043	97.56
489.261	98.56
489.479	89.56
489.696	86.56
489.914	87.56
490.132	110.56
490.35	81.56
490.568	110.56
490.786	99.56
491.003	93.56
491.221	85.56
491.439	76.56
491.657	104.56
491.874	76.56
492.092	91.56
492.31	93.56
492.527	104.56
492.745	107.56
492.963	80.56
493.18	91.56
493.398	92.56
493.615	92.56
493.833	96.56
494.05	85.56
494.268	87.56
494.485	87.56
494.703	104.56
494.92	96.56
495.138	84.56
495.355	90.56
495.573	88.56
495.79	91.56
496.008	77.56
496.225	101.56
496.442	92.56
496.66	85.56
496.877	105.56
497.094	95.56
497.312	95.56
497.529	99.56
497.746	87.56
497.963	97.56
498.181	99.56
498.398	108.56
498.615	113.56
498.832	105.56
499.049	85.56
499.267	87.56
499.484	87.56
499.701	99.56
499.918	92.56
500.135	94.56
500.352	91.56
500.569	91.56
500.786	96.56
501.003	89.56
501.22	76.56
501.437	90.56
501.654	92.56
501.871	112.56
502.088	93.56
502.305	80.56
502.522	96.56
502.739	91.56
502.956	94.56
503.172	105.56
503.389	89.56
503.606	119.56
503.823	102.56
504.04	106.56
504.256	89.56
504.473	86.56
504.69	91.56
504.907	96.56
505.123	76.56
505.34	93.56
505.557	81.56
505.773	89.56
505.99	86.56
506.207	88.56
506.423	95.56
506.64	101.56
506.856	94.56
507.073	79.56
507.289	97.56
507.506	112.56
507.722	101.56
507.939	109.56
508.155	95.56
508.372	86.56
508.588	96.56
508.805	99.56
509.021	94.56
509.238	94.56
509.454	91.56
509.67	91.56
509.887	97.56
510.103	136.56
510.319	204.56
510.536	718.56
510.752	2163.56
510.968	653.56
511.184	155.56
511.401	118.56
511.617	94.56
511.833	87.56
512.049	89.56
512.265	105.56
512.481	89.56
512.698	106.56
512.914	89.56
513.13	94.56
513.346	86.56
513.562	88.56
513.778	102.56
513.994	105.56
514.21	99.56
514.426	124.56
514.642	131.56
514.858	128.56
515.074	155.56
515.29	424.56
