Data from Circ_2011_H10_HRD10591_00018.txt Node
Date: Wed Jan 03 10:08:02 EST 2024
User: Yrep
Spectrometer: HR+D1059
Trigger mode: 1
Integration Time (sec): 1.000000E-1
Scans to average: 1
Electric dark correction enabled: true
Nonlinearity correction enabled: false
Boxcar width: 0
XAxis mode: Wavelengths
Number of Pixels in Spectrum: 2048
>>>>>Begin Spectral Data<<<<<
223.165	-10.44
223.4	-10.44
223.635	-10.44
223.869	-6.44
224.104	-23.44
224.338	-11.44
224.573	-17.44
224.808	10.56
225.042	-3.44
225.277	-18.44
225.511	-15.44
225.746	-1.44
225.98	3.56
226.215	9.56
226.449	18.56
226.683	19.56
226.918	24.56
227.152	21.56
227.387	28.56
227.621	39.56
227.856	48.56
228.09	40.56
228.324	45.56
228.559	50.56
228.793	58.56
229.027	66.56
229.262	74.56
229.496	91.56
229.73	66.56
229.964	79.56
230.199	83.56
230.433	64.56
230.667	78.56
230.901	66.56
231.136	86.56
231.37	80.56
231.604	64.56
231.838	58.56
232.072	78.56
232.306	83.56
232.541	69.56
232.775	81.56
233.009	74.56
233.243	77.56
233.477	80.56
233.711	78.56
233.945	68.56
234.179	71.56
234.413	78.56
234.647	71.56
234.881	65.56
235.115	72.56
235.349	89.56
235.583	74.56
235.817	83.56
236.051	68.56
236.285	67.56
236.519	65.56
236.753	75.56
236.987	77.56
237.221	70.56
237.455	89.56
237.689	64.56
237.922	66.56
238.156	74.56
238.39	75.56
238.624	84.56
238.858	68.56
239.091	77.56
239.325	84.56
239.559	71.56
239.793	65.56
240.027	88.56
240.26	67.56
240.494	72.56
240.728	81.56
240.961	77.56
241.195	78.56
241.429	78.56
241.662	71.56
241.896	68.56
242.13	71.56
242.363	82.56
242.597	70.56
242.83	76.56
243.064	73.56
243.298	78.56
243.531	60.56
243.765	71.56
243.998	82.56
244.232	69.56
244.465	77.56
244.699	73.56
244.932	76.56
245.166	81.56
245.399	85.56
245.633	72.56
245.866	61.56
246.099	67.56
246.333	78.56
246.566	81.56
246.8	77.56
247.033	67.56
247.266	80.56
247.5	82.56
247.733	74.56
247.966	76.56
248.2	72.56
248.433	71.56
248.666	88.56
248.899	75.56
249.133	76.56
249.366	93.56
249.599	98.56
249.832	80.56
250.066	82.56
250.299	70.56
250.532	81.56
250.765	83.56
250.998	81.56
251.231	74.56
251.465	83.56
251.698	79.56
251.931	54.56
252.164	81.56
252.397	72.56
252.63	62.56
252.863	73.56
253.096	89.56
253.329	66.56
253.562	58.56
253.795	87.56
254.028	97.56
254.261	82.56
254.494	90.56
254.727	85.56
254.96	74.56
255.193	83.56
255.426	76.56
255.659	78.56
255.892	76.56
256.124	79.56
256.357	77.56
256.59	78.56
256.823	87.56
257.056	80.56
257.289	70.56
257.521	82.56
257.754	77.56
257.987	73.56
258.22	74.56
258.452	81.56
258.685	90.56
258.918	75.56
259.151	69.56
259.383	77.56
259.616	85.56
259.849	75.56
260.081	88.56
260.314	72.56
260.547	82.56
260.779	72.56
261.012	80.56
261.244	88.56
261.477	95.56
261.71	79.56
261.942	101.56
262.175	114.56
262.407	71.56
262.64	75.56
262.872	85.56
263.105	69.56
263.337	79.56
263.57	70.56
263.802	74.56
264.035	77.56
264.267	83.56
264.499	70.56
264.732	82.56
264.964	82.56
265.197	81.56
265.429	84.56
265.661	79.56
265.894	67.56
266.126	82.56
266.358	65.56
266.591	86.56
266.823	77.56
267.055	67.56
267.287	77.56
267.52	80.56
267.752	75.56
267.984	91.56
268.216	74.56
268.448	78.56
268.681	70.56
268.913	77.56
269.145	86.56
269.377	71.56
269.609	70.56
269.841	84.56
270.073	97.56
270.306	68.56
270.538	86.56
270.77	83.56
271.002	70.56
271.234	72.56
271.466	76.56
271.698	84.56
271.93	78.56
272.162	85.56
272.394	82.56
272.626	94.56
272.858	89.56
273.09	89.56
273.322	85.56
273.553	91.56
273.785	83.56
274.017	73.56
274.249	81.56
274.481	74.56
274.713	76.56
274.945	76.56
275.176	89.56
275.408	90.56
275.64	82.56
275.872	88.56
276.104	82.56
276.335	84.56
276.567	96.56
276.799	101.56
277.031	92.56
277.262	90.56
277.494	99.56
277.726	78.56
277.957	75.56
278.189	71.56
278.421	68.56
278.652	84.56
278.884	93.56
279.115	84.56
279.347	76.56
279.579	77.56
279.81	79.56
280.042	84.56
280.273	99.56
280.505	93.56
280.736	84.56
280.968	83.56
281.199	93.56
281.431	83.56
281.662	91.56
281.894	76.56
282.125	85.56
282.356	98.56
282.588	130.56
282.819	99.56
283.051	89.56
283.282	84.56
283.513	83.56
283.745	92.56
283.976	77.56
284.207	89.56
284.439	83.56
284.67	90.56
284.901	82.56
285.132	83.56
285.364	77.56
285.595	77.56
285.826	73.56
286.057	79.56
286.288	76.56
286.52	78.56
286.751	88.56
286.982	61.56
287.213	80.56
287.444	86.56
287.675	85.56
287.906	82.56
288.138	81.56
288.369	93.56
288.6	96.56
288.831	75.56
289.062	82.56
289.293	79.56
289.524	75.56
289.755	85.56
289.986	92.56
290.217	88.56
290.448	79.56
290.679	87.56
290.91	96.56
291.141	85.56
291.371	86.56
291.602	79.56
291.833	71.56
292.064	80.56
292.295	86.56
292.526	91.56
292.757	83.56
292.987	78.56
293.218	68.56
293.449	94.56
293.68	100.56
293.91	78.56
294.141	85.56
294.372	89.56
294.603	83.56
294.833	99.56
295.064	82.56
295.295	71.56
295.525	93.56
295.756	104.56
295.987	109.56
296.217	131.56
296.448	114.56
296.679	91.56
296.909	77.56
297.14	89.56
297.37	100.56
297.601	88.56
297.831	89.56
298.062	84.56
298.292	82.56
298.523	75.56
298.753	74.56
298.984	77.56
299.214	88.56
299.445	91.56
299.675	83.56
299.905	92.56
300.136	89.56
300.366	83.56
300.597	86.56
300.827	84.56
301.057	78.56
301.288	104.56
301.518	96.56
301.748	76.56
301.979	86.56
302.209	90.56
302.439	100.56
302.669	94.56
302.9	90.56
303.13	88.56
303.36	100.56
303.59	84.56
303.82	90.56
304.051	92.56
304.281	70.56
304.511	91.56
304.741	93.56
304.971	88.56
305.201	93.56
305.431	83.56
305.661	96.56
305.891	88.56
306.121	103.56
306.352	86.56
306.582	91.56
306.812	92.56
307.042	89.56
307.272	93.56
307.502	86.56
307.731	97.56
307.961	83.56
308.191	94.56
308.421	85.56
308.651	88.56
308.881	99.56
309.111	75.56
309.341	89.56
309.571	93.56
309.8	97.56
310.03	98.56
310.26	86.56
310.49	88.56
310.72	99.56
310.949	91.56
311.179	106.56
311.409	78.56
311.639	63.56
311.868	85.56
312.098	95.56
312.328	94.56
312.557	99.56
312.787	88.56
313.017	98.56
313.246	84.56
313.476	85.56
313.706	94.56
313.935	81.56
314.165	101.56
314.394	96.56
314.624	87.56
314.853	90.56
315.083	87.56
315.312	86.56
315.542	98.56
315.771	87.56
316.001	87.56
316.23	94.56
316.46	87.56
316.689	97.56
316.919	107.56
317.148	80.56
317.377	96.56
317.607	73.56
317.836	87.56
318.065	102.56
318.295	94.56
318.524	80.56
318.753	93.56
318.983	94.56
319.212	92.56
319.441	97.56
319.67	99.56
319.9	89.56
320.129	96.56
320.358	92.56
320.587	88.56
320.816	99.56
321.046	103.56
321.275	95.56
321.504	86.56
321.733	80.56
321.962	94.56
322.191	93.56
322.42	101.56
322.649	96.56
322.878	102.56
323.108	115.56
323.337	136.56
323.566	118.56
323.795	145.56
324.024	196.56
324.253	400.56
324.482	836.56
324.71	1730.56
324.939	2277.56
325.168	841.56
325.397	236.56
325.626	137.56
325.855	127.56
326.084	117.56
326.313	112.56
326.542	148.56
326.77	230.56
326.999	468.56
327.228	1012.56
327.457	1788.56
327.686	1405.56
327.914	377.56
328.143	213.56
328.372	175.56
328.6	141.56
328.829	112.56
329.058	114.56
329.287	109.56
329.515	110.56
329.744	108.56
329.972	118.56
330.201	147.56
330.43	189.56
330.658	150.56
330.887	140.56
331.115	120.56
331.344	101.56
331.572	93.56
331.801	95.56
332.03	96.56
332.258	89.56
332.486	100.56
332.715	88.56
332.943	99.56
333.172	81.56
333.4	92.56
333.629	113.56
333.857	105.56
334.085	125.56
334.314	164.56
334.542	218.56
334.771	201.56
334.999	120.56
335.227	94.56
335.455	83.56
335.684	100.56
335.912	78.56
336.14	88.56
336.369	114.56
336.597	107.56
336.825	104.56
337.053	79.56
337.281	90.56
337.51	85.56
337.738	99.56
337.966	96.56
338.194	84.56
338.422	80.56
338.65	86.56
338.878	89.56
339.106	84.56
339.334	86.56
339.562	93.56
339.79	92.56
340.018	88.56
340.246	93.56
340.474	89.56
340.702	92.56
340.93	99.56
341.158	89.56
341.386	82.56
341.614	90.56
341.842	97.56
342.07	80.56
342.298	98.56
342.526	86.56
342.754	81.56
342.981	83.56
343.209	100.56
343.437	101.56
343.665	83.56
343.893	94.56
344.12	74.56
344.348	94.56
344.576	80.56
344.804	95.56
345.031	85.56
345.259	91.56
345.487	90.56
345.714	100.56
345.942	91.56
346.17	85.56
346.397	100.56
346.625	98.56
346.853	87.56
347.08	85.56
347.308	89.56
347.535	84.56
347.763	85.56
347.99	82.56
348.218	93.56
348.445	93.56
348.673	92.56
348.9	89.56
349.128	105.56
349.355	93.56
349.583	82.56
349.81	89.56
350.037	85.56
350.265	95.56
350.492	97.56
350.72	90.56
350.947	101.56
351.174	108.56
351.402	98.56
351.629	107.56
351.856	104.56
352.083	108.56
352.311	105.56
352.538	104.56
352.765	97.56
352.992	106.56
353.22	108.56
353.447	107.56
353.674	91.56
353.901	90.56
354.128	86.56
354.355	92.56
354.583	97.56
354.81	93.56
355.037	89.56
355.264	84.56
355.491	90.56
355.718	86.56
355.945	88.56
356.172	99.56
356.399	91.56
356.626	102.56
356.853	101.56
357.08	73.56
357.307	93.56
357.534	86.56
357.761	97.56
357.988	80.56
358.215	85.56
358.441	80.56
358.668	80.56
358.895	84.56
359.122	90.56
359.349	94.56
359.576	89.56
359.802	88.56
360.029	110.56
360.256	103.56
360.483	100.56
360.709	90.56
360.936	83.56
361.163	79.56
361.39	105.56
361.616	102.56
361.843	77.56
362.07	91.56
362.296	96.56
362.523	91.56
362.749	91.56
362.976	86.56
363.203	89.56
363.429	76.56
363.656	84.56
363.882	103.56
364.109	99.56
364.335	95.56
364.562	85.56
364.788	84.56
365.015	91.56
365.241	97.56
365.468	116.56
365.694	88.56
365.92	104.56
366.147	82.56
366.373	72.56
366.599	87.56
366.826	89.56
367.052	78.56
367.278	92.56
367.505	93.56
367.731	86.56
367.957	85.56
368.184	94.56
368.41	96.56
368.636	101.56
368.862	101.56
369.089	107.56
369.315	94.56
369.541	88.56
369.767	99.56
369.993	100.56
370.219	83.56
370.445	60.56
370.672	72.56
370.898	77.56
371.124	86.56
371.35	92.56
371.576	73.56
371.802	86.56
372.028	82.56
372.254	88.56
372.48	81.56
372.706	85.56
372.932	93.56
373.158	84.56
373.384	101.56
373.61	96.56
373.835	87.56
374.061	91.56
374.287	91.56
374.513	83.56
374.739	93.56
374.965	86.56
375.191	88.56
375.416	81.56
375.642	84.56
375.868	76.56
376.094	89.56
376.319	90.56
376.545	73.56
376.771	68.56
376.997	80.56
377.222	84.56
377.448	69.56
377.674	82.56
377.899	89.56
378.125	91.56
378.35	94.56
378.576	97.56
378.802	97.56
379.027	86.56
379.253	72.56
379.478	82.56
379.704	76.56
379.929	102.56
380.155	84.56
380.38	88.56
380.606	80.56
380.831	83.56
381.057	86.56
381.282	95.56
381.507	91.56
381.733	93.56
381.958	80.56
382.184	86.56
382.409	96.56
382.634	95.56
382.86	86.56
383.085	101.56
383.31	104.56
383.535	85.56
383.761	75.56
383.986	88.56
384.211	92.56
384.436	97.56
384.662	95.56
384.887	84.56
385.112	88.56
385.337	103.56
385.562	96.56
385.787	81.56
386.013	104.56
386.238	99.56
386.463	89.56
386.688	94.56
386.913	97.56
387.138	93.56
387.363	119.56
387.588	76.56
387.813	91.56
388.038	92.56
388.263	93.56
388.488	103.56
388.713	103.56
388.938	100.56
389.163	83.56
389.387	84.56
389.612	76.56
389.837	73.56
390.062	90.56
390.287	89.56
390.512	93.56
390.736	99.56
390.961	88.56
391.186	94.56
391.411	96.56
391.636	96.56
391.86	84.56
392.085	84.56
392.31	83.56
392.534	74.56
392.759	94.56
392.984	98.56
393.208	85.56
393.433	72.56
393.658	89.56
393.882	83.56
394.107	83.56
394.331	87.56
394.556	81.56
394.78	88.56
395.005	85.56
395.229	70.56
395.454	73.56
395.678	113.56
395.903	86.56
396.127	80.56
396.352	75.56
396.576	81.56
396.801	73.56
397.025	91.56
397.249	88.56
397.474	105.56
397.698	86.56
397.922	78.56
398.147	76.56
398.371	92.56
398.595	78.56
398.82	75.56
399.044	89.56
399.268	86.56
399.492	90.56
399.717	74.56
399.941	89.56
400.165	88.56
400.389	83.56
400.613	85.56
400.837	83.56
401.062	82.56
401.286	79.56
401.51	91.56
401.734	91.56
401.958	93.56
402.182	117.56
402.406	134.56
402.63	119.56
402.854	83.56
403.078	91.56
403.302	97.56
403.526	82.56
403.75	88.56
403.974	80.56
404.198	83.56
404.422	86.56
404.645	76.56
404.869	93.56
405.093	85.56
405.317	105.56
405.541	115.56
405.765	85.56
405.988	98.56
406.212	156.56
406.436	223.56
406.66	141.56
406.883	92.56
407.107	85.56
407.331	95.56
407.555	90.56
407.778	108.56
408.002	97.56
408.226	92.56
408.449	89.56
408.673	88.56
408.896	81.56
409.12	82.56
409.344	92.56
409.567	67.56
409.791	83.56
410.014	97.56
410.238	91.56
410.461	79.56
410.685	84.56
410.908	97.56
411.132	109.56
411.355	102.56
411.578	101.56
411.802	82.56
412.025	77.56
412.249	97.56
412.472	98.56
412.695	93.56
412.919	99.56
413.142	101.56
413.365	88.56
413.589	87.56
413.812	89.56
414.035	94.56
414.258	98.56
414.482	98.56
414.705	83.56
414.928	74.56
415.151	92.56
415.374	97.56
415.597	79.56
415.821	85.56
416.044	81.56
416.267	93.56
416.49	78.56
416.713	74.56
416.936	84.56
417.159	78.56
417.382	85.56
417.605	90.56
417.828	82.56
418.051	67.56
418.274	76.56
418.497	77.56
418.72	82.56
418.943	88.56
419.166	90.56
419.389	84.56
419.611	81.56
419.834	81.56
420.057	84.56
420.28	80.56
420.503	98.56
420.726	77.56
420.948	76.56
421.171	84.56
421.394	85.56
421.617	82.56
421.839	83.56
422.062	80.56
422.285	88.56
422.507	105.56
422.73	96.56
422.953	95.56
423.175	81.56
423.398	74.56
423.621	95.56
423.843	99.56
424.066	84.56
424.288	84.56
424.511	87.56
424.733	84.56
424.956	102.56
425.178	103.56
425.401	96.56
425.623	93.56
425.846	88.56
426.068	113.56
426.291	94.56
426.513	100.56
426.735	98.56
426.958	83.56
427.18	112.56
427.402	138.56
427.625	173.56
427.847	127.56
428.069	122.56
428.292	78.56
428.514	79.56
428.736	94.56
428.958	82.56
429.181	80.56
429.403	94.56
429.625	82.56
429.847	91.56
430.069	109.56
430.292	75.56
430.514	78.56
430.736	87.56
430.958	84.56
431.18	90.56
431.402	85.56
431.624	83.56
431.846	81.56
432.068	76.56
432.29	77.56
432.512	84.56
432.734	90.56
432.956	96.56
433.178	99.56
433.4	104.56
433.622	91.56
433.844	79.56
434.066	92.56
434.287	98.56
434.509	77.56
434.731	80.56
434.953	89.56
435.175	95.56
435.397	86.56
435.618	85.56
435.84	88.56
436.062	118.56
436.284	114.56
436.505	98.56
436.727	116.56
436.949	92.56
437.17	98.56
437.392	88.56
437.614	77.56
437.835	105.56
438.057	107.56
438.278	99.56
438.5	104.56
438.721	135.56
438.943	108.56
439.165	96.56
439.386	73.56
439.608	84.56
439.829	104.56
440.05	96.56
440.272	147.56
440.493	110.56
440.715	88.56
440.936	92.56
441.158	86.56
441.379	91.56
441.6	85.56
441.822	94.56
442.043	97.56
442.264	99.56
442.486	100.56
442.707	85.56
442.928	101.56
443.149	133.56
443.371	128.56
443.592	100.56
443.813	102.56
444.034	111.56
444.255	91.56
444.476	88.56
444.698	77.56
444.919	81.56
445.14	121.56
445.361	105.56
445.582	118.56
445.803	137.56
446.024	128.56
446.245	138.56
446.466	112.56
446.687	94.56
446.908	84.56
447.129	100.56
447.35	70.56
447.571	88.56
447.792	96.56
448.013	104.56
448.234	95.56
448.455	107.56
448.675	115.56
448.896	105.56
449.117	91.56
449.338	96.56
449.559	118.56
449.779	144.56
450	91.56
450.221	73.56
450.442	104.56
450.662	98.56
450.883	105.56
451.104	113.56
451.324	86.56
451.545	93.56
451.766	84.56
451.986	75.56
452.207	77.56
452.428	91.56
452.648	89.56
452.869	99.56
453.089	106.56
453.31	116.56
453.53	96.56
453.751	97.56
453.971	100.56
454.192	108.56
454.412	97.56
454.633	84.56
454.853	80.56
455.073	77.56
455.294	87.56
455.514	96.56
455.734	74.56
455.955	90.56
456.175	84.56
456.395	78.56
456.616	78.56
456.836	88.56
457.056	88.56
457.276	94.56
457.497	86.56
457.717	91.56
457.937	77.56
458.157	83.56
458.377	84.56
458.598	90.56
458.818	132.56
459.038	148.56
459.258	115.56
459.478	99.56
459.698	86.56
459.918	88.56
460.138	74.56
460.358	82.56
460.578	95.56
460.798	84.56
461.018	84.56
461.238	104.56
461.458	90.56
461.678	76.56
461.898	80.56
462.118	77.56
462.338	64.56
462.558	83.56
462.777	88.56
462.997	86.56
463.217	77.56
463.437	84.56
463.657	71.56
463.876	77.56
464.096	93.56
464.316	93.56
464.536	73.56
464.755	81.56
464.975	92.56
465.195	154.56
465.414	161.56
465.634	88.56
465.854	91.56
466.073	90.56
466.293	82.56
466.512	81.56
466.732	81.56
466.951	77.56
467.171	100.56
467.391	100.56
467.61	96.56
467.829	100.56
468.049	138.56
468.268	145.56
468.488	84.56
468.707	87.56
468.927	81.56
469.146	76.56
469.365	80.56
469.585	86.56
469.804	99.56
470.023	86.56
470.243	91.56
470.462	104.56
470.681	102.56
470.901	83.56
471.12	84.56
471.339	88.56
471.558	100.56
471.777	74.56
471.997	101.56
472.216	153.56
472.435	268.56
472.654	118.56
472.873	92.56
473.092	86.56
473.311	88.56
473.53	81.56
473.749	104.56
473.968	103.56
474.187	124.56
474.406	96.56
474.625	80.56
474.844	91.56
475.063	91.56
475.282	87.56
475.501	83.56
475.72	81.56
475.939	87.56
476.158	87.56
476.377	83.56
476.596	92.56
476.814	91.56
477.033	86.56
477.252	92.56
477.471	93.56
477.69	83.56
477.908	76.56
478.127	89.56
478.346	92.56
478.564	72.56
478.783	91.56
479.002	97.56
479.22	96.56
479.439	101.56
479.658	126.56
479.876	83.56
480.095	101.56
480.313	103.56
480.532	101.56
480.751	114.56
480.969	170.56
481.188	416.56
481.406	291.56
481.624	103.56
481.843	93.56
482.061	84.56
482.28	88.56
482.498	90.56
482.717	85.56
482.935	96.56
483.153	86.56
483.372	91.56
483.59	76.56
483.808	91.56
484.027	87.56
484.245	87.56
484.463	93.56
484.681	102.56
484.9	90.56
485.118	93.56
485.336	90.56
485.554	85.56
485.772	90.56
485.99	90.56
486.209	91.56
486.427	98.56
486.645	112.56
486.863	98.56
487.081	98.56
487.299	95.56
487.517	81.56
487.735	78.56
487.953	93.56
488.171	83.56
488.389	102.56
488.607	90.56
488.825	80.56
489.043	82.56
489.261	84.56
489.479	91.56
489.696	94.56
489.914	85.56
490.132	84.56
490.35	87.56
490.568	97.56
490.786	76.56
491.003	72.56
491.221	87.56
491.439	79.56
491.657	102.56
491.874	82.56
492.092	83.56
492.31	88.56
492.527	84.56
492.745	81.56
492.963	82.56
493.18	90.56
493.398	90.56
493.615	112.56
493.833	89.56
494.05	78.56
494.268	79.56
494.485	91.56
494.703	91.56
494.92	90.56
495.138	87.56
495.355	84.56
495.573	94.56
495.79	81.56
496.008	80.56
496.225	87.56
496.442	85.56
496.66	88.56
496.877	110.56
497.094	96.56
497.312	84.56
497.529	93.56
497.746	83.56
497.963	81.56
498.181	78.56
498.398	92.56
498.615	106.56
498.832	118.56
499.049	85.56
499.267	78.56
499.484	97.56
499.701	85.56
499.918	77.56
500.135	84.56
500.352	82.56
500.569	86.56
500.786	92.56
501.003	86.56
501.22	87.56
501.437	92.56
501.654	91.56
501.871	107.56
502.088	86.56
502.305	88.56
502.522	88.56
502.739	84.56
502.956	82.56
503.172	84.56
503.389	92.56
503.606	94.56
503.823	87.56
504.04	95.56
504.256	92.56
504.473	83.56
504.69	90.56
504.907	96.56
505.123	87.56
505.34	79.56
505.557	88.56
505.773	96.56
505.99	93.56
506.207	92.56
506.423	87.56
506.64	97.56
506.856	79.56
507.073	80.56
507.289	90.56
507.506	90.56
507.722	104.56
507.939	115.56
508.155	81.56
508.372	91.56
508.588	87.56
508.805	85.56
509.021	96.56
509.238	94.56
509.454	92.56
509.67	97.56
509.887	94.56
510.103	142.56
510.319	190.56
510.536	683.56
510.752	2086.56
510.968	610.56
511.184	164.56
511.401	108.56
511.617	98.56
511.833	88.56
512.049	90.56
512.265	82.56
512.481	87.56
512.698	89.56
512.914	86.56
513.13	90.56
513.346	98.56
513.562	91.56
513.778	82.56
513.994	85.56
514.21	89.56
514.426	104.56
514.642	123.56
514.858	110.56
515.074	162.56
515.29	414.56
515.506	1362.56
515.721	500.56
515.937	142.56
516.153	113.56
516.369	85.56
516.585	87.56
516.801	84.56
