Data from Circ_2011_H10_HRD10591_00009.txt Node
Date: Wed Jan 03 10:08:00 EST 2024
User: Yrep
Spectrometer: HR+D1059
Trigger mode: 1
Integration Time (sec): 1.000000E-1
Scans to average: 1
Electric dark correction enabled: true
Nonlinearity correction enabled: false
Boxcar width: 0
XAxis mode: Wavelengths
Number of Pixels in Spectrum: 2048
>>>>>Begin Spectral Data<<<<<
223.165	-11.44
223.4	-11.44
223.635	-11.44
223.869	-21.44
224.104	-21.44
224.338	-16.44
224.573	-15.44
224.808	-10.44
225.042	9.56
225.277	-12.44
225.511	-1.44
225.746	-0.44
225.98	-1.44
226.215	13.56
226.449	16.56
226.683	17.56
226.918	32.56
227.152	22.56
227.387	32.56
227.621	42.56
227.856	35.56
228.09	39.56
228.324	63.56
228.559	69.56
228.793	57.56
229.027	61.56
229.262	52.56
229.496	78.56
229.73	76.56
229.964	77.56
230.199	64.56
230.433	79.56
230.667	77.56
230.901	82.56
231.136	75.56
231.37	81.56
231.604	84.56
231.838	80.56
232.072	77.56
232.306	81.56
232.541	81.56
232.775	85.56
233.009	79.56
233.243	81.56
233.477	89.56
233.711	92.56
233.945	77.56
234.179	74.56
234.413	85.56
234.647	91.56
234.881	97.56
235.115	94.56
235.349	72.56
235.583	70.56
235.817	82.56
236.051	83.56
236.285	72.56
236.519	76.56
236.753	61.56
236.987	78.56
237.221	86.56
237.455	90.56
237.689	82.56
237.922	80.56
238.156	75.56
238.39	81.56
238.624	92.56
238.858	78.56
239.091	80.56
239.325	74.56
239.559	86.56
239.793	67.56
240.027	67.56
240.26	76.56
240.494	90.56
240.728	80.56
240.961	73.56
241.195	81.56
241.429	69.56
241.662	73.56
241.896	77.56
242.13	73.56
242.363	72.56
242.597	72.56
242.83	88.56
243.064	74.56
243.298	82.56
243.531	79.56
243.765	69.56
243.998	81.56
244.232	78.56
244.465	81.56
244.699	73.56
244.932	80.56
245.166	84.56
245.399	73.56
245.633	74.56
245.866	83.56
246.099	73.56
246.333	74.56
246.566	80.56
246.8	84.56
247.033	89.56
247.266	74.56
247.5	85.56
247.733	62.56
247.966	83.56
248.2	80.56
248.433	87.56
248.666	81.56
248.899	86.56
249.133	93.56
249.366	84.56
249.599	92.56
249.832	77.56
250.066	81.56
250.299	75.56
250.532	75.56
250.765	76.56
250.998	70.56
251.231	78.56
251.465	85.56
251.698	80.56
251.931	83.56
252.164	86.56
252.397	82.56
252.63	79.56
252.863	85.56
253.096	79.56
253.329	78.56
253.562	77.56
253.795	86.56
254.028	84.56
254.261	80.56
254.494	77.56
254.727	72.56
254.96	82.56
255.193	99.56
255.426	94.56
255.659	74.56
255.892	80.56
256.124	87.56
256.357	92.56
256.59	98.56
256.823	84.56
257.056	66.56
257.289	80.56
257.521	93.56
257.754	76.56
257.987	80.56
258.22	81.56
258.452	88.56
258.685	87.56
258.918	86.56
259.151	78.56
259.383	76.56
259.616	78.56
259.849	86.56
260.081	81.56
260.314	86.56
260.547	81.56
260.779	84.56
261.012	88.56
261.244	73.56
261.477	88.56
261.71	87.56
261.942	98.56
262.175	121.56
262.407	98.56
262.64	87.56
262.872	96.56
263.105	84.56
263.337	88.56
263.57	72.56
263.802	79.56
264.035	74.56
264.267	79.56
264.499	90.56
264.732	80.56
264.964	81.56
265.197	85.56
265.429	75.56
265.661	76.56
265.894	75.56
266.126	91.56
266.358	83.56
266.591	87.56
266.823	80.56
267.055	81.56
267.287	85.56
267.52	83.56
267.752	77.56
267.984	75.56
268.216	79.56
268.448	88.56
268.681	82.56
268.913	81.56
269.145	89.56
269.377	73.56
269.609	72.56
269.841	82.56
270.073	89.56
270.306	95.56
270.538	72.56
270.77	94.56
271.002	91.56
271.234	77.56
271.466	78.56
271.698	91.56
271.93	75.56
272.162	88.56
272.394	88.56
272.626	85.56
272.858	88.56
273.09	78.56
273.322	82.56
273.553	80.56
273.785	81.56
274.017	89.56
274.249	62.56
274.481	87.56
274.713	82.56
274.945	81.56
275.176	88.56
275.408	93.56
275.64	72.56
275.872	88.56
276.104	82.56
276.335	93.56
276.567	101.56
276.799	117.56
277.031	95.56
277.262	85.56
277.494	89.56
277.726	72.56
277.957	75.56
278.189	96.56
278.421	98.56
278.652	84.56
278.884	75.56
279.115	82.56
279.347	95.56
279.579	102.56
279.81	87.56
280.042	97.56
280.273	75.56
280.505	96.56
280.736	85.56
280.968	96.56
281.199	74.56
281.431	90.56
281.662	85.56
281.894	88.56
282.125	90.56
282.356	120.56
282.588	130.56
282.819	96.56
283.051	89.56
283.282	94.56
283.513	103.56
283.745	94.56
283.976	84.56
284.207	80.56
284.439	88.56
284.67	93.56
284.901	90.56
285.132	94.56
285.364	92.56
285.595	87.56
285.826	87.56
286.057	90.56
286.288	81.56
286.52	77.56
286.751	92.56
286.982	80.56
287.213	71.56
287.444	78.56
287.675	73.56
287.906	88.56
288.138	77.56
288.369	88.56
288.6	86.56
288.831	73.56
289.062	91.56
289.293	92.56
289.524	91.56
289.755	80.56
289.986	84.56
290.217	88.56
290.448	94.56
290.679	92.56
290.91	86.56
291.141	80.56
291.371	90.56
291.602	87.56
291.833	76.56
292.064	97.56
292.295	91.56
292.526	83.56
292.757	80.56
292.987	80.56
293.218	87.56
293.449	82.56
293.68	73.56
293.91	78.56
294.141	88.56
294.372	82.56
294.603	85.56
294.833	95.56
295.064	93.56
295.295	95.56
295.525	81.56
295.756	96.56
295.987	109.56
296.217	110.56
296.448	123.56
296.679	107.56
296.909	94.56
297.14	94.56
297.37	94.56
297.601	82.56
297.831	97.56
298.062	80.56
298.292	100.56
298.523	96.56
298.753	98.56
298.984	87.56
299.214	92.56
299.445	87.56
299.675	91.56
299.905	93.56
300.136	94.56
300.366	100.56
300.597	87.56
300.827	84.56
301.057	98.56
301.288	89.56
301.518	101.56
301.748	91.56
301.979	108.56
302.209	93.56
302.439	86.56
302.669	87.56
302.9	84.56
303.13	105.56
303.36	76.56
303.59	88.56
303.82	116.56
304.051	87.56
304.281	76.56
304.511	92.56
304.741	82.56
304.971	84.56
305.201	98.56
305.431	91.56
305.661	91.56
305.891	101.56
306.121	98.56
306.352	96.56
306.582	103.56
306.812	84.56
307.042	93.56
307.272	89.56
307.502	95.56
307.731	95.56
307.961	97.56
308.191	98.56
308.421	97.56
308.651	96.56
308.881	92.56
309.111	91.56
309.341	103.56
309.571	96.56
309.8	92.56
310.03	85.56
310.26	93.56
310.49	94.56
310.72	101.56
310.949	103.56
311.179	92.56
311.409	94.56
311.639	84.56
311.868	93.56
312.098	90.56
312.328	89.56
312.557	101.56
312.787	101.56
313.017	106.56
313.246	82.56
313.476	99.56
313.706	88.56
313.935	92.56
314.165	111.56
314.394	92.56
314.624	89.56
314.853	102.56
315.083	95.56
315.312	81.56
315.542	92.56
315.771	86.56
316.001	82.56
316.23	79.56
316.46	94.56
316.689	85.56
316.919	80.56
317.148	84.56
317.377	89.56
317.607	92.56
317.836	85.56
318.065	88.56
318.295	82.56
318.524	83.56
318.753	85.56
318.983	104.56
319.212	105.56
319.441	105.56
319.67	87.56
319.9	102.56
320.129	103.56
320.358	94.56
320.587	102.56
320.816	86.56
321.046	93.56
321.275	101.56
321.504	84.56
321.733	80.56
321.962	94.56
322.191	99.56
322.42	89.56
322.649	98.56
322.878	107.56
323.108	113.56
323.337	122.56
323.566	128.56
323.795	146.56
324.024	204.56
324.253	403.56
324.482	821.56
324.71	1696.56
324.939	2229.56
325.168	820.56
325.397	236.56
325.626	122.56
325.855	125.56
326.084	134.56
326.313	129.56
326.542	153.56
326.77	224.56
326.999	461.56
327.228	952.56
327.457	1730.56
327.686	1404.56
327.914	375.56
328.143	186.56
328.372	158.56
328.6	132.56
328.829	117.56
329.058	112.56
329.287	130.56
329.515	101.56
329.744	114.56
329.972	116.56
330.201	143.56
330.43	157.56
330.658	132.56
330.887	118.56
331.115	115.56
331.344	94.56
331.572	102.56
331.801	115.56
332.03	105.56
332.258	97.56
332.486	92.56
332.715	92.56
332.943	96.56
333.172	92.56
333.4	100.56
333.629	104.56
333.857	112.56
334.085	119.56
334.314	144.56
334.542	185.56
334.771	196.56
334.999	95.56
335.227	98.56
335.455	100.56
335.684	101.56
335.912	102.56
336.14	101.56
336.369	94.56
336.597	102.56
336.825	91.56
337.053	84.56
337.281	85.56
337.51	82.56
337.738	100.56
337.966	86.56
338.194	96.56
338.422	91.56
338.65	91.56
338.878	84.56
339.106	93.56
339.334	93.56
339.562	83.56
339.79	79.56
340.018	85.56
340.246	91.56
340.474	98.56
340.702	85.56
340.93	80.56
341.158	84.56
341.386	101.56
341.614	102.56
341.842	94.56
342.07	87.56
342.298	99.56
342.526	91.56
342.754	86.56
342.981	87.56
343.209	95.56
343.437	94.56
343.665	91.56
343.893	77.56
344.12	89.56
344.348	78.56
344.576	84.56
344.804	74.56
345.031	90.56
345.259	113.56
345.487	92.56
345.714	84.56
345.942	90.56
346.17	92.56
346.397	81.56
346.625	99.56
346.853	88.56
347.08	90.56
347.308	93.56
347.535	108.56
347.763	101.56
347.99	95.56
348.218	101.56
348.445	105.56
348.673	93.56
348.9	87.56
349.128	92.56
349.355	92.56
349.583	90.56
349.81	95.56
350.037	102.56
350.265	86.56
350.492	83.56
350.72	95.56
350.947	106.56
351.174	125.56
351.402	93.56
351.629	107.56
351.856	98.56
352.083	92.56
352.311	99.56
352.538	105.56
352.765	93.56
352.992	113.56
353.22	120.56
353.447	96.56
353.674	108.56
353.901	108.56
354.128	88.56
354.355	100.56
354.583	85.56
354.81	102.56
355.037	91.56
355.264	103.56
355.491	96.56
355.718	103.56
355.945	97.56
356.172	88.56
356.399	90.56
356.626	93.56
356.853	95.56
357.08	91.56
357.307	102.56
357.534	88.56
357.761	104.56
357.988	103.56
358.215	92.56
358.441	91.56
358.668	88.56
358.895	98.56
359.122	92.56
359.349	93.56
359.576	96.56
359.802	105.56
360.029	106.56
360.256	100.56
360.483	97.56
360.709	84.56
360.936	102.56
361.163	91.56
361.39	96.56
361.616	88.56
361.843	88.56
362.07	94.56
362.296	96.56
362.523	84.56
362.749	85.56
362.976	83.56
363.203	76.56
363.429	85.56
363.656	84.56
363.882	83.56
364.109	92.56
364.335	70.56
364.562	96.56
364.788	96.56
365.015	82.56
365.241	92.56
365.468	101.56
365.694	110.56
365.92	107.56
366.147	93.56
366.373	81.56
366.599	104.56
366.826	90.56
367.052	88.56
367.278	85.56
367.505	79.56
367.731	88.56
367.957	86.56
368.184	85.56
368.41	90.56
368.636	97.56
368.862	101.56
369.089	97.56
369.315	101.56
369.541	107.56
369.767	87.56
369.993	97.56
370.219	90.56
370.445	76.56
370.672	92.56
370.898	82.56
371.124	79.56
371.35	89.56
371.576	79.56
371.802	82.56
372.028	91.56
372.254	82.56
372.48	84.56
372.706	96.56
372.932	78.56
373.158	88.56
373.384	92.56
373.61	91.56
373.835	90.56
374.061	83.56
374.287	84.56
374.513	90.56
374.739	90.56
374.965	87.56
375.191	95.56
375.416	105.56
375.642	87.56
375.868	103.56
376.094	95.56
376.319	88.56
376.545	91.56
376.771	88.56
376.997	87.56
377.222	80.56
377.448	86.56
377.674	101.56
377.899	108.56
378.125	101.56
378.35	83.56
378.576	84.56
378.802	98.56
379.027	91.56
379.253	85.56
379.478	83.56
379.704	81.56
379.929	100.56
380.155	75.56
380.38	96.56
380.606	106.56
380.831	88.56
381.057	94.56
381.282	88.56
381.507	96.56
381.733	103.56
381.958	88.56
382.184	92.56
382.409	102.56
382.634	84.56
382.86	94.56
383.085	102.56
383.31	97.56
383.535	92.56
383.761	85.56
383.986	99.56
384.211	86.56
384.436	104.56
384.662	97.56
384.887	98.56
385.112	95.56
385.337	100.56
385.562	98.56
385.787	109.56
386.013	113.56
386.238	105.56
386.463	95.56
386.688	97.56
386.913	111.56
387.138	117.56
387.363	103.56
387.588	105.56
387.813	100.56
388.038	106.56
388.263	108.56
388.488	97.56
388.713	96.56
388.938	92.56
389.163	81.56
389.387	96.56
389.612	93.56
389.837	93.56
390.062	84.56
390.287	87.56
390.512	88.56
390.736	108.56
390.961	97.56
391.186	79.56
391.411	86.56
391.636	96.56
391.86	87.56
392.085	80.56
392.31	82.56
392.534	86.56
392.759	107.56
392.984	81.56
393.208	82.56
393.433	89.56
393.658	102.56
393.882	77.56
394.107	76.56
394.331	84.56
394.556	87.56
394.78	76.56
395.005	89.56
395.229	90.56
395.454	80.56
395.678	87.56
395.903	97.56
396.127	95.56
396.352	90.56
396.576	84.56
396.801	81.56
397.025	88.56
397.249	84.56
397.474	88.56
397.698	89.56
397.922	98.56
398.147	87.56
398.371	88.56
398.595	103.56
398.82	89.56
399.044	69.56
399.268	87.56
399.492	66.56
399.717	114.56
399.941	106.56
400.165	91.56
400.389	78.56
400.613	86.56
400.837	81.56
401.062	84.56
401.286	77.56
401.51	97.56
401.734	93.56
401.958	99.56
402.182	110.56
402.406	134.56
402.63	119.56
402.854	93.56
403.078	92.56
403.302	80.56
403.526	97.56
403.75	87.56
403.974	80.56
404.198	85.56
404.422	106.56
404.645	86.56
404.869	98.56
405.093	83.56
405.317	104.56
405.541	101.56
405.765	98.56
405.988	121.56
406.212	155.56
406.436	205.56
406.66	133.56
406.883	97.56
407.107	98.56
407.331	93.56
407.555	93.56
407.778	109.56
408.002	106.56
408.226	98.56
408.449	93.56
408.673	80.56
408.896	88.56
409.12	96.56
409.344	79.56
409.567	95.56
409.791	92.56
410.014	103.56
410.238	102.56
410.461	93.56
410.685	86.56
410.908	104.56
411.132	92.56
411.355	91.56
411.578	98.56
411.802	100.56
412.025	97.56
412.249	98.56
412.472	101.56
412.695	107.56
412.919	103.56
413.142	90.56
413.365	83.56
413.589	96.56
413.812	85.56
414.035	93.56
414.258	90.56
414.482	90.56
414.705	91.56
414.928	89.56
415.151	90.56
415.374	90.56
415.597	92.56
415.821	103.56
416.044	92.56
416.267	78.56
416.49	87.56
416.713	97.56
416.936	83.56
417.159	96.56
417.382	86.56
417.605	89.56
417.828	98.56
418.051	87.56
418.274	83.56
418.497	100.56
418.72	99.56
418.943	85.56
419.166	88.56
419.389	90.56
419.611	85.56
419.834	87.56
420.057	84.56
420.28	86.56
420.503	88.56
420.726	75.56
420.948	79.56
421.171	95.56
421.394	97.56
421.617	86.56
421.839	92.56
422.062	88.56
422.285	78.56
422.507	102.56
422.73	109.56
422.953	87.56
423.175	89.56
423.398	95.56
423.621	81.56
423.843	85.56
424.066	98.56
424.288	83.56
424.511	100.56
424.733	92.56
424.956	116.56
425.178	90.56
425.401	112.56
425.623	86.56
425.846	87.56
426.068	94.56
426.291	89.56
426.513	99.56
426.735	86.56
426.958	101.56
427.18	114.56
427.402	144.56
427.625	180.56
427.847	122.56
428.069	121.56
428.292	82.56
428.514	86.56
428.736	98.56
428.958	95.56
429.181	81.56
429.403	89.56
429.625	79.56
429.847	84.56
430.069	98.56
430.292	101.56
430.514	97.56
430.736	79.56
430.958	86.56
431.18	82.56
431.402	75.56
431.624	82.56
431.846	90.56
432.068	95.56
432.29	97.56
432.512	81.56
432.734	85.56
432.956	90.56
433.178	96.56
433.4	108.56
433.622	98.56
433.844	82.56
434.066	91.56
434.287	90.56
434.509	86.56
434.731	80.56
434.953	94.56
435.175	91.56
435.397	95.56
435.618	88.56
435.84	102.56
436.062	127.56
436.284	127.56
436.505	106.56
436.727	109.56
436.949	101.56
437.17	90.56
437.392	92.56
437.614	80.56
437.835	109.56
438.057	106.56
438.278	97.56
438.5	94.56
438.721	99.56
438.943	102.56
439.165	89.56
439.386	85.56
439.608	91.56
439.829	97.56
440.05	118.56
440.272	146.56
440.493	90.56
440.715	89.56
440.936	93.56
441.158	96.56
441.379	87.56
441.6	92.56
441.822	94.56
442.043	96.56
442.264	90.56
442.486	101.56
442.707	98.56
442.928	103.56
443.149	126.56
443.371	133.56
443.592	116.56
443.813	101.56
444.034	108.56
444.255	85.56
444.476	92.56
444.698	84.56
444.919	88.56
445.14	119.56
445.361	121.56
445.582	89.56
445.803	128.56
446.024	138.56
446.245	129.56
446.466	118.56
446.687	87.56
446.908	70.56
447.129	89.56
447.35	102.56
447.571	90.56
447.792	91.56
448.013	76.56
448.234	93.56
448.455	97.56
448.675	124.56
448.896	110.56
449.117	92.56
449.338	94.56
449.559	127.56
449.779	134.56
450	98.56
450.221	86.56
450.442	79.56
450.662	96.56
450.883	98.56
451.104	92.56
451.324	97.56
451.545	98.56
451.766	90.56
451.986	89.56
452.207	103.56
452.428	84.56
452.648	80.56
452.869	102.56
453.089	129.56
453.31	112.56
453.53	98.56
453.751	81.56
453.971	89.56
454.192	109.56
454.412	92.56
454.633	90.56
454.853	115.56
455.073	86.56
455.294	78.56
455.514	110.56
455.734	89.56
455.955	103.56
456.175	85.56
456.395	76.56
456.616	83.56
456.836	79.56
457.056	97.56
457.276	87.56
457.497	87.56
457.717	81.56
457.937	81.56
458.157	69.56
458.377	92.56
458.598	106.56
458.818	149.56
459.038	152.56
459.258	115.56
459.478	92.56
459.698	93.56
459.918	76.56
460.138	93.56
460.358	74.56
460.578	93.56
460.798	95.56
461.018	94.56
461.238	90.56
461.458	83.56
461.678	89.56
461.898	81.56
462.118	75.56
462.338	77.56
462.558	84.56
462.777	92.56
462.997	87.56
463.217	91.56
463.437	93.56
463.657	85.56
463.876	82.56
464.096	83.56
464.316	100.56
464.536	89.56
464.755	102.56
464.975	113.56
465.195	157.56
465.414	157.56
465.634	97.56
465.854	74.56
466.073	88.56
466.293	88.56
466.512	98.56
466.732	92.56
466.951	90.56
467.171	77.56
467.391	77.56
467.61	101.56
467.829	87.56
468.049	122.56
468.268	136.56
468.488	102.56
468.707	86.56
468.927	69.56
469.146	94.56
469.365	86.56
469.585	100.56
469.804	95.56
470.023	92.56
470.243	99.56
470.462	106.56
470.681	105.56
470.901	87.56
471.12	96.56
471.339	74.56
471.558	82.56
471.777	86.56
471.997	101.56
472.216	157.56
472.435	225.56
472.654	122.56
472.873	85.56
473.092	83.56
473.311	77.56
473.53	79.56
473.749	81.56
473.968	92.56
474.187	92.56
474.406	92.56
474.625	82.56
474.844	77.56
475.063	89.56
475.282	94.56
475.501	93.56
475.72	77.56
475.939	80.56
476.158	81.56
476.377	98.56
476.596	78.56
476.814	91.56
477.033	98.56
477.252	94.56
477.471	86.56
477.69	88.56
477.908	93.56
478.127	100.56
478.346	79.56
478.564	88.56
478.783	92.56
479.002	96.56
479.22	76.56
479.439	104.56
479.658	93.56
479.876	93.56
480.095	96.56
480.313	101.56
480.532	94.56
480.751	81.56
480.969	138.56
481.188	340.56
481.406	241.56
481.624	103.56
481.843	88.56
482.061	98.56
482.28	105.56
482.498	92.56
482.717	94.56
482.935	100.56
483.153	89.56
483.372	78.56
483.59	84.56
483.808	108.56
484.027	89.56
484.245	76.56
484.463	107.56
484.681	92.56
484.9	89.56
485.118	95.56
485.336	93.56
485.554	101.56
485.772	116.56
485.99	90.56
486.209	86.56
486.427	104.56
486.645	108.56
486.863	92.56
487.081	98.56
487.299	88.56
487.517	97.56
487.735	90.56
487.953	101.56
488.171	100.56
488.389	90.56
488.607	94.56
488.825	99.56
489.043	105.56
489.261	108.56
489.479	84.56
489.696	90.56
489.914	95.56
490.132	87.56
490.35	105.56
490.568	87.56
490.786	100.56
491.003	89.56
491.221	95.56
491.439	82.56
491.657	93.56
491.874	101.56
492.092	84.56
492.31	103.56
492.527	79.56
492.745	95.56
492.963	76.56
493.18	88.56
493.398	93.56
493.615	104.56
493.833	96.56
494.05	94.56
494.268	97.56
494.485	78.56
494.703	95.56
494.92	84.56
495.138	95.56
495.355	90.56
495.573	92.56
495.79	90.56
496.008	97.56
496.225	93.56
496.442	88.56
496.66	77.56
496.877	92.56
497.094	94.56
497.312	95.56
497.529	89.56
497.746	86.56
497.963	97.56
498.181	105.56
498.398	96.56
498.615	117.56
498.832	97.56
499.049	87.56
499.267	81.56
499.484	87.56
499.701	95.56
499.918	89.56
500.135	93.56
500.352	92.56
500.569	104.56
500.786	84.56
501.003	100.56
501.22	108.56
501.437	95.56
501.654	94.56
501.871	85.56
502.088	90.56
502.305	91.56
502.522	88.56
502.739	97.56
502.956	88.56
503.172	82.56
503.389	98.56
503.606	94.56
503.823	99.56
504.04	91.56
504.256	90.56
504.473	101.56
504.69	91.56
504.907	85.56
505.123	82.56
505.34	80.56
505.557	93.56
505.773	86.56
505.99	79.56
506.207	80.56
506.423	91.56
506.64	80.56
506.856	88.56
507.073	100.56
507.289	80.56
507.506	89.56
507.722	108.56
507.939	111.56
508.155	111.56
508.372	104.56
508.588	92.56
508.805	93.56
509.021	83.56
509.238	91.56
509.454	96.56
509.67	82.56
509.887	108.56
510.103	118.56
510.319	198.56
510.536	588.56
510.752	1946.56
510.968	556.56
511.184	159.56
511.401	110.56
511.617	98.56
511.833	92.56
512.049	106.56
512.265	98.56
512.481	94.56
512.698	97.56
512.914	102.56
513.13	97.56
513.346	86.56
513.562	94.56
513.778	94.56
513.994	98.56
514.21	106.56
514.426	121.56
514.642	135.56
514.858	123.56
515.074	146.56
515.29	373.56
515.506	1216.56
515.721	487.56
515.937	158.56
