Data from Circ_2011_H10_HRD10591_00021.txt Node
Date: Wed Jan 03 10:08:03 EST 2024
User: Yrep
Spectrometer: HR+D1059
Trigger mode: 1
Integration Time (sec): 1.000000E-1
Scans to average: 1
Electric dark correction enabled: true
Nonlinearity correction enabled: false
Boxcar width: 0
XAxis mode: Wavelengths
Number of Pixels in Spectrum: 2048
>>>>>Begin Spectral Data<<<<<
223.165	-17.88
223.4	-17.88
223.635	-17.88
223.869	-21.88
224.104	-15.88
224.338	-11.88
224.573	-8.88
224.808	-17.88
225.042	-3.88
225.277	13.12
225.511	-2.88
225.746	-4.88
225.98	5.12
226.215	11.12
226.449	22.12
226.683	7.12
226.918	18.12
227.152	29.12
227.387	38.12
227.621	22.12
227.856	31.12
228.09	37.12
228.324	60.12
228.559	56.12
228.793	55.12
229.027	51.12
229.262	69.12
229.496	66.12
229.73	81.12
229.964	83.12
230.199	75.12
230.433	83.12
230.667	80.12
230.901	66.12
231.136	93.12
231.37	75.12
231.604	85.12
231.838	82.12
232.072	84.12
232.306	85.12
232.541	63.12
232.775	76.12
233.009	85.12
233.243	67.12
233.477	76.12
233.711	91.12
233.945	74.12
234.179	71.12
234.413	80.12
234.647	79.12
234.881	73.12
235.115	79.12
235.349	73.12
235.583	72.12
235.817	92.12
236.051	68.12
236.285	71.12
236.519	78.12
236.753	73.12
236.987	85.12
237.221	77.12
237.455	77.12
237.689	69.12
237.922	64.12
238.156	58.12
238.39	69.12
238.624	81.12
238.858	75.12
239.091	78.12
239.325	80.12
239.559	75.12
239.793	64.12
240.027	79.12
240.26	68.12
240.494	76.12
240.728	64.12
240.961	90.12
241.195	79.12
241.429	85.12
241.662	86.12
241.896	66.12
242.13	66.12
242.363	63.12
242.597	70.12
242.83	63.12
243.064	73.12
243.298	77.12
243.531	72.12
243.765	75.12
243.998	72.12
244.232	78.12
244.465	83.12
244.699	82.12
244.932	78.12
245.166	75.12
245.399	73.12
245.633	71.12
245.866	83.12
246.099	78.12
246.333	82.12
246.566	75.12
246.8	63.12
247.033	80.12
247.266	89.12
247.5	73.12
247.733	85.12
247.966	79.12
248.2	85.12
248.433	74.12
248.666	82.12
248.899	81.12
249.133	87.12
249.366	114.12
249.599	89.12
249.832	69.12
250.066	94.12
250.299	56.12
250.532	94.12
250.765	79.12
250.998	84.12
251.231	86.12
251.465	79.12
251.698	94.12
251.931	77.12
252.164	84.12
252.397	72.12
252.63	77.12
252.863	88.12
253.096	93.12
253.329	83.12
253.562	85.12
253.795	65.12
254.028	82.12
254.261	84.12
254.494	74.12
254.727	90.12
254.96	96.12
255.193	83.12
255.426	70.12
255.659	74.12
255.892	71.12
256.124	86.12
256.357	63.12
256.59	83.12
256.823	88.12
257.056	80.12
257.289	75.12
257.521	66.12
257.754	67.12
257.987	79.12
258.22	81.12
258.452	62.12
258.685	66.12
258.918	93.12
259.151	80.12
259.383	76.12
259.616	71.12
259.849	71.12
260.081	76.12
260.314	93.12
260.547	78.12
260.779	76.12
261.012	77.12
261.244	91.12
261.477	79.12
261.71	90.12
261.942	100.12
262.175	110.12
262.407	100.12
262.64	77.12
262.872	74.12
263.105	85.12
263.337	90.12
263.57	62.12
263.802	85.12
264.035	80.12
264.267	79.12
264.499	70.12
264.732	105.12
264.964	87.12
265.197	101.12
265.429	99.12
265.661	88.12
265.894	86.12
266.126	78.12
266.358	88.12
266.591	77.12
266.823	80.12
267.055	82.12
267.287	88.12
267.52	77.12
267.752	67.12
267.984	71.12
268.216	86.12
268.448	86.12
268.681	84.12
268.913	89.12
269.145	76.12
269.377	78.12
269.609	83.12
269.841	76.12
270.073	91.12
270.306	98.12
270.538	89.12
270.77	71.12
271.002	84.12
271.234	88.12
271.466	91.12
271.698	80.12
271.93	94.12
272.162	85.12
272.394	85.12
272.626	89.12
272.858	80.12
273.09	88.12
273.322	79.12
273.553	75.12
273.785	88.12
274.017	72.12
274.249	86.12
274.481	89.12
274.713	85.12
274.945	75.12
275.176	94.12
275.408	99.12
275.64	84.12
275.872	79.12
276.104	80.12
276.335	92.12
276.567	105.12
276.799	96.12
277.031	102.12
277.262	95.12
277.494	87.12
277.726	85.12
277.957	80.12
278.189	80.12
278.421	84.12
278.652	102.12
278.884	88.12
279.115	79.12
279.347	81.12
279.579	76.12
279.81	97.12
280.042	92.12
280.273	81.12
280.505	77.12
280.736	92.12
280.968	80.12
281.199	90.12
281.431	87.12
281.662	87.12
281.894	83.12
282.125	93.12
282.356	116.12
282.588	120.12
282.819	107.12
283.051	89.12
283.282	99.12
283.513	83.12
283.745	90.12
283.976	85.12
284.207	91.12
284.439	77.12
284.67	84.12
284.901	71.12
285.132	88.12
285.364	95.12
285.595	77.12
285.826	88.12
286.057	81.12
286.288	88.12
286.52	101.12
286.751	84.12
286.982	85.12
287.213	78.12
287.444	82.12
287.675	72.12
287.906	76.12
288.138	91.12
288.369	81.12
288.6	91.12
288.831	79.12
289.062	87.12
289.293	83.12
289.524	84.12
289.755	80.12
289.986	83.12
290.217	89.12
290.448	94.12
290.679	62.12
290.91	84.12
291.141	92.12
291.371	102.12
291.602	92.12
291.833	89.12
292.064	91.12
292.295	84.12
292.526	83.12
292.757	82.12
292.987	92.12
293.218	76.12
293.449	101.12
293.68	87.12
293.91	82.12
294.141	70.12
294.372	107.12
294.603	95.12
294.833	85.12
295.064	82.12
295.295	77.12
295.525	88.12
295.756	101.12
295.987	115.12
296.217	122.12
296.448	116.12
296.679	95.12
296.909	87.12
297.14	98.12
297.37	83.12
297.601	79.12
297.831	92.12
298.062	89.12
298.292	90.12
298.523	99.12
298.753	89.12
298.984	86.12
299.214	70.12
299.445	74.12
299.675	91.12
299.905	80.12
300.136	88.12
300.366	93.12
300.597	87.12
300.827	98.12
301.057	112.12
301.288	94.12
301.518	95.12
301.748	96.12
301.979	94.12
302.209	82.12
302.439	85.12
302.669	101.12
302.9	100.12
303.13	107.12
303.36	77.12
303.59	117.12
303.82	109.12
304.051	100.12
304.281	86.12
304.511	84.12
304.741	92.12
304.971	87.12
305.201	85.12
305.431	92.12
305.661	98.12
305.891	74.12
306.121	90.12
306.352	100.12
306.582	94.12
306.812	91.12
307.042	94.12
307.272	101.12
307.502	91.12
307.731	94.12
307.961	100.12
308.191	90.12
308.421	86.12
308.651	82.12
308.881	103.12
309.111	87.12
309.341	82.12
309.571	99.12
309.8	113.12
310.03	95.12
310.26	86.12
310.49	96.12
310.72	92.12
310.949	106.12
311.179	99.12
311.409	93.12
311.639	70.12
311.868	87.12
312.098	93.12
312.328	96.12
312.557	101.12
312.787	101.12
313.017	95.12
313.246	94.12
313.476	92.12
313.706	86.12
313.935	99.12
314.165	98.12
314.394	87.12
314.624	105.12
314.853	110.12
315.083	84.12
315.312	88.12
315.542	99.12
315.771	82.12
316.001	88.12
316.23	86.12
316.46	97.12
316.689	101.12
316.919	92.12
317.148	81.12
317.377	90.12
317.607	87.12
317.836	88.12
318.065	84.12
318.295	87.12
318.524	90.12
318.753	75.12
318.983	93.12
319.212	103.12
319.441	106.12
319.67	114.12
319.9	96.12
320.129	85.12
320.358	91.12
320.587	105.12
320.816	94.12
321.046	94.12
321.275	107.12
321.504	99.12
321.733	97.12
321.962	101.12
322.191	110.12
322.42	102.12
322.649	109.12
322.878	106.12
323.108	106.12
323.337	115.12
323.566	118.12
323.795	139.12
324.024	210.12
324.253	384.12
324.482	791.12
324.71	1603.12
324.939	2109.12
325.168	790.12
325.397	229.12
325.626	151.12
325.855	132.12
326.084	111.12
326.313	126.12
326.542	153.12
326.77	219.12
326.999	465.12
327.228	921.12
327.457	1671.12
327.686	1336.12
327.914	373.12
328.143	201.12
328.372	163.12
328.6	140.12
328.829	100.12
329.058	124.12
329.287	109.12
329.515	105.12
329.744	111.12
329.972	120.12
330.201	150.12
330.43	179.12
330.658	144.12
330.887	138.12
331.115	103.12
331.344	97.12
331.572	90.12
331.801	120.12
332.03	95.12
332.258	108.12
332.486	94.12
332.715	86.12
332.943	87.12
333.172	84.12
333.4	89.12
333.629	95.12
333.857	107.12
334.085	132.12
334.314	146.12
334.542	187.12
334.771	192.12
334.999	115.12
335.227	106.12
335.455	84.12
335.684	91.12
335.912	106.12
336.14	100.12
336.369	109.12
336.597	81.12
336.825	89.12
337.053	88.12
337.281	90.12
337.51	87.12
337.738	93.12
337.966	106.12
338.194	95.12
338.422	86.12
338.65	81.12
338.878	72.12
339.106	95.12
339.334	100.12
339.562	87.12
339.79	92.12
340.018	85.12
340.246	90.12
340.474	100.12
340.702	85.12
340.93	79.12
341.158	87.12
341.386	96.12
341.614	100.12
341.842	90.12
342.07	88.12
342.298	84.12
342.526	95.12
342.754	102.12
342.981	85.12
343.209	83.12
343.437	109.12
343.665	88.12
343.893	105.12
344.12	85.12
344.348	94.12
344.576	99.12
344.804	96.12
345.031	99.12
345.259	93.12
345.487	77.12
345.714	95.12
345.942	89.12
346.17	94.12
346.397	79.12
346.625	87.12
346.853	93.12
347.08	88.12
347.308	93.12
347.535	105.12
347.763	103.12
347.99	98.12
348.218	102.12
348.445	90.12
348.673	92.12
348.9	84.12
349.128	100.12
349.355	104.12
349.583	81.12
349.81	93.12
350.037	99.12
350.265	98.12
350.492	85.12
350.72	99.12
350.947	102.12
351.174	106.12
351.402	107.12
351.629	80.12
351.856	97.12
352.083	103.12
352.311	112.12
352.538	102.12
352.765	105.12
352.992	104.12
353.22	108.12
353.447	96.12
353.674	106.12
353.901	88.12
354.128	98.12
354.355	91.12
354.583	83.12
354.81	95.12
355.037	87.12
355.264	92.12
355.491	92.12
355.718	96.12
355.945	97.12
356.172	102.12
356.399	93.12
356.626	89.12
356.853	77.12
357.08	86.12
357.307	87.12
357.534	85.12
357.761	93.12
357.988	96.12
358.215	81.12
358.441	109.12
358.668	80.12
358.895	97.12
359.122	87.12
359.349	86.12
359.576	93.12
359.802	100.12
360.029	107.12
360.256	111.12
360.483	98.12
360.709	88.12
360.936	90.12
361.163	91.12
361.39	94.12
361.616	99.12
361.843	94.12
362.07	92.12
362.296	84.12
362.523	93.12
362.749	83.12
362.976	85.12
363.203	82.12
363.429	96.12
363.656	85.12
363.882	94.12
364.109	91.12
364.335	87.12
364.562	94.12
364.788	84.12
365.015	86.12
365.241	97.12
365.468	108.12
365.694	87.12
365.92	96.12
366.147	92.12
366.373	87.12
366.599	82.12
366.826	92.12
367.052	72.12
367.278	103.12
367.505	91.12
367.731	80.12
367.957	90.12
368.184	85.12
368.41	98.12
368.636	107.12
368.862	120.12
369.089	106.12
369.315	90.12
369.541	89.12
369.767	105.12
369.993	92.12
370.219	95.12
370.445	79.12
370.672	101.12
370.898	98.12
371.124	80.12
371.35	84.12
371.576	82.12
371.802	87.12
372.028	87.12
372.254	81.12
372.48	87.12
372.706	93.12
372.932	80.12
373.158	81.12
373.384	85.12
373.61	90.12
373.835	73.12
374.061	75.12
374.287	89.12
374.513	89.12
374.739	85.12
374.965	95.12
375.191	91.12
375.416	79.12
375.642	102.12
375.868	86.12
376.094	84.12
376.319	88.12
376.545	106.12
376.771	102.12
376.997	89.12
377.222	101.12
377.448	99.12
377.674	93.12
377.899	88.12
378.125	87.12
378.35	94.12
378.576	90.12
378.802	85.12
379.027	94.12
379.253	102.12
379.478	80.12
379.704	83.12
379.929	95.12
380.155	95.12
380.38	86.12
380.606	96.12
380.831	88.12
381.057	99.12
381.282	81.12
381.507	91.12
381.733	79.12
381.958	94.12
382.184	86.12
382.409	77.12
382.634	106.12
382.86	103.12
383.085	102.12
383.31	98.12
383.535	102.12
383.761	95.12
383.986	88.12
384.211	92.12
384.436	112.12
384.662	93.12
384.887	90.12
385.112	95.12
385.337	99.12
385.562	90.12
385.787	94.12
386.013	99.12
386.238	98.12
386.463	98.12
386.688	91.12
386.913	95.12
387.138	87.12
387.363	83.12
387.588	109.12
387.813	91.12
388.038	104.12
388.263	122.12
388.488	108.12
388.713	97.12
388.938	96.12
389.163	86.12
389.387	95.12
389.612	92.12
389.837	90.12
390.062	98.12
390.287	97.12
390.512	90.12
390.736	85.12
390.961	98.12
391.186	75.12
391.411	86.12
391.636	94.12
391.86	87.12
392.085	81.12
392.31	84.12
392.534	92.12
392.759	83.12
392.984	90.12
393.208	87.12
393.433	87.12
393.658	89.12
393.882	83.12
394.107	89.12
394.331	78.12
394.556	90.12
394.78	89.12
395.005	90.12
395.229	74.12
395.454	80.12
395.678	75.12
395.903	89.12
396.127	78.12
396.352	94.12
396.576	82.12
396.801	80.12
397.025	70.12
397.249	93.12
397.474	89.12
397.698	80.12
397.922	83.12
398.147	83.12
398.371	90.12
398.595	93.12
398.82	83.12
399.044	86.12
399.268	95.12
399.492	92.12
399.717	86.12
399.941	85.12
400.165	98.12
400.389	111.12
400.613	82.12
400.837	77.12
401.062	60.12
401.286	85.12
401.51	77.12
401.734	91.12
401.958	94.12
402.182	125.12
402.406	136.12
402.63	109.12
402.854	90.12
403.078	84.12
403.302	93.12
403.526	78.12
403.75	81.12
403.974	93.12
404.198	79.12
404.422	83.12
404.645	83.12
404.869	92.12
405.093	86.12
405.317	102.12
405.541	87.12
405.765	100.12
405.988	106.12
406.212	156.12
406.436	200.12
406.66	128.12
406.883	102.12
407.107	85.12
407.331	93.12
407.555	87.12
407.778	99.12
408.002	76.12
408.226	85.12
408.449	103.12
408.673	75.12
408.896	86.12
409.12	87.12
409.344	83.12
409.567	95.12
409.791	95.12
410.014	96.12
410.238	94.12
410.461	82.12
410.685	79.12
410.908	93.12
411.132	92.12
411.355	93.12
411.578	96.12
411.802	78.12
412.025	80.12
412.249	80.12
412.472	79.12
412.695	97.12
412.919	87.12
413.142	88.12
413.365	89.12
413.589	80.12
413.812	85.12
414.035	96.12
414.258	74.12
414.482	92.12
414.705	78.12
414.928	89.12
415.151	80.12
415.374	96.12
415.597	98.12
415.821	73.12
416.044	89.12
416.267	85.12
416.49	89.12
416.713	79.12
416.936	101.12
417.159	81.12
417.382	88.12
417.605	90.12
417.828	90.12
418.051	79.12
418.274	87.12
418.497	80.12
418.72	88.12
418.943	83.12
419.166	77.12
419.389	80.12
419.611	97.12
419.834	78.12
420.057	89.12
420.28	83.12
420.503	84.12
420.726	89.12
420.948	86.12
421.171	98.12
421.394	79.12
421.617	91.12
421.839	72.12
422.062	78.12
422.285	90.12
422.507	97.12
422.73	100.12
422.953	82.12
423.175	95.12
423.398	92.12
423.621	73.12
423.843	78.12
424.066	81.12
424.288	86.12
424.511	80.12
424.733	109.12
424.956	93.12
425.178	97.12
425.401	107.12
425.623	92.12
425.846	101.12
426.068	84.12
426.291	91.12
426.513	88.12
426.735	73.12
426.958	89.12
427.18	94.12
427.402	120.12
427.625	157.12
427.847	125.12
428.069	104.12
428.292	105.12
428.514	78.12
428.736	80.12
428.958	103.12
429.181	96.12
429.403	86.12
429.625	88.12
429.847	90.12
430.069	110.12
430.292	94.12
430.514	79.12
430.736	90.12
430.958	79.12
431.18	78.12
431.402	76.12
431.624	89.12
431.846	74.12
432.068	83.12
432.29	90.12
432.512	82.12
432.734	88.12
432.956	96.12
433.178	107.12
433.4	95.12
433.622	97.12
433.844	91.12
434.066	91.12
434.287	91.12
434.509	87.12
434.731	76.12
434.953	88.12
435.175	92.12
435.397	79.12
435.618	77.12
435.84	92.12
436.062	123.12
436.284	111.12
436.505	81.12
436.727	84.12
436.949	90.12
437.17	114.12
437.392	83.12
437.614	98.12
437.835	87.12
438.057	103.12
438.278	94.12
438.5	88.12
438.721	120.12
438.943	97.12
439.165	106.12
439.386	98.12
439.608	76.12
439.829	99.12
440.05	105.12
440.272	144.12
440.493	111.12
440.715	80.12
440.936	85.12
441.158	82.12
441.379	77.12
441.6	92.12
441.822	94.12
442.043	102.12
442.264	99.12
442.486	99.12
442.707	91.12
442.928	85.12
443.149	134.12
443.371	120.12
443.592	91.12
443.813	109.12
444.034	108.12
444.255	88.12
444.476	80.12
444.698	74.12
444.919	96.12
445.14	124.12
445.361	120.12
445.582	115.12
445.803	136.12
446.024	134.12
446.245	116.12
446.466	114.12
446.687	101.12
446.908	85.12
447.129	92.12
447.35	91.12
447.571	80.12
447.792	79.12
448.013	92.12
448.234	87.12
448.455	89.12
448.675	118.12
448.896	104.12
449.117	102.12
449.338	110.12
449.559	115.12
449.779	144.12
450	90.12
450.221	96.12
450.442	96.12
450.662	98.12
450.883	97.12
451.104	110.12
451.324	95.12
451.545	71.12
451.766	95.12
451.986	95.12
452.207	82.12
452.428	79.12
452.648	93.12
452.869	87.12
453.089	112.12
453.31	122.12
453.53	98.12
453.751	94.12
453.971	110.12
454.192	105.12
454.412	86.12
454.633	89.12
454.853	84.12
455.073	70.12
455.294	100.12
455.514	88.12
455.734	89.12
455.955	87.12
456.175	79.12
456.395	92.12
456.616	76.12
456.836	84.12
457.056	85.12
457.276	73.12
457.497	100.12
457.717	86.12
457.937	73.12
458.157	88.12
458.377	99.12
458.598	79.12
458.818	133.12
459.038	134.12
459.258	106.12
459.478	94.12
459.698	90.12
459.918	98.12
460.138	83.12
460.358	68.12
460.578	79.12
460.798	86.12
461.018	85.12
461.238	82.12
461.458	87.12
461.678	70.12
461.898	82.12
462.118	74.12
462.338	80.12
462.558	68.12
462.777	97.12
462.997	84.12
463.217	95.12
463.437	92.12
463.657	90.12
463.876	75.12
464.096	86.12
464.316	87.12
464.536	87.12
464.755	75.12
464.975	95.12
465.195	148.12
465.414	142.12
465.634	95.12
465.854	78.12
466.073	101.12
466.293	88.12
466.512	89.12
466.732	85.12
466.951	95.12
467.171	80.12
467.391	96.12
467.61	102.12
467.829	109.12
468.049	110.12
468.268	113.12
468.488	78.12
468.707	83.12
468.927	96.12
469.146	84.12
469.365	91.12
469.585	80.12
469.804	99.12
470.023	99.12
470.243	102.12
470.462	92.12
470.681	114.12
470.901	89.12
471.12	72.12
471.339	80.12
471.558	97.12
471.777	95.12
471.997	86.12
472.216	149.12
472.435	222.12
472.654	115.12
472.873	83.12
473.092	81.12
473.311	83.12
473.53	97.12
473.749	100.12
473.968	103.12
474.187	104.12
474.406	91.12
474.625	94.12
474.844	77.12
475.063	98.12
475.282	83.12
475.501	84.12
475.72	89.12
475.939	76.12
476.158	82.12
476.377	86.12
476.596	94.12
476.814	94.12
477.033	94.12
477.252	84.12
477.471	78.12
477.69	80.12
477.908	98.12
478.127	85.12
478.346	97.12
478.564	81.12
478.783	98.12
479.002	88.12
479.22	87.12
479.439	90.12
479.658	99.12
479.876	93.12
480.095	86.12
480.313	99.12
480.532	94.12
480.751	99.12
480.969	168.12
481.188	351.12
481.406	239.12
481.624	110.12
481.843	99.12
482.061	86.12
482.28	92.12
482.498	90.12
482.717	72.12
482.935	79.12
483.153	100.12
483.372	91.12
483.59	96.12
483.808	92.12
484.027	88.12
484.245	90.12
484.463	90.12
484.681	103.12
484.9	89.12
485.118	95.12
485.336	75.12
485.554	91.12
485.772	99.12
485.99	109.12
486.209	100.12
486.427	104.12
486.645	115.12
486.863	100.12
487.081	108.12
487.299	90.12
487.517	78.12
487.735	85.12
487.953	90.12
488.171	99.12
488.389	103.12
488.607	95.12
488.825	86.12
489.043	100.12
489.261	88.12
489.479	83.12
489.696	95.12
489.914	93.12
490.132	102.12
490.35	82.12
490.568	97.12
490.786	75.12
491.003	94.12
491.221	86.12
491.439	79.12
491.657	91.12
491.874	93.12
492.092	87.12
492.31	94.12
492.527	92.12
492.745	101.12
492.963	88.12
493.18	87.12
493.398	90.12
493.615	84.12
493.833	91.12
494.05	110.12
494.268	95.12
494.485	103.12
494.703	94.12
494.92	98.12
495.138	102.12
495.355	92.12
495.573	85.12
495.79	90.12
496.008	99.12
496.225	94.12
496.442	78.12
496.66	77.12
496.877	105.12
497.094	81.12
497.312	100.12
497.529	98.12
497.746	89.12
497.963	91.12
498.181	86.12
498.398	96.12
498.615	94.12
498.832	99.12
499.049	101.12
499.267	84.12
499.484	81.12
499.701	82.12
499.918	91.12
500.135	75.12
500.352	80.12
500.569	88.12
500.786	85.12
501.003	89.12
501.22	94.12
501.437	79.12
501.654	76.12
501.871	96.12
502.088	83.12
502.305	91.12
502.522	98.12
502.739	94.12
502.956	76.12
503.172	81.12
503.389	104.12
503.606	101.12
503.823	104.12
504.04	88.12
504.256	93.12
504.473	92.12
504.69	87.12
504.907	94.12
505.123	87.12
505.34	83.12
505.557	84.12
505.773	87.12
505.99	79.12
506.207	100.12
506.423	71.12
506.64	85.12
506.856	77.12
507.073	95.12
507.289	81.12
507.506	84.12
507.722	94.12
507.939	118.12
508.155	103.12
508.372	81.12
508.588	102.12
508.805	97.12
509.021	92.12
509.238	105.12
509.454	90.12
509.67	99.12
509.887	115.12
510.103	130.12
510.319	199.12
510.536	661.12
510.752	2038.12
510.968	597.12
511.184	141.12
511.401	106.12
511.617	102.12
511.833	95.12
512.049	77.12
512.265	84.12
512.481	95.12
512.698	75.12
512.914	93.12
513.13	82.12
513.346	79.12
513.562	92.12
513.778	104.12
513.994	96.12
514.21	91.12
514.426	111.12
514.642	122.12
514.858	130.12
515.074	152.12
515.29	395.12
515.506	1315.12
515.721	487.12
515.937	149.12
516.153	116.12
