Data from Circ_2011_H10_HRD10591_00095.txt Node
Date: Wed Jan 03 10:08:18 EST 2024
User: Yrep
Spectrometer: HR+D1059
Trigger mode: 1
Integration Time (sec): 1.000000E-1
Scans to average: 1
Electric dark correction enabled: true
Nonlinearity correction enabled: false
Boxcar width: 0
XAxis mode: Wavelengths
Number of Pixels in Spectrum: 2048
>>>>>Begin Spectral Data<<<<<
223.165	-19.94
223.4	-19.94
223.635	-19.94
223.869	-9.94
224.104	-8.94
224.338	-18.94
224.573	-23.94
224.808	-26.94
225.042	-5.94
225.277	1.06
225.511	3.06
225.746	1.06
225.98	11.06
226.215	13.06
226.449	14.06
226.683	16.06
226.918	11.06
227.152	44.06
227.387	41.06
227.621	42.06
227.856	35.06
228.09	40.06
228.324	49.06
228.559	57.06
228.793	55.06
229.027	63.06
229.262	66.06
229.496	81.06
229.73	80.06
229.964	79.06
230.199	83.06
230.433	86.06
230.667	65.06
230.901	74.06
231.136	88.06
231.37	85.06
231.604	83.06
231.838	68.06
232.072	86.06
232.306	98.06
232.541	72.06
232.775	93.06
233.009	76.06
233.243	76.06
233.477	78.06
233.711	79.06
233.945	79.06
234.179	81.06
234.413	86.06
234.647	97.06
234.881	80.06
235.115	75.06
235.349	82.06
235.583	70.06
235.817	86.06
236.051	86.06
236.285	80.06
236.519	74.06
236.753	71.06
236.987	69.06
237.221	80.06
237.455	81.06
237.689	78.06
237.922	69.06
238.156	75.06
238.39	68.06
238.624	71.06
238.858	83.06
239.091	83.06
239.325	78.06
239.559	80.06
239.793	84.06
240.027	78.06
240.26	70.06
240.494	75.06
240.728	69.06
240.961	72.06
241.195	83.06
241.429	79.06
241.662	74.06
241.896	70.06
242.13	90.06
242.363	78.06
242.597	77.06
242.83	79.06
243.064	69.06
243.298	75.06
243.531	77.06
243.765	79.06
243.998	83.06
244.232	84.06
244.465	86.06
244.699	86.06
244.932	78.06
245.166	86.06
245.399	90.06
245.633	83.06
245.866	75.06
246.099	80.06
246.333	69.06
246.566	75.06
246.8	86.06
247.033	76.06
247.266	71.06
247.5	83.06
247.733	92.06
247.966	71.06
248.2	85.06
248.433	80.06
248.666	85.06
248.899	71.06
249.133	86.06
249.366	109.06
249.599	112.06
249.832	85.06
250.066	77.06
250.299	90.06
250.532	78.06
250.765	80.06
250.998	83.06
251.231	86.06
251.465	71.06
251.698	78.06
251.931	83.06
252.164	77.06
252.397	80.06
252.63	83.06
252.863	77.06
253.096	87.06
253.329	83.06
253.562	66.06
253.795	78.06
254.028	87.06
254.261	95.06
254.494	84.06
254.727	98.06
254.96	89.06
255.193	77.06
255.426	81.06
255.659	80.06
255.892	84.06
256.124	71.06
256.357	71.06
256.59	82.06
256.823	90.06
257.056	92.06
257.289	87.06
257.521	74.06
257.754	76.06
257.987	70.06
258.22	82.06
258.452	91.06
258.685	91.06
258.918	73.06
259.151	71.06
259.383	82.06
259.616	81.06
259.849	77.06
260.081	92.06
260.314	84.06
260.547	74.06
260.779	78.06
261.012	79.06
261.244	80.06
261.477	84.06
261.71	85.06
261.942	103.06
262.175	129.06
262.407	90.06
262.64	82.06
262.872	73.06
263.105	81.06
263.337	85.06
263.57	73.06
263.802	73.06
264.035	80.06
264.267	72.06
264.499	84.06
264.732	94.06
264.964	90.06
265.197	93.06
265.429	90.06
265.661	79.06
265.894	74.06
266.126	77.06
266.358	95.06
266.591	88.06
266.823	79.06
267.055	93.06
267.287	91.06
267.52	77.06
267.752	98.06
267.984	72.06
268.216	65.06
268.448	84.06
268.681	86.06
268.913	87.06
269.145	84.06
269.377	77.06
269.609	85.06
269.841	83.06
270.073	77.06
270.306	76.06
270.538	83.06
270.77	79.06
271.002	76.06
271.234	95.06
271.466	90.06
271.698	79.06
271.93	88.06
272.162	81.06
272.394	84.06
272.626	87.06
272.858	96.06
273.09	85.06
273.322	93.06
273.553	79.06
273.785	90.06
274.017	90.06
274.249	81.06
274.481	95.06
274.713	85.06
274.945	90.06
275.176	86.06
275.408	84.06
275.64	80.06
275.872	85.06
276.104	92.06
276.335	92.06
276.567	95.06
276.799	113.06
277.031	109.06
277.262	95.06
277.494	89.06
277.726	86.06
277.957	77.06
278.189	82.06
278.421	76.06
278.652	94.06
278.884	90.06
279.115	88.06
279.347	66.06
279.579	84.06
279.81	82.06
280.042	86.06
280.273	119.06
280.505	85.06
280.736	82.06
280.968	74.06
281.199	87.06
281.431	77.06
281.662	88.06
281.894	96.06
282.125	85.06
282.356	121.06
282.588	137.06
282.819	116.06
283.051	72.06
283.282	90.06
283.513	86.06
283.745	80.06
283.976	66.06
284.207	82.06
284.439	99.06
284.67	71.06
284.901	98.06
285.132	88.06
285.364	93.06
285.595	84.06
285.826	82.06
286.057	81.06
286.288	88.06
286.52	98.06
286.751	85.06
286.982	85.06
287.213	107.06
287.444	83.06
287.675	96.06
287.906	81.06
288.138	85.06
288.369	76.06
288.6	92.06
288.831	90.06
289.062	83.06
289.293	82.06
289.524	95.06
289.755	75.06
289.986	86.06
290.217	79.06
290.448	84.06
290.679	82.06
290.91	81.06
291.141	96.06
291.371	100.06
291.602	97.06
291.833	80.06
292.064	91.06
292.295	92.06
292.526	85.06
292.757	94.06
292.987	91.06
293.218	92.06
293.449	97.06
293.68	74.06
293.91	85.06
294.141	91.06
294.372	83.06
294.603	71.06
294.833	87.06
295.064	81.06
295.295	88.06
295.525	94.06
295.756	100.06
295.987	117.06
296.217	140.06
296.448	116.06
296.679	85.06
296.909	97.06
297.14	79.06
297.37	82.06
297.601	98.06
297.831	84.06
298.062	91.06
298.292	82.06
298.523	88.06
298.753	83.06
298.984	80.06
299.214	91.06
299.445	79.06
299.675	95.06
299.905	85.06
300.136	83.06
300.366	86.06
300.597	104.06
300.827	102.06
301.057	102.06
301.288	96.06
301.518	98.06
301.748	97.06
301.979	94.06
302.209	95.06
302.439	89.06
302.669	101.06
302.9	91.06
303.13	88.06
303.36	98.06
303.59	79.06
303.82	102.06
304.051	102.06
304.281	101.06
304.511	91.06
304.741	79.06
304.971	91.06
305.201	97.06
305.431	84.06
305.661	85.06
305.891	90.06
306.121	87.06
306.352	100.06
306.582	101.06
306.812	105.06
307.042	84.06
307.272	89.06
307.502	93.06
307.731	91.06
307.961	92.06
308.191	74.06
308.421	85.06
308.651	74.06
308.881	99.06
309.111	89.06
309.341	94.06
309.571	93.06
309.8	99.06
310.03	93.06
310.26	75.06
310.49	92.06
310.72	100.06
310.949	92.06
311.179	100.06
311.409	101.06
311.639	94.06
311.868	94.06
312.098	95.06
312.328	102.06
312.557	93.06
312.787	102.06
313.017	107.06
313.246	107.06
313.476	78.06
313.706	82.06
313.935	102.06
314.165	101.06
314.394	95.06
314.624	81.06
314.853	88.06
315.083	89.06
315.312	96.06
315.542	91.06
315.771	75.06
316.001	96.06
316.23	97.06
316.46	99.06
316.689	107.06
316.919	102.06
317.148	93.06
317.377	86.06
317.607	94.06
317.836	97.06
318.065	98.06
318.295	96.06
318.524	94.06
318.753	103.06
318.983	103.06
319.212	92.06
319.441	102.06
319.67	94.06
319.9	70.06
320.129	87.06
320.358	88.06
320.587	86.06
320.816	90.06
321.046	100.06
321.275	89.06
321.504	91.06
321.733	104.06
321.962	101.06
322.191	98.06
322.42	118.06
322.649	106.06
322.878	110.06
323.108	114.06
323.337	121.06
323.566	134.06
323.795	161.06
324.024	229.06
324.253	464.06
324.482	1023.06
324.71	2065.06
324.939	2759.06
325.168	981.06
325.397	265.06
325.626	160.06
325.855	125.06
326.084	123.06
326.313	142.06
326.542	183.06
326.77	253.06
326.999	563.06
327.228	1137.06
327.457	2115.06
327.686	1669.06
327.914	414.06
328.143	234.06
328.372	218.06
328.6	161.06
328.829	121.06
329.058	134.06
329.287	130.06
329.515	111.06
329.744	122.06
329.972	154.06
330.201	216.06
330.43	297.06
330.658	189.06
330.887	154.06
331.115	122.06
331.344	92.06
331.572	104.06
331.801	102.06
332.03	115.06
332.258	89.06
332.486	85.06
332.715	86.06
332.943	95.06
333.172	96.06
333.4	90.06
333.629	122.06
333.857	135.06
334.085	151.06
334.314	228.06
334.542	344.06
334.771	312.06
334.999	143.06
335.227	105.06
335.455	91.06
335.684	105.06
335.912	83.06
336.14	94.06
336.369	93.06
336.597	72.06
336.825	91.06
337.053	104.06
337.281	85.06
337.51	96.06
337.738	98.06
337.966	92.06
338.194	91.06
338.422	113.06
338.65	91.06
338.878	92.06
339.106	89.06
339.334	103.06
339.562	76.06
339.79	83.06
340.018	97.06
340.246	88.06
340.474	89.06
340.702	90.06
340.93	94.06
341.158	88.06
341.386	86.06
341.614	103.06
341.842	92.06
342.07	104.06
342.298	96.06
342.526	98.06
342.754	75.06
342.981	74.06
343.209	93.06
343.437	96.06
343.665	80.06
343.893	95.06
344.12	94.06
344.348	87.06
344.576	74.06
344.804	100.06
345.031	98.06
345.259	106.06
345.487	92.06
345.714	91.06
345.942	87.06
346.17	94.06
346.397	94.06
346.625	95.06
346.853	88.06
347.08	95.06
347.308	100.06
347.535	98.06
347.763	85.06
347.99	94.06
348.218	101.06
348.445	108.06
348.673	81.06
348.9	86.06
349.128	99.06
349.355	83.06
349.583	66.06
349.81	88.06
350.037	91.06
350.265	96.06
350.492	86.06
350.72	101.06
350.947	103.06
351.174	108.06
351.402	104.06
351.629	122.06
351.856	97.06
352.083	100.06
352.311	99.06
352.538	104.06
352.765	110.06
352.992	121.06
353.22	101.06
353.447	107.06
353.674	89.06
353.901	88.06
354.128	87.06
354.355	87.06
354.583	88.06
354.81	97.06
355.037	95.06
355.264	87.06
355.491	87.06
355.718	88.06
355.945	90.06
356.172	85.06
356.399	90.06
356.626	88.06
356.853	82.06
357.08	88.06
357.307	93.06
357.534	100.06
357.761	100.06
357.988	86.06
358.215	97.06
358.441	99.06
358.668	77.06
358.895	91.06
359.122	74.06
359.349	85.06
359.576	94.06
359.802	102.06
360.029	115.06
360.256	98.06
360.483	97.06
360.709	86.06
360.936	86.06
361.163	104.06
361.39	83.06
361.616	86.06
361.843	98.06
362.07	91.06
362.296	91.06
362.523	89.06
362.749	86.06
362.976	82.06
363.203	97.06
363.429	96.06
363.656	96.06
363.882	79.06
364.109	92.06
364.335	69.06
364.562	87.06
364.788	85.06
365.015	90.06
365.241	89.06
365.468	109.06
365.694	105.06
365.92	93.06
366.147	85.06
366.373	71.06
366.599	86.06
366.826	86.06
367.052	84.06
367.278	98.06
367.505	91.06
367.731	105.06
367.957	79.06
368.184	82.06
368.41	94.06
368.636	105.06
368.862	120.06
369.089	110.06
369.315	93.06
369.541	86.06
369.767	77.06
369.993	92.06
370.219	84.06
370.445	75.06
370.672	77.06
370.898	86.06
371.124	78.06
371.35	85.06
371.576	78.06
371.802	90.06
372.028	90.06
372.254	85.06
372.48	104.06
372.706	89.06
372.932	76.06
373.158	96.06
373.384	98.06
373.61	78.06
373.835	91.06
374.061	82.06
374.287	93.06
374.513	86.06
374.739	75.06
374.965	83.06
375.191	86.06
375.416	100.06
375.642	90.06
375.868	78.06
376.094	95.06
376.319	91.06
376.545	94.06
376.771	81.06
376.997	79.06
377.222	95.06
377.448	95.06
377.674	87.06
377.899	95.06
378.125	83.06
378.35	93.06
378.576	100.06
378.802	90.06
379.027	91.06
379.253	94.06
379.478	87.06
379.704	93.06
379.929	92.06
380.155	90.06
380.38	87.06
380.606	84.06
380.831	82.06
381.057	90.06
381.282	101.06
381.507	91.06
381.733	83.06
381.958	100.06
382.184	84.06
382.409	87.06
382.634	97.06
382.86	94.06
383.085	89.06
383.31	93.06
383.535	89.06
383.761	86.06
383.986	93.06
384.211	85.06
384.436	89.06
384.662	92.06
384.887	99.06
385.112	96.06
385.337	95.06
385.562	89.06
385.787	94.06
386.013	98.06
386.238	106.06
386.463	114.06
386.688	115.06
386.913	89.06
387.138	92.06
387.363	79.06
387.588	87.06
387.813	100.06
388.038	76.06
388.263	101.06
388.488	90.06
388.713	101.06
388.938	87.06
389.163	102.06
389.387	88.06
389.612	90.06
389.837	94.06
390.062	107.06
390.287	95.06
390.512	76.06
390.736	83.06
390.961	93.06
391.186	102.06
391.411	80.06
391.636	91.06
391.86	85.06
392.085	82.06
392.31	85.06
392.534	70.06
392.759	83.06
392.984	69.06
393.208	79.06
393.433	76.06
393.658	84.06
393.882	80.06
394.107	85.06
394.331	86.06
394.556	89.06
394.78	78.06
395.005	87.06
395.229	83.06
395.454	85.06
395.678	81.06
395.903	92.06
396.127	91.06
396.352	92.06
396.576	89.06
396.801	78.06
397.025	84.06
397.249	75.06
397.474	86.06
397.698	72.06
397.922	74.06
398.147	85.06
398.371	79.06
398.595	84.06
398.82	88.06
399.044	94.06
399.268	86.06
399.492	83.06
399.717	88.06
399.941	78.06
400.165	90.06
400.389	113.06
400.613	87.06
400.837	103.06
401.062	83.06
401.286	87.06
401.51	77.06
401.734	89.06
401.958	80.06
402.182	119.06
402.406	158.06
402.63	105.06
402.854	78.06
403.078	86.06
403.302	80.06
403.526	84.06
403.75	84.06
403.974	85.06
404.198	99.06
404.422	84.06
404.645	96.06
404.869	77.06
405.093	87.06
405.317	102.06
405.541	100.06
405.765	91.06
405.988	138.06
406.212	162.06
406.436	253.06
406.66	147.06
406.883	95.06
407.107	90.06
407.331	97.06
407.555	105.06
407.778	99.06
408.002	83.06
408.226	80.06
408.449	84.06
408.673	87.06
408.896	88.06
409.12	84.06
409.344	88.06
409.567	76.06
409.791	101.06
410.014	96.06
410.238	103.06
410.461	93.06
410.685	88.06
410.908	100.06
411.132	91.06
411.355	116.06
411.578	91.06
411.802	98.06
412.025	74.06
412.249	93.06
412.472	105.06
412.695	110.06
412.919	107.06
413.142	79.06
413.365	83.06
413.589	82.06
413.812	81.06
414.035	94.06
414.258	76.06
414.482	94.06
414.705	92.06
414.928	95.06
415.151	87.06
415.374	86.06
415.597	80.06
415.821	85.06
416.044	75.06
416.267	87.06
416.49	75.06
416.713	77.06
416.936	75.06
417.159	78.06
417.382	76.06
417.605	82.06
417.828	77.06
418.051	83.06
418.274	87.06
418.497	92.06
418.72	85.06
418.943	89.06
419.166	65.06
419.389	83.06
419.611	74.06
419.834	81.06
420.057	99.06
420.28	84.06
420.503	81.06
420.726	89.06
420.948	76.06
421.171	98.06
421.394	89.06
421.617	90.06
421.839	78.06
422.062	90.06
422.285	107.06
422.507	96.06
422.73	97.06
422.953	92.06
423.175	78.06
423.398	99.06
423.621	96.06
423.843	89.06
424.066	92.06
424.288	89.06
424.511	90.06
424.733	74.06
424.956	99.06
425.178	94.06
425.401	94.06
425.623	101.06
425.846	78.06
426.068	90.06
426.291	90.06
426.513	100.06
426.735	88.06
426.958	95.06
427.18	115.06
427.402	154.06
427.625	199.06
427.847	151.06
428.069	141.06
428.292	106.06
428.514	91.06
428.736	73.06
428.958	78.06
429.181	89.06
429.403	87.06
429.625	89.06
429.847	102.06
430.069	98.06
430.292	86.06
430.514	82.06
430.736	80.06
430.958	81.06
431.18	75.06
431.402	80.06
431.624	70.06
431.846	87.06
432.068	82.06
432.29	73.06
432.512	85.06
432.734	94.06
432.956	76.06
433.178	96.06
433.4	100.06
433.622	83.06
433.844	100.06
434.066	93.06
434.287	106.06
434.509	97.06
434.731	74.06
434.953	79.06
435.175	85.06
435.397	84.06
435.618	85.06
435.84	101.06
436.062	130.06
436.284	123.06
436.505	97.06
436.727	118.06
436.949	96.06
437.17	87.06
437.392	89.06
437.614	91.06
437.835	107.06
438.057	117.06
438.278	121.06
438.5	111.06
438.721	113.06
438.943	99.06
439.165	84.06
439.386	81.06
439.608	93.06
439.829	103.06
440.05	115.06
440.272	153.06
440.493	99.06
440.715	87.06
440.936	87.06
441.158	78.06
441.379	79.06
441.6	84.06
441.822	97.06
442.043	95.06
442.264	116.06
442.486	99.06
442.707	94.06
442.928	97.06
443.149	126.06
443.371	135.06
443.592	107.06
443.813	122.06
444.034	115.06
444.255	85.06
444.476	91.06
444.698	89.06
444.919	84.06
445.14	113.06
445.361	125.06
445.582	120.06
445.803	143.06
446.024	125.06
446.245	136.06
446.466	120.06
446.687	94.06
446.908	100.06
447.129	90.06
447.35	92.06
447.571	99.06
447.792	85.06
448.013	97.06
448.234	95.06
448.455	101.06
448.675	109.06
448.896	126.06
449.117	99.06
449.338	102.06
449.559	146.06
449.779	143.06
450	89.06
450.221	77.06
450.442	79.06
450.662	98.06
450.883	97.06
451.104	110.06
451.324	86.06
451.545	82.06
451.766	99.06
451.986	88.06
452.207	88.06
452.428	76.06
452.648	101.06
452.869	111.06
453.089	111.06
453.31	103.06
453.53	89.06
453.751	96.06
453.971	100.06
454.192	101.06
454.412	106.06
454.633	92.06
454.853	77.06
455.073	97.06
455.294	90.06
455.514	127.06
455.734	86.06
455.955	85.06
456.175	72.06
456.395	81.06
456.616	85.06
456.836	83.06
457.056	87.06
457.276	80.06
457.497	80.06
457.717	91.06
457.937	90.06
458.157	79.06
458.377	87.06
458.598	99.06
458.818	147.06
459.038	173.06
459.258	133.06
459.478	90.06
459.698	91.06
459.918	87.06
460.138	77.06
460.358	78.06
460.578	92.06
460.798	94.06
461.018	86.06
461.238	91.06
461.458	72.06
461.678	79.06
461.898	87.06
462.118	88.06
462.338	71.06
462.558	95.06
462.777	81.06
462.997	99.06
463.217	78.06
463.437	85.06
463.657	86.06
463.876	92.06
464.096	66.06
464.316	89.06
464.536	99.06
464.755	92.06
464.975	101.06
465.195	177.06
465.414	167.06
465.634	89.06
465.854	80.06
466.073	88.06
466.293	71.06
466.512	99.06
466.732	90.06
466.951	94.06
467.171	90.06
467.391	109.06
467.61	97.06
467.829	125.06
468.049	162.06
468.268	177.06
468.488	110.06
468.707	85.06
468.927	81.06
469.146	75.06
469.365	79.06
469.585	98.06
469.804	79.06
470.023	93.06
470.243	95.06
470.462	104.06
470.681	103.06
470.901	82.06
471.12	94.06
471.339	95.06
471.558	90.06
471.777	92.06
471.997	110.06
472.216	230.06
472.435	451.06
472.654	159.06
472.873	100.06
473.092	77.06
473.311	80.06
473.53	72.06
473.749	86.06
473.968	86.06
474.187	117.06
474.406	89.06
474.625	92.06
474.844	83.06
475.063	87.06
475.282	88.06
475.501	85.06
475.72	88.06
475.939	72.06
476.158	81.06
476.377	87.06
476.596	108.06
476.814	96.06
477.033	94.06
477.252	76.06
477.471	84.06
477.69	86.06
477.908	93.06
478.127	83.06
478.346	103.06
478.564	105.06
478.783	86.06
479.002	83.06
479.22	86.06
479.439	71.06
479.658	98.06
479.876	103.06
480.095	99.06
480.313	90.06
480.532	94.06
480.751	116.06
480.969	242.06
481.188	770.06
481.406	493.06
481.624	142.06
481.843	98.06
482.061	96.06
482.28	100.06
482.498	86.06
482.717	86.06
482.935	82.06
483.153	84.06
483.372	69.06
483.59	78.06
483.808	86.06
484.027	88.06
484.245	88.06
484.463	90.06
484.681	91.06
484.9	89.06
485.118	88.06
485.336	83.06
485.554	91.06
485.772	95.06
485.99	118.06
486.209	107.06
486.427	110.06
486.645	115.06
486.863	110.06
487.081	97.06
487.299	94.06
487.517	102.06
487.735	92.06
487.953	97.06
488.171	86.06
488.389	83.06
488.607	105.06
488.825	99.06
489.043	90.06
489.261	79.06
489.479	90.06
489.696	89.06
489.914	95.06
490.132	83.06
490.35	89.06
490.568	95.06
490.786	89.06
491.003	98.06
491.221	82.06
491.439	100.06
491.657	95.06
491.874	90.06
492.092	97.06
492.31	74.06
492.527	80.06
492.745	84.06
492.963	106.06
493.18	89.06
493.398	91.06
493.615	81.06
493.833	99.06
494.05	83.06
494.268	100.06
494.485	86.06
494.703	67.06
494.92	86.06
495.138	88.06
495.355	90.06
495.573	91.06
495.79	89.06
496.008	97.06
496.225	97.06
496.442	88.06
496.66	80.06
496.877	97.06
497.094	90.06
497.312	98.06
497.529	85.06
497.746	84.06
497.963	85.06
498.181	75.06
498.398	100.06
498.615	108.06
498.832	94.06
499.049	86.06
499.267	97.06
499.484	103.06
499.701	90.06
499.918	81.06
500.135	97.06
500.352	95.06
500.569	95.06
500.786	90.06
501.003	89.06
501.22	87.06
501.437	82.06
501.654	89.06
501.871	102.06
502.088	97.06
502.305	89.06
502.522	112.06
502.739	96.06
502.956	90.06
503.172	78.06
503.389	94.06
503.606	91.06
503.823	98.06
504.04	103.06
504.256	82.06
504.473	84.06
504.69	77.06
504.907	73.06
505.123	76.06
505.34	79.06
505.557	79.06
505.773	83.06
505.99	88.06
506.207	78.06
506.423	92.06
506.64	82.06
506.856	79.06
507.073	86.06
507.289	92.06
507.506	81.06
507.722	104.06
507.939	102.06
508.155	94.06
508.372	84.06
508.588	92.06
508.805	97.06
509.021	93.06
509.238	98.06
509.454	92.06
509.67	77.06
509.887	107.06
510.103	134.06
510.319	219.06
510.536	761.06
510.752	2437.06
510.968	698.06
511.184	170.06
511.401	122.06
511.617	88.06
511.833	87.06
512.049	88.06
512.265	101.06
512.481	97.06
512.698	98.06
512.914	85.06
513.13	90.06
513.346	93.06
513.562	105.06
513.778	94.06
513.994	102.06
514.21	113.06
514.426	115.06
514.642	118.06
514.858	115.06
515.074	185.06
515.29	508.06
515.506	1630.06
515.721	609.06
515.937	184.06
516.153	119.06
