Data from Circ_2011_H10_HRD10591_00028.txt Node
Date: Wed Jan 03 10:08:04 EST 2024
User: Yrep
Spectrometer: HR+D1059
Trigger mode: 1
Integration Time (sec): 1.000000E-1
Scans to average: 1
Electric dark correction enabled: true
Nonlinearity correction enabled: false
Boxcar width: 0
XAxis mode: Wavelengths
Number of Pixels in Spectrum: 2048
>>>>>Begin Spectral Data<<<<<
223.165	-22.38
223.4	-22.38
223.635	-22.38
223.869	-12.38
224.104	-29.38
224.338	-19.38
224.573	-29.38
224.808	-7.38
225.042	-8.38
225.277	-1.38
225.511	-3.38
225.746	4.62
225.98	-5.38
226.215	8.62
226.449	21.62
226.683	36.62
226.918	41.62
227.152	25.62
227.387	33.62
227.621	47.62
227.856	48.62
228.09	47.62
228.324	41.62
228.559	67.62
228.793	46.62
229.027	65.62
229.262	64.62
229.496	76.62
229.73	86.62
229.964	91.62
230.199	73.62
230.433	81.62
230.667	81.62
230.901	83.62
231.136	95.62
231.37	90.62
231.604	79.62
231.838	81.62
232.072	78.62
232.306	76.62
232.541	77.62
232.775	94.62
233.009	81.62
233.243	83.62
233.477	67.62
233.711	70.62
233.945	78.62
234.179	82.62
234.413	79.62
234.647	103.62
234.881	82.62
235.115	84.62
235.349	70.62
235.583	73.62
235.817	71.62
236.051	73.62
236.285	80.62
236.519	81.62
236.753	86.62
236.987	91.62
237.221	85.62
237.455	82.62
237.689	87.62
237.922	70.62
238.156	81.62
238.39	81.62
238.624	88.62
238.858	85.62
239.091	80.62
239.325	82.62
239.559	79.62
239.793	89.62
240.027	81.62
240.26	84.62
240.494	86.62
240.728	74.62
240.961	80.62
241.195	77.62
241.429	96.62
241.662	73.62
241.896	72.62
242.13	85.62
242.363	72.62
242.597	67.62
242.83	97.62
243.064	66.62
243.298	88.62
243.531	75.62
243.765	86.62
243.998	81.62
244.232	67.62
244.465	85.62
244.699	91.62
244.932	80.62
245.166	81.62
245.399	83.62
245.633	93.62
245.866	80.62
246.099	66.62
246.333	88.62
246.566	79.62
246.8	97.62
247.033	85.62
247.266	79.62
247.5	85.62
247.733	82.62
247.966	93.62
248.2	88.62
248.433	82.62
248.666	89.62
248.899	68.62
249.133	103.62
249.366	92.62
249.599	107.62
249.832	89.62
250.066	81.62
250.299	81.62
250.532	97.62
250.765	84.62
250.998	98.62
251.231	81.62
251.465	82.62
251.698	72.62
251.931	77.62
252.164	90.62
252.397	75.62
252.63	71.62
252.863	81.62
253.096	88.62
253.329	92.62
253.562	89.62
253.795	82.62
254.028	89.62
254.261	90.62
254.494	75.62
254.727	81.62
254.96	92.62
255.193	75.62
255.426	86.62
255.659	60.62
255.892	93.62
256.124	81.62
256.357	87.62
256.59	90.62
256.823	86.62
257.056	91.62
257.289	86.62
257.521	77.62
257.754	89.62
257.987	85.62
258.22	82.62
258.452	81.62
258.685	88.62
258.918	80.62
259.151	77.62
259.383	77.62
259.616	99.62
259.849	85.62
260.081	83.62
260.314	80.62
260.547	73.62
260.779	87.62
261.012	83.62
261.244	89.62
261.477	92.62
261.71	109.62
261.942	109.62
262.175	115.62
262.407	94.62
262.64	87.62
262.872	86.62
263.105	92.62
263.337	97.62
263.57	87.62
263.802	94.62
264.035	79.62
264.267	91.62
264.499	85.62
264.732	79.62
264.964	84.62
265.197	86.62
265.429	77.62
265.661	86.62
265.894	83.62
266.126	89.62
266.358	89.62
266.591	81.62
266.823	89.62
267.055	75.62
267.287	87.62
267.52	69.62
267.752	83.62
267.984	91.62
268.216	78.62
268.448	82.62
268.681	69.62
268.913	92.62
269.145	81.62
269.377	98.62
269.609	83.62
269.841	81.62
270.073	98.62
270.306	96.62
270.538	71.62
270.77	78.62
271.002	103.62
271.234	107.62
271.466	86.62
271.698	78.62
271.93	93.62
272.162	84.62
272.394	91.62
272.626	86.62
272.858	90.62
273.09	84.62
273.322	88.62
273.553	88.62
273.785	90.62
274.017	93.62
274.249	87.62
274.481	83.62
274.713	81.62
274.945	103.62
275.176	91.62
275.408	90.62
275.64	90.62
275.872	95.62
276.104	79.62
276.335	98.62
276.567	88.62
276.799	105.62
277.031	113.62
277.262	93.62
277.494	69.62
277.726	85.62
277.957	91.62
278.189	91.62
278.421	94.62
278.652	110.62
278.884	91.62
279.115	98.62
279.347	78.62
279.579	84.62
279.81	89.62
280.042	100.62
280.273	96.62
280.505	97.62
280.736	91.62
280.968	89.62
281.199	86.62
281.431	93.62
281.662	86.62
281.894	79.62
282.125	112.62
282.356	110.62
282.588	145.62
282.819	111.62
283.051	89.62
283.282	87.62
283.513	74.62
283.745	83.62
283.976	96.62
284.207	98.62
284.439	85.62
284.67	83.62
284.901	97.62
285.132	78.62
285.364	81.62
285.595	81.62
285.826	80.62
286.057	99.62
286.288	83.62
286.52	86.62
286.751	89.62
286.982	93.62
287.213	90.62
287.444	94.62
287.675	83.62
287.906	82.62
288.138	88.62
288.369	107.62
288.6	99.62
288.831	86.62
289.062	81.62
289.293	85.62
289.524	87.62
289.755	72.62
289.986	112.62
290.217	82.62
290.448	89.62
290.679	89.62
290.91	80.62
291.141	92.62
291.371	88.62
291.602	89.62
291.833	96.62
292.064	79.62
292.295	75.62
292.526	89.62
292.757	82.62
292.987	98.62
293.218	82.62
293.449	102.62
293.68	77.62
293.91	94.62
294.141	90.62
294.372	78.62
294.603	95.62
294.833	94.62
295.064	93.62
295.295	104.62
295.525	108.62
295.756	109.62
295.987	112.62
296.217	134.62
296.448	120.62
296.679	91.62
296.909	91.62
297.14	91.62
297.37	86.62
297.601	83.62
297.831	91.62
298.062	101.62
298.292	85.62
298.523	91.62
298.753	89.62
298.984	98.62
299.214	93.62
299.445	81.62
299.675	83.62
299.905	88.62
300.136	94.62
300.366	99.62
300.597	95.62
300.827	93.62
301.057	105.62
301.288	106.62
301.518	98.62
301.748	96.62
301.979	110.62
302.209	86.62
302.439	88.62
302.669	89.62
302.9	89.62
303.13	98.62
303.36	92.62
303.59	98.62
303.82	97.62
304.051	95.62
304.281	117.62
304.511	88.62
304.741	99.62
304.971	94.62
305.201	89.62
305.431	90.62
305.661	91.62
305.891	86.62
306.121	101.62
306.352	109.62
306.582	98.62
306.812	105.62
307.042	94.62
307.272	93.62
307.502	99.62
307.731	103.62
307.961	98.62
308.191	100.62
308.421	95.62
308.651	93.62
308.881	104.62
309.111	96.62
309.341	89.62
309.571	101.62
309.8	110.62
310.03	104.62
310.26	97.62
310.49	95.62
310.72	87.62
310.949	100.62
311.179	108.62
311.409	98.62
311.639	91.62
311.868	96.62
312.098	86.62
312.328	102.62
312.557	98.62
312.787	105.62
313.017	92.62
313.246	83.62
313.476	85.62
313.706	81.62
313.935	101.62
314.165	99.62
314.394	92.62
314.624	106.62
314.853	87.62
315.083	96.62
315.312	98.62
315.542	96.62
315.771	95.62
316.001	107.62
316.23	92.62
316.46	93.62
316.689	97.62
316.919	86.62
317.148	97.62
317.377	97.62
317.607	84.62
317.836	103.62
318.065	101.62
318.295	98.62
318.524	86.62
318.753	86.62
318.983	99.62
319.212	89.62
319.441	107.62
319.67	110.62
319.9	96.62
320.129	98.62
320.358	105.62
320.587	114.62
320.816	96.62
321.046	101.62
321.275	100.62
321.504	95.62
321.733	106.62
321.962	88.62
322.191	107.62
322.42	118.62
322.649	117.62
322.878	111.62
323.108	112.62
323.337	132.62
323.566	137.62
323.795	162.62
324.024	210.62
324.253	442.62
324.482	902.62
324.71	1902.62
324.939	2503.62
325.168	917.62
325.397	257.62
325.626	171.62
325.855	137.62
326.084	117.62
326.313	149.62
326.542	161.62
326.77	255.62
326.999	496.62
327.228	1040.62
327.457	1897.62
327.686	1533.62
327.914	434.62
328.143	226.62
328.372	189.62
328.6	143.62
328.829	122.62
329.058	138.62
329.287	141.62
329.515	110.62
329.744	108.62
329.972	137.62
330.201	168.62
330.43	253.62
330.658	175.62
330.887	160.62
331.115	141.62
331.344	105.62
331.572	113.62
331.801	87.62
332.03	96.62
332.258	89.62
332.486	102.62
332.715	93.62
332.943	91.62
333.172	102.62
333.4	92.62
333.629	105.62
333.857	136.62
334.085	120.62
334.314	172.62
334.542	257.62
334.771	255.62
334.999	114.62
335.227	102.62
335.455	99.62
335.684	106.62
335.912	86.62
336.14	91.62
336.369	98.62
336.597	101.62
336.825	103.62
337.053	90.62
337.281	76.62
337.51	80.62
337.738	86.62
337.966	99.62
338.194	91.62
338.422	90.62
338.65	93.62
338.878	82.62
339.106	101.62
339.334	108.62
339.562	79.62
339.79	110.62
340.018	99.62
340.246	98.62
340.474	84.62
340.702	88.62
340.93	97.62
341.158	91.62
341.386	111.62
341.614	89.62
341.842	100.62
342.07	101.62
342.298	88.62
342.526	96.62
342.754	85.62
342.981	91.62
343.209	93.62
343.437	104.62
343.665	92.62
343.893	79.62
344.12	87.62
344.348	91.62
344.576	89.62
344.804	102.62
345.031	105.62
345.259	99.62
345.487	106.62
345.714	95.62
345.942	110.62
346.17	92.62
346.397	104.62
346.625	89.62
346.853	96.62
347.08	82.62
347.308	104.62
347.535	101.62
347.763	111.62
347.99	87.62
348.218	90.62
348.445	114.62
348.673	99.62
348.9	107.62
349.128	90.62
349.355	92.62
349.583	87.62
349.81	101.62
350.037	96.62
350.265	90.62
350.492	98.62
350.72	90.62
350.947	106.62
351.174	118.62
351.402	123.62
351.629	109.62
351.856	92.62
352.083	95.62
352.311	89.62
352.538	104.62
352.765	115.62
352.992	110.62
353.22	114.62
353.447	113.62
353.674	97.62
353.901	96.62
354.128	103.62
354.355	98.62
354.583	103.62
354.81	111.62
355.037	108.62
355.264	96.62
355.491	90.62
355.718	102.62
355.945	96.62
356.172	89.62
356.399	98.62
356.626	90.62
356.853	91.62
357.08	83.62
357.307	104.62
357.534	90.62
357.761	83.62
357.988	94.62
358.215	104.62
358.441	97.62
358.668	105.62
358.895	87.62
359.122	66.62
359.349	78.62
359.576	95.62
359.802	117.62
360.029	129.62
360.256	115.62
360.483	118.62
360.709	101.62
360.936	90.62
361.163	104.62
361.39	103.62
361.616	93.62
361.843	87.62
362.07	99.62
362.296	102.62
362.523	83.62
362.749	97.62
362.976	98.62
363.203	86.62
363.429	84.62
363.656	92.62
363.882	100.62
364.109	91.62
364.335	109.62
364.562	100.62
364.788	93.62
365.015	95.62
365.241	111.62
365.468	114.62
365.694	104.62
365.92	103.62
366.147	90.62
366.373	91.62
366.599	74.62
366.826	86.62
367.052	95.62
367.278	95.62
367.505	98.62
367.731	100.62
367.957	101.62
368.184	88.62
368.41	107.62
368.636	110.62
368.862	105.62
369.089	113.62
369.315	103.62
369.541	101.62
369.767	91.62
369.993	86.62
370.219	101.62
370.445	80.62
370.672	93.62
370.898	98.62
371.124	96.62
371.35	87.62
371.576	96.62
371.802	89.62
372.028	91.62
372.254	82.62
372.48	91.62
372.706	74.62
372.932	90.62
373.158	72.62
373.384	88.62
373.61	89.62
373.835	97.62
374.061	85.62
374.287	92.62
374.513	92.62
374.739	87.62
374.965	92.62
375.191	85.62
375.416	94.62
375.642	107.62
375.868	98.62
376.094	78.62
376.319	94.62
376.545	97.62
376.771	88.62
376.997	91.62
377.222	99.62
377.448	96.62
377.674	92.62
377.899	84.62
378.125	102.62
378.35	86.62
378.576	74.62
378.802	80.62
379.027	104.62
379.253	79.62
379.478	101.62
379.704	103.62
379.929	96.62
380.155	98.62
380.38	96.62
380.606	104.62
380.831	105.62
381.057	112.62
381.282	90.62
381.507	74.62
381.733	87.62
381.958	109.62
382.184	109.62
382.409	96.62
382.634	98.62
382.86	109.62
383.085	97.62
383.31	97.62
383.535	103.62
383.761	103.62
383.986	92.62
384.211	111.62
384.436	95.62
384.662	111.62
384.887	97.62
385.112	99.62
385.337	105.62
385.562	99.62
385.787	95.62
386.013	108.62
386.238	115.62
386.463	106.62
386.688	101.62
386.913	113.62
387.138	93.62
387.363	100.62
387.588	91.62
387.813	107.62
388.038	104.62
388.263	115.62
388.488	102.62
388.713	104.62
388.938	102.62
389.163	100.62
389.387	87.62
389.612	88.62
389.837	93.62
390.062	113.62
390.287	103.62
390.512	101.62
390.736	99.62
390.961	89.62
391.186	78.62
391.411	96.62
391.636	87.62
391.86	90.62
392.085	78.62
392.31	90.62
392.534	80.62
392.759	83.62
392.984	81.62
393.208	88.62
393.433	84.62
393.658	89.62
393.882	102.62
394.107	84.62
394.331	79.62
394.556	86.62
394.78	84.62
395.005	90.62
395.229	94.62
395.454	83.62
395.678	81.62
395.903	92.62
396.127	87.62
396.352	88.62
396.576	83.62
396.801	86.62
397.025	89.62
397.249	93.62
397.474	95.62
397.698	87.62
397.922	99.62
398.147	89.62
398.371	94.62
398.595	99.62
398.82	100.62
399.044	81.62
399.268	95.62
399.492	89.62
399.717	93.62
399.941	94.62
400.165	103.62
400.389	96.62
400.613	93.62
400.837	91.62
401.062	89.62
401.286	95.62
401.51	103.62
401.734	83.62
401.958	102.62
402.182	113.62
402.406	151.62
402.63	118.62
402.854	96.62
403.078	91.62
403.302	86.62
403.526	98.62
403.75	87.62
403.974	90.62
404.198	98.62
404.422	94.62
404.645	93.62
404.869	100.62
405.093	113.62
405.317	118.62
405.541	100.62
405.765	114.62
405.988	122.62
406.212	173.62
406.436	213.62
406.66	145.62
406.883	108.62
407.107	91.62
407.331	109.62
407.555	107.62
407.778	97.62
408.002	96.62
408.226	103.62
408.449	92.62
408.673	87.62
408.896	87.62
409.12	99.62
409.344	94.62
409.567	97.62
409.791	95.62
410.014	102.62
410.238	96.62
410.461	92.62
410.685	94.62
410.908	106.62
411.132	111.62
411.355	109.62
411.578	104.62
411.802	100.62
412.025	94.62
412.249	99.62
412.472	124.62
412.695	117.62
412.919	98.62
413.142	86.62
413.365	84.62
413.589	103.62
413.812	97.62
414.035	89.62
414.258	97.62
414.482	84.62
414.705	83.62
414.928	90.62
415.151	90.62
415.374	92.62
415.597	86.62
415.821	94.62
416.044	94.62
416.267	94.62
416.49	89.62
416.713	93.62
416.936	94.62
417.159	89.62
417.382	77.62
417.605	98.62
417.828	95.62
418.051	103.62
418.274	82.62
418.497	95.62
418.72	89.62
418.943	97.62
419.166	106.62
419.389	96.62
419.611	96.62
419.834	98.62
420.057	78.62
420.28	87.62
420.503	89.62
420.726	91.62
420.948	95.62
421.171	95.62
421.394	109.62
421.617	99.62
421.839	88.62
422.062	81.62
422.285	93.62
422.507	100.62
422.73	102.62
422.953	102.62
423.175	86.62
423.398	86.62
423.621	97.62
423.843	105.62
424.066	89.62
424.288	97.62
424.511	104.62
424.733	85.62
424.956	101.62
425.178	111.62
425.401	102.62
425.623	111.62
425.846	85.62
426.068	99.62
426.291	93.62
426.513	85.62
426.735	89.62
426.958	76.62
427.18	98.62
427.402	146.62
427.625	189.62
427.847	154.62
428.069	139.62
428.292	96.62
428.514	92.62
428.736	85.62
428.958	93.62
429.181	82.62
429.403	87.62
429.625	82.62
429.847	97.62
430.069	108.62
430.292	104.62
430.514	94.62
430.736	85.62
430.958	82.62
431.18	83.62
431.402	82.62
431.624	82.62
431.846	94.62
432.068	90.62
432.29	84.62
432.512	98.62
432.734	102.62
432.956	86.62
433.178	89.62
433.4	90.62
433.622	97.62
433.844	96.62
434.066	79.62
434.287	88.62
434.509	93.62
434.731	95.62
434.953	85.62
435.175	82.62
435.397	104.62
435.618	93.62
435.84	93.62
436.062	129.62
436.284	112.62
436.505	101.62
436.727	98.62
436.949	101.62
437.17	93.62
437.392	99.62
437.614	99.62
437.835	105.62
438.057	122.62
438.278	122.62
438.5	129.62
438.721	130.62
438.943	109.62
439.165	90.62
439.386	76.62
439.608	96.62
439.829	108.62
440.05	122.62
440.272	156.62
440.493	101.62
440.715	91.62
440.936	96.62
441.158	85.62
441.379	87.62
441.6	86.62
441.822	93.62
442.043	103.62
442.264	107.62
442.486	108.62
442.707	89.62
442.928	114.62
443.149	138.62
443.371	141.62
443.592	117.62
443.813	106.62
444.034	107.62
444.255	87.62
444.476	100.62
444.698	97.62
444.919	91.62
445.14	137.62
445.361	120.62
445.582	105.62
445.803	141.62
446.024	139.62
446.245	153.62
446.466	118.62
446.687	96.62
446.908	98.62
447.129	78.62
447.35	97.62
447.571	93.62
447.792	101.62
448.013	109.62
448.234	114.62
448.455	101.62
448.675	107.62
448.896	126.62
449.117	103.62
449.338	110.62
449.559	129.62
449.779	155.62
450	95.62
450.221	98.62
450.442	81.62
450.662	102.62
450.883	114.62
451.104	105.62
451.324	112.62
451.545	87.62
451.766	101.62
451.986	93.62
452.207	84.62
452.428	98.62
452.648	90.62
452.869	106.62
453.089	126.62
453.31	128.62
453.53	83.62
453.751	97.62
453.971	102.62
454.192	103.62
454.412	99.62
454.633	97.62
454.853	91.62
455.073	90.62
455.294	85.62
455.514	93.62
455.734	98.62
455.955	87.62
456.175	95.62
456.395	82.62
456.616	96.62
456.836	92.62
457.056	79.62
457.276	86.62
457.497	77.62
457.717	92.62
457.937	85.62
458.157	74.62
458.377	87.62
458.598	109.62
458.818	157.62
459.038	164.62
459.258	117.62
459.478	95.62
459.698	76.62
459.918	90.62
460.138	94.62
460.358	92.62
460.578	104.62
460.798	97.62
461.018	93.62
461.238	95.62
461.458	79.62
461.678	83.62
461.898	92.62
462.118	93.62
462.338	85.62
462.558	97.62
462.777	93.62
462.997	88.62
463.217	90.62
463.437	96.62
463.657	85.62
463.876	95.62
464.096	95.62
464.316	91.62
464.536	89.62
464.755	91.62
464.975	123.62
465.195	182.62
465.414	168.62
465.634	106.62
465.854	98.62
466.073	80.62
466.293	92.62
466.512	86.62
466.732	91.62
466.951	106.62
467.171	81.62
467.391	89.62
467.61	106.62
467.829	112.62
468.049	140.62
468.268	156.62
468.488	89.62
468.707	92.62
468.927	88.62
469.146	87.62
469.365	90.62
469.585	103.62
469.804	94.62
470.023	98.62
470.243	109.62
470.462	108.62
470.681	114.62
470.901	92.62
471.12	86.62
471.339	106.62
471.558	102.62
471.777	83.62
471.997	117.62
472.216	197.62
472.435	325.62
472.654	143.62
472.873	86.62
473.092	85.62
473.311	97.62
473.53	83.62
473.749	97.62
473.968	98.62
474.187	92.62
474.406	96.62
474.625	79.62
474.844	99.62
475.063	94.62
475.282	78.62
475.501	72.62
475.72	94.62
475.939	84.62
476.158	94.62
476.377	94.62
476.596	89.62
476.814	86.62
477.033	82.62
477.252	90.62
477.471	97.62
477.69	89.62
477.908	87.62
478.127	102.62
478.346	94.62
478.564	96.62
478.783	103.62
479.002	93.62
479.22	112.62
479.439	105.62
479.658	101.62
479.876	90.62
480.095	95.62
480.313	93.62
480.532	117.62
480.751	99.62
480.969	191.62
481.188	498.62
481.406	348.62
481.624	129.62
481.843	96.62
482.061	109.62
482.28	95.62
482.498	94.62
482.717	90.62
482.935	74.62
483.153	100.62
483.372	106.62
483.59	104.62
483.808	78.62
484.027	83.62
484.245	87.62
484.463	88.62
484.681	92.62
484.9	89.62
485.118	97.62
485.336	101.62
485.554	101.62
485.772	87.62
485.99	93.62
486.209	104.62
486.427	95.62
486.645	92.62
486.863	121.62
487.081	101.62
487.299	103.62
487.517	90.62
487.735	97.62
487.953	92.62
488.171	87.62
488.389	111.62
488.607	89.62
488.825	91.62
489.043	86.62
489.261	89.62
489.479	99.62
489.696	104.62
489.914	84.62
490.132	91.62
490.35	97.62
490.568	94.62
490.786	78.62
491.003	104.62
491.221	99.62
491.439	90.62
491.657	92.62
491.874	93.62
492.092	101.62
492.31	80.62
492.527	90.62
492.745	86.62
492.963	101.62
493.18	94.62
493.398	83.62
493.615	94.62
493.833	98.62
494.05	86.62
494.268	91.62
494.485	71.62
494.703	80.62
494.92	93.62
495.138	103.62
495.355	98.62
495.573	78.62
495.79	81.62
496.008	82.62
496.225	80.62
496.442	93.62
496.66	104.62
496.877	104.62
497.094	101.62
497.312	88.62
497.529	87.62
497.746	93.62
497.963	90.62
498.181	76.62
498.398	104.62
498.615	122.62
498.832	97.62
499.049	82.62
499.267	95.62
499.484	93.62
499.701	76.62
499.918	86.62
500.135	102.62
500.352	94.62
500.569	97.62
500.786	91.62
501.003	90.62
501.22	99.62
501.437	96.62
501.654	104.62
501.871	121.62
502.088	110.62
502.305	85.62
502.522	99.62
502.739	89.62
502.956	98.62
503.172	97.62
503.389	102.62
503.606	107.62
503.823	104.62
504.04	95.62
504.256	90.62
504.473	91.62
504.69	96.62
504.907	98.62
505.123	93.62
505.34	101.62
505.557	77.62
505.773	82.62
505.99	93.62
506.207	105.62
506.423	99.62
506.64	93.62
506.856	101.62
507.073	92.62
507.289	90.62
507.506	112.62
507.722	109.62
507.939	121.62
508.155	97.62
508.372	98.62
508.588	92.62
508.805	97.62
509.021	90.62
509.238	97.62
509.454	88.62
509.67	91.62
509.887	119.62
510.103	123.62
510.319	202.62
510.536	683.62
510.752	2291.62
510.968	673.62
511.184	172.62
511.401	113.62
511.617	113.62
511.833	101.62
512.049	91.62
512.265	97.62
512.481	92.62
512.698	112.62
512.914	100.62
513.13	96.62
513.346	85.62
513.562	89.62
513.778	107.62
513.994	114.62
514.21	108.62
514.426	117.62
514.642	147.62
