Data from Circ_2011_H10_HRD10591_00042.txt Node
Date: Wed Jan 03 10:08:07 EST 2024
User: Yrep
Spectrometer: HR+D1059
Trigger mode: 1
Integration Time (sec): 1.000000E-1
Scans to average: 1
Electric dark correction enabled: true
Nonlinearity correction enabled: false
Boxcar width: 0
XAxis mode: Wavelengths
Number of Pixels in Spectrum: 2048
>>>>>Begin Spectral Data<<<<<
223.165	-22.25
223.4	-22.25
223.635	-22.25
223.869	-14.25
224.104	-5.25
224.338	-24.25
224.573	-4.25
224.808	-22.25
225.042	-9.25
225.277	-7.25
225.511	-7.25
225.746	7.75
225.98	5.75
226.215	13.75
226.449	16.75
226.683	20.75
226.918	29.75
227.152	21.75
227.387	42.75
227.621	43.75
227.856	30.75
228.09	44.75
228.324	47.75
228.559	52.75
228.793	52.75
229.027	71.75
229.262	74.75
229.496	87.75
229.73	91.75
229.964	71.75
230.199	69.75
230.433	75.75
230.667	81.75
230.901	69.75
231.136	79.75
231.37	70.75
231.604	82.75
231.838	85.75
232.072	80.75
232.306	95.75
232.541	99.75
232.775	83.75
233.009	70.75
233.243	89.75
233.477	82.75
233.711	93.75
233.945	65.75
234.179	73.75
234.413	74.75
234.647	83.75
234.881	74.75
235.115	79.75
235.349	84.75
235.583	89.75
235.817	81.75
236.051	72.75
236.285	68.75
236.519	77.75
236.753	77.75
236.987	72.75
237.221	72.75
237.455	98.75
237.689	82.75
237.922	82.75
238.156	85.75
238.39	74.75
238.624	69.75
238.858	70.75
239.091	71.75
239.325	72.75
239.559	66.75
239.793	81.75
240.027	82.75
240.26	80.75
240.494	74.75
240.728	68.75
240.961	74.75
241.195	81.75
241.429	86.75
241.662	71.75
241.896	70.75
242.13	80.75
242.363	88.75
242.597	81.75
242.83	70.75
243.064	81.75
243.298	80.75
243.531	80.75
243.765	88.75
243.998	83.75
244.232	82.75
244.465	74.75
244.699	73.75
244.932	81.75
245.166	84.75
245.399	89.75
245.633	77.75
245.866	87.75
246.099	72.75
246.333	86.75
246.566	84.75
246.8	74.75
247.033	76.75
247.266	84.75
247.5	68.75
247.733	81.75
247.966	83.75
248.2	75.75
248.433	76.75
248.666	78.75
248.899	85.75
249.133	112.75
249.366	110.75
249.599	91.75
249.832	82.75
250.066	87.75
250.299	79.75
250.532	100.75
250.765	86.75
250.998	77.75
251.231	90.75
251.465	73.75
251.698	72.75
251.931	80.75
252.164	87.75
252.397	90.75
252.63	96.75
252.863	81.75
253.096	77.75
253.329	69.75
253.562	66.75
253.795	96.75
254.028	76.75
254.261	82.75
254.494	94.75
254.727	84.75
254.96	71.75
255.193	74.75
255.426	85.75
255.659	77.75
255.892	76.75
256.124	77.75
256.357	85.75
256.59	93.75
256.823	91.75
257.056	88.75
257.289	100.75
257.521	79.75
257.754	82.75
257.987	79.75
258.22	76.75
258.452	79.75
258.685	95.75
258.918	78.75
259.151	84.75
259.383	78.75
259.616	74.75
259.849	85.75
260.081	81.75
260.314	70.75
260.547	79.75
260.779	78.75
261.012	88.75
261.244	95.75
261.477	99.75
261.71	94.75
261.942	125.75
262.175	118.75
262.407	94.75
262.64	78.75
262.872	89.75
263.105	78.75
263.337	102.75
263.57	75.75
263.802	78.75
264.035	90.75
264.267	63.75
264.499	68.75
264.732	72.75
264.964	64.75
265.197	78.75
265.429	91.75
265.661	74.75
265.894	86.75
266.126	79.75
266.358	86.75
266.591	86.75
266.823	80.75
267.055	84.75
267.287	86.75
267.52	79.75
267.752	77.75
267.984	79.75
268.216	89.75
268.448	89.75
268.681	85.75
268.913	89.75
269.145	93.75
269.377	69.75
269.609	76.75
269.841	85.75
270.073	85.75
270.306	71.75
270.538	85.75
270.77	79.75
271.002	78.75
271.234	85.75
271.466	81.75
271.698	98.75
271.93	96.75
272.162	105.75
272.394	93.75
272.626	79.75
272.858	80.75
273.09	86.75
273.322	89.75
273.553	82.75
273.785	88.75
274.017	86.75
274.249	89.75
274.481	81.75
274.713	72.75
274.945	74.75
275.176	89.75
275.408	107.75
275.64	97.75
275.872	104.75
276.104	86.75
276.335	109.75
276.567	109.75
276.799	122.75
277.031	108.75
277.262	98.75
277.494	103.75
277.726	86.75
277.957	101.75
278.189	98.75
278.421	78.75
278.652	76.75
278.884	85.75
279.115	85.75
279.347	84.75
279.579	95.75
279.81	89.75
280.042	92.75
280.273	99.75
280.505	97.75
280.736	81.75
280.968	102.75
281.199	90.75
281.431	90.75
281.662	96.75
281.894	94.75
282.125	83.75
282.356	122.75
282.588	146.75
282.819	119.75
283.051	87.75
283.282	93.75
283.513	88.75
283.745	77.75
283.976	102.75
284.207	100.75
284.439	102.75
284.67	79.75
284.901	85.75
285.132	96.75
285.364	79.75
285.595	92.75
285.826	86.75
286.057	89.75
286.288	83.75
286.52	82.75
286.751	92.75
286.982	101.75
287.213	103.75
287.444	89.75
287.675	102.75
287.906	90.75
288.138	89.75
288.369	94.75
288.6	97.75
288.831	100.75
289.062	87.75
289.293	96.75
289.524	89.75
289.755	84.75
289.986	93.75
290.217	71.75
290.448	89.75
290.679	84.75
290.91	95.75
291.141	92.75
291.371	93.75
291.602	78.75
291.833	88.75
292.064	91.75
292.295	85.75
292.526	97.75
292.757	94.75
292.987	83.75
293.218	75.75
293.449	93.75
293.68	90.75
293.91	95.75
294.141	85.75
294.372	88.75
294.603	96.75
294.833	79.75
295.064	94.75
295.295	103.75
295.525	91.75
295.756	97.75
295.987	123.75
296.217	130.75
296.448	139.75
296.679	98.75
296.909	79.75
297.14	86.75
297.37	82.75
297.601	95.75
297.831	88.75
298.062	92.75
298.292	97.75
298.523	110.75
298.753	90.75
298.984	106.75
299.214	82.75
299.445	102.75
299.675	108.75
299.905	93.75
300.136	98.75
300.366	75.75
300.597	99.75
300.827	98.75
301.057	85.75
301.288	97.75
301.518	83.75
301.748	91.75
301.979	99.75
302.209	90.75
302.439	91.75
302.669	95.75
302.9	85.75
303.13	80.75
303.36	103.75
303.59	94.75
303.82	110.75
304.051	97.75
304.281	104.75
304.511	84.75
304.741	86.75
304.971	100.75
305.201	109.75
305.431	94.75
305.661	91.75
305.891	92.75
306.121	105.75
306.352	104.75
306.582	107.75
306.812	86.75
307.042	97.75
307.272	104.75
307.502	102.75
307.731	85.75
307.961	94.75
308.191	86.75
308.421	90.75
308.651	104.75
308.881	88.75
309.111	90.75
309.341	107.75
309.571	104.75
309.8	98.75
310.03	75.75
310.26	107.75
310.49	93.75
310.72	88.75
310.949	107.75
311.179	102.75
311.409	93.75
311.639	92.75
311.868	100.75
312.098	88.75
312.328	102.75
312.557	87.75
312.787	109.75
313.017	107.75
313.246	94.75
313.476	109.75
313.706	98.75
313.935	94.75
314.165	96.75
314.394	90.75
314.624	106.75
314.853	111.75
315.083	101.75
315.312	86.75
315.542	83.75
315.771	90.75
316.001	105.75
316.23	86.75
316.46	88.75
316.689	90.75
316.919	95.75
317.148	101.75
317.377	92.75
317.607	91.75
317.836	94.75
318.065	81.75
318.295	102.75
318.524	101.75
318.753	108.75
318.983	89.75
319.212	105.75
319.441	116.75
319.67	112.75
319.9	99.75
320.129	93.75
320.358	103.75
320.587	93.75
320.816	83.75
321.046	97.75
321.275	105.75
321.504	101.75
321.733	94.75
321.962	100.75
322.191	98.75
322.42	107.75
322.649	131.75
322.878	117.75
323.108	114.75
323.337	123.75
323.566	136.75
323.795	158.75
324.024	200.75
324.253	450.75
324.482	930.75
324.71	1940.75
324.939	2548.75
325.168	922.75
325.397	268.75
325.626	150.75
325.855	144.75
326.084	124.75
326.313	135.75
326.542	160.75
326.77	258.75
326.999	534.75
327.228	1060.75
327.457	2010.75
327.686	1561.75
327.914	428.75
328.143	225.75
328.372	195.75
328.6	153.75
328.829	123.75
329.058	133.75
329.287	139.75
329.515	120.75
329.744	116.75
329.972	141.75
330.201	202.75
330.43	244.75
330.658	167.75
330.887	167.75
331.115	134.75
331.344	102.75
331.572	107.75
331.801	87.75
332.03	110.75
332.258	97.75
332.486	96.75
332.715	94.75
332.943	89.75
333.172	109.75
333.4	98.75
333.629	112.75
333.857	112.75
334.085	137.75
334.314	177.75
334.542	274.75
334.771	268.75
334.999	133.75
335.227	103.75
335.455	95.75
335.684	92.75
335.912	110.75
336.14	104.75
336.369	95.75
336.597	121.75
336.825	99.75
337.053	107.75
337.281	103.75
337.51	90.75
337.738	86.75
337.966	92.75
338.194	88.75
338.422	101.75
338.65	98.75
338.878	92.75
339.106	93.75
339.334	98.75
339.562	92.75
339.79	89.75
340.018	84.75
340.246	93.75
340.474	91.75
340.702	94.75
340.93	82.75
341.158	106.75
341.386	95.75
341.614	99.75
341.842	79.75
342.07	97.75
342.298	89.75
342.526	92.75
342.754	88.75
342.981	87.75
343.209	90.75
343.437	111.75
343.665	91.75
343.893	77.75
344.12	94.75
344.348	81.75
344.576	94.75
344.804	97.75
345.031	82.75
345.259	101.75
345.487	111.75
345.714	102.75
345.942	94.75
346.17	90.75
346.397	89.75
346.625	86.75
346.853	85.75
347.08	96.75
347.308	84.75
347.535	93.75
347.763	109.75
347.99	105.75
348.218	101.75
348.445	86.75
348.673	90.75
348.9	94.75
349.128	92.75
349.355	78.75
349.583	109.75
349.81	102.75
350.037	98.75
350.265	94.75
350.492	88.75
350.72	95.75
350.947	102.75
351.174	106.75
351.402	102.75
351.629	82.75
351.856	92.75
352.083	92.75
352.311	98.75
352.538	101.75
352.765	107.75
352.992	124.75
353.22	104.75
353.447	100.75
353.674	108.75
353.901	96.75
354.128	105.75
354.355	84.75
354.583	80.75
354.81	91.75
355.037	93.75
355.264	92.75
355.491	80.75
355.718	95.75
355.945	86.75
356.172	87.75
356.399	104.75
356.626	99.75
356.853	98.75
357.08	90.75
357.307	90.75
357.534	109.75
357.761	75.75
357.988	102.75
358.215	89.75
358.441	88.75
358.668	86.75
358.895	90.75
359.122	81.75
359.349	77.75
359.576	103.75
359.802	101.75
360.029	120.75
360.256	109.75
360.483	93.75
360.709	88.75
360.936	99.75
361.163	82.75
361.39	88.75
361.616	96.75
361.843	84.75
362.07	100.75
362.296	81.75
362.523	100.75
362.749	96.75
362.976	76.75
363.203	99.75
363.429	81.75
363.656	88.75
363.882	86.75
364.109	99.75
364.335	97.75
364.562	91.75
364.788	96.75
365.015	94.75
365.241	94.75
365.468	97.75
365.694	105.75
365.92	96.75
366.147	83.75
366.373	101.75
366.599	83.75
366.826	78.75
367.052	82.75
367.278	89.75
367.505	76.75
367.731	88.75
367.957	91.75
368.184	81.75
368.41	92.75
368.636	134.75
368.862	115.75
369.089	97.75
369.315	106.75
369.541	98.75
369.767	102.75
369.993	93.75
370.219	102.75
370.445	83.75
370.672	86.75
370.898	96.75
371.124	98.75
371.35	81.75
371.576	89.75
371.802	80.75
372.028	89.75
372.254	83.75
372.48	79.75
372.706	86.75
372.932	84.75
373.158	88.75
373.384	84.75
373.61	90.75
373.835	81.75
374.061	98.75
374.287	87.75
374.513	94.75
374.739	113.75
374.965	94.75
375.191	89.75
375.416	94.75
375.642	105.75
375.868	93.75
376.094	89.75
376.319	85.75
376.545	87.75
376.771	97.75
376.997	86.75
377.222	102.75
377.448	78.75
377.674	103.75
377.899	88.75
378.125	93.75
378.35	86.75
378.576	76.75
378.802	97.75
379.027	92.75
379.253	82.75
379.478	95.75
379.704	99.75
379.929	107.75
380.155	98.75
380.38	94.75
380.606	93.75
380.831	102.75
381.057	99.75
381.282	92.75
381.507	82.75
381.733	95.75
381.958	80.75
382.184	98.75
382.409	87.75
382.634	98.75
382.86	88.75
383.085	103.75
383.31	96.75
383.535	93.75
383.761	90.75
383.986	79.75
384.211	86.75
384.436	94.75
384.662	88.75
384.887	91.75
385.112	94.75
385.337	95.75
385.562	95.75
385.787	99.75
386.013	120.75
386.238	117.75
386.463	97.75
386.688	106.75
386.913	91.75
387.138	90.75
387.363	99.75
387.588	105.75
387.813	101.75
388.038	95.75
388.263	83.75
388.488	99.75
388.713	90.75
388.938	99.75
389.163	109.75
389.387	90.75
389.612	87.75
389.837	89.75
390.062	86.75
390.287	77.75
390.512	84.75
390.736	105.75
390.961	90.75
391.186	94.75
391.411	89.75
391.636	84.75
391.86	93.75
392.085	84.75
392.31	80.75
392.534	93.75
392.759	87.75
392.984	85.75
393.208	94.75
393.433	75.75
393.658	89.75
393.882	85.75
394.107	93.75
394.331	81.75
394.556	92.75
394.78	81.75
395.005	82.75
395.229	82.75
395.454	96.75
395.678	80.75
395.903	96.75
396.127	94.75
396.352	91.75
396.576	89.75
396.801	82.75
397.025	80.75
397.249	92.75
397.474	75.75
397.698	90.75
397.922	75.75
398.147	100.75
398.371	76.75
398.595	86.75
398.82	96.75
399.044	102.75
399.268	81.75
399.492	85.75
399.717	83.75
399.941	83.75
400.165	86.75
400.389	91.75
400.613	100.75
400.837	99.75
401.062	95.75
401.286	92.75
401.51	78.75
401.734	78.75
401.958	95.75
402.182	113.75
402.406	136.75
402.63	130.75
402.854	91.75
403.078	97.75
403.302	92.75
403.526	94.75
403.75	80.75
403.974	89.75
404.198	93.75
404.422	97.75
404.645	85.75
404.869	80.75
405.093	103.75
405.317	120.75
405.541	111.75
405.765	106.75
405.988	111.75
406.212	159.75
406.436	212.75
406.66	164.75
406.883	112.75
407.107	101.75
407.331	102.75
407.555	100.75
407.778	106.75
408.002	95.75
408.226	88.75
408.449	74.75
408.673	100.75
408.896	101.75
409.12	102.75
409.344	96.75
409.567	87.75
409.791	94.75
410.014	89.75
410.238	84.75
410.461	99.75
410.685	93.75
410.908	101.75
411.132	116.75
411.355	98.75
411.578	96.75
411.802	89.75
412.025	95.75
412.249	104.75
412.472	90.75
412.695	105.75
412.919	94.75
413.142	81.75
413.365	88.75
413.589	80.75
413.812	87.75
414.035	96.75
414.258	91.75
414.482	90.75
414.705	89.75
414.928	95.75
415.151	96.75
415.374	110.75
415.597	80.75
415.821	80.75
416.044	89.75
416.267	89.75
416.49	96.75
416.713	86.75
416.936	102.75
417.159	81.75
417.382	65.75
417.605	95.75
417.828	84.75
418.051	101.75
418.274	94.75
418.497	86.75
418.72	73.75
418.943	86.75
419.166	81.75
419.389	93.75
419.611	80.75
419.834	82.75
420.057	80.75
420.28	84.75
420.503	92.75
420.726	79.75
420.948	80.75
421.171	84.75
421.394	86.75
421.617	83.75
421.839	90.75
422.062	101.75
422.285	79.75
422.507	97.75
422.73	113.75
422.953	95.75
423.175	94.75
423.398	88.75
423.621	88.75
423.843	88.75
424.066	77.75
424.288	95.75
424.511	90.75
424.733	85.75
424.956	109.75
425.178	107.75
425.401	101.75
425.623	108.75
425.846	86.75
426.068	93.75
426.291	87.75
426.513	92.75
426.735	94.75
426.958	82.75
427.18	104.75
427.402	161.75
427.625	193.75
427.847	163.75
428.069	129.75
428.292	90.75
428.514	89.75
428.736	78.75
428.958	87.75
429.181	78.75
429.403	84.75
429.625	84.75
429.847	95.75
430.069	112.75
430.292	103.75
430.514	93.75
430.736	106.75
430.958	79.75
431.18	86.75
431.402	88.75
431.624	89.75
431.846	82.75
432.068	82.75
432.29	82.75
432.512	88.75
432.734	80.75
432.956	100.75
433.178	92.75
433.4	90.75
433.622	92.75
433.844	86.75
434.066	85.75
434.287	86.75
434.509	93.75
434.731	98.75
434.953	85.75
435.175	88.75
435.397	97.75
435.618	103.75
435.84	106.75
436.062	151.75
436.284	120.75
436.505	97.75
436.727	107.75
436.949	101.75
437.17	89.75
437.392	92.75
437.614	102.75
437.835	108.75
438.057	122.75
438.278	102.75
438.5	104.75
438.721	151.75
438.943	112.75
439.165	98.75
439.386	80.75
439.608	101.75
439.829	92.75
440.05	136.75
440.272	166.75
440.493	115.75
440.715	85.75
440.936	89.75
441.158	96.75
441.379	81.75
441.6	93.75
441.822	87.75
442.043	90.75
442.264	109.75
442.486	94.75
442.707	97.75
442.928	104.75
443.149	154.75
443.371	140.75
443.592	116.75
443.813	124.75
444.034	119.75
444.255	103.75
444.476	88.75
444.698	89.75
444.919	96.75
445.14	134.75
445.361	124.75
445.582	121.75
445.803	149.75
446.024	151.75
446.245	153.75
446.466	102.75
446.687	88.75
446.908	95.75
447.129	109.75
447.35	94.75
447.571	91.75
447.792	102.75
448.013	106.75
448.234	121.75
448.455	113.75
448.675	138.75
448.896	129.75
449.117	94.75
449.338	104.75
449.559	148.75
449.779	159.75
450	107.75
450.221	102.75
450.442	91.75
450.662	109.75
450.883	106.75
451.104	108.75
451.324	88.75
451.545	88.75
451.766	83.75
451.986	90.75
452.207	92.75
452.428	96.75
452.648	110.75
452.869	108.75
453.089	115.75
453.31	113.75
453.53	104.75
453.751	86.75
453.971	119.75
454.192	111.75
454.412	89.75
454.633	85.75
454.853	92.75
455.073	95.75
455.294	92.75
455.514	117.75
455.734	86.75
455.955	99.75
456.175	84.75
456.395	93.75
456.616	72.75
456.836	72.75
457.056	76.75
457.276	87.75
457.497	83.75
457.717	93.75
457.937	91.75
458.157	87.75
458.377	95.75
458.598	101.75
458.818	144.75
459.038	169.75
459.258	131.75
459.478	90.75
459.698	92.75
459.918	82.75
460.138	89.75
460.358	88.75
460.578	94.75
460.798	86.75
461.018	90.75
461.238	79.75
461.458	84.75
461.678	67.75
461.898	84.75
462.118	98.75
462.338	90.75
462.558	81.75
462.777	76.75
462.997	81.75
463.217	91.75
463.437	81.75
463.657	73.75
463.876	95.75
464.096	90.75
464.316	89.75
464.536	93.75
464.755	94.75
464.975	113.75
465.195	176.75
465.414	175.75
465.634	97.75
465.854	90.75
466.073	82.75
466.293	93.75
466.512	77.75
466.732	82.75
466.951	93.75
467.171	86.75
467.391	104.75
467.61	114.75
467.829	110.75
468.049	125.75
468.268	145.75
468.488	91.75
468.707	91.75
468.927	88.75
469.146	77.75
469.365	86.75
469.585	79.75
469.804	92.75
470.023	95.75
470.243	99.75
470.462	95.75
470.681	105.75
470.901	93.75
471.12	94.75
471.339	90.75
471.558	77.75
471.777	80.75
471.997	112.75
472.216	182.75
472.435	356.75
472.654	146.75
472.873	103.75
473.092	84.75
473.311	92.75
473.53	97.75
473.749	85.75
473.968	91.75
474.187	103.75
474.406	101.75
474.625	86.75
474.844	79.75
475.063	94.75
475.282	88.75
475.501	80.75
475.72	80.75
475.939	86.75
476.158	81.75
476.377	73.75
476.596	94.75
476.814	99.75
477.033	89.75
477.252	106.75
477.471	95.75
477.69	84.75
477.908	92.75
478.127	102.75
478.346	87.75
478.564	95.75
478.783	105.75
479.002	97.75
479.22	98.75
479.439	108.75
479.658	97.75
479.876	109.75
480.095	87.75
480.313	105.75
480.532	96.75
480.751	125.75
480.969	191.75
481.188	569.75
481.406	376.75
481.624	119.75
481.843	100.75
482.061	77.75
482.28	75.75
482.498	86.75
482.717	84.75
482.935	85.75
483.153	83.75
483.372	82.75
483.59	95.75
483.808	87.75
484.027	81.75
484.245	90.75
484.463	107.75
484.681	101.75
484.9	97.75
485.118	95.75
485.336	95.75
485.554	95.75
485.772	97.75
485.99	93.75
486.209	104.75
486.427	97.75
486.645	111.75
486.863	110.75
487.081	104.75
487.299	103.75
487.517	103.75
487.735	87.75
487.953	89.75
488.171	96.75
488.389	86.75
488.607	107.75
488.825	105.75
489.043	78.75
489.261	104.75
489.479	97.75
489.696	88.75
489.914	94.75
490.132	89.75
490.35	88.75
490.568	97.75
490.786	96.75
491.003	90.75
491.221	95.75
491.439	86.75
491.657	96.75
491.874	97.75
492.092	90.75
492.31	97.75
492.527	93.75
492.745	94.75
492.963	80.75
493.18	107.75
493.398	88.75
493.615	95.75
493.833	110.75
494.05	96.75
494.268	81.75
494.485	81.75
494.703	88.75
494.92	83.75
495.138	96.75
495.355	93.75
495.573	89.75
495.79	88.75
496.008	96.75
496.225	96.75
496.442	89.75
496.66	92.75
496.877	85.75
497.094	88.75
497.312	86.75
497.529	93.75
497.746	87.75
497.963	94.75
498.181	87.75
498.398	76.75
498.615	121.75
498.832	93.75
499.049	86.75
499.267	88.75
499.484	81.75
499.701	89.75
499.918	90.75
500.135	91.75
500.352	81.75
500.569	79.75
500.786	90.75
501.003	90.75
501.22	93.75
501.437	93.75
501.654	109.75
501.871	110.75
502.088	91.75
502.305	91.75
502.522	84.75
502.739	84.75
502.956	94.75
503.172	97.75
503.389	103.75
503.606	100.75
503.823	113.75
504.04	105.75
504.256	95.75
504.473	98.75
504.69	92.75
504.907	99.75
505.123	104.75
505.34	90.75
505.557	91.75
505.773	88.75
505.99	87.75
506.207	110.75
506.423	96.75
506.64	103.75
506.856	87.75
507.073	89.75
507.289	85.75
507.506	96.75
507.722	130.75
507.939	109.75
508.155	93.75
508.372	88.75
508.588	95.75
508.805	106.75
509.021	89.75
509.238	99.75
509.454	105.75
509.67	100.75
509.887	112.75
510.103	114.75
510.319	215.75
510.536	720.75
510.752	2317.75
510.968	654.75
511.184	165.75
511.401	121.75
511.617	109.75
511.833	107.75
512.049	80.75
512.265	109.75
512.481	87.75
512.698	93.75
512.914	97.75
513.13	85.75
513.346	90.75
513.562	84.75
513.778	104.75
513.994	107.75
514.21	110.75
514.426	108.75
514.642	149.75
514.858	127.75
515.074	168.75
