Data from Circ_2011_H10_HRD10591_00094.txt Node
Date: Wed Jan 03 10:08:17 EST 2024
User: Yrep
Spectrometer: HR+D1059
Trigger mode: 1
Integration Time (sec): 1.000000E-1
Scans to average: 1
Electric dark correction enabled: true
Nonlinearity correction enabled: false
Boxcar width: 0
XAxis mode: Wavelengths
Number of Pixels in Spectrum: 2048
>>>>>Begin Spectral Data<<<<<
223.165	-22
223.4	-22
223.635	-22
223.869	-27
224.104	-19
224.338	-9
224.573	-18
224.808	2
225.042	-13
225.277	-10
225.511	-5
225.746	15
225.98	0
226.215	18
226.449	26
226.683	3
226.918	36
227.152	23
227.387	36
227.621	32
227.856	47
228.09	58
228.324	70
228.559	61
228.793	65
229.027	67
229.262	67
229.496	84
229.73	68
229.964	76
230.199	74
230.433	81
230.667	86
230.901	55
231.136	82
231.37	81
231.604	90
231.838	99
232.072	79
232.306	79
232.541	86
232.775	90
233.009	78
233.243	78
233.477	87
233.711	70
233.945	85
234.179	87
234.413	94
234.647	92
234.881	69
235.115	71
235.349	78
235.583	93
235.817	82
236.051	72
236.285	82
236.519	80
236.753	73
236.987	79
237.221	71
237.455	72
237.689	73
237.922	85
238.156	76
238.39	79
238.624	84
238.858	75
239.091	65
239.325	89
239.559	81
239.793	90
240.027	76
240.26	82
240.494	85
240.728	78
240.961	76
241.195	79
241.429	69
241.662	71
241.896	77
242.13	73
242.363	72
242.597	72
242.83	70
243.064	60
243.298	76
243.531	79
243.765	88
243.998	70
244.232	76
244.465	78
244.699	91
244.932	79
245.166	73
245.399	84
245.633	76
245.866	79
246.099	77
246.333	80
246.566	81
246.8	62
247.033	74
247.266	83
247.5	89
247.733	85
247.966	89
248.2	78
248.433	80
248.666	71
248.899	85
249.133	82
249.366	98
249.599	98
249.832	74
250.066	84
250.299	84
250.532	65
250.765	82
250.998	80
251.231	89
251.465	98
251.698	79
251.931	85
252.164	86
252.397	92
252.63	79
252.863	71
253.096	82
253.329	84
253.562	82
253.795	85
254.028	70
254.261	62
254.494	90
254.727	68
254.96	88
255.193	84
255.426	72
255.659	71
255.892	79
256.124	86
256.357	73
256.59	80
256.823	80
257.056	88
257.289	72
257.521	78
257.754	74
257.987	93
258.22	87
258.452	76
258.685	71
258.918	86
259.151	81
259.383	92
259.616	89
259.849	93
260.081	87
260.314	72
260.547	88
260.779	86
261.012	81
261.244	86
261.477	90
261.71	92
261.942	104
262.175	112
262.407	79
262.64	78
262.872	82
263.105	85
263.337	80
263.57	85
263.802	78
264.035	86
264.267	90
264.499	90
264.732	72
264.964	82
265.197	87
265.429	93
265.661	82
265.894	82
266.126	95
266.358	83
266.591	82
266.823	70
267.055	79
267.287	88
267.52	78
267.752	88
267.984	99
268.216	86
268.448	80
268.681	78
268.913	88
269.145	76
269.377	86
269.609	84
269.841	75
270.073	80
270.306	74
270.538	94
270.77	89
271.002	88
271.234	79
271.466	79
271.698	90
271.93	91
272.162	78
272.394	89
272.626	75
272.858	71
273.09	81
273.322	82
273.553	85
273.785	82
274.017	88
274.249	88
274.481	92
274.713	90
274.945	82
275.176	101
275.408	95
275.64	80
275.872	106
276.104	93
276.335	101
276.567	104
276.799	122
277.031	107
277.262	104
277.494	109
277.726	93
277.957	91
278.189	85
278.421	92
278.652	88
278.884	90
279.115	79
279.347	100
279.579	95
279.81	81
280.042	109
280.273	108
280.505	101
280.736	83
280.968	104
281.199	84
281.431	81
281.662	88
281.894	99
282.125	104
282.356	126
282.588	152
282.819	119
283.051	97
283.282	97
283.513	77
283.745	96
283.976	85
284.207	78
284.439	96
284.67	81
284.901	81
285.132	93
285.364	77
285.595	73
285.826	87
286.057	95
286.288	88
286.52	92
286.751	81
286.982	92
287.213	95
287.444	93
287.675	92
287.906	88
288.138	98
288.369	88
288.6	115
288.831	81
289.062	79
289.293	100
289.524	91
289.755	77
289.986	102
290.217	83
290.448	83
290.679	99
290.91	93
291.141	79
291.371	86
291.602	79
291.833	79
292.064	96
292.295	103
292.526	97
292.757	87
292.987	78
293.218	74
293.449	92
293.68	72
293.91	83
294.141	93
294.372	84
294.603	82
294.833	104
295.064	89
295.295	86
295.525	100
295.756	104
295.987	136
296.217	153
296.448	127
296.679	86
296.909	95
297.14	88
297.37	89
297.601	96
297.831	91
298.062	86
298.292	91
298.523	91
298.753	78
298.984	100
299.214	95
299.445	93
299.675	96
299.905	105
300.136	86
300.366	97
300.597	89
300.827	98
301.057	100
301.288	108
301.518	112
301.748	96
301.979	112
302.209	95
302.439	96
302.669	88
302.9	76
303.13	101
303.36	110
303.59	102
303.82	92
304.051	103
304.281	100
304.511	101
304.741	88
304.971	93
305.201	108
305.431	98
305.661	92
305.891	98
306.121	107
306.352	117
306.582	101
306.812	96
307.042	106
307.272	93
307.502	123
307.731	116
307.961	111
308.191	88
308.421	93
308.651	92
308.881	81
309.111	97
309.341	96
309.571	90
309.8	105
310.03	95
310.26	95
310.49	101
310.72	92
310.949	104
311.179	97
311.409	90
311.639	94
311.868	94
312.098	99
312.328	73
312.557	91
312.787	116
313.017	94
313.246	93
313.476	96
313.706	78
313.935	103
314.165	90
314.394	93
314.624	96
314.853	103
315.083	96
315.312	104
315.542	87
315.771	91
316.001	92
316.23	81
316.46	88
316.689	88
316.919	95
317.148	100
317.377	92
317.607	109
317.836	104
318.065	98
318.295	104
318.524	91
318.753	93
318.983	99
319.212	93
319.441	93
319.67	109
319.9	92
320.129	95
320.358	95
320.587	99
320.816	104
321.046	111
321.275	87
321.504	97
321.733	85
321.962	111
322.191	105
322.42	105
322.649	113
322.878	113
323.108	134
323.337	145
323.566	134
323.795	159
324.024	217
324.253	419
324.482	929
324.71	1912
324.939	2565
325.168	904
325.397	264
325.626	151
325.855	128
326.084	133
326.313	133
326.542	170
326.77	234
326.999	527
327.228	1064
327.457	1980
327.686	1550
327.914	430
328.143	257
328.372	237
328.6	177
328.829	128
329.058	139
329.287	132
329.515	120
329.744	121
329.972	160
330.201	254
330.43	349
330.658	213
330.887	173
331.115	134
331.344	112
331.572	96
331.801	104
332.03	104
332.258	105
332.486	89
332.715	97
332.943	109
333.172	101
333.4	118
333.629	121
333.857	119
334.085	177
334.314	253
334.542	438
334.771	403
334.999	160
335.227	120
335.455	118
335.684	106
335.912	98
336.14	94
336.369	109
336.597	97
336.825	99
337.053	97
337.281	101
337.51	78
337.738	85
337.966	96
338.194	93
338.422	102
338.65	80
338.878	91
339.106	103
339.334	87
339.562	87
339.79	93
340.018	86
340.246	101
340.474	89
340.702	100
340.93	89
341.158	109
341.386	106
341.614	99
341.842	80
342.07	93
342.298	91
342.526	100
342.754	81
342.981	92
343.209	103
343.437	94
343.665	86
343.893	98
344.12	91
344.348	95
344.576	87
344.804	87
345.031	105
345.259	97
345.487	100
345.714	92
345.942	86
346.17	93
346.397	102
346.625	108
346.853	101
347.08	100
347.308	93
347.535	86
347.763	110
347.99	92
348.218	110
348.445	101
348.673	90
348.9	93
349.128	89
349.355	101
349.583	101
349.81	93
350.037	91
350.265	87
350.492	112
350.72	97
350.947	93
351.174	109
351.402	109
351.629	94
351.856	100
352.083	109
352.311	108
352.538	92
352.765	93
352.992	106
353.22	119
353.447	110
353.674	109
353.901	103
354.128	104
354.355	102
354.583	96
354.81	107
355.037	89
355.264	98
355.491	105
355.718	95
355.945	83
356.172	83
356.399	78
356.626	102
356.853	97
357.08	87
357.307	90
357.534	85
357.761	90
357.988	100
358.215	92
358.441	84
358.668	84
358.895	79
359.122	90
359.349	78
359.576	90
359.802	123
360.029	131
360.256	118
360.483	105
360.709	94
360.936	86
361.163	86
361.39	87
361.616	94
361.843	92
362.07	96
362.296	95
362.523	86
362.749	92
362.976	96
363.203	81
363.429	94
363.656	100
363.882	80
364.109	95
364.335	81
364.562	94
364.788	94
365.015	96
365.241	103
365.468	107
365.694	101
365.92	99
366.147	100
366.373	98
366.599	89
366.826	85
367.052	102
367.278	98
367.505	93
367.731	98
367.957	106
368.184	102
368.41	104
368.636	119
368.862	117
369.089	128
369.315	101
369.541	92
369.767	80
369.993	80
370.219	103
370.445	79
370.672	94
370.898	94
371.124	89
371.35	94
371.576	94
371.802	89
372.028	91
372.254	91
372.48	89
372.706	71
372.932	92
373.158	86
373.384	94
373.61	90
373.835	97
374.061	73
374.287	97
374.513	92
374.739	92
374.965	90
375.191	74
375.416	92
375.642	77
375.868	87
376.094	90
376.319	82
376.545	80
376.771	87
376.997	106
377.222	88
377.448	89
377.674	80
377.899	86
378.125	95
378.35	81
378.576	95
378.802	105
379.027	90
379.253	102
379.478	87
379.704	85
379.929	97
380.155	100
380.38	94
380.606	94
380.831	89
381.057	91
381.282	99
381.507	93
381.733	89
381.958	97
382.184	115
382.409	95
382.634	95
382.86	98
383.085	97
383.31	98
383.535	97
383.761	110
383.986	93
384.211	92
384.436	85
384.662	84
384.887	95
385.112	109
385.337	91
385.562	109
385.787	96
386.013	96
386.238	106
386.463	107
386.688	102
386.913	98
387.138	101
387.363	99
387.588	90
387.813	89
388.038	95
388.263	126
388.488	94
388.713	94
388.938	98
389.163	102
389.387	97
389.612	87
389.837	103
390.062	93
390.287	82
390.512	79
390.736	93
390.961	82
391.186	90
391.411	95
391.636	102
391.86	89
392.085	81
392.31	85
392.534	93
392.759	87
392.984	95
393.208	73
393.433	85
393.658	94
393.882	73
394.107	85
394.331	97
394.556	96
394.78	93
395.005	85
395.229	71
395.454	94
395.678	98
395.903	86
396.127	95
396.352	82
396.576	79
396.801	89
397.025	82
397.249	85
397.474	94
397.698	91
397.922	97
398.147	94
398.371	101
398.595	90
398.82	85
399.044	98
399.268	75
399.492	90
399.717	87
399.941	86
400.165	104
400.389	96
400.613	84
400.837	81
401.062	105
401.286	99
401.51	93
401.734	81
401.958	107
402.182	130
402.406	162
402.63	136
402.854	89
403.078	89
403.302	96
403.526	93
403.75	84
403.974	83
404.198	100
404.422	105
404.645	93
404.869	99
405.093	88
405.317	120
405.541	104
405.765	102
405.988	136
406.212	167
406.436	216
406.66	166
406.883	107
407.107	102
407.331	104
407.555	103
407.778	100
408.002	95
408.226	102
408.449	80
408.673	77
408.896	92
409.12	105
409.344	98
409.567	91
409.791	82
410.014	91
410.238	88
410.461	91
410.685	91
410.908	103
411.132	114
411.355	100
411.578	81
411.802	85
412.025	85
412.249	96
412.472	105
412.695	112
412.919	99
413.142	101
413.365	100
413.589	97
413.812	85
414.035	89
414.258	92
414.482	103
414.705	91
414.928	90
415.151	90
415.374	104
415.597	100
415.821	72
416.044	99
416.267	89
416.49	97
416.713	88
416.936	79
417.159	98
417.382	83
417.605	92
417.828	105
418.051	81
418.274	99
418.497	96
418.72	88
418.943	80
419.166	97
419.389	85
419.611	77
419.834	91
420.057	91
420.28	89
420.503	85
420.726	91
420.948	86
421.171	97
421.394	88
421.617	90
421.839	88
422.062	83
422.285	81
422.507	97
422.73	97
422.953	86
423.175	86
423.398	92
423.621	95
423.843	94
424.066	86
424.288	103
424.511	94
424.733	100
424.956	96
425.178	108
425.401	92
425.623	90
425.846	98
426.068	115
426.291	94
426.513	97
426.735	92
426.958	95
427.18	101
427.402	147
427.625	172
427.847	164
428.069	156
428.292	103
428.514	94
428.736	84
428.958	87
429.181	80
429.403	89
429.625	96
429.847	114
430.069	90
430.292	95
430.514	85
430.736	97
430.958	88
431.18	84
431.402	86
431.624	72
431.846	81
432.068	85
432.29	81
432.512	103
432.734	83
432.956	103
433.178	105
433.4	109
433.622	104
433.844	93
434.066	86
434.287	112
434.509	86
434.731	83
434.953	102
435.175	98
435.397	94
435.618	98
435.84	116
436.062	131
436.284	126
436.505	117
436.727	107
436.949	93
437.17	96
437.392	82
437.614	100
437.835	114
438.057	129
438.278	116
438.5	105
438.721	128
438.943	103
439.165	90
439.386	91
439.608	97
439.829	101
440.05	125
440.272	162
440.493	95
440.715	90
440.936	98
441.158	97
441.379	81
441.6	96
441.822	95
442.043	87
442.264	107
442.486	97
442.707	90
442.928	106
443.149	155
443.371	147
443.592	113
443.813	135
444.034	109
444.255	88
444.476	77
444.698	79
444.919	102
445.14	126
445.361	126
445.582	121
445.803	143
446.024	151
446.245	122
446.466	112
446.687	96
446.908	103
447.129	102
447.35	87
447.571	103
447.792	100
448.013	102
448.234	114
448.455	97
448.675	110
448.896	132
449.117	112
449.338	106
449.559	149
449.779	149
450	108
450.221	86
450.442	80
450.662	111
450.883	96
451.104	99
451.324	100
451.545	88
451.766	93
451.986	93
452.207	83
452.428	106
452.648	100
452.869	113
453.089	107
453.31	114
453.53	80
453.751	95
453.971	107
454.192	136
454.412	96
454.633	93
454.853	104
455.073	92
455.294	90
455.514	102
455.734	96
455.955	81
456.175	88
456.395	82
456.616	105
456.836	88
457.056	81
457.276	85
457.497	96
457.717	90
457.937	81
458.157	95
458.377	89
458.598	112
458.818	156
459.038	171
459.258	121
459.478	95
459.698	102
459.918	97
460.138	77
460.358	75
460.578	98
460.798	92
461.018	85
461.238	82
461.458	100
461.678	76
461.898	92
462.118	91
462.338	87
462.558	89
462.777	89
462.997	78
463.217	95
463.437	92
463.657	87
463.876	83
464.096	96
464.316	92
464.536	105
464.755	89
464.975	111
465.195	175
465.414	174
465.634	90
465.854	91
466.073	90
466.293	84
466.512	90
466.732	87
466.951	74
467.171	97
467.391	102
467.61	110
467.829	130
468.049	182
468.268	220
468.488	104
468.707	79
468.927	75
469.146	82
469.365	82
469.585	89
469.804	100
470.023	101
470.243	113
470.462	103
470.681	115
470.901	95
471.12	87
471.339	95
471.558	95
471.777	101
471.997	125
472.216	288
472.435	542
472.654	202
472.873	107
473.092	96
473.311	102
473.53	89
473.749	90
473.968	113
474.187	109
474.406	92
474.625	100
474.844	90
475.063	84
475.282	92
475.501	78
475.72	91
475.939	83
476.158	82
476.377	81
476.596	78
476.814	89
477.033	97
477.252	95
477.471	94
477.69	96
477.908	100
478.127	75
478.346	97
478.564	88
478.783	116
479.002	101
479.22	97
479.439	96
479.658	108
479.876	96
480.095	97
480.313	94
480.532	97
480.751	131
480.969	278
481.188	931
481.406	592
481.624	152
481.843	80
482.061	100
482.28	94
482.498	83
482.717	101
482.935	106
483.153	90
483.372	78
483.59	77
483.808	82
484.027	91
484.245	90
484.463	85
484.681	103
484.9	97
485.118	108
485.336	94
485.554	91
485.772	97
485.99	108
486.209	108
486.427	94
486.645	104
486.863	117
487.081	96
487.299	108
487.517	93
487.735	101
487.953	88
488.171	98
488.389	86
488.607	102
488.825	97
489.043	86
489.261	97
489.479	96
489.696	89
489.914	86
490.132	90
490.35	85
490.568	84
490.786	87
491.003	97
491.221	80
491.439	88
491.657	90
491.874	111
492.092	97
492.31	103
492.527	92
492.745	84
492.963	83
493.18	85
493.398	99
493.615	86
493.833	106
494.05	85
494.268	105
494.485	93
494.703	79
494.92	97
495.138	106
495.355	90
495.573	110
495.79	94
496.008	105
496.225	88
496.442	93
496.66	86
496.877	108
497.094	94
497.312	99
497.529	93
497.746	103
497.963	82
498.181	91
498.398	103
498.615	103
498.832	111
499.049	104
499.267	82
499.484	90
499.701	94
499.918	84
500.135	95
500.352	90
500.569	93
500.786	97
501.003	92
501.22	86
501.437	96
501.654	100
501.871	108
502.088	109
502.305	89
502.522	90
502.739	88
502.956	92
503.172	90
503.389	96
503.606	117
503.823	92
504.04	66
504.256	99
504.473	84
504.69	88
504.907	105
505.123	84
505.34	93
505.557	101
505.773	98
505.99	105
506.207	106
506.423	104
506.64	91
506.856	106
507.073	111
507.289	101
507.506	102
507.722	105
507.939	120
508.155	90
508.372	101
508.588	94
508.805	93
509.021	96
509.238	93
509.454	105
509.67	110
509.887	96
510.103	124
510.319	204
510.536	745
510.752	2405
510.968	699
511.184	168
511.401	109
511.617	104
511.833	91
512.049	93
512.265	82
512.481	94
512.698	82
512.914	99
513.13	93
513.346	91
513.562	97
513.778	96
513.994	105
514.21	107
514.426	118
514.642	136
514.858	130
515.074	181
515.29	468
515.506	1592
515.721	614
515.937	171
516.153	134
516.369	94
516.585	98
516.801	108
517.016	113
517.232	90
517.448	89
517.664	82
517.879	108
518.095	105
518.311	93
518.527	109
518.742	89
518.958	92
519.173	102
519.389	102
519.605	106
519.82	111
520.036	106
520.251	126
520.467	113
520.682	122
520.898	111
521.113	119
521.329	140
521.544	198
521.76	600
521.975	2666
522.19	1633
522.406	332
522.621	140
522.836	111
523.052	97
523.267	93
523.482	102
523.698	99
523.913	124
524.128	114
524.343	86
524.559	90
524.774	89
524.989	108
525.204	104
525.419	101
525.634	91
525.849	85
526.064	96
526.28	106
526.495	101
526.71	100
526.925	83
527.14	90
527.355	108
527.57	79
527.785	92
527.999	89
528.214	82
528.429	92
528.644	97
528.859	92
529.074	104
529.289	129
529.503	196
529.718	115
529.933	112
530.148	91
530.363	94
530.577	98
530.792	76
531.007	100
531.221	84
531.436	101
531.651	98
531.865	97
532.08	96
532.295	94
532.509	96
532.724	105
532.938	101
533.153	102
533.367	98
533.582	91
533.796	82
534.011	93
534.225	109
534.44	92
534.654	93
534.868	64
535.083	90
535.297	95
535.511	95
535.726	117
535.94	97
536.154	105
536.369	80
536.583	107
536.797	105
537.011	101
537.225	97
537.44	113
537.654	88
537.868	98
538.082	96
538.296	104
538.51	97
538.724	87
538.938	91
539.153	95
539.367	101
539.581	96
539.795	95
540.009	91
540.222	88
540.436	92
540.65	88
540.864	92
541.078	95
541.292	103
541.506	88
541.72	86
541.934	94
542.147	92
542.361	98
542.575	98
542.789	80
543.002	84
543.216	83
543.43	102
543.644	103
543.857	94
544.071	100
544.285	91
544.498	88
544.712	89
544.925	87
545.139	86
545.352	88
545.566	88
545.779	87
545.993	84
546.206	94
546.42	90
546.633	82
546.847	101
547.06	87
547.274	81
547.487	76
547.7	92
547.914	95
548.127	83
548.34	85
548.554	98
548.767	97
548.98	85
549.193	91
549.407	95
549.62	88
549.833	95
550.046	98
550.259	88
550.473	98
550.686	95
550.899	86
551.112	84
551.325	95
551.538	93
551.751	103
551.964	82
552.177	80
552.39	95
552.603	93
552.816	97
553.029	95
553.242	101
553.455	95
553.667	108
553.88	102
554.093	99
554.306	85
554.519	92
554.732	88
554.944	106
555.157	88
555.37	88
555.583	109
555.795	79
556.008	101
556.221	89
556.433	89
556.646	98
556.859	87
557.071	94
557.284	88
557.496	88
557.709	78
557.921	80
558.134	86
558.346	93
558.559	96
558.771	77
558.984	94
559.196	100
559.409	87
559.621	101
559.833	90
560.046	97
560.258	110
560.47	98
560.683	96
560.895	91
561.107	96
561.32	92
561.532	95
561.744	89
561.956	85
562.168	96
562.381	90
562.593	74
562.805	86
563.017	88
563.229	100
563.441	102
563.653	86
563.865	92
564.077	88
564.289	107
564.501	101
564.713	99
564.925	104
565.137	104
565.349	81
565.561	94
565.773	97
565.985	90
566.197	87
566.408	92
566.62	88
566.832	81
567.044	86
567.255	80
567.467	82
567.679	81
567.891	100
568.102	91
568.314	97
568.526	81
568.737	105
568.949	80
569.161	86
569.372	96
569.584	94
569.795	91
570.007	121
570.218	250
570.43	116
570.641	116
570.853	85
571.064	96
571.276	80
571.487	71
571.698	95
571.91	84
572.121	95
572.333	93
572.544	94
572.755	93
572.966	82
573.178	85
573.389	97
573.6	83
573.811	85
574.023	88
574.234	94
574.445	87
574.656	99
574.867	94
575.078	91
575.289	92
575.501	94
575.712	84
575.923	92
576.134	82
576.345	89
576.556	88
576.767	85
576.978	89
577.188	103
577.399	96
577.61	96
577.821	107
578.032	112
578.243	251
578.454	728
578.665	198
578.875	105
579.086	95
579.297	86
579.508	99
579.718	82
579.929	90
580.14	95
580.35	112
580.561	94
580.772	89
580.982	94
581.193	79
581.403	93
581.614	80
581.825	85
582.035	81
582.246	90
