Data from Circ_2011_H10_HRD10591_00055.txt Node
Date: Wed Jan 03 10:08:10 EST 2024
User: Yrep
Spectrometer: HR+D1059
Trigger mode: 1
Integration Time (sec): 1.000000E-1
Scans to average: 1
Electric dark correction enabled: true
Nonlinearity correction enabled: false
Boxcar width: 0
XAxis mode: Wavelengths
Number of Pixels in Spectrum: 2048
>>>>>Begin Spectral Data<<<<<
223.165	-11.81
223.4	-11.81
223.635	-11.81
223.869	-15.81
224.104	-38.81
224.338	-9.81
224.573	-23.81
224.808	-1.81
225.042	0.19
225.277	-13.81
225.511	3.19
225.746	5.19
225.98	9.19
226.215	6.19
226.449	12.19
226.683	27.19
226.918	26.19
227.152	26.19
227.387	34.19
227.621	43.19
227.856	41.19
228.09	44.19
228.324	45.19
228.559	56.19
228.793	59.19
229.027	54.19
229.262	65.19
229.496	68.19
229.73	77.19
229.964	81.19
230.199	77.19
230.433	83.19
230.667	91.19
230.901	74.19
231.136	82.19
231.37	74.19
231.604	58.19
231.838	77.19
232.072	78.19
232.306	77.19
232.541	75.19
232.775	77.19
233.009	73.19
233.243	78.19
233.477	81.19
233.711	77.19
233.945	89.19
234.179	75.19
234.413	87.19
234.647	75.19
234.881	68.19
235.115	77.19
235.349	73.19
235.583	71.19
235.817	66.19
236.051	66.19
236.285	75.19
236.519	75.19
236.753	77.19
236.987	73.19
237.221	75.19
237.455	76.19
237.689	80.19
237.922	68.19
238.156	89.19
238.39	77.19
238.624	67.19
238.858	65.19
239.091	67.19
239.325	69.19
239.559	73.19
239.793	78.19
240.027	81.19
240.26	83.19
240.494	77.19
240.728	67.19
240.961	74.19
241.195	77.19
241.429	84.19
241.662	66.19
241.896	69.19
242.13	60.19
242.363	85.19
242.597	64.19
242.83	65.19
243.064	75.19
243.298	68.19
243.531	79.19
243.765	77.19
243.998	74.19
244.232	78.19
244.465	71.19
244.699	83.19
244.932	79.19
245.166	76.19
245.399	75.19
245.633	74.19
245.866	71.19
246.099	75.19
246.333	76.19
246.566	70.19
246.8	70.19
247.033	74.19
247.266	73.19
247.5	78.19
247.733	77.19
247.966	76.19
248.2	70.19
248.433	73.19
248.666	81.19
248.899	95.19
249.133	75.19
249.366	86.19
249.599	85.19
249.832	73.19
250.066	74.19
250.299	61.19
250.532	96.19
250.765	82.19
250.998	77.19
251.231	88.19
251.465	87.19
251.698	88.19
251.931	85.19
252.164	85.19
252.397	83.19
252.63	74.19
252.863	85.19
253.096	76.19
253.329	85.19
253.562	68.19
253.795	74.19
254.028	70.19
254.261	75.19
254.494	77.19
254.727	81.19
254.96	83.19
255.193	78.19
255.426	70.19
255.659	75.19
255.892	76.19
256.124	68.19
256.357	75.19
256.59	81.19
256.823	84.19
257.056	87.19
257.289	76.19
257.521	85.19
257.754	81.19
257.987	70.19
258.22	78.19
258.452	74.19
258.685	83.19
258.918	91.19
259.151	82.19
259.383	79.19
259.616	97.19
259.849	88.19
260.081	79.19
260.314	85.19
260.547	92.19
260.779	84.19
261.012	83.19
261.244	84.19
261.477	86.19
261.71	75.19
261.942	115.19
262.175	112.19
262.407	93.19
262.64	86.19
262.872	92.19
263.105	75.19
263.337	64.19
263.57	85.19
263.802	85.19
264.035	69.19
264.267	74.19
264.499	74.19
264.732	89.19
264.964	88.19
265.197	78.19
265.429	76.19
265.661	88.19
265.894	72.19
266.126	85.19
266.358	77.19
266.591	78.19
266.823	90.19
267.055	88.19
267.287	85.19
267.52	65.19
267.752	81.19
267.984	74.19
268.216	75.19
268.448	82.19
268.681	92.19
268.913	86.19
269.145	86.19
269.377	87.19
269.609	73.19
269.841	76.19
270.073	91.19
270.306	83.19
270.538	88.19
270.77	74.19
271.002	75.19
271.234	81.19
271.466	76.19
271.698	87.19
271.93	77.19
272.162	73.19
272.394	84.19
272.626	82.19
272.858	90.19
273.09	74.19
273.322	87.19
273.553	65.19
273.785	86.19
274.017	76.19
274.249	92.19
274.481	78.19
274.713	88.19
274.945	83.19
275.176	82.19
275.408	87.19
275.64	93.19
275.872	86.19
276.104	87.19
276.335	84.19
276.567	105.19
276.799	104.19
277.031	106.19
277.262	117.19
277.494	84.19
277.726	77.19
277.957	84.19
278.189	80.19
278.421	74.19
278.652	89.19
278.884	81.19
279.115	87.19
279.347	90.19
279.579	95.19
279.81	84.19
280.042	110.19
280.273	93.19
280.505	103.19
280.736	89.19
280.968	84.19
281.199	82.19
281.431	92.19
281.662	78.19
281.894	81.19
282.125	95.19
282.356	115.19
282.588	132.19
282.819	108.19
283.051	88.19
283.282	88.19
283.513	91.19
283.745	80.19
283.976	66.19
284.207	79.19
284.439	86.19
284.67	88.19
284.901	94.19
285.132	80.19
285.364	78.19
285.595	89.19
285.826	91.19
286.057	70.19
286.288	83.19
286.52	85.19
286.751	85.19
286.982	99.19
287.213	74.19
287.444	93.19
287.675	89.19
287.906	90.19
288.138	95.19
288.369	89.19
288.6	87.19
288.831	77.19
289.062	103.19
289.293	81.19
289.524	76.19
289.755	94.19
289.986	94.19
290.217	83.19
290.448	81.19
290.679	84.19
290.91	77.19
291.141	77.19
291.371	85.19
291.602	77.19
291.833	74.19
292.064	82.19
292.295	73.19
292.526	89.19
292.757	82.19
292.987	65.19
293.218	87.19
293.449	91.19
293.68	84.19
293.91	87.19
294.141	92.19
294.372	78.19
294.603	90.19
294.833	84.19
295.064	77.19
295.295	87.19
295.525	93.19
295.756	93.19
295.987	118.19
296.217	148.19
296.448	116.19
296.679	84.19
296.909	80.19
297.14	87.19
297.37	101.19
297.601	83.19
297.831	84.19
298.062	96.19
298.292	78.19
298.523	86.19
298.753	87.19
298.984	87.19
299.214	94.19
299.445	77.19
299.675	90.19
299.905	86.19
300.136	76.19
300.366	87.19
300.597	76.19
300.827	83.19
301.057	105.19
301.288	93.19
301.518	83.19
301.748	84.19
301.979	78.19
302.209	97.19
302.439	94.19
302.669	91.19
302.9	85.19
303.13	92.19
303.36	99.19
303.59	100.19
303.82	95.19
304.051	88.19
304.281	86.19
304.511	75.19
304.741	89.19
304.971	74.19
305.201	78.19
305.431	101.19
305.661	75.19
305.891	83.19
306.121	97.19
306.352	104.19
306.582	102.19
306.812	98.19
307.042	96.19
307.272	97.19
307.502	102.19
307.731	88.19
307.961	87.19
308.191	92.19
308.421	82.19
308.651	80.19
308.881	80.19
309.111	103.19
309.341	92.19
309.571	104.19
309.8	105.19
310.03	92.19
310.26	109.19
310.49	97.19
310.72	95.19
310.949	89.19
311.179	97.19
311.409	81.19
311.639	93.19
311.868	88.19
312.098	94.19
312.328	97.19
312.557	101.19
312.787	104.19
313.017	114.19
313.246	97.19
313.476	85.19
313.706	96.19
313.935	86.19
314.165	104.19
314.394	89.19
314.624	92.19
314.853	90.19
315.083	88.19
315.312	78.19
315.542	75.19
315.771	78.19
316.001	91.19
316.23	89.19
316.46	86.19
316.689	80.19
316.919	79.19
317.148	80.19
317.377	92.19
317.607	92.19
317.836	79.19
318.065	81.19
318.295	89.19
318.524	93.19
318.753	87.19
318.983	85.19
319.212	94.19
319.441	89.19
319.67	101.19
319.9	86.19
320.129	86.19
320.358	86.19
320.587	98.19
320.816	91.19
321.046	95.19
321.275	82.19
321.504	83.19
321.733	92.19
321.962	97.19
322.191	99.19
322.42	111.19
322.649	99.19
322.878	112.19
323.108	101.19
323.337	110.19
323.566	132.19
323.795	153.19
324.024	211.19
324.253	452.19
324.482	932.19
324.71	1930.19
324.939	2592.19
325.168	956.19
325.397	271.19
325.626	161.19
325.855	138.19
326.084	113.19
326.313	144.19
326.542	165.19
326.77	258.19
326.999	506.19
327.228	1062.19
327.457	2001.19
327.686	1586.19
327.914	431.19
328.143	245.19
328.372	200.19
328.6	156.19
328.829	132.19
329.058	141.19
329.287	143.19
329.515	139.19
329.744	107.19
329.972	158.19
330.201	241.19
330.43	317.19
330.658	220.19
330.887	160.19
331.115	127.19
331.344	103.19
331.572	95.19
331.801	100.19
332.03	114.19
332.258	102.19
332.486	104.19
332.715	102.19
332.943	101.19
333.172	92.19
333.4	99.19
333.629	92.19
333.857	134.19
334.085	156.19
334.314	232.19
334.542	372.19
334.771	368.19
334.999	145.19
335.227	96.19
335.455	93.19
335.684	94.19
335.912	92.19
336.14	95.19
336.369	91.19
336.597	103.19
336.825	94.19
337.053	98.19
337.281	92.19
337.51	86.19
337.738	102.19
337.966	86.19
338.194	112.19
338.422	89.19
338.65	86.19
338.878	74.19
339.106	84.19
339.334	97.19
339.562	77.19
339.79	89.19
340.018	97.19
340.246	102.19
340.474	91.19
340.702	98.19
340.93	84.19
341.158	97.19
341.386	93.19
341.614	87.19
341.842	93.19
342.07	99.19
342.298	95.19
342.526	74.19
342.754	67.19
342.981	79.19
343.209	86.19
343.437	101.19
343.665	86.19
343.893	74.19
344.12	94.19
344.348	98.19
344.576	93.19
344.804	86.19
345.031	80.19
345.259	101.19
345.487	84.19
345.714	97.19
345.942	114.19
346.17	88.19
346.397	90.19
346.625	99.19
346.853	96.19
347.08	89.19
347.308	87.19
347.535	104.19
347.763	86.19
347.99	82.19
348.218	99.19
348.445	105.19
348.673	88.19
348.9	98.19
349.128	93.19
349.355	92.19
349.583	87.19
349.81	93.19
350.037	100.19
350.265	99.19
350.492	93.19
350.72	94.19
350.947	98.19
351.174	104.19
351.402	97.19
351.629	105.19
351.856	99.19
352.083	116.19
352.311	112.19
352.538	99.19
352.765	104.19
352.992	105.19
353.22	101.19
353.447	100.19
353.674	81.19
353.901	87.19
354.128	85.19
354.355	81.19
354.583	100.19
354.81	85.19
355.037	105.19
355.264	86.19
355.491	83.19
355.718	91.19
355.945	95.19
356.172	96.19
356.399	100.19
356.626	95.19
356.853	96.19
357.08	90.19
357.307	79.19
357.534	83.19
357.761	91.19
357.988	107.19
358.215	91.19
358.441	90.19
358.668	94.19
358.895	73.19
359.122	85.19
359.349	82.19
359.576	91.19
359.802	102.19
360.029	112.19
360.256	118.19
360.483	84.19
360.709	69.19
360.936	98.19
361.163	95.19
361.39	105.19
361.616	100.19
361.843	84.19
362.07	96.19
362.296	96.19
362.523	78.19
362.749	98.19
362.976	106.19
363.203	82.19
363.429	90.19
363.656	96.19
363.882	101.19
364.109	82.19
364.335	94.19
364.562	94.19
364.788	80.19
365.015	87.19
365.241	93.19
365.468	98.19
365.694	116.19
365.92	100.19
366.147	69.19
366.373	88.19
366.599	79.19
366.826	82.19
367.052	93.19
367.278	86.19
367.505	90.19
367.731	90.19
367.957	70.19
368.184	79.19
368.41	100.19
368.636	104.19
368.862	119.19
369.089	105.19
369.315	101.19
369.541	93.19
369.767	83.19
369.993	93.19
370.219	68.19
370.445	89.19
370.672	92.19
370.898	87.19
371.124	97.19
371.35	84.19
371.576	78.19
371.802	80.19
372.028	81.19
372.254	88.19
372.48	94.19
372.706	81.19
372.932	78.19
373.158	84.19
373.384	97.19
373.61	83.19
373.835	86.19
374.061	81.19
374.287	93.19
374.513	88.19
374.739	93.19
374.965	89.19
375.191	87.19
375.416	94.19
375.642	85.19
375.868	88.19
376.094	83.19
376.319	98.19
376.545	94.19
376.771	74.19
376.997	82.19
377.222	79.19
377.448	86.19
377.674	95.19
377.899	99.19
378.125	72.19
378.35	72.19
378.576	77.19
378.802	85.19
379.027	86.19
379.253	96.19
379.478	84.19
379.704	75.19
379.929	91.19
380.155	88.19
380.38	82.19
380.606	91.19
380.831	96.19
381.057	104.19
381.282	89.19
381.507	95.19
381.733	84.19
381.958	75.19
382.184	95.19
382.409	97.19
382.634	92.19
382.86	91.19
383.085	108.19
383.31	84.19
383.535	98.19
383.761	91.19
383.986	98.19
384.211	101.19
384.436	90.19
384.662	100.19
384.887	97.19
385.112	106.19
385.337	93.19
385.562	90.19
385.787	99.19
386.013	112.19
386.238	108.19
386.463	98.19
386.688	96.19
386.913	90.19
387.138	90.19
387.363	96.19
387.588	86.19
387.813	89.19
388.038	80.19
388.263	102.19
388.488	99.19
388.713	101.19
388.938	88.19
389.163	91.19
389.387	104.19
389.612	61.19
389.837	68.19
390.062	76.19
390.287	81.19
390.512	83.19
390.736	87.19
390.961	83.19
391.186	92.19
391.411	91.19
391.636	73.19
391.86	88.19
392.085	89.19
392.31	69.19
392.534	91.19
392.759	93.19
392.984	81.19
393.208	82.19
393.433	81.19
393.658	84.19
393.882	76.19
394.107	95.19
394.331	80.19
394.556	89.19
394.78	101.19
395.005	86.19
395.229	84.19
395.454	77.19
395.678	74.19
395.903	84.19
396.127	99.19
396.352	96.19
396.576	89.19
396.801	86.19
397.025	90.19
397.249	77.19
397.474	95.19
397.698	87.19
397.922	96.19
398.147	89.19
398.371	94.19
398.595	97.19
398.82	85.19
399.044	87.19
399.268	85.19
399.492	83.19
399.717	78.19
399.941	85.19
400.165	91.19
400.389	94.19
400.613	100.19
400.837	79.19
401.062	97.19
401.286	85.19
401.51	85.19
401.734	102.19
401.958	102.19
402.182	126.19
402.406	161.19
402.63	118.19
402.854	86.19
403.078	90.19
403.302	106.19
403.526	74.19
403.75	80.19
403.974	93.19
404.198	89.19
404.422	79.19
404.645	96.19
404.869	103.19
405.093	100.19
405.317	114.19
405.541	114.19
405.765	111.19
405.988	121.19
406.212	166.19
406.436	246.19
406.66	169.19
406.883	98.19
407.107	86.19
407.331	103.19
407.555	107.19
407.778	116.19
408.002	94.19
408.226	85.19
408.449	95.19
408.673	91.19
408.896	91.19
409.12	105.19
409.344	85.19
409.567	83.19
409.791	93.19
410.014	105.19
410.238	97.19
410.461	90.19
410.685	99.19
410.908	89.19
411.132	110.19
411.355	89.19
411.578	88.19
411.802	86.19
412.025	90.19
412.249	89.19
412.472	100.19
412.695	114.19
412.919	83.19
413.142	73.19
413.365	95.19
413.589	89.19
413.812	86.19
414.035	84.19
414.258	77.19
414.482	83.19
414.705	99.19
414.928	90.19
415.151	80.19
415.374	96.19
415.597	85.19
415.821	86.19
416.044	82.19
416.267	96.19
416.49	89.19
416.713	92.19
416.936	75.19
417.159	80.19
417.382	87.19
417.605	98.19
417.828	82.19
418.051	88.19
418.274	82.19
418.497	83.19
418.72	80.19
418.943	92.19
419.166	93.19
419.389	84.19
419.611	79.19
419.834	76.19
420.057	85.19
420.28	79.19
420.503	86.19
420.726	96.19
420.948	93.19
421.171	100.19
421.394	98.19
421.617	86.19
421.839	82.19
422.062	86.19
422.285	78.19
422.507	93.19
422.73	99.19
422.953	102.19
423.175	86.19
423.398	84.19
423.621	97.19
423.843	92.19
424.066	92.19
424.288	78.19
424.511	91.19
424.733	98.19
424.956	101.19
425.178	103.19
425.401	105.19
425.623	109.19
425.846	83.19
426.068	81.19
426.291	105.19
426.513	89.19
426.735	94.19
426.958	90.19
427.18	101.19
427.402	156.19
427.625	192.19
427.847	144.19
428.069	134.19
428.292	108.19
428.514	80.19
428.736	98.19
428.958	81.19
429.181	86.19
429.403	90.19
429.625	94.19
429.847	87.19
430.069	106.19
430.292	90.19
430.514	84.19
430.736	80.19
430.958	87.19
431.18	91.19
431.402	94.19
431.624	89.19
431.846	81.19
432.068	86.19
432.29	79.19
432.512	100.19
432.734	83.19
432.956	95.19
433.178	101.19
433.4	91.19
433.622	89.19
433.844	91.19
434.066	88.19
434.287	93.19
434.509	102.19
434.731	88.19
434.953	81.19
435.175	78.19
435.397	108.19
435.618	89.19
435.84	115.19
436.062	142.19
436.284	124.19
436.505	103.19
436.727	91.19
436.949	88.19
437.17	86.19
437.392	80.19
437.614	90.19
437.835	112.19
438.057	129.19
438.278	119.19
438.5	120.19
438.721	126.19
438.943	109.19
439.165	85.19
439.386	91.19
439.608	83.19
439.829	106.19
440.05	140.19
440.272	164.19
440.493	99.19
440.715	93.19
440.936	88.19
441.158	88.19
441.379	101.19
441.6	86.19
441.822	96.19
442.043	92.19
442.264	108.19
442.486	99.19
442.707	98.19
442.928	104.19
443.149	133.19
443.371	137.19
443.592	117.19
443.813	125.19
444.034	116.19
444.255	93.19
444.476	91.19
444.698	81.19
444.919	84.19
445.14	119.19
445.361	138.19
445.582	125.19
445.803	168.19
446.024	152.19
446.245	150.19
446.466	120.19
446.687	94.19
446.908	83.19
447.129	91.19
447.35	88.19
447.571	86.19
447.792	89.19
448.013	97.19
448.234	113.19
448.455	96.19
448.675	117.19
448.896	140.19
449.117	96.19
449.338	106.19
449.559	150.19
449.779	148.19
450	86.19
450.221	91.19
450.442	98.19
450.662	93.19
450.883	104.19
451.104	116.19
451.324	92.19
451.545	82.19
451.766	79.19
451.986	68.19
452.207	88.19
452.428	88.19
452.648	109.19
452.869	104.19
453.089	97.19
453.31	136.19
453.53	98.19
453.751	98.19
453.971	102.19
454.192	97.19
454.412	82.19
454.633	77.19
454.853	92.19
455.073	74.19
455.294	86.19
455.514	107.19
455.734	95.19
455.955	86.19
456.175	77.19
456.395	75.19
456.616	77.19
456.836	85.19
457.056	85.19
457.276	79.19
457.497	77.19
457.717	92.19
457.937	82.19
458.157	83.19
458.377	90.19
458.598	105.19
458.818	154.19
459.038	182.19
459.258	133.19
459.478	92.19
459.698	83.19
459.918	75.19
460.138	90.19
460.358	92.19
460.578	89.19
460.798	93.19
461.018	87.19
461.238	84.19
461.458	89.19
461.678	81.19
461.898	84.19
462.118	76.19
462.338	98.19
462.558	81.19
462.777	83.19
462.997	98.19
463.217	91.19
463.437	72.19
463.657	76.19
463.876	85.19
464.096	90.19
464.316	92.19
464.536	98.19
464.755	98.19
464.975	103.19
465.195	180.19
465.414	160.19
465.634	110.19
465.854	94.19
466.073	92.19
466.293	77.19
466.512	82.19
466.732	79.19
466.951	89.19
467.171	92.19
467.391	93.19
467.61	98.19
467.829	109.19
468.049	147.19
468.268	185.19
468.488	97.19
468.707	89.19
468.927	85.19
469.146	78.19
469.365	91.19
469.585	78.19
469.804	94.19
470.023	107.19
470.243	89.19
470.462	97.19
470.681	128.19
470.901	93.19
471.12	84.19
471.339	80.19
471.558	92.19
471.777	94.19
471.997	127.19
472.216	245.19
472.435	465.19
472.654	166.19
472.873	88.19
473.092	77.19
473.311	72.19
473.53	87.19
473.749	84.19
473.968	91.19
474.187	97.19
474.406	95.19
474.625	89.19
474.844	83.19
475.063	74.19
475.282	85.19
475.501	80.19
475.72	100.19
475.939	85.19
476.158	82.19
476.377	69.19
476.596	90.19
476.814	84.19
477.033	91.19
477.252	84.19
477.471	85.19
477.69	92.19
477.908	96.19
478.127	87.19
478.346	85.19
478.564	86.19
478.783	109.19
479.002	95.19
479.22	95.19
479.439	108.19
479.658	93.19
479.876	91.19
480.095	83.19
480.313	93.19
480.532	97.19
480.751	120.19
480.969	223.19
481.188	750.19
481.406	503.19
481.624	140.19
481.843	90.19
482.061	84.19
482.28	83.19
482.498	92.19
482.717	73.19
482.935	86.19
483.153	77.19
483.372	89.19
483.59	89.19
483.808	75.19
484.027	82.19
484.245	93.19
484.463	84.19
484.681	83.19
484.9	71.19
485.118	93.19
485.336	94.19
485.554	85.19
485.772	97.19
485.99	92.19
486.209	99.19
486.427	111.19
486.645	108.19
486.863	97.19
487.081	98.19
487.299	102.19
487.517	94.19
487.735	89.19
487.953	93.19
488.171	93.19
488.389	83.19
488.607	99.19
488.825	106.19
489.043	90.19
489.261	93.19
489.479	77.19
489.696	86.19
489.914	87.19
490.132	84.19
490.35	87.19
490.568	72.19
490.786	85.19
491.003	89.19
491.221	80.19
491.439	94.19
491.657	87.19
491.874	76.19
492.092	97.19
492.31	86.19
492.527	86.19
492.745	92.19
492.963	87.19
493.18	87.19
493.398	85.19
493.615	97.19
493.833	89.19
494.05	78.19
494.268	87.19
494.485	97.19
494.703	90.19
494.92	91.19
495.138	81.19
495.355	78.19
495.573	82.19
495.79	87.19
496.008	84.19
496.225	75.19
496.442	82.19
496.66	98.19
496.877	92.19
497.094	91.19
497.312	101.19
497.529	84.19
497.746	81.19
497.963	75.19
498.181	95.19
498.398	90.19
498.615	112.19
498.832	104.19
499.049	86.19
499.267	76.19
499.484	92.19
499.701	91.19
499.918	87.19
500.135	88.19
500.352	92.19
500.569	94.19
500.786	92.19
501.003	78.19
501.22	93.19
501.437	89.19
501.654	85.19
501.871	101.19
502.088	82.19
502.305	77.19
502.522	83.19
502.739	99.19
502.956	97.19
503.172	103.19
503.389	94.19
503.606	85.19
503.823	95.19
504.04	81.19
504.256	110.19
504.473	80.19
504.69	99.19
504.907	86.19
505.123	82.19
505.34	98.19
505.557	91.19
505.773	81.19
505.99	79.19
506.207	88.19
506.423	75.19
506.64	87.19
506.856	89.19
507.073	74.19
507.289	94.19
507.506	108.19
507.722	113.19
507.939	110.19
508.155	96.19
508.372	85.19
508.588	83.19
508.805	86.19
509.021	91.19
509.238	91.19
509.454	93.19
509.67	104.19
509.887	112.19
510.103	134.19
510.319	221.19
510.536	714.19
510.752	2371.19
510.968	672.19
511.184	157.19
511.401	112.19
511.617	89.19
511.833	90.19
512.049	99.19
512.265	78.19
512.481	91.19
512.698	96.19
512.914	90.19
513.13	97.19
513.346	95.19
513.562	104.19
513.778	102.19
513.994	114.19
514.21	100.19
514.426	122.19
514.642	152.19
514.858	119.19
515.074	180.19
515.29	472.19
515.506	1584.19
515.721	580.19
515.937	162.19
516.153	103.19
