Data from Circ_2011_H10_HRD10591_00053.txt Node
Date: Wed Jan 03 10:08:09 EST 2024
User: Yrep
Spectrometer: HR+D1059
Trigger mode: 1
Integration Time (sec): 1.000000E-1
Scans to average: 1
Electric dark correction enabled: true
Nonlinearity correction enabled: false
Boxcar width: 0
XAxis mode: Wavelengths
Number of Pixels in Spectrum: 2048
>>>>>Begin Spectral Data<<<<<
223.165	-16.69
223.4	-16.69
223.635	-16.69
223.869	-15.69
224.104	-16.69
224.338	-11.69
224.573	-22.69
224.808	-4.69
225.042	-15.69
225.277	-16.69
225.511	3.31
225.746	-7.69
225.98	3.31
226.215	19.31
226.449	25.31
226.683	30.31
226.918	24.31
227.152	22.31
227.387	40.31
227.621	38.31
227.856	51.31
228.09	51.31
228.324	59.31
228.559	60.31
228.793	44.31
229.027	53.31
229.262	69.31
229.496	80.31
229.73	81.31
229.964	79.31
230.199	76.31
230.433	73.31
230.667	73.31
230.901	73.31
231.136	81.31
231.37	78.31
231.604	75.31
231.838	87.31
232.072	77.31
232.306	81.31
232.541	79.31
232.775	80.31
233.009	89.31
233.243	79.31
233.477	78.31
233.711	83.31
233.945	89.31
234.179	82.31
234.413	76.31
234.647	76.31
234.881	91.31
235.115	90.31
235.349	73.31
235.583	79.31
235.817	78.31
236.051	80.31
236.285	86.31
236.519	81.31
236.753	69.31
236.987	75.31
237.221	87.31
237.455	77.31
237.689	75.31
237.922	79.31
238.156	87.31
238.39	67.31
238.624	67.31
238.858	76.31
239.091	79.31
239.325	89.31
239.559	86.31
239.793	89.31
240.027	86.31
240.26	77.31
240.494	85.31
240.728	80.31
240.961	82.31
241.195	81.31
241.429	73.31
241.662	75.31
241.896	58.31
242.13	75.31
242.363	65.31
242.597	69.31
242.83	78.31
243.064	82.31
243.298	77.31
243.531	67.31
243.765	81.31
243.998	81.31
244.232	94.31
244.465	80.31
244.699	99.31
244.932	83.31
245.166	76.31
245.399	85.31
245.633	81.31
245.866	91.31
246.099	75.31
246.333	77.31
246.566	75.31
246.8	87.31
247.033	88.31
247.266	68.31
247.5	81.31
247.733	80.31
247.966	85.31
248.2	64.31
248.433	81.31
248.666	73.31
248.899	87.31
249.133	87.31
249.366	95.31
249.599	95.31
249.832	94.31
250.066	72.31
250.299	72.31
250.532	86.31
250.765	92.31
250.998	94.31
251.231	96.31
251.465	73.31
251.698	98.31
251.931	89.31
252.164	79.31
252.397	84.31
252.63	73.31
252.863	63.31
253.096	70.31
253.329	65.31
253.562	77.31
253.795	81.31
254.028	98.31
254.261	71.31
254.494	88.31
254.727	85.31
254.96	93.31
255.193	87.31
255.426	72.31
255.659	86.31
255.892	92.31
256.124	93.31
256.357	74.31
256.59	87.31
256.823	93.31
257.056	72.31
257.289	82.31
257.521	80.31
257.754	95.31
257.987	94.31
258.22	85.31
258.452	74.31
258.685	75.31
258.918	89.31
259.151	90.31
259.383	85.31
259.616	93.31
259.849	62.31
260.081	73.31
260.314	78.31
260.547	92.31
260.779	90.31
261.012	83.31
261.244	85.31
261.477	102.31
261.71	102.31
261.942	108.31
262.175	125.31
262.407	83.31
262.64	78.31
262.872	79.31
263.105	97.31
263.337	79.31
263.57	85.31
263.802	73.31
264.035	83.31
264.267	88.31
264.499	92.31
264.732	78.31
264.964	79.31
265.197	79.31
265.429	85.31
265.661	94.31
265.894	77.31
266.126	83.31
266.358	82.31
266.591	90.31
266.823	83.31
267.055	90.31
267.287	85.31
267.52	94.31
267.752	80.31
267.984	85.31
268.216	89.31
268.448	83.31
268.681	70.31
268.913	77.31
269.145	83.31
269.377	75.31
269.609	78.31
269.841	85.31
270.073	78.31
270.306	73.31
270.538	97.31
270.77	80.31
271.002	73.31
271.234	77.31
271.466	88.31
271.698	99.31
271.93	91.31
272.162	87.31
272.394	91.31
272.626	87.31
272.858	79.31
273.09	80.31
273.322	85.31
273.553	80.31
273.785	89.31
274.017	87.31
274.249	84.31
274.481	77.31
274.713	97.31
274.945	80.31
275.176	88.31
275.408	94.31
275.64	87.31
275.872	90.31
276.104	110.31
276.335	88.31
276.567	92.31
276.799	118.31
277.031	109.31
277.262	108.31
277.494	86.31
277.726	86.31
277.957	88.31
278.189	82.31
278.421	72.31
278.652	86.31
278.884	99.31
279.115	89.31
279.347	87.31
279.579	84.31
279.81	97.31
280.042	110.31
280.273	102.31
280.505	108.31
280.736	99.31
280.968	83.31
281.199	89.31
281.431	92.31
281.662	95.31
281.894	86.31
282.125	92.31
282.356	121.31
282.588	138.31
282.819	132.31
283.051	77.31
283.282	88.31
283.513	86.31
283.745	88.31
283.976	93.31
284.207	80.31
284.439	83.31
284.67	82.31
284.901	79.31
285.132	94.31
285.364	83.31
285.595	83.31
285.826	90.31
286.057	93.31
286.288	86.31
286.52	95.31
286.751	91.31
286.982	84.31
287.213	92.31
287.444	88.31
287.675	88.31
287.906	97.31
288.138	90.31
288.369	82.31
288.6	91.31
288.831	96.31
289.062	87.31
289.293	97.31
289.524	86.31
289.755	92.31
289.986	76.31
290.217	104.31
290.448	87.31
290.679	84.31
290.91	85.31
291.141	80.31
291.371	105.31
291.602	87.31
291.833	88.31
292.064	81.31
292.295	88.31
292.526	79.31
292.757	93.31
292.987	82.31
293.218	96.31
293.449	92.31
293.68	91.31
293.91	79.31
294.141	87.31
294.372	107.31
294.603	97.31
294.833	102.31
295.064	94.31
295.295	84.31
295.525	79.31
295.756	99.31
295.987	103.31
296.217	158.31
296.448	120.31
296.679	98.31
296.909	86.31
297.14	80.31
297.37	97.31
297.601	80.31
297.831	100.31
298.062	104.31
298.292	93.31
298.523	94.31
298.753	88.31
298.984	95.31
299.214	97.31
299.445	85.31
299.675	92.31
299.905	89.31
300.136	90.31
300.366	86.31
300.597	92.31
300.827	88.31
301.057	99.31
301.288	109.31
301.518	103.31
301.748	94.31
301.979	115.31
302.209	103.31
302.439	101.31
302.669	87.31
302.9	93.31
303.13	87.31
303.36	95.31
303.59	95.31
303.82	131.31
304.051	100.31
304.281	86.31
304.511	81.31
304.741	87.31
304.971	102.31
305.201	89.31
305.431	99.31
305.661	93.31
305.891	82.31
306.121	98.31
306.352	93.31
306.582	111.31
306.812	85.31
307.042	85.31
307.272	97.31
307.502	102.31
307.731	95.31
307.961	97.31
308.191	89.31
308.421	82.31
308.651	91.31
308.881	110.31
309.111	106.31
309.341	103.31
309.571	99.31
309.8	99.31
310.03	108.31
310.26	115.31
310.49	106.31
310.72	101.31
310.949	101.31
311.179	112.31
311.409	91.31
311.639	98.31
311.868	107.31
312.098	103.31
312.328	101.31
312.557	96.31
312.787	119.31
313.017	96.31
313.246	105.31
313.476	100.31
313.706	102.31
313.935	85.31
314.165	101.31
314.394	108.31
314.624	95.31
314.853	108.31
315.083	87.31
315.312	95.31
315.542	88.31
315.771	87.31
316.001	88.31
316.23	94.31
316.46	96.31
316.689	80.31
316.919	91.31
317.148	94.31
317.377	94.31
317.607	103.31
317.836	100.31
318.065	90.31
318.295	93.31
318.524	95.31
318.753	84.31
318.983	89.31
319.212	105.31
319.441	119.31
319.67	94.31
319.9	86.31
320.129	96.31
320.358	82.31
320.587	100.31
320.816	102.31
321.046	99.31
321.275	93.31
321.504	92.31
321.733	101.31
321.962	96.31
322.191	105.31
322.42	117.31
322.649	108.31
322.878	117.31
323.108	126.31
323.337	141.31
323.566	154.31
323.795	163.31
324.024	236.31
324.253	450.31
324.482	957.31
324.71	2015.31
324.939	2662.31
325.168	967.31
325.397	269.31
325.626	156.31
325.855	144.31
326.084	134.31
326.313	140.31
326.542	170.31
326.77	254.31
326.999	524.31
327.228	1111.31
327.457	2040.31
327.686	1597.31
327.914	419.31
328.143	246.31
328.372	228.31
328.6	151.31
328.829	128.31
329.058	141.31
329.287	153.31
329.515	135.31
329.744	145.31
329.972	160.31
330.201	230.31
330.43	315.31
330.658	210.31
330.887	174.31
331.115	135.31
331.344	99.31
331.572	108.31
331.801	112.31
332.03	103.31
332.258	108.31
332.486	97.31
332.715	101.31
332.943	103.31
333.172	106.31
333.4	105.31
333.629	128.31
333.857	149.31
334.085	174.31
334.314	225.31
334.542	393.31
334.771	374.31
334.999	143.31
335.227	106.31
335.455	101.31
335.684	97.31
335.912	93.31
336.14	83.31
336.369	94.31
336.597	112.31
336.825	107.31
337.053	101.31
337.281	96.31
337.51	95.31
337.738	102.31
337.966	97.31
338.194	108.31
338.422	108.31
338.65	104.31
338.878	85.31
339.106	93.31
339.334	96.31
339.562	86.31
339.79	107.31
340.018	91.31
340.246	94.31
340.474	93.31
340.702	84.31
340.93	98.31
341.158	97.31
341.386	94.31
341.614	108.31
341.842	100.31
342.07	74.31
342.298	105.31
342.526	85.31
342.754	86.31
342.981	77.31
343.209	97.31
343.437	90.31
343.665	92.31
343.893	90.31
344.12	96.31
344.348	93.31
344.576	86.31
344.804	92.31
345.031	101.31
345.259	96.31
345.487	81.31
345.714	96.31
345.942	94.31
346.17	95.31
346.397	88.31
346.625	81.31
346.853	111.31
347.08	96.31
347.308	100.31
347.535	97.31
347.763	112.31
347.99	93.31
348.218	108.31
348.445	102.31
348.673	106.31
348.9	87.31
349.128	89.31
349.355	94.31
349.583	88.31
349.81	95.31
350.037	108.31
350.265	96.31
350.492	102.31
350.72	87.31
350.947	103.31
351.174	109.31
351.402	115.31
351.629	96.31
351.856	86.31
352.083	101.31
352.311	109.31
352.538	120.31
352.765	102.31
352.992	109.31
353.22	108.31
353.447	100.31
353.674	100.31
353.901	93.31
354.128	81.31
354.355	102.31
354.583	106.31
354.81	107.31
355.037	101.31
355.264	92.31
355.491	100.31
355.718	86.31
355.945	84.31
356.172	92.31
356.399	84.31
356.626	93.31
356.853	93.31
357.08	89.31
357.307	109.31
357.534	85.31
357.761	94.31
357.988	75.31
358.215	92.31
358.441	106.31
358.668	101.31
358.895	78.31
359.122	83.31
359.349	100.31
359.576	96.31
359.802	100.31
360.029	115.31
360.256	131.31
360.483	100.31
360.709	78.31
360.936	101.31
361.163	99.31
361.39	91.31
361.616	102.31
361.843	80.31
362.07	87.31
362.296	115.31
362.523	92.31
362.749	89.31
362.976	91.31
363.203	84.31
363.429	97.31
363.656	81.31
363.882	92.31
364.109	99.31
364.335	88.31
364.562	92.31
364.788	97.31
365.015	90.31
365.241	88.31
365.468	107.31
365.694	107.31
365.92	116.31
366.147	79.31
366.373	107.31
366.599	88.31
366.826	91.31
367.052	90.31
367.278	84.31
367.505	80.31
367.731	91.31
367.957	103.31
368.184	108.31
368.41	112.31
368.636	111.31
368.862	115.31
369.089	116.31
369.315	96.31
369.541	107.31
369.767	86.31
369.993	88.31
370.219	81.31
370.445	93.31
370.672	102.31
370.898	94.31
371.124	81.31
371.35	89.31
371.576	92.31
371.802	89.31
372.028	94.31
372.254	76.31
372.48	87.31
372.706	86.31
372.932	90.31
373.158	90.31
373.384	93.31
373.61	96.31
373.835	98.31
374.061	81.31
374.287	89.31
374.513	86.31
374.739	97.31
374.965	85.31
375.191	89.31
375.416	90.31
375.642	97.31
375.868	88.31
376.094	76.31
376.319	92.31
376.545	99.31
376.771	103.31
376.997	96.31
377.222	101.31
377.448	90.31
377.674	91.31
377.899	92.31
378.125	94.31
378.35	87.31
378.576	91.31
378.802	87.31
379.027	94.31
379.253	105.31
379.478	85.31
379.704	89.31
379.929	97.31
380.155	90.31
380.38	92.31
380.606	81.31
380.831	88.31
381.057	88.31
381.282	84.31
381.507	88.31
381.733	87.31
381.958	90.31
382.184	94.31
382.409	105.31
382.634	95.31
382.86	104.31
383.085	96.31
383.31	101.31
383.535	96.31
383.761	87.31
383.986	98.31
384.211	96.31
384.436	94.31
384.662	102.31
384.887	98.31
385.112	91.31
385.337	84.31
385.562	82.31
385.787	106.31
386.013	116.31
386.238	103.31
386.463	92.31
386.688	110.31
386.913	105.31
387.138	92.31
387.363	87.31
387.588	96.31
387.813	97.31
388.038	92.31
388.263	91.31
388.488	97.31
388.713	87.31
388.938	93.31
389.163	101.31
389.387	91.31
389.612	84.31
389.837	87.31
390.062	92.31
390.287	80.31
390.512	87.31
390.736	78.31
390.961	94.31
391.186	82.31
391.411	99.31
391.636	90.31
391.86	88.31
392.085	104.31
392.31	95.31
392.534	90.31
392.759	77.31
392.984	81.31
393.208	83.31
393.433	94.31
393.658	84.31
393.882	82.31
394.107	85.31
394.331	83.31
394.556	92.31
394.78	82.31
395.005	72.31
395.229	76.31
395.454	87.31
395.678	94.31
395.903	93.31
396.127	92.31
396.352	87.31
396.576	73.31
396.801	70.31
397.025	84.31
397.249	79.31
397.474	88.31
397.698	77.31
397.922	103.31
398.147	100.31
398.371	89.31
398.595	73.31
398.82	84.31
399.044	89.31
399.268	92.31
399.492	94.31
399.717	90.31
399.941	83.31
400.165	101.31
400.389	88.31
400.613	85.31
400.837	77.31
401.062	75.31
401.286	88.31
401.51	91.31
401.734	86.31
401.958	100.31
402.182	131.31
402.406	163.31
402.63	129.31
402.854	106.31
403.078	101.31
403.302	104.31
403.526	72.31
403.75	68.31
403.974	75.31
404.198	84.31
404.422	83.31
404.645	86.31
404.869	91.31
405.093	108.31
405.317	113.31
405.541	118.31
405.765	104.31
405.988	115.31
406.212	185.31
406.436	235.31
406.66	166.31
406.883	103.31
407.107	102.31
407.331	106.31
407.555	108.31
407.778	93.31
408.002	90.31
408.226	96.31
408.449	86.31
408.673	76.31
408.896	89.31
409.12	109.31
409.344	105.31
409.567	105.31
409.791	95.31
410.014	87.31
410.238	96.31
410.461	89.31
410.685	94.31
410.908	96.31
411.132	115.31
411.355	96.31
411.578	102.31
411.802	90.31
412.025	96.31
412.249	77.31
412.472	92.31
412.695	99.31
412.919	94.31
413.142	97.31
413.365	97.31
413.589	105.31
413.812	76.31
414.035	88.31
414.258	83.31
414.482	88.31
414.705	91.31
414.928	105.31
415.151	115.31
415.374	100.31
415.597	89.31
415.821	97.31
416.044	100.31
416.267	102.31
416.49	98.31
416.713	94.31
416.936	76.31
417.159	93.31
417.382	89.31
417.605	93.31
417.828	89.31
418.051	94.31
418.274	88.31
418.497	84.31
418.72	90.31
418.943	92.31
419.166	81.31
419.389	74.31
419.611	75.31
419.834	83.31
420.057	92.31
420.28	83.31
420.503	87.31
420.726	91.31
420.948	85.31
421.171	94.31
421.394	81.31
421.617	84.31
421.839	97.31
422.062	95.31
422.285	79.31
422.507	95.31
422.73	106.31
422.953	82.31
423.175	86.31
423.398	88.31
423.621	94.31
423.843	87.31
424.066	95.31
424.288	87.31
424.511	89.31
424.733	115.31
424.956	103.31
425.178	96.31
425.401	97.31
425.623	101.31
425.846	94.31
426.068	99.31
426.291	88.31
426.513	92.31
426.735	106.31
426.958	89.31
427.18	115.31
427.402	152.31
427.625	191.31
427.847	161.31
428.069	144.31
428.292	118.31
428.514	93.31
428.736	96.31
428.958	79.31
429.181	90.31
429.403	81.31
429.625	86.31
429.847	93.31
430.069	104.31
430.292	106.31
430.514	80.31
430.736	100.31
430.958	86.31
431.18	89.31
431.402	80.31
431.624	75.31
431.846	79.31
432.068	85.31
432.29	98.31
432.512	84.31
432.734	84.31
432.956	86.31
433.178	98.31
433.4	94.31
433.622	91.31
433.844	87.31
434.066	102.31
434.287	93.31
434.509	96.31
434.731	82.31
434.953	90.31
435.175	76.31
435.397	100.31
435.618	99.31
435.84	107.31
436.062	135.31
436.284	131.31
436.505	92.31
436.727	104.31
436.949	89.31
437.17	99.31
437.392	86.31
437.614	91.31
437.835	111.31
438.057	133.31
438.278	139.31
438.5	99.31
438.721	118.31
438.943	101.31
439.165	74.31
439.386	82.31
439.608	93.31
439.829	93.31
440.05	147.31
440.272	165.31
440.493	111.31
440.715	87.31
440.936	74.31
441.158	95.31
441.379	94.31
441.6	81.31
441.822	103.31
442.043	87.31
442.264	105.31
442.486	96.31
442.707	96.31
442.928	96.31
443.149	141.31
443.371	164.31
443.592	113.31
443.813	119.31
444.034	113.31
444.255	115.31
444.476	83.31
444.698	91.31
444.919	86.31
445.14	133.31
445.361	142.31
445.582	136.31
445.803	164.31
446.024	165.31
446.245	151.31
446.466	134.31
446.687	104.31
446.908	93.31
447.129	98.31
447.35	96.31
447.571	93.31
447.792	109.31
448.013	115.31
448.234	96.31
448.455	99.31
448.675	112.31
448.896	131.31
449.117	96.31
449.338	108.31
449.559	148.31
449.779	144.31
450	97.31
450.221	78.31
450.442	95.31
450.662	97.31
450.883	96.31
451.104	99.31
451.324	90.31
451.545	94.31
451.766	96.31
451.986	97.31
452.207	87.31
452.428	92.31
452.648	99.31
452.869	120.31
453.089	109.31
453.31	112.31
453.53	91.31
453.751	87.31
453.971	110.31
454.192	132.31
454.412	97.31
454.633	84.31
454.853	96.31
455.073	90.31
455.294	79.31
455.514	107.31
455.734	91.31
455.955	94.31
456.175	81.31
456.395	81.31
456.616	81.31
456.836	94.31
457.056	87.31
457.276	81.31
457.497	88.31
457.717	81.31
457.937	101.31
458.157	91.31
458.377	86.31
458.598	129.31
458.818	153.31
459.038	187.31
459.258	119.31
459.478	87.31
459.698	91.31
459.918	84.31
460.138	91.31
460.358	87.31
460.578	101.31
460.798	110.31
461.018	96.31
461.238	79.31
461.458	76.31
461.678	89.31
461.898	80.31
462.118	86.31
462.338	89.31
462.558	89.31
462.777	71.31
462.997	87.31
463.217	89.31
463.437	101.31
463.657	79.31
463.876	88.31
464.096	87.31
464.316	76.31
464.536	91.31
464.755	96.31
464.975	120.31
465.195	181.31
465.414	186.31
465.634	93.31
465.854	87.31
466.073	87.31
466.293	79.31
466.512	89.31
466.732	86.31
466.951	84.31
467.171	92.31
467.391	87.31
467.61	98.31
467.829	112.31
468.049	163.31
468.268	179.31
468.488	116.31
468.707	81.31
468.927	73.31
469.146	93.31
469.365	80.31
469.585	102.31
469.804	100.31
470.023	111.31
470.243	89.31
470.462	89.31
470.681	117.31
470.901	92.31
471.12	90.31
471.339	105.31
471.558	87.31
471.777	100.31
471.997	110.31
472.216	251.31
472.435	432.31
472.654	173.31
472.873	111.31
473.092	80.31
473.311	81.31
473.53	90.31
473.749	98.31
473.968	96.31
474.187	120.31
474.406	109.31
474.625	89.31
474.844	75.31
475.063	89.31
475.282	78.31
475.501	83.31
475.72	98.31
475.939	84.31
476.158	93.31
476.377	89.31
476.596	78.31
476.814	108.31
477.033	102.31
477.252	93.31
477.471	93.31
477.69	95.31
477.908	99.31
478.127	90.31
478.346	85.31
478.564	94.31
478.783	92.31
479.002	90.31
479.22	93.31
479.439	106.31
479.658	105.31
479.876	109.31
480.095	102.31
480.313	103.31
480.532	100.31
480.751	101.31
480.969	247.31
481.188	729.31
481.406	503.31
481.624	147.31
481.843	102.31
482.061	83.31
482.28	85.31
482.498	85.31
482.717	86.31
482.935	100.31
483.153	78.31
483.372	85.31
483.59	94.31
483.808	91.31
484.027	87.31
484.245	95.31
484.463	84.31
484.681	101.31
484.9	81.31
485.118	100.31
485.336	98.31
485.554	89.31
485.772	99.31
485.99	90.31
486.209	99.31
486.427	117.31
486.645	126.31
486.863	128.31
487.081	100.31
487.299	88.31
487.517	90.31
487.735	95.31
487.953	89.31
488.171	89.31
488.389	100.31
488.607	94.31
488.825	93.31
489.043	88.31
489.261	89.31
489.479	85.31
489.696	81.31
489.914	94.31
490.132	88.31
490.35	94.31
490.568	85.31
490.786	101.31
491.003	91.31
491.221	93.31
491.439	78.31
491.657	85.31
491.874	104.31
492.092	99.31
492.31	100.31
492.527	92.31
492.745	95.31
492.963	88.31
493.18	99.31
493.398	95.31
493.615	98.31
493.833	104.31
494.05	79.31
494.268	79.31
494.485	93.31
494.703	97.31
494.92	95.31
495.138	87.31
495.355	80.31
495.573	79.31
495.79	80.31
496.008	114.31
496.225	88.31
496.442	101.31
496.66	92.31
496.877	98.31
497.094	88.31
497.312	88.31
497.529	102.31
497.746	84.31
497.963	86.31
498.181	90.31
498.398	84.31
498.615	116.31
498.832	102.31
499.049	88.31
499.267	100.31
499.484	88.31
499.701	79.31
499.918	86.31
500.135	81.31
500.352	75.31
500.569	84.31
500.786	99.31
501.003	94.31
501.22	93.31
501.437	95.31
501.654	91.31
501.871	109.31
502.088	80.31
502.305	94.31
502.522	78.31
502.739	91.31
502.956	81.31
503.172	98.31
503.389	92.31
503.606	116.31
503.823	106.31
504.04	98.31
504.256	92.31
504.473	90.31
504.69	72.31
504.907	95.31
505.123	91.31
505.34	88.31
505.557	112.31
505.773	107.31
505.99	89.31
506.207	86.31
506.423	87.31
506.64	86.31
506.856	105.31
507.073	83.31
507.289	89.31
507.506	95.31
507.722	105.31
507.939	115.31
508.155	89.31
508.372	84.31
508.588	105.31
508.805	99.31
509.021	104.31
509.238	93.31
509.454	96.31
509.67	105.31
509.887	101.31
510.103	116.31
510.319	198.31
510.536	736.31
510.752	2360.31
510.968	681.31
511.184	153.31
511.401	101.31
511.617	98.31
511.833	102.31
512.049	96.31
512.265	74.31
512.481	84.31
512.698	85.31
512.914	95.31
513.13	99.31
513.346	84.31
513.562	84.31
513.778	85.31
513.994	94.31
514.21	100.31
514.426	126.31
514.642	139.31
514.858	132.31
