Data from Circ_2011_H10_HRD10591_00098.txt Node
Date: Wed Jan 03 10:08:18 EST 2024
User: Yrep
Spectrometer: HR+D1059
Trigger mode: 1
Integration Time (sec): 1.000000E-1
Scans to average: 1
Electric dark correction enabled: true
Nonlinearity correction enabled: false
Boxcar width: 0
XAxis mode: Wavelengths
Number of Pixels in Spectrum: 2048
>>>>>Begin Spectral Data<<<<<
223.165	-21.62
223.4	-21.62
223.635	-21.62
223.869	-15.62
224.104	0.38
224.338	-15.62
224.573	-8.62
224.808	-22.62
225.042	-12.62
225.277	-6.62
225.511	10.38
225.746	2.38
225.98	12.38
226.215	2.38
226.449	4.38
226.683	15.38
226.918	23.38
227.152	32.38
227.387	35.38
227.621	29.38
227.856	40.38
228.09	60.38
228.324	54.38
228.559	52.38
228.793	62.38
229.027	76.38
229.262	68.38
229.496	59.38
229.73	95.38
229.964	84.38
230.199	74.38
230.433	77.38
230.667	78.38
230.901	72.38
231.136	76.38
231.37	61.38
231.604	82.38
231.838	70.38
232.072	89.38
232.306	87.38
232.541	85.38
232.775	99.38
233.009	88.38
233.243	83.38
233.477	86.38
233.711	83.38
233.945	86.38
234.179	78.38
234.413	86.38
234.647	92.38
234.881	76.38
235.115	77.38
235.349	75.38
235.583	81.38
235.817	70.38
236.051	87.38
236.285	70.38
236.519	71.38
236.753	75.38
236.987	66.38
237.221	89.38
237.455	105.38
237.689	79.38
237.922	82.38
238.156	68.38
238.39	73.38
238.624	74.38
238.858	82.38
239.091	70.38
239.325	87.38
239.559	72.38
239.793	76.38
240.027	82.38
240.26	73.38
240.494	67.38
240.728	68.38
240.961	69.38
241.195	74.38
241.429	65.38
241.662	62.38
241.896	82.38
242.13	86.38
242.363	82.38
242.597	65.38
242.83	71.38
243.064	78.38
243.298	74.38
243.531	77.38
243.765	75.38
243.998	80.38
244.232	84.38
244.465	77.38
244.699	82.38
244.932	67.38
245.166	54.38
245.399	79.38
245.633	76.38
245.866	75.38
246.099	82.38
246.333	74.38
246.566	82.38
246.8	76.38
247.033	82.38
247.266	78.38
247.5	71.38
247.733	93.38
247.966	90.38
248.2	81.38
248.433	68.38
248.666	82.38
248.899	86.38
249.133	74.38
249.366	106.38
249.599	88.38
249.832	75.38
250.066	83.38
250.299	92.38
250.532	77.38
250.765	83.38
250.998	83.38
251.231	81.38
251.465	71.38
251.698	78.38
251.931	77.38
252.164	80.38
252.397	81.38
252.63	93.38
252.863	87.38
253.096	85.38
253.329	65.38
253.562	72.38
253.795	73.38
254.028	77.38
254.261	81.38
254.494	72.38
254.727	80.38
254.96	76.38
255.193	75.38
255.426	79.38
255.659	63.38
255.892	73.38
256.124	83.38
256.357	84.38
256.59	81.38
256.823	71.38
257.056	86.38
257.289	91.38
257.521	83.38
257.754	89.38
257.987	91.38
258.22	68.38
258.452	85.38
258.685	87.38
258.918	82.38
259.151	85.38
259.383	83.38
259.616	92.38
259.849	91.38
260.081	90.38
260.314	77.38
260.547	77.38
260.779	77.38
261.012	85.38
261.244	85.38
261.477	89.38
261.71	98.38
261.942	101.38
262.175	114.38
262.407	95.38
262.64	89.38
262.872	70.38
263.105	80.38
263.337	82.38
263.57	82.38
263.802	74.38
264.035	75.38
264.267	90.38
264.499	79.38
264.732	71.38
264.964	83.38
265.197	78.38
265.429	86.38
265.661	82.38
265.894	90.38
266.126	89.38
266.358	68.38
266.591	84.38
266.823	85.38
267.055	74.38
267.287	69.38
267.52	83.38
267.752	73.38
267.984	70.38
268.216	83.38
268.448	80.38
268.681	93.38
268.913	72.38
269.145	75.38
269.377	75.38
269.609	75.38
269.841	92.38
270.073	90.38
270.306	96.38
270.538	94.38
270.77	79.38
271.002	82.38
271.234	79.38
271.466	79.38
271.698	89.38
271.93	87.38
272.162	85.38
272.394	84.38
272.626	91.38
272.858	84.38
273.09	87.38
273.322	78.38
273.553	84.38
273.785	79.38
274.017	93.38
274.249	94.38
274.481	85.38
274.713	82.38
274.945	97.38
275.176	82.38
275.408	92.38
275.64	92.38
275.872	87.38
276.104	73.38
276.335	97.38
276.567	101.38
276.799	114.38
277.031	108.38
277.262	106.38
277.494	105.38
277.726	85.38
277.957	84.38
278.189	74.38
278.421	93.38
278.652	77.38
278.884	111.38
279.115	89.38
279.347	85.38
279.579	87.38
279.81	84.38
280.042	103.38
280.273	115.38
280.505	119.38
280.736	80.38
280.968	90.38
281.199	89.38
281.431	83.38
281.662	76.38
281.894	101.38
282.125	110.38
282.356	121.38
282.588	146.38
282.819	108.38
283.051	81.38
283.282	88.38
283.513	89.38
283.745	82.38
283.976	77.38
284.207	85.38
284.439	93.38
284.67	86.38
284.901	76.38
285.132	97.38
285.364	93.38
285.595	77.38
285.826	83.38
286.057	92.38
286.288	95.38
286.52	72.38
286.751	74.38
286.982	92.38
287.213	84.38
287.444	76.38
287.675	96.38
287.906	99.38
288.138	65.38
288.369	82.38
288.6	90.38
288.831	87.38
289.062	79.38
289.293	94.38
289.524	89.38
289.755	84.38
289.986	79.38
290.217	78.38
290.448	84.38
290.679	86.38
290.91	84.38
291.141	80.38
291.371	82.38
291.602	77.38
291.833	77.38
292.064	95.38
292.295	81.38
292.526	88.38
292.757	72.38
292.987	93.38
293.218	88.38
293.449	83.38
293.68	94.38
293.91	89.38
294.141	93.38
294.372	92.38
294.603	78.38
294.833	93.38
295.064	94.38
295.295	96.38
295.525	99.38
295.756	108.38
295.987	98.38
296.217	142.38
296.448	119.38
296.679	84.38
296.909	88.38
297.14	80.38
297.37	96.38
297.601	94.38
297.831	85.38
298.062	91.38
298.292	84.38
298.523	78.38
298.753	85.38
298.984	85.38
299.214	76.38
299.445	95.38
299.675	88.38
299.905	95.38
300.136	93.38
300.366	81.38
300.597	86.38
300.827	86.38
301.057	102.38
301.288	90.38
301.518	93.38
301.748	81.38
301.979	98.38
302.209	91.38
302.439	100.38
302.669	87.38
302.9	82.38
303.13	98.38
303.36	109.38
303.59	98.38
303.82	115.38
304.051	92.38
304.281	93.38
304.511	91.38
304.741	88.38
304.971	71.38
305.201	85.38
305.431	88.38
305.661	90.38
305.891	95.38
306.121	94.38
306.352	97.38
306.582	98.38
306.812	89.38
307.042	100.38
307.272	101.38
307.502	107.38
307.731	101.38
307.961	98.38
308.191	94.38
308.421	104.38
308.651	100.38
308.881	90.38
309.111	100.38
309.341	104.38
309.571	97.38
309.8	99.38
310.03	103.38
310.26	89.38
310.49	89.38
310.72	103.38
310.949	92.38
311.179	95.38
311.409	98.38
311.639	93.38
311.868	95.38
312.098	92.38
312.328	106.38
312.557	114.38
312.787	102.38
313.017	107.38
313.246	97.38
313.476	89.38
313.706	91.38
313.935	94.38
314.165	101.38
314.394	109.38
314.624	98.38
314.853	101.38
315.083	98.38
315.312	110.38
315.542	79.38
315.771	102.38
316.001	94.38
316.23	77.38
316.46	87.38
316.689	88.38
316.919	83.38
317.148	92.38
317.377	90.38
317.607	70.38
317.836	87.38
318.065	97.38
318.295	83.38
318.524	85.38
318.753	78.38
318.983	97.38
319.212	100.38
319.441	108.38
319.67	113.38
319.9	97.38
320.129	75.38
320.358	106.38
320.587	92.38
320.816	98.38
321.046	102.38
321.275	84.38
321.504	103.38
321.733	91.38
321.962	89.38
322.191	105.38
322.42	114.38
322.649	111.38
322.878	114.38
323.108	116.38
323.337	125.38
323.566	145.38
323.795	175.38
324.024	218.38
324.253	452.38
324.482	995.38
324.71	2031.38
324.939	2695.38
325.168	986.38
325.397	279.38
325.626	154.38
325.855	126.38
326.084	127.38
326.313	143.38
326.542	150.38
326.77	259.38
326.999	539.38
327.228	1089.38
327.457	2013.38
327.686	1621.38
327.914	439.38
328.143	268.38
328.372	256.38
328.6	187.38
328.829	139.38
329.058	137.38
329.287	148.38
329.515	123.38
329.744	133.38
329.972	185.38
330.201	286.38
330.43	395.38
330.658	235.38
330.887	185.38
331.115	152.38
331.344	94.38
331.572	95.38
331.801	106.38
332.03	107.38
332.258	103.38
332.486	97.38
332.715	98.38
332.943	100.38
333.172	100.38
333.4	109.38
333.629	125.38
333.857	135.38
334.085	182.38
334.314	280.38
334.542	479.38
334.771	457.38
334.999	186.38
335.227	111.38
335.455	92.38
335.684	100.38
335.912	97.38
336.14	94.38
336.369	93.38
336.597	90.38
336.825	103.38
337.053	90.38
337.281	98.38
337.51	98.38
337.738	102.38
337.966	90.38
338.194	89.38
338.422	86.38
338.65	109.38
338.878	90.38
339.106	81.38
339.334	99.38
339.562	96.38
339.79	100.38
340.018	88.38
340.246	95.38
340.474	82.38
340.702	100.38
340.93	81.38
341.158	99.38
341.386	90.38
341.614	95.38
341.842	97.38
342.07	91.38
342.298	80.38
342.526	84.38
342.754	75.38
342.981	98.38
343.209	81.38
343.437	93.38
343.665	72.38
343.893	83.38
344.12	87.38
344.348	74.38
344.576	83.38
344.804	103.38
345.031	100.38
345.259	98.38
345.487	81.38
345.714	89.38
345.942	103.38
346.17	88.38
346.397	91.38
346.625	94.38
346.853	100.38
347.08	90.38
347.308	94.38
347.535	96.38
347.763	94.38
347.99	102.38
348.218	102.38
348.445	114.38
348.673	104.38
348.9	92.38
349.128	97.38
349.355	92.38
349.583	95.38
349.81	100.38
350.037	84.38
350.265	85.38
350.492	81.38
350.72	109.38
350.947	116.38
351.174	104.38
351.402	112.38
351.629	108.38
351.856	97.38
352.083	116.38
352.311	106.38
352.538	101.38
352.765	103.38
352.992	107.38
353.22	105.38
353.447	89.38
353.674	91.38
353.901	116.38
354.128	108.38
354.355	105.38
354.583	95.38
354.81	96.38
355.037	94.38
355.264	100.38
355.491	99.38
355.718	75.38
355.945	89.38
356.172	94.38
356.399	98.38
356.626	78.38
356.853	103.38
357.08	94.38
357.307	91.38
357.534	86.38
357.761	100.38
357.988	92.38
358.215	102.38
358.441	92.38
358.668	85.38
358.895	91.38
359.122	86.38
359.349	85.38
359.576	89.38
359.802	91.38
360.029	113.38
360.256	112.38
360.483	100.38
360.709	81.38
360.936	106.38
361.163	99.38
361.39	105.38
361.616	90.38
361.843	95.38
362.07	91.38
362.296	85.38
362.523	81.38
362.749	84.38
362.976	92.38
363.203	89.38
363.429	91.38
363.656	109.38
363.882	88.38
364.109	84.38
364.335	106.38
364.562	93.38
364.788	90.38
365.015	97.38
365.241	92.38
365.468	101.38
365.694	105.38
365.92	101.38
366.147	91.38
366.373	87.38
366.599	79.38
366.826	92.38
367.052	90.38
367.278	88.38
367.505	100.38
367.731	76.38
367.957	82.38
368.184	91.38
368.41	93.38
368.636	109.38
368.862	119.38
369.089	106.38
369.315	97.38
369.541	105.38
369.767	83.38
369.993	104.38
370.219	89.38
370.445	94.38
370.672	98.38
370.898	113.38
371.124	100.38
371.35	77.38
371.576	82.38
371.802	94.38
372.028	86.38
372.254	87.38
372.48	82.38
372.706	89.38
372.932	77.38
373.158	93.38
373.384	79.38
373.61	87.38
373.835	101.38
374.061	87.38
374.287	97.38
374.513	88.38
374.739	95.38
374.965	75.38
375.191	71.38
375.416	84.38
375.642	87.38
375.868	98.38
376.094	86.38
376.319	95.38
376.545	76.38
376.771	80.38
376.997	85.38
377.222	79.38
377.448	95.38
377.674	83.38
377.899	87.38
378.125	98.38
378.35	100.38
378.576	79.38
378.802	87.38
379.027	85.38
379.253	80.38
379.478	85.38
379.704	95.38
379.929	95.38
380.155	101.38
380.38	89.38
380.606	87.38
380.831	84.38
381.057	78.38
381.282	89.38
381.507	89.38
381.733	86.38
381.958	89.38
382.184	68.38
382.409	92.38
382.634	100.38
382.86	97.38
383.085	90.38
383.31	93.38
383.535	101.38
383.761	97.38
383.986	91.38
384.211	98.38
384.436	91.38
384.662	98.38
384.887	86.38
385.112	95.38
385.337	91.38
385.562	89.38
385.787	91.38
386.013	99.38
386.238	116.38
386.463	100.38
386.688	112.38
386.913	94.38
387.138	105.38
387.363	95.38
387.588	102.38
387.813	103.38
388.038	97.38
388.263	104.38
388.488	98.38
388.713	72.38
388.938	86.38
389.163	87.38
389.387	97.38
389.612	86.38
389.837	85.38
390.062	88.38
390.287	94.38
390.512	86.38
390.736	81.38
390.961	81.38
391.186	91.38
391.411	95.38
391.636	88.38
391.86	72.38
392.085	85.38
392.31	94.38
392.534	84.38
392.759	81.38
392.984	85.38
393.208	86.38
393.433	82.38
393.658	88.38
393.882	84.38
394.107	91.38
394.331	88.38
394.556	79.38
394.78	101.38
395.005	74.38
395.229	73.38
395.454	86.38
395.678	102.38
395.903	76.38
396.127	84.38
396.352	107.38
396.576	86.38
396.801	79.38
397.025	77.38
397.249	85.38
397.474	78.38
397.698	89.38
397.922	79.38
398.147	85.38
398.371	85.38
398.595	79.38
398.82	79.38
399.044	77.38
399.268	85.38
399.492	80.38
399.717	72.38
399.941	81.38
400.165	106.38
400.389	82.38
400.613	81.38
400.837	85.38
401.062	104.38
401.286	81.38
401.51	87.38
401.734	94.38
401.958	88.38
402.182	135.38
402.406	169.38
402.63	138.38
402.854	88.38
403.078	99.38
403.302	81.38
403.526	89.38
403.75	97.38
403.974	93.38
404.198	92.38
404.422	91.38
404.645	79.38
404.869	91.38
405.093	118.38
405.317	115.38
405.541	117.38
405.765	103.38
405.988	112.38
406.212	168.38
406.436	236.38
406.66	159.38
406.883	103.38
407.107	93.38
407.331	113.38
407.555	111.38
407.778	101.38
408.002	83.38
408.226	87.38
408.449	84.38
408.673	87.38
408.896	85.38
409.12	102.38
409.344	92.38
409.567	79.38
409.791	91.38
410.014	106.38
410.238	103.38
410.461	92.38
410.685	91.38
410.908	84.38
411.132	116.38
411.355	103.38
411.578	72.38
411.802	84.38
412.025	90.38
412.249	95.38
412.472	116.38
412.695	126.38
412.919	106.38
413.142	97.38
413.365	91.38
413.589	95.38
413.812	96.38
414.035	86.38
414.258	87.38
414.482	95.38
414.705	77.38
414.928	90.38
415.151	90.38
415.374	81.38
415.597	86.38
415.821	78.38
416.044	104.38
416.267	87.38
416.49	85.38
416.713	97.38
416.936	100.38
417.159	88.38
417.382	77.38
417.605	100.38
417.828	84.38
418.051	90.38
418.274	91.38
418.497	88.38
418.72	79.38
418.943	80.38
419.166	82.38
419.389	92.38
419.611	90.38
419.834	89.38
420.057	82.38
420.28	93.38
420.503	82.38
420.726	82.38
420.948	95.38
421.171	102.38
421.394	93.38
421.617	97.38
421.839	92.38
422.062	78.38
422.285	105.38
422.507	92.38
422.73	107.38
422.953	93.38
423.175	82.38
423.398	74.38
423.621	85.38
423.843	92.38
424.066	97.38
424.288	98.38
424.511	90.38
424.733	92.38
424.956	129.38
425.178	108.38
425.401	93.38
425.623	107.38
425.846	90.38
426.068	100.38
426.291	78.38
426.513	95.38
426.735	87.38
426.958	86.38
427.18	98.38
427.402	168.38
427.625	200.38
427.847	166.38
428.069	150.38
428.292	109.38
428.514	89.38
428.736	86.38
428.958	85.38
429.181	91.38
429.403	94.38
429.625	95.38
429.847	88.38
430.069	89.38
430.292	99.38
430.514	73.38
430.736	96.38
430.958	84.38
431.18	70.38
431.402	79.38
431.624	80.38
431.846	98.38
432.068	86.38
432.29	83.38
432.512	80.38
432.734	77.38
432.956	82.38
433.178	93.38
433.4	106.38
433.622	96.38
433.844	85.38
434.066	102.38
434.287	77.38
434.509	90.38
434.731	92.38
434.953	87.38
435.175	95.38
435.397	86.38
435.618	85.38
435.84	105.38
436.062	144.38
436.284	129.38
436.505	115.38
436.727	113.38
436.949	92.38
437.17	85.38
437.392	87.38
437.614	93.38
437.835	109.38
438.057	134.38
438.278	130.38
438.5	97.38
438.721	129.38
438.943	109.38
439.165	82.38
439.386	92.38
439.608	87.38
439.829	98.38
440.05	151.38
440.272	155.38
440.493	108.38
440.715	85.38
440.936	99.38
441.158	87.38
441.379	99.38
441.6	98.38
441.822	104.38
442.043	91.38
442.264	110.38
442.486	106.38
442.707	93.38
442.928	104.38
443.149	136.38
443.371	148.38
443.592	130.38
443.813	121.38
444.034	119.38
444.255	104.38
444.476	84.38
444.698	87.38
444.919	89.38
445.14	113.38
445.361	123.38
445.582	126.38
445.803	161.38
446.024	157.38
446.245	161.38
446.466	135.38
446.687	94.38
446.908	88.38
447.129	86.38
447.35	89.38
447.571	75.38
447.792	93.38
448.013	105.38
448.234	81.38
448.455	109.38
448.675	131.38
448.896	125.38
449.117	94.38
449.338	108.38
449.559	147.38
449.779	154.38
450	94.38
450.221	90.38
450.442	77.38
450.662	89.38
450.883	106.38
451.104	114.38
451.324	90.38
451.545	91.38
451.766	92.38
451.986	79.38
452.207	98.38
452.428	94.38
452.648	109.38
452.869	120.38
453.089	130.38
453.31	110.38
453.53	85.38
453.751	100.38
453.971	92.38
454.192	133.38
454.412	97.38
454.633	91.38
454.853	86.38
455.073	91.38
455.294	103.38
455.514	107.38
455.734	88.38
455.955	91.38
456.175	76.38
456.395	67.38
456.616	68.38
456.836	76.38
457.056	85.38
457.276	79.38
457.497	80.38
457.717	97.38
457.937	85.38
458.157	88.38
458.377	98.38
458.598	99.38
458.818	157.38
459.038	200.38
459.258	141.38
459.478	95.38
459.698	99.38
459.918	97.38
460.138	96.38
460.358	70.38
460.578	103.38
460.798	100.38
461.018	87.38
461.238	74.38
461.458	74.38
461.678	81.38
461.898	85.38
462.118	86.38
462.338	79.38
462.558	83.38
462.777	87.38
462.997	91.38
463.217	106.38
463.437	87.38
463.657	87.38
463.876	87.38
464.096	86.38
464.316	90.38
464.536	100.38
464.755	90.38
464.975	99.38
465.195	167.38
465.414	177.38
465.634	106.38
465.854	90.38
466.073	95.38
466.293	92.38
466.512	103.38
466.732	90.38
466.951	90.38
467.171	85.38
467.391	90.38
467.61	101.38
467.829	118.38
468.049	187.38
468.268	233.38
468.488	106.38
468.707	81.38
468.927	75.38
469.146	96.38
469.365	101.38
469.585	85.38
469.804	107.38
470.023	92.38
470.243	93.38
470.462	98.38
470.681	106.38
470.901	83.38
471.12	86.38
471.339	93.38
471.558	96.38
471.777	97.38
471.997	143.38
472.216	323.38
472.435	597.38
472.654	197.38
472.873	105.38
473.092	94.38
473.311	76.38
473.53	90.38
473.749	88.38
473.968	109.38
474.187	114.38
474.406	115.38
474.625	88.38
474.844	90.38
475.063	76.38
475.282	85.38
475.501	87.38
475.72	91.38
475.939	100.38
476.158	85.38
476.377	82.38
476.596	88.38
476.814	89.38
477.033	78.38
477.252	99.38
477.471	87.38
477.69	86.38
477.908	83.38
478.127	88.38
478.346	75.38
478.564	82.38
478.783	87.38
479.002	101.38
479.22	87.38
479.439	111.38
479.658	106.38
479.876	103.38
480.095	92.38
480.313	102.38
480.532	91.38
480.751	140.38
480.969	316.38
481.188	1027.38
481.406	655.38
481.624	148.38
481.843	95.38
482.061	84.38
482.28	96.38
482.498	74.38
482.717	97.38
482.935	93.38
483.153	84.38
483.372	87.38
483.59	74.38
483.808	91.38
484.027	92.38
484.245	95.38
484.463	92.38
484.681	99.38
484.9	81.38
485.118	93.38
485.336	90.38
485.554	92.38
485.772	88.38
485.99	110.38
486.209	97.38
486.427	106.38
486.645	104.38
486.863	114.38
487.081	94.38
487.299	89.38
487.517	103.38
487.735	96.38
487.953	83.38
488.171	99.38
488.389	92.38
488.607	93.38
488.825	90.38
489.043	79.38
489.261	83.38
489.479	76.38
489.696	75.38
489.914	84.38
490.132	82.38
490.35	105.38
490.568	78.38
490.786	96.38
491.003	81.38
491.221	88.38
491.439	90.38
491.657	85.38
491.874	93.38
492.092	81.38
492.31	97.38
492.527	100.38
492.745	90.38
492.963	95.38
493.18	86.38
493.398	90.38
493.615	88.38
493.833	90.38
494.05	93.38
494.268	80.38
494.485	90.38
494.703	95.38
494.92	63.38
495.138	90.38
495.355	92.38
495.573	83.38
495.79	93.38
496.008	91.38
496.225	76.38
496.442	95.38
496.66	84.38
496.877	89.38
497.094	80.38
497.312	84.38
497.529	95.38
497.746	89.38
497.963	87.38
498.181	93.38
498.398	108.38
498.615	123.38
498.832	97.38
499.049	97.38
499.267	90.38
499.484	93.38
499.701	97.38
499.918	73.38
500.135	89.38
500.352	81.38
500.569	72.38
500.786	90.38
501.003	78.38
501.22	87.38
501.437	99.38
501.654	99.38
501.871	90.38
502.088	80.38
502.305	83.38
502.522	82.38
502.739	88.38
502.956	104.38
503.172	87.38
503.389	108.38
503.606	111.38
503.823	107.38
504.04	99.38
504.256	84.38
504.473	87.38
504.69	91.38
504.907	95.38
505.123	88.38
505.34	88.38
505.557	95.38
505.773	72.38
505.99	99.38
506.207	81.38
506.423	90.38
506.64	93.38
506.856	93.38
507.073	92.38
507.289	83.38
507.506	88.38
507.722	111.38
507.939	110.38
508.155	89.38
508.372	80.38
508.588	93.38
508.805	93.38
509.021	111.38
509.238	106.38
509.454	97.38
509.67	93.38
509.887	96.38
510.103	120.38
510.319	220.38
510.536	787.38
510.752	2422.38
510.968	693.38
511.184	156.38
511.401	114.38
511.617	96.38
511.833	85.38
512.049	91.38
512.265	89.38
512.481	93.38
512.698	99.38
512.914	100.38
513.13	105.38
513.346	87.38
513.562	97.38
513.778	87.38
513.994	85.38
514.21	98.38
514.426	116.38
514.642	139.38
514.858	143.38
515.074	165.38
515.29	495.38
515.506	1649.38
