Data from Circ_2011_H10_HRD10591_00008.txt Node
Date: Wed Jan 03 10:08:00 EST 2024
User: Yrep
Spectrometer: HR+D1059
Trigger mode: 1
Integration Time (sec): 1.000000E-1
Scans to average: 1
Electric dark correction enabled: true
Nonlinearity correction enabled: false
Boxcar width: 0
XAxis mode: Wavelengths
Number of Pixels in Spectrum: 2048
>>>>>Begin Spectral Data<<<<<
223.165	-14.75
223.4	-14.75
223.635	-14.75
223.869	-7.75
224.104	-25.75
224.338	-5.75
224.573	-2.75
224.808	-17.75
225.042	-7.75
225.277	-3.75
225.511	-7.75
225.746	-10.75
225.98	2.25
226.215	9.25
226.449	20.25
226.683	20.25
226.918	16.25
227.152	36.25
227.387	32.25
227.621	47.25
227.856	57.25
228.09	43.25
228.324	47.25
228.559	48.25
228.793	62.25
229.027	73.25
229.262	62.25
229.496	77.25
229.73	94.25
229.964	80.25
230.199	86.25
230.433	84.25
230.667	80.25
230.901	95.25
231.136	73.25
231.37	73.25
231.604	81.25
231.838	70.25
232.072	81.25
232.306	82.25
232.541	82.25
232.775	82.25
233.009	80.25
233.243	74.25
233.477	78.25
233.711	92.25
233.945	76.25
234.179	81.25
234.413	74.25
234.647	71.25
234.881	86.25
235.115	92.25
235.349	75.25
235.583	64.25
235.817	88.25
236.051	76.25
236.285	81.25
236.519	70.25
236.753	71.25
236.987	76.25
237.221	81.25
237.455	79.25
237.689	69.25
237.922	72.25
238.156	76.25
238.39	78.25
238.624	73.25
238.858	78.25
239.091	73.25
239.325	76.25
239.559	69.25
239.793	82.25
240.027	68.25
240.26	75.25
240.494	78.25
240.728	67.25
240.961	75.25
241.195	73.25
241.429	78.25
241.662	75.25
241.896	79.25
242.13	73.25
242.363	81.25
242.597	75.25
242.83	69.25
243.064	84.25
243.298	71.25
243.531	85.25
243.765	89.25
243.998	88.25
244.232	74.25
244.465	84.25
244.699	79.25
244.932	78.25
245.166	78.25
245.399	76.25
245.633	74.25
245.866	78.25
246.099	73.25
246.333	68.25
246.566	81.25
246.8	72.25
247.033	67.25
247.266	71.25
247.5	97.25
247.733	80.25
247.966	80.25
248.2	87.25
248.433	82.25
248.666	79.25
248.899	80.25
249.133	86.25
249.366	98.25
249.599	100.25
249.832	105.25
250.066	85.25
250.299	65.25
250.532	95.25
250.765	72.25
250.998	74.25
251.231	90.25
251.465	79.25
251.698	66.25
251.931	84.25
252.164	75.25
252.397	78.25
252.63	76.25
252.863	77.25
253.096	90.25
253.329	73.25
253.562	89.25
253.795	87.25
254.028	84.25
254.261	80.25
254.494	79.25
254.727	85.25
254.96	80.25
255.193	89.25
255.426	84.25
255.659	71.25
255.892	84.25
256.124	81.25
256.357	88.25
256.59	85.25
256.823	86.25
257.056	97.25
257.289	77.25
257.521	76.25
257.754	87.25
257.987	103.25
258.22	93.25
258.452	77.25
258.685	57.25
258.918	72.25
259.151	80.25
259.383	88.25
259.616	101.25
259.849	84.25
260.081	86.25
260.314	76.25
260.547	79.25
260.779	76.25
261.012	97.25
261.244	92.25
261.477	84.25
261.71	95.25
261.942	117.25
262.175	127.25
262.407	82.25
262.64	81.25
262.872	80.25
263.105	84.25
263.337	84.25
263.57	79.25
263.802	96.25
264.035	90.25
264.267	77.25
264.499	86.25
264.732	93.25
264.964	82.25
265.197	78.25
265.429	100.25
265.661	80.25
265.894	78.25
266.126	85.25
266.358	76.25
266.591	79.25
266.823	91.25
267.055	88.25
267.287	90.25
267.52	83.25
267.752	80.25
267.984	83.25
268.216	79.25
268.448	88.25
268.681	70.25
268.913	72.25
269.145	86.25
269.377	82.25
269.609	100.25
269.841	92.25
270.073	91.25
270.306	94.25
270.538	88.25
270.77	75.25
271.002	73.25
271.234	81.25
271.466	85.25
271.698	64.25
271.93	80.25
272.162	88.25
272.394	77.25
272.626	90.25
272.858	75.25
273.09	94.25
273.322	81.25
273.553	82.25
273.785	79.25
274.017	81.25
274.249	83.25
274.481	78.25
274.713	86.25
274.945	73.25
275.176	90.25
275.408	87.25
275.64	96.25
275.872	96.25
276.104	90.25
276.335	82.25
276.567	92.25
276.799	125.25
277.031	100.25
277.262	103.25
277.494	102.25
277.726	78.25
277.957	78.25
278.189	91.25
278.421	77.25
278.652	70.25
278.884	84.25
279.115	97.25
279.347	85.25
279.579	88.25
279.81	86.25
280.042	86.25
280.273	101.25
280.505	82.25
280.736	95.25
280.968	82.25
281.199	86.25
281.431	78.25
281.662	74.25
281.894	81.25
282.125	98.25
282.356	114.25
282.588	145.25
282.819	133.25
283.051	100.25
283.282	89.25
283.513	89.25
283.745	95.25
283.976	98.25
284.207	87.25
284.439	84.25
284.67	86.25
284.901	97.25
285.132	76.25
285.364	64.25
285.595	100.25
285.826	91.25
286.057	92.25
286.288	84.25
286.52	97.25
286.751	87.25
286.982	91.25
287.213	92.25
287.444	92.25
287.675	94.25
287.906	86.25
288.138	89.25
288.369	90.25
288.6	68.25
288.831	81.25
289.062	73.25
289.293	85.25
289.524	88.25
289.755	86.25
289.986	82.25
290.217	92.25
290.448	86.25
290.679	95.25
290.91	93.25
291.141	97.25
291.371	94.25
291.602	92.25
291.833	81.25
292.064	77.25
292.295	76.25
292.526	86.25
292.757	88.25
292.987	91.25
293.218	88.25
293.449	88.25
293.68	97.25
293.91	74.25
294.141	93.25
294.372	74.25
294.603	79.25
294.833	103.25
295.064	86.25
295.295	81.25
295.525	89.25
295.756	102.25
295.987	128.25
296.217	142.25
296.448	125.25
296.679	80.25
296.909	94.25
297.14	86.25
297.37	105.25
297.601	96.25
297.831	87.25
298.062	94.25
298.292	92.25
298.523	81.25
298.753	96.25
298.984	68.25
299.214	99.25
299.445	90.25
299.675	96.25
299.905	82.25
300.136	85.25
300.366	102.25
300.597	92.25
300.827	95.25
301.057	104.25
301.288	98.25
301.518	91.25
301.748	111.25
301.979	102.25
302.209	90.25
302.439	103.25
302.669	92.25
302.9	95.25
303.13	96.25
303.36	104.25
303.59	114.25
303.82	111.25
304.051	78.25
304.281	90.25
304.511	106.25
304.741	88.25
304.971	100.25
305.201	86.25
305.431	89.25
305.661	96.25
305.891	82.25
306.121	100.25
306.352	106.25
306.582	94.25
306.812	88.25
307.042	96.25
307.272	98.25
307.502	111.25
307.731	114.25
307.961	93.25
308.191	90.25
308.421	93.25
308.651	96.25
308.881	94.25
309.111	115.25
309.341	93.25
309.571	106.25
309.8	89.25
310.03	89.25
310.26	100.25
310.49	94.25
310.72	106.25
310.949	107.25
311.179	89.25
311.409	81.25
311.639	95.25
311.868	91.25
312.098	88.25
312.328	93.25
312.557	109.25
312.787	99.25
313.017	107.25
313.246	78.25
313.476	88.25
313.706	96.25
313.935	84.25
314.165	95.25
314.394	97.25
314.624	97.25
314.853	83.25
315.083	104.25
315.312	94.25
315.542	84.25
315.771	92.25
316.001	93.25
316.23	91.25
316.46	87.25
316.689	94.25
316.919	97.25
317.148	89.25
317.377	98.25
317.607	107.25
317.836	94.25
318.065	103.25
318.295	98.25
318.524	95.25
318.753	109.25
318.983	92.25
319.212	102.25
319.441	101.25
319.67	97.25
319.9	103.25
320.129	88.25
320.358	88.25
320.587	90.25
320.816	106.25
321.046	114.25
321.275	91.25
321.504	81.25
321.733	106.25
321.962	104.25
322.191	98.25
322.42	105.25
322.649	110.25
322.878	104.25
323.108	106.25
323.337	125.25
323.566	157.25
323.795	165.25
324.024	219.25
324.253	436.25
324.482	968.25
324.71	1967.25
324.939	2525.25
325.168	906.25
325.397	263.25
325.626	166.25
325.855	144.25
326.084	145.25
326.313	123.25
326.542	154.25
326.77	250.25
326.999	525.25
327.228	1057.25
327.457	1967.25
327.686	1555.25
327.914	418.25
328.143	218.25
328.372	175.25
328.6	152.25
328.829	130.25
329.058	152.25
329.287	145.25
329.515	126.25
329.744	117.25
329.972	109.25
330.201	164.25
330.43	161.25
330.658	168.25
330.887	143.25
331.115	134.25
331.344	108.25
331.572	89.25
331.801	93.25
332.03	113.25
332.258	103.25
332.486	82.25
332.715	98.25
332.943	99.25
333.172	82.25
333.4	101.25
333.629	118.25
333.857	106.25
334.085	139.25
334.314	156.25
334.542	202.25
334.771	205.25
334.999	136.25
335.227	97.25
335.455	103.25
335.684	92.25
335.912	108.25
336.14	101.25
336.369	101.25
336.597	104.25
336.825	97.25
337.053	72.25
337.281	88.25
337.51	91.25
337.738	83.25
337.966	94.25
338.194	93.25
338.422	97.25
338.65	101.25
338.878	95.25
339.106	104.25
339.334	101.25
339.562	91.25
339.79	85.25
340.018	99.25
340.246	92.25
340.474	98.25
340.702	90.25
340.93	80.25
341.158	106.25
341.386	93.25
341.614	109.25
341.842	97.25
342.07	98.25
342.298	93.25
342.526	92.25
342.754	82.25
342.981	82.25
343.209	105.25
343.437	88.25
343.665	86.25
343.893	87.25
344.12	92.25
344.348	90.25
344.576	85.25
344.804	94.25
345.031	90.25
345.259	93.25
345.487	100.25
345.714	98.25
345.942	99.25
346.17	87.25
346.397	79.25
346.625	92.25
346.853	106.25
347.08	96.25
347.308	95.25
347.535	95.25
347.763	106.25
347.99	104.25
348.218	106.25
348.445	98.25
348.673	90.25
348.9	94.25
349.128	107.25
349.355	91.25
349.583	90.25
349.81	95.25
350.037	91.25
350.265	107.25
350.492	83.25
350.72	89.25
350.947	93.25
351.174	112.25
351.402	116.25
351.629	108.25
351.856	87.25
352.083	99.25
352.311	105.25
352.538	104.25
352.765	109.25
352.992	112.25
353.22	105.25
353.447	103.25
353.674	100.25
353.901	80.25
354.128	100.25
354.355	99.25
354.583	96.25
354.81	87.25
355.037	87.25
355.264	81.25
355.491	88.25
355.718	95.25
355.945	93.25
356.172	85.25
356.399	101.25
356.626	103.25
356.853	87.25
357.08	101.25
357.307	90.25
357.534	91.25
357.761	99.25
357.988	97.25
358.215	89.25
358.441	90.25
358.668	90.25
358.895	91.25
359.122	77.25
359.349	95.25
359.576	92.25
359.802	95.25
360.029	103.25
360.256	111.25
360.483	75.25
360.709	92.25
360.936	100.25
361.163	78.25
361.39	93.25
361.616	114.25
361.843	96.25
362.07	113.25
362.296	91.25
362.523	85.25
362.749	106.25
362.976	82.25
363.203	89.25
363.429	83.25
363.656	83.25
363.882	97.25
364.109	93.25
364.335	94.25
364.562	97.25
364.788	89.25
365.015	93.25
365.241	104.25
365.468	109.25
365.694	102.25
365.92	96.25
366.147	88.25
366.373	95.25
366.599	86.25
366.826	89.25
367.052	104.25
367.278	77.25
367.505	98.25
367.731	91.25
367.957	90.25
368.184	92.25
368.41	108.25
368.636	108.25
368.862	118.25
369.089	110.25
369.315	87.25
369.541	101.25
369.767	96.25
369.993	113.25
370.219	84.25
370.445	88.25
370.672	74.25
370.898	92.25
371.124	91.25
371.35	101.25
371.576	94.25
371.802	99.25
372.028	89.25
372.254	97.25
372.48	85.25
372.706	92.25
372.932	76.25
373.158	86.25
373.384	94.25
373.61	104.25
373.835	73.25
374.061	80.25
374.287	99.25
374.513	89.25
374.739	79.25
374.965	88.25
375.191	92.25
375.416	90.25
375.642	88.25
375.868	83.25
376.094	104.25
376.319	93.25
376.545	89.25
376.771	95.25
376.997	89.25
377.222	102.25
377.448	93.25
377.674	80.25
377.899	92.25
378.125	101.25
378.35	88.25
378.576	83.25
378.802	92.25
379.027	90.25
379.253	84.25
379.478	92.25
379.704	93.25
379.929	93.25
380.155	88.25
380.38	97.25
380.606	109.25
380.831	104.25
381.057	90.25
381.282	87.25
381.507	104.25
381.733	111.25
381.958	93.25
382.184	88.25
382.409	93.25
382.634	80.25
382.86	101.25
383.085	89.25
383.31	94.25
383.535	107.25
383.761	90.25
383.986	97.25
384.211	88.25
384.436	94.25
384.662	86.25
384.887	95.25
385.112	92.25
385.337	90.25
385.562	89.25
385.787	104.25
386.013	98.25
386.238	101.25
386.463	109.25
386.688	98.25
386.913	95.25
387.138	105.25
387.363	110.25
387.588	94.25
387.813	105.25
388.038	93.25
388.263	94.25
388.488	108.25
388.713	110.25
388.938	94.25
389.163	94.25
389.387	107.25
389.612	91.25
389.837	89.25
390.062	100.25
390.287	86.25
390.512	101.25
390.736	91.25
390.961	82.25
391.186	97.25
391.411	100.25
391.636	96.25
391.86	86.25
392.085	90.25
392.31	78.25
392.534	98.25
392.759	90.25
392.984	86.25
393.208	89.25
393.433	88.25
393.658	75.25
393.882	80.25
394.107	76.25
394.331	87.25
394.556	70.25
394.78	83.25
395.005	71.25
395.229	86.25
395.454	94.25
395.678	92.25
395.903	83.25
396.127	91.25
396.352	83.25
396.576	95.25
396.801	83.25
397.025	91.25
397.249	92.25
397.474	85.25
397.698	84.25
397.922	94.25
398.147	90.25
398.371	87.25
398.595	72.25
398.82	88.25
399.044	88.25
399.268	92.25
399.492	81.25
399.717	87.25
399.941	78.25
400.165	100.25
400.389	109.25
400.613	102.25
400.837	90.25
401.062	85.25
401.286	94.25
401.51	94.25
401.734	97.25
401.958	93.25
402.182	134.25
402.406	162.25
402.63	123.25
402.854	101.25
403.078	91.25
403.302	82.25
403.526	88.25
403.75	95.25
403.974	81.25
404.198	86.25
404.422	89.25
404.645	91.25
404.869	93.25
405.093	99.25
405.317	109.25
405.541	92.25
405.765	100.25
405.988	110.25
406.212	175.25
406.436	238.25
406.66	147.25
406.883	101.25
407.107	106.25
407.331	83.25
407.555	91.25
407.778	97.25
408.002	94.25
408.226	108.25
408.449	105.25
408.673	90.25
408.896	94.25
409.12	102.25
409.344	93.25
409.567	83.25
409.791	104.25
410.014	87.25
410.238	89.25
410.461	91.25
410.685	90.25
410.908	87.25
411.132	106.25
411.355	98.25
411.578	112.25
411.802	83.25
412.025	74.25
412.249	88.25
412.472	85.25
412.695	111.25
412.919	98.25
413.142	90.25
413.365	83.25
413.589	85.25
413.812	90.25
414.035	84.25
414.258	82.25
414.482	92.25
414.705	96.25
414.928	93.25
415.151	83.25
415.374	101.25
415.597	92.25
415.821	90.25
416.044	81.25
416.267	98.25
416.49	85.25
416.713	86.25
416.936	80.25
417.159	105.25
417.382	103.25
417.605	87.25
417.828	88.25
418.051	87.25
418.274	88.25
418.497	76.25
418.72	98.25
418.943	86.25
419.166	74.25
419.389	93.25
419.611	85.25
419.834	90.25
420.057	79.25
420.28	97.25
420.503	89.25
420.726	82.25
420.948	87.25
421.171	76.25
421.394	81.25
421.617	90.25
421.839	88.25
422.062	80.25
422.285	95.25
422.507	88.25
422.73	113.25
422.953	87.25
423.175	86.25
423.398	92.25
423.621	109.25
423.843	90.25
424.066	88.25
424.288	92.25
424.511	92.25
424.733	104.25
424.956	125.25
425.178	103.25
425.401	95.25
425.623	82.25
425.846	92.25
426.068	98.25
426.291	88.25
426.513	71.25
426.735	80.25
426.958	92.25
427.18	112.25
427.402	127.25
427.625	184.25
427.847	146.25
428.069	132.25
428.292	96.25
428.514	91.25
428.736	89.25
428.958	77.25
429.181	94.25
429.403	89.25
429.625	73.25
429.847	89.25
430.069	109.25
430.292	92.25
430.514	86.25
430.736	82.25
430.958	92.25
431.18	92.25
431.402	93.25
431.624	95.25
431.846	82.25
432.068	84.25
432.29	94.25
432.512	90.25
432.734	86.25
432.956	102.25
433.178	103.25
433.4	111.25
433.622	105.25
433.844	99.25
434.066	102.25
434.287	79.25
434.509	82.25
434.731	95.25
434.953	80.25
435.175	89.25
435.397	94.25
435.618	97.25
435.84	121.25
436.062	120.25
436.284	107.25
436.505	109.25
436.727	111.25
436.949	81.25
437.17	91.25
437.392	79.25
437.614	105.25
437.835	113.25
438.057	132.25
438.278	118.25
438.5	117.25
438.721	120.25
438.943	95.25
439.165	88.25
439.386	92.25
439.608	84.25
439.829	95.25
440.05	117.25
440.272	128.25
440.493	89.25
440.715	94.25
440.936	103.25
441.158	95.25
441.379	94.25
441.6	99.25
441.822	95.25
442.043	88.25
442.264	113.25
442.486	106.25
442.707	89.25
442.928	85.25
443.149	140.25
443.371	128.25
443.592	113.25
443.813	107.25
444.034	108.25
444.255	88.25
444.476	77.25
444.698	84.25
444.919	95.25
445.14	136.25
445.361	130.25
445.582	120.25
445.803	136.25
446.024	145.25
446.245	124.25
446.466	125.25
446.687	104.25
446.908	94.25
447.129	88.25
447.35	92.25
447.571	93.25
447.792	97.25
448.013	98.25
448.234	108.25
448.455	98.25
448.675	115.25
448.896	121.25
449.117	87.25
449.338	107.25
449.559	135.25
449.779	118.25
450	90.25
450.221	81.25
450.442	88.25
450.662	107.25
450.883	94.25
451.104	104.25
451.324	98.25
451.545	85.25
451.766	98.25
451.986	92.25
452.207	93.25
452.428	94.25
452.648	89.25
452.869	113.25
453.089	124.25
453.31	116.25
453.53	100.25
453.751	103.25
453.971	113.25
454.192	111.25
454.412	98.25
454.633	90.25
454.853	83.25
455.073	95.25
455.294	86.25
455.514	105.25
455.734	76.25
455.955	68.25
456.175	78.25
456.395	98.25
456.616	103.25
456.836	89.25
457.056	78.25
457.276	82.25
457.497	86.25
457.717	74.25
457.937	96.25
458.157	89.25
458.377	86.25
458.598	102.25
458.818	141.25
459.038	164.25
459.258	112.25
459.478	94.25
459.698	80.25
459.918	78.25
460.138	92.25
460.358	102.25
460.578	81.25
460.798	88.25
461.018	81.25
461.238	88.25
461.458	82.25
461.678	75.25
461.898	87.25
462.118	74.25
462.338	94.25
462.558	93.25
462.777	71.25
462.997	95.25
463.217	107.25
463.437	84.25
463.657	88.25
463.876	98.25
464.096	100.25
464.316	94.25
464.536	86.25
464.755	92.25
464.975	105.25
465.195	169.25
465.414	164.25
465.634	97.25
465.854	102.25
466.073	98.25
466.293	102.25
466.512	86.25
466.732	85.25
466.951	81.25
467.171	88.25
467.391	86.25
467.61	104.25
467.829	100.25
468.049	119.25
468.268	130.25
468.488	87.25
468.707	81.25
468.927	95.25
469.146	91.25
469.365	79.25
469.585	89.25
469.804	110.25
470.023	85.25
470.243	91.25
470.462	97.25
470.681	111.25
470.901	89.25
471.12	96.25
471.339	90.25
471.558	93.25
471.777	91.25
471.997	99.25
472.216	159.25
472.435	252.25
472.654	115.25
472.873	94.25
473.092	93.25
473.311	87.25
473.53	93.25
473.749	96.25
473.968	99.25
474.187	103.25
474.406	89.25
474.625	90.25
474.844	101.25
475.063	77.25
475.282	108.25
475.501	79.25
475.72	97.25
475.939	84.25
476.158	77.25
476.377	89.25
476.596	89.25
476.814	93.25
477.033	90.25
477.252	97.25
477.471	94.25
477.69	94.25
477.908	97.25
478.127	85.25
478.346	85.25
478.564	85.25
478.783	85.25
479.002	95.25
479.22	92.25
479.439	107.25
479.658	106.25
479.876	101.25
480.095	77.25
480.313	89.25
480.532	85.25
480.751	101.25
480.969	136.25
481.188	384.25
481.406	276.25
481.624	100.25
481.843	95.25
482.061	93.25
482.28	95.25
482.498	80.25
482.717	95.25
482.935	89.25
483.153	92.25
483.372	86.25
483.59	83.25
483.808	90.25
484.027	90.25
484.245	97.25
484.463	97.25
484.681	98.25
484.9	85.25
485.118	98.25
485.336	99.25
485.554	79.25
485.772	98.25
485.99	107.25
486.209	107.25
486.427	92.25
486.645	112.25
486.863	117.25
487.081	105.25
487.299	110.25
487.517	97.25
487.735	89.25
487.953	80.25
488.171	94.25
488.389	94.25
488.607	92.25
488.825	84.25
489.043	88.25
489.261	85.25
489.479	79.25
489.696	78.25
489.914	85.25
490.132	79.25
490.35	92.25
490.568	95.25
490.786	113.25
491.003	88.25
491.221	92.25
491.439	99.25
491.657	95.25
491.874	96.25
492.092	100.25
492.31	97.25
492.527	92.25
492.745	95.25
492.963	87.25
493.18	92.25
493.398	91.25
493.615	92.25
493.833	91.25
494.05	96.25
494.268	85.25
494.485	88.25
494.703	88.25
494.92	87.25
495.138	79.25
495.355	76.25
495.573	89.25
495.79	92.25
496.008	80.25
496.225	81.25
496.442	92.25
496.66	94.25
496.877	97.25
497.094	97.25
497.312	79.25
497.529	85.25
497.746	89.25
497.963	84.25
498.181	91.25
498.398	91.25
498.615	116.25
498.832	94.25
499.049	104.25
499.267	91.25
499.484	96.25
499.701	106.25
499.918	87.25
500.135	91.25
500.352	100.25
500.569	93.25
500.786	83.25
501.003	85.25
501.22	93.25
501.437	89.25
501.654	96.25
501.871	104.25
502.088	85.25
502.305	98.25
502.522	88.25
502.739	77.25
502.956	102.25
503.172	101.25
503.389	97.25
503.606	100.25
503.823	110.25
504.04	103.25
504.256	89.25
504.473	74.25
504.69	88.25
504.907	90.25
505.123	87.25
505.34	90.25
505.557	99.25
505.773	87.25
505.99	97.25
506.207	89.25
506.423	86.25
506.64	80.25
506.856	81.25
507.073	93.25
507.289	93.25
507.506	89.25
507.722	109.25
507.939	114.25
508.155	84.25
508.372	88.25
508.588	94.25
508.805	75.25
509.021	81.25
509.238	104.25
509.454	101.25
509.67	102.25
509.887	104.25
510.103	133.25
510.319	222.25
510.536	797.25
510.752	2580.25
510.968	724.25
511.184	153.25
511.401	111.25
511.617	96.25
511.833	96.25
512.049	88.25
512.265	97.25
512.481	85.25
512.698	100.25
512.914	97.25
513.13	92.25
513.346	77.25
513.562	97.25
513.778	92.25
513.994	92.25
514.21	108.25
514.426	126.25
514.642	138.25
514.858	123.25
515.074	180.25
515.29	500.25
