Data from Circ_2011_H10_HRD10591_00077.txt Node
Date: Wed Jan 03 10:08:14 EST 2024
User: Yrep
Spectrometer: HR+D1059
Trigger mode: 1
Integration Time (sec): 1.000000E-1
Scans to average: 1
Electric dark correction enabled: true
Nonlinearity correction enabled: false
Boxcar width: 0
XAxis mode: Wavelengths
Number of Pixels in Spectrum: 2048
>>>>>Begin Spectral Data<<<<<
223.165	-19.06
223.4	-19.06
223.635	-19.06
223.869	-23.06
224.104	-18.06
224.338	-13.06
224.573	-25.06
224.808	-6.06
225.042	1.94
225.277	-0.06
225.511	-8.06
225.746	3.94
225.98	-2.06
226.215	26.94
226.449	9.94
226.683	18.94
226.918	15.94
227.152	36.94
227.387	33.94
227.621	34.94
227.856	42.94
228.09	47.94
228.324	49.94
228.559	53.94
228.793	54.94
229.027	63.94
229.262	53.94
229.496	69.94
229.73	66.94
229.964	87.94
230.199	83.94
230.433	66.94
230.667	74.94
230.901	90.94
231.136	73.94
231.37	77.94
231.604	82.94
231.838	72.94
232.072	83.94
232.306	78.94
232.541	85.94
232.775	90.94
233.009	78.94
233.243	85.94
233.477	79.94
233.711	63.94
233.945	82.94
234.179	84.94
234.413	81.94
234.647	81.94
234.881	85.94
235.115	64.94
235.349	77.94
235.583	89.94
235.817	80.94
236.051	77.94
236.285	81.94
236.519	67.94
236.753	92.94
236.987	90.94
237.221	79.94
237.455	74.94
237.689	66.94
237.922	79.94
238.156	82.94
238.39	72.94
238.624	77.94
238.858	65.94
239.091	87.94
239.325	82.94
239.559	98.94
239.793	80.94
240.027	79.94
240.26	76.94
240.494	89.94
240.728	69.94
240.961	73.94
241.195	70.94
241.429	93.94
241.662	65.94
241.896	78.94
242.13	95.94
242.363	80.94
242.597	65.94
242.83	70.94
243.064	81.94
243.298	87.94
243.531	73.94
243.765	89.94
243.998	87.94
244.232	82.94
244.465	85.94
244.699	86.94
244.932	81.94
245.166	70.94
245.399	101.94
245.633	93.94
245.866	87.94
246.099	94.94
246.333	76.94
246.566	73.94
246.8	92.94
247.033	81.94
247.266	94.94
247.5	87.94
247.733	77.94
247.966	85.94
248.2	78.94
248.433	88.94
248.666	84.94
248.899	86.94
249.133	82.94
249.366	85.94
249.599	94.94
249.832	91.94
250.066	98.94
250.299	84.94
250.532	78.94
250.765	74.94
250.998	84.94
251.231	90.94
251.465	79.94
251.698	73.94
251.931	79.94
252.164	78.94
252.397	86.94
252.63	84.94
252.863	75.94
253.096	84.94
253.329	89.94
253.562	80.94
253.795	78.94
254.028	78.94
254.261	77.94
254.494	82.94
254.727	63.94
254.96	90.94
255.193	92.94
255.426	80.94
255.659	69.94
255.892	104.94
256.124	75.94
256.357	82.94
256.59	79.94
256.823	80.94
257.056	89.94
257.289	84.94
257.521	84.94
257.754	85.94
257.987	83.94
258.22	99.94
258.452	78.94
258.685	87.94
258.918	87.94
259.151	79.94
259.383	93.94
259.616	84.94
259.849	80.94
260.081	81.94
260.314	82.94
260.547	96.94
260.779	88.94
261.012	90.94
261.244	86.94
261.477	91.94
261.71	94.94
261.942	100.94
262.175	112.94
262.407	93.94
262.64	98.94
262.872	92.94
263.105	82.94
263.337	87.94
263.57	93.94
263.802	85.94
264.035	81.94
264.267	99.94
264.499	85.94
264.732	86.94
264.964	86.94
265.197	81.94
265.429	81.94
265.661	85.94
265.894	80.94
266.126	77.94
266.358	64.94
266.591	89.94
266.823	88.94
267.055	89.94
267.287	89.94
267.52	70.94
267.752	85.94
267.984	79.94
268.216	81.94
268.448	89.94
268.681	95.94
268.913	89.94
269.145	80.94
269.377	83.94
269.609	86.94
269.841	75.94
270.073	88.94
270.306	84.94
270.538	82.94
270.77	78.94
271.002	90.94
271.234	80.94
271.466	101.94
271.698	94.94
271.93	83.94
272.162	75.94
272.394	95.94
272.626	90.94
272.858	80.94
273.09	90.94
273.322	81.94
273.553	91.94
273.785	89.94
274.017	92.94
274.249	93.94
274.481	94.94
274.713	66.94
274.945	83.94
275.176	97.94
275.408	78.94
275.64	77.94
275.872	83.94
276.104	96.94
276.335	89.94
276.567	107.94
276.799	96.94
277.031	115.94
277.262	101.94
277.494	85.94
277.726	90.94
277.957	88.94
278.189	85.94
278.421	89.94
278.652	87.94
278.884	82.94
279.115	85.94
279.347	96.94
279.579	91.94
279.81	90.94
280.042	84.94
280.273	94.94
280.505	89.94
280.736	87.94
280.968	89.94
281.199	80.94
281.431	99.94
281.662	98.94
281.894	82.94
282.125	95.94
282.356	108.94
282.588	119.94
282.819	113.94
283.051	95.94
283.282	84.94
283.513	93.94
283.745	93.94
283.976	82.94
284.207	91.94
284.439	103.94
284.67	80.94
284.901	91.94
285.132	90.94
285.364	78.94
285.595	79.94
285.826	91.94
286.057	102.94
286.288	95.94
286.52	105.94
286.751	82.94
286.982	82.94
287.213	88.94
287.444	83.94
287.675	99.94
287.906	101.94
288.138	92.94
288.369	89.94
288.6	95.94
288.831	79.94
289.062	82.94
289.293	91.94
289.524	97.94
289.755	88.94
289.986	89.94
290.217	95.94
290.448	91.94
290.679	78.94
290.91	83.94
291.141	86.94
291.371	82.94
291.602	79.94
291.833	86.94
292.064	89.94
292.295	89.94
292.526	97.94
292.757	88.94
292.987	66.94
293.218	102.94
293.449	91.94
293.68	91.94
293.91	94.94
294.141	88.94
294.372	99.94
294.603	80.94
294.833	86.94
295.064	85.94
295.295	92.94
295.525	82.94
295.756	92.94
295.987	119.94
296.217	129.94
296.448	110.94
296.679	93.94
296.909	104.94
297.14	112.94
297.37	98.94
297.601	90.94
297.831	95.94
298.062	87.94
298.292	105.94
298.523	88.94
298.753	111.94
298.984	91.94
299.214	96.94
299.445	96.94
299.675	89.94
299.905	103.94
300.136	89.94
300.366	83.94
300.597	83.94
300.827	102.94
301.057	104.94
301.288	101.94
301.518	95.94
301.748	96.94
301.979	102.94
302.209	91.94
302.439	95.94
302.669	91.94
302.9	85.94
303.13	92.94
303.36	105.94
303.59	91.94
303.82	105.94
304.051	104.94
304.281	85.94
304.511	79.94
304.741	90.94
304.971	81.94
305.201	98.94
305.431	98.94
305.661	94.94
305.891	81.94
306.121	101.94
306.352	95.94
306.582	90.94
306.812	92.94
307.042	98.94
307.272	94.94
307.502	104.94
307.731	92.94
307.961	85.94
308.191	89.94
308.421	90.94
308.651	110.94
308.881	102.94
309.111	88.94
309.341	91.94
309.571	103.94
309.8	106.94
310.03	94.94
310.26	102.94
310.49	101.94
310.72	91.94
310.949	95.94
311.179	92.94
311.409	90.94
311.639	87.94
311.868	111.94
312.098	86.94
312.328	93.94
312.557	110.94
312.787	117.94
313.017	102.94
313.246	94.94
313.476	90.94
313.706	91.94
313.935	99.94
314.165	86.94
314.394	102.94
314.624	114.94
314.853	93.94
315.083	104.94
315.312	90.94
315.542	105.94
315.771	95.94
316.001	90.94
316.23	116.94
316.46	94.94
316.689	91.94
316.919	90.94
317.148	100.94
317.377	90.94
317.607	105.94
317.836	94.94
318.065	86.94
318.295	90.94
318.524	95.94
318.753	103.94
318.983	100.94
319.212	95.94
319.441	97.94
319.67	99.94
319.9	104.94
320.129	106.94
320.358	91.94
320.587	100.94
320.816	94.94
321.046	108.94
321.275	95.94
321.504	105.94
321.733	98.94
321.962	84.94
322.191	110.94
322.42	98.94
322.649	120.94
322.878	106.94
323.108	108.94
323.337	100.94
323.566	134.94
323.795	146.94
324.024	181.94
324.253	336.94
324.482	717.94
324.71	1502.94
324.939	1954.94
325.168	738.94
325.397	222.94
325.626	126.94
325.855	125.94
326.084	130.94
326.313	133.94
326.542	146.94
326.77	215.94
326.999	427.94
327.228	872.94
327.457	1515.94
327.686	1243.94
327.914	347.94
328.143	194.94
328.372	176.94
328.6	130.94
328.829	114.94
329.058	123.94
329.287	112.94
329.515	104.94
329.744	103.94
329.972	134.94
330.201	178.94
330.43	223.94
330.658	161.94
330.887	140.94
331.115	103.94
331.344	93.94
331.572	107.94
331.801	109.94
332.03	103.94
332.258	92.94
332.486	104.94
332.715	95.94
332.943	91.94
333.172	101.94
333.4	103.94
333.629	104.94
333.857	128.94
334.085	118.94
334.314	182.94
334.542	275.94
334.771	269.94
334.999	132.94
335.227	100.94
335.455	91.94
335.684	89.94
335.912	90.94
336.14	98.94
336.369	105.94
336.597	107.94
336.825	82.94
337.053	98.94
337.281	95.94
337.51	95.94
337.738	93.94
337.966	94.94
338.194	98.94
338.422	90.94
338.65	98.94
338.878	78.94
339.106	96.94
339.334	103.94
339.562	83.94
339.79	93.94
340.018	95.94
340.246	83.94
340.474	89.94
340.702	93.94
340.93	98.94
341.158	84.94
341.386	107.94
341.614	95.94
341.842	101.94
342.07	79.94
342.298	95.94
342.526	101.94
342.754	85.94
342.981	101.94
343.209	95.94
343.437	94.94
343.665	86.94
343.893	96.94
344.12	96.94
344.348	96.94
344.576	96.94
344.804	83.94
345.031	103.94
345.259	105.94
345.487	90.94
345.714	87.94
345.942	89.94
346.17	94.94
346.397	97.94
346.625	104.94
346.853	91.94
347.08	91.94
347.308	101.94
347.535	93.94
347.763	84.94
347.99	106.94
348.218	106.94
348.445	96.94
348.673	100.94
348.9	103.94
349.128	97.94
349.355	105.94
349.583	96.94
349.81	97.94
350.037	86.94
350.265	102.94
350.492	102.94
350.72	91.94
350.947	107.94
351.174	111.94
351.402	109.94
351.629	102.94
351.856	93.94
352.083	109.94
352.311	106.94
352.538	113.94
352.765	98.94
352.992	93.94
353.22	127.94
353.447	95.94
353.674	78.94
353.901	98.94
354.128	101.94
354.355	95.94
354.583	109.94
354.81	105.94
355.037	94.94
355.264	102.94
355.491	100.94
355.718	87.94
355.945	94.94
356.172	102.94
356.399	93.94
356.626	91.94
356.853	89.94
357.08	86.94
357.307	95.94
357.534	111.94
357.761	109.94
357.988	100.94
358.215	84.94
358.441	92.94
358.668	105.94
358.895	94.94
359.122	96.94
359.349	91.94
359.576	94.94
359.802	99.94
360.029	115.94
360.256	88.94
360.483	93.94
360.709	100.94
360.936	91.94
361.163	95.94
361.39	99.94
361.616	97.94
361.843	89.94
362.07	98.94
362.296	90.94
362.523	97.94
362.749	99.94
362.976	84.94
363.203	94.94
363.429	91.94
363.656	93.94
363.882	84.94
364.109	109.94
364.335	93.94
364.562	94.94
364.788	95.94
365.015	86.94
365.241	94.94
365.468	104.94
365.694	110.94
365.92	105.94
366.147	105.94
366.373	101.94
366.599	81.94
366.826	107.94
367.052	105.94
367.278	94.94
367.505	97.94
367.731	77.94
367.957	92.94
368.184	90.94
368.41	99.94
368.636	108.94
368.862	120.94
369.089	110.94
369.315	92.94
369.541	96.94
369.767	93.94
369.993	88.94
370.219	89.94
370.445	88.94
370.672	91.94
370.898	98.94
371.124	83.94
371.35	80.94
371.576	97.94
371.802	93.94
372.028	92.94
372.254	94.94
372.48	92.94
372.706	90.94
372.932	103.94
373.158	78.94
373.384	93.94
373.61	99.94
373.835	79.94
374.061	101.94
374.287	85.94
374.513	92.94
374.739	90.94
374.965	94.94
375.191	88.94
375.416	95.94
375.642	81.94
375.868	105.94
376.094	88.94
376.319	101.94
376.545	104.94
376.771	85.94
376.997	95.94
377.222	82.94
377.448	79.94
377.674	88.94
377.899	97.94
378.125	87.94
378.35	103.94
378.576	94.94
378.802	80.94
379.027	86.94
379.253	95.94
379.478	85.94
379.704	107.94
379.929	105.94
380.155	96.94
380.38	97.94
380.606	94.94
380.831	91.94
381.057	112.94
381.282	97.94
381.507	93.94
381.733	96.94
381.958	106.94
382.184	94.94
382.409	101.94
382.634	83.94
382.86	78.94
383.085	94.94
383.31	108.94
383.535	102.94
383.761	103.94
383.986	101.94
384.211	96.94
384.436	100.94
384.662	100.94
384.887	86.94
385.112	107.94
385.337	101.94
385.562	104.94
385.787	97.94
386.013	89.94
386.238	112.94
386.463	93.94
386.688	99.94
386.913	94.94
387.138	86.94
387.363	104.94
387.588	97.94
387.813	106.94
388.038	105.94
388.263	103.94
388.488	115.94
388.713	101.94
388.938	94.94
389.163	103.94
389.387	100.94
389.612	104.94
389.837	87.94
390.062	98.94
390.287	94.94
390.512	92.94
390.736	102.94
390.961	95.94
391.186	89.94
391.411	97.94
391.636	86.94
391.86	97.94
392.085	91.94
392.31	103.94
392.534	86.94
392.759	91.94
392.984	95.94
393.208	80.94
393.433	86.94
393.658	79.94
393.882	89.94
394.107	98.94
394.331	81.94
394.556	98.94
394.78	95.94
395.005	101.94
395.229	91.94
395.454	81.94
395.678	77.94
395.903	77.94
396.127	77.94
396.352	88.94
396.576	84.94
396.801	81.94
397.025	80.94
397.249	95.94
397.474	91.94
397.698	93.94
397.922	81.94
398.147	99.94
398.371	80.94
398.595	86.94
398.82	94.94
399.044	78.94
399.268	85.94
399.492	92.94
399.717	85.94
399.941	96.94
400.165	93.94
400.389	86.94
400.613	87.94
400.837	97.94
401.062	79.94
401.286	88.94
401.51	80.94
401.734	98.94
401.958	86.94
402.182	118.94
402.406	151.94
402.63	93.94
402.854	87.94
403.078	81.94
403.302	93.94
403.526	96.94
403.75	98.94
403.974	88.94
404.198	88.94
404.422	89.94
404.645	83.94
404.869	89.94
405.093	87.94
405.317	120.94
405.541	103.94
405.765	103.94
405.988	108.94
406.212	134.94
406.436	181.94
406.66	146.94
406.883	106.94
407.107	90.94
407.331	97.94
407.555	92.94
407.778	97.94
408.002	86.94
408.226	107.94
408.449	94.94
408.673	98.94
408.896	95.94
409.12	96.94
409.344	94.94
409.567	94.94
409.791	95.94
410.014	92.94
410.238	103.94
410.461	98.94
410.685	92.94
410.908	100.94
411.132	100.94
411.355	95.94
411.578	99.94
411.802	83.94
412.025	105.94
412.249	93.94
412.472	86.94
412.695	106.94
412.919	99.94
413.142	94.94
413.365	90.94
413.589	85.94
413.812	83.94
414.035	94.94
414.258	99.94
414.482	88.94
414.705	95.94
414.928	99.94
415.151	92.94
415.374	101.94
415.597	87.94
415.821	73.94
416.044	78.94
416.267	94.94
416.49	95.94
416.713	92.94
416.936	95.94
417.159	94.94
417.382	87.94
417.605	91.94
417.828	82.94
418.051	93.94
418.274	86.94
418.497	77.94
418.72	91.94
418.943	93.94
419.166	79.94
419.389	94.94
419.611	92.94
419.834	105.94
420.057	90.94
420.28	77.94
420.503	89.94
420.726	91.94
420.948	91.94
421.171	105.94
421.394	82.94
421.617	98.94
421.839	87.94
422.062	87.94
422.285	106.94
422.507	95.94
422.73	102.94
422.953	88.94
423.175	93.94
423.398	79.94
423.621	89.94
423.843	77.94
424.066	102.94
424.288	88.94
424.511	83.94
424.733	93.94
424.956	99.94
425.178	92.94
425.401	101.94
425.623	107.94
425.846	100.94
426.068	90.94
426.291	92.94
426.513	100.94
426.735	87.94
426.958	78.94
427.18	96.94
427.402	143.94
427.625	166.94
427.847	114.94
428.069	122.94
428.292	102.94
428.514	102.94
428.736	88.94
428.958	95.94
429.181	74.94
429.403	80.94
429.625	86.94
429.847	87.94
430.069	101.94
430.292	85.94
430.514	90.94
430.736	94.94
430.958	85.94
431.18	89.94
431.402	74.94
431.624	94.94
431.846	85.94
432.068	101.94
432.29	78.94
432.512	93.94
432.734	97.94
432.956	88.94
433.178	90.94
433.4	109.94
433.622	101.94
433.844	90.94
434.066	95.94
434.287	86.94
434.509	96.94
434.731	82.94
434.953	94.94
435.175	104.94
435.397	84.94
435.618	90.94
435.84	101.94
436.062	112.94
436.284	112.94
436.505	121.94
436.727	94.94
436.949	78.94
437.17	99.94
437.392	91.94
437.614	83.94
437.835	107.94
438.057	113.94
438.278	106.94
438.5	115.94
438.721	114.94
438.943	91.94
439.165	90.94
439.386	91.94
439.608	103.94
439.829	93.94
440.05	107.94
440.272	138.94
440.493	92.94
440.715	87.94
440.936	83.94
441.158	108.94
441.379	95.94
441.6	99.94
441.822	93.94
442.043	106.94
442.264	111.94
442.486	97.94
442.707	88.94
442.928	97.94
443.149	103.94
443.371	118.94
443.592	102.94
443.813	116.94
444.034	115.94
444.255	87.94
444.476	104.94
444.698	86.94
444.919	108.94
445.14	138.94
445.361	130.94
445.582	113.94
445.803	119.94
446.024	137.94
446.245	113.94
446.466	105.94
446.687	87.94
446.908	94.94
447.129	90.94
447.35	89.94
447.571	90.94
447.792	80.94
448.013	90.94
448.234	118.94
448.455	93.94
448.675	107.94
448.896	118.94
449.117	109.94
449.338	116.94
449.559	125.94
449.779	120.94
450	78.94
450.221	89.94
450.442	94.94
450.662	90.94
450.883	101.94
451.104	93.94
451.324	93.94
451.545	83.94
451.766	96.94
451.986	87.94
452.207	93.94
452.428	102.94
452.648	100.94
452.869	101.94
453.089	127.94
453.31	122.94
453.53	94.94
453.751	85.94
453.971	91.94
454.192	103.94
454.412	90.94
454.633	88.94
454.853	81.94
455.073	87.94
455.294	79.94
455.514	93.94
455.734	96.94
455.955	87.94
456.175	86.94
456.395	85.94
456.616	96.94
456.836	87.94
457.056	97.94
457.276	96.94
457.497	98.94
457.717	92.94
457.937	96.94
458.157	104.94
458.377	100.94
458.598	114.94
458.818	138.94
459.038	134.94
459.258	121.94
459.478	78.94
459.698	90.94
459.918	83.94
460.138	89.94
460.358	84.94
460.578	95.94
460.798	95.94
461.018	89.94
461.238	90.94
461.458	90.94
461.678	82.94
461.898	91.94
462.118	83.94
462.338	78.94
462.558	83.94
462.777	95.94
462.997	83.94
463.217	88.94
463.437	94.94
463.657	80.94
463.876	94.94
464.096	91.94
464.316	92.94
464.536	89.94
464.755	81.94
464.975	104.94
465.195	119.94
465.414	120.94
465.634	92.94
465.854	96.94
466.073	86.94
466.293	77.94
466.512	90.94
466.732	96.94
466.951	83.94
467.171	89.94
467.391	100.94
467.61	113.94
467.829	105.94
468.049	150.94
468.268	161.94
468.488	99.94
468.707	89.94
468.927	79.94
469.146	82.94
469.365	67.94
469.585	87.94
469.804	112.94
470.023	109.94
470.243	93.94
470.462	101.94
470.681	95.94
470.901	89.94
471.12	85.94
471.339	87.94
471.558	101.94
471.777	83.94
471.997	108.94
472.216	192.94
472.435	327.94
472.654	142.94
472.873	101.94
473.092	88.94
473.311	85.94
473.53	92.94
473.749	81.94
473.968	105.94
474.187	102.94
474.406	101.94
474.625	94.94
474.844	94.94
475.063	78.94
475.282	85.94
475.501	86.94
475.72	89.94
475.939	79.94
476.158	86.94
476.377	78.94
476.596	80.94
476.814	98.94
477.033	79.94
477.252	94.94
477.471	82.94
477.69	86.94
477.908	102.94
478.127	94.94
478.346	98.94
478.564	100.94
478.783	97.94
479.002	93.94
479.22	90.94
479.439	102.94
479.658	106.94
479.876	91.94
480.095	100.94
480.313	90.94
480.532	98.94
480.751	124.94
480.969	214.94
481.188	554.94
481.406	367.94
481.624	129.94
481.843	89.94
482.061	89.94
482.28	101.94
482.498	92.94
482.717	103.94
482.935	92.94
483.153	97.94
483.372	101.94
483.59	84.94
483.808	95.94
484.027	86.94
484.245	99.94
484.463	100.94
484.681	112.94
484.9	89.94
485.118	94.94
485.336	95.94
485.554	100.94
485.772	89.94
485.99	98.94
486.209	95.94
486.427	108.94
486.645	104.94
486.863	110.94
487.081	100.94
487.299	92.94
487.517	94.94
487.735	98.94
487.953	92.94
488.171	85.94
488.389	102.94
488.607	106.94
488.825	83.94
489.043	100.94
489.261	93.94
489.479	94.94
489.696	80.94
489.914	87.94
490.132	91.94
490.35	104.94
490.568	93.94
490.786	87.94
491.003	91.94
491.221	87.94
491.439	103.94
491.657	87.94
491.874	83.94
492.092	100.94
492.31	94.94
492.527	92.94
492.745	94.94
492.963	92.94
493.18	91.94
493.398	94.94
493.615	97.94
493.833	89.94
494.05	98.94
494.268	97.94
494.485	82.94
494.703	95.94
494.92	81.94
495.138	91.94
495.355	101.94
495.573	104.94
495.79	83.94
496.008	92.94
496.225	91.94
496.442	107.94
496.66	104.94
496.877	90.94
497.094	87.94
497.312	80.94
497.529	92.94
497.746	91.94
497.963	94.94
498.181	90.94
498.398	77.94
498.615	113.94
498.832	117.94
499.049	94.94
499.267	94.94
499.484	84.94
499.701	87.94
499.918	99.94
500.135	81.94
500.352	93.94
500.569	105.94
500.786	104.94
501.003	95.94
501.22	82.94
501.437	96.94
501.654	105.94
501.871	99.94
502.088	102.94
502.305	94.94
502.522	93.94
502.739	93.94
502.956	101.94
503.172	87.94
503.389	97.94
503.606	94.94
503.823	92.94
504.04	88.94
504.256	89.94
504.473	83.94
504.69	89.94
504.907	95.94
505.123	98.94
505.34	87.94
505.557	94.94
505.773	87.94
505.99	86.94
506.207	85.94
506.423	78.94
506.64	97.94
506.856	89.94
507.073	75.94
507.289	90.94
507.506	90.94
507.722	91.94
507.939	101.94
508.155	106.94
508.372	88.94
508.588	90.94
508.805	104.94
509.021	92.94
509.238	91.94
509.454	94.94
509.67	92.94
509.887	115.94
510.103	129.94
510.319	170.94
510.536	560.94
510.752	1721.94
510.968	515.94
511.184	145.94
511.401	109.94
511.617	91.94
511.833	90.94
512.049	91.94
512.265	93.94
512.481	80.94
512.698	99.94
512.914	86.94
513.13	90.94
513.346	98.94
513.562	93.94
513.778	89.94
513.994	96.94
514.21	99.94
514.426	100.94
514.642	111.94
514.858	125.94
515.074	136.94
