Data from Circ_2011_H10_HRD10591_00091.txt Node
Date: Wed Jan 03 10:08:17 EST 2024
User: Yrep
Spectrometer: HR+D1059
Trigger mode: 1
Integration Time (sec): 1.000000E-1
Scans to average: 1
Electric dark correction enabled: true
Nonlinearity correction enabled: false
Boxcar width: 0
XAxis mode: Wavelengths
Number of Pixels in Spectrum: 2048
>>>>>Begin Spectral Data<<<<<
223.165	-16.94
223.4	-16.94
223.635	-16.94
223.869	-20.94
224.104	-34.94
224.338	-12.94
224.573	-25.94
224.808	-1.94
225.042	-3.94
225.277	-6.94
225.511	-9.94
225.746	-0.94
225.98	16.06
226.215	2.06
226.449	25.06
226.683	11.06
226.918	38.06
227.152	43.06
227.387	38.06
227.621	32.06
227.856	37.06
228.09	42.06
228.324	70.06
228.559	52.06
228.793	55.06
229.027	62.06
229.262	63.06
229.496	71.06
229.73	78.06
229.964	80.06
230.199	86.06
230.433	72.06
230.667	95.06
230.901	87.06
231.136	88.06
231.37	85.06
231.604	71.06
231.838	80.06
232.072	80.06
232.306	75.06
232.541	67.06
232.775	85.06
233.009	88.06
233.243	80.06
233.477	74.06
233.711	83.06
233.945	72.06
234.179	86.06
234.413	59.06
234.647	78.06
234.881	72.06
235.115	79.06
235.349	79.06
235.583	89.06
235.817	80.06
236.051	74.06
236.285	75.06
236.519	85.06
236.753	85.06
236.987	103.06
237.221	96.06
237.455	78.06
237.689	77.06
237.922	81.06
238.156	84.06
238.39	82.06
238.624	78.06
238.858	81.06
239.091	66.06
239.325	79.06
239.559	71.06
239.793	67.06
240.027	68.06
240.26	86.06
240.494	81.06
240.728	84.06
240.961	70.06
241.195	90.06
241.429	87.06
241.662	85.06
241.896	77.06
242.13	75.06
242.363	63.06
242.597	70.06
242.83	84.06
243.064	84.06
243.298	79.06
243.531	84.06
243.765	79.06
243.998	86.06
244.232	86.06
244.465	91.06
244.699	91.06
244.932	80.06
245.166	64.06
245.399	76.06
245.633	78.06
245.866	61.06
246.099	79.06
246.333	90.06
246.566	83.06
246.8	66.06
247.033	70.06
247.266	89.06
247.5	73.06
247.733	74.06
247.966	86.06
248.2	80.06
248.433	74.06
248.666	86.06
248.899	79.06
249.133	92.06
249.366	98.06
249.599	90.06
249.832	79.06
250.066	79.06
250.299	80.06
250.532	85.06
250.765	95.06
250.998	86.06
251.231	79.06
251.465	80.06
251.698	70.06
251.931	64.06
252.164	95.06
252.397	78.06
252.63	61.06
252.863	77.06
253.096	73.06
253.329	88.06
253.562	86.06
253.795	90.06
254.028	94.06
254.261	76.06
254.494	69.06
254.727	76.06
254.96	88.06
255.193	90.06
255.426	60.06
255.659	90.06
255.892	80.06
256.124	87.06
256.357	82.06
256.59	73.06
256.823	87.06
257.056	83.06
257.289	87.06
257.521	77.06
257.754	70.06
257.987	85.06
258.22	77.06
258.452	75.06
258.685	79.06
258.918	79.06
259.151	80.06
259.383	88.06
259.616	57.06
259.849	73.06
260.081	85.06
260.314	83.06
260.547	75.06
260.779	83.06
261.012	85.06
261.244	82.06
261.477	101.06
261.71	95.06
261.942	100.06
262.175	109.06
262.407	94.06
262.64	83.06
262.872	95.06
263.105	92.06
263.337	84.06
263.57	80.06
263.802	87.06
264.035	83.06
264.267	86.06
264.499	71.06
264.732	82.06
264.964	84.06
265.197	87.06
265.429	71.06
265.661	76.06
265.894	70.06
266.126	95.06
266.358	85.06
266.591	71.06
266.823	84.06
267.055	91.06
267.287	80.06
267.52	86.06
267.752	95.06
267.984	79.06
268.216	86.06
268.448	95.06
268.681	85.06
268.913	85.06
269.145	91.06
269.377	78.06
269.609	67.06
269.841	84.06
270.073	81.06
270.306	92.06
270.538	105.06
270.77	91.06
271.002	85.06
271.234	72.06
271.466	82.06
271.698	80.06
271.93	103.06
272.162	75.06
272.394	87.06
272.626	78.06
272.858	85.06
273.09	84.06
273.322	84.06
273.553	80.06
273.785	86.06
274.017	93.06
274.249	87.06
274.481	86.06
274.713	98.06
274.945	78.06
275.176	85.06
275.408	91.06
275.64	89.06
275.872	71.06
276.104	95.06
276.335	94.06
276.567	94.06
276.799	114.06
277.031	123.06
277.262	92.06
277.494	94.06
277.726	86.06
277.957	101.06
278.189	83.06
278.421	86.06
278.652	92.06
278.884	80.06
279.115	91.06
279.347	87.06
279.579	72.06
279.81	102.06
280.042	99.06
280.273	104.06
280.505	103.06
280.736	80.06
280.968	83.06
281.199	90.06
281.431	74.06
281.662	100.06
281.894	108.06
282.125	105.06
282.356	108.06
282.588	127.06
282.819	111.06
283.051	94.06
283.282	84.06
283.513	88.06
283.745	101.06
283.976	84.06
284.207	77.06
284.439	77.06
284.67	95.06
284.901	80.06
285.132	77.06
285.364	77.06
285.595	78.06
285.826	95.06
286.057	89.06
286.288	84.06
286.52	86.06
286.751	94.06
286.982	97.06
287.213	98.06
287.444	91.06
287.675	79.06
287.906	85.06
288.138	94.06
288.369	86.06
288.6	95.06
288.831	84.06
289.062	88.06
289.293	84.06
289.524	70.06
289.755	85.06
289.986	89.06
290.217	80.06
290.448	87.06
290.679	89.06
290.91	89.06
291.141	91.06
291.371	86.06
291.602	74.06
291.833	87.06
292.064	79.06
292.295	71.06
292.526	76.06
292.757	83.06
292.987	88.06
293.218	82.06
293.449	95.06
293.68	84.06
293.91	85.06
294.141	84.06
294.372	87.06
294.603	82.06
294.833	81.06
295.064	85.06
295.295	87.06
295.525	101.06
295.756	94.06
295.987	106.06
296.217	139.06
296.448	118.06
296.679	105.06
296.909	92.06
297.14	93.06
297.37	90.06
297.601	92.06
297.831	105.06
298.062	83.06
298.292	85.06
298.523	93.06
298.753	87.06
298.984	86.06
299.214	86.06
299.445	88.06
299.675	100.06
299.905	98.06
300.136	85.06
300.366	104.06
300.597	96.06
300.827	83.06
301.057	85.06
301.288	107.06
301.518	101.06
301.748	86.06
301.979	101.06
302.209	93.06
302.439	88.06
302.669	101.06
302.9	100.06
303.13	87.06
303.36	86.06
303.59	104.06
303.82	119.06
304.051	104.06
304.281	94.06
304.511	94.06
304.741	106.06
304.971	92.06
305.201	89.06
305.431	99.06
305.661	80.06
305.891	87.06
306.121	76.06
306.352	98.06
306.582	90.06
306.812	109.06
307.042	98.06
307.272	115.06
307.502	116.06
307.731	109.06
307.961	86.06
308.191	88.06
308.421	82.06
308.651	91.06
308.881	81.06
309.111	83.06
309.341	82.06
309.571	106.06
309.8	103.06
310.03	96.06
310.26	94.06
310.49	94.06
310.72	110.06
310.949	104.06
311.179	99.06
311.409	94.06
311.639	99.06
311.868	121.06
312.098	85.06
312.328	100.06
312.557	106.06
312.787	104.06
313.017	87.06
313.246	105.06
313.476	98.06
313.706	88.06
313.935	94.06
314.165	116.06
314.394	102.06
314.624	90.06
314.853	92.06
315.083	88.06
315.312	93.06
315.542	70.06
315.771	90.06
316.001	98.06
316.23	90.06
316.46	98.06
316.689	91.06
316.919	85.06
317.148	106.06
317.377	85.06
317.607	84.06
317.836	86.06
318.065	101.06
318.295	87.06
318.524	94.06
318.753	89.06
318.983	100.06
319.212	100.06
319.441	102.06
319.67	94.06
319.9	95.06
320.129	91.06
320.358	108.06
320.587	98.06
320.816	106.06
321.046	108.06
321.275	97.06
321.504	97.06
321.733	114.06
321.962	91.06
322.191	91.06
322.42	98.06
322.649	108.06
322.878	110.06
323.108	116.06
323.337	130.06
323.566	127.06
323.795	150.06
324.024	221.06
324.253	435.06
324.482	905.06
324.71	1897.06
324.939	2478.06
325.168	905.06
325.397	253.06
325.626	148.06
325.855	142.06
326.084	131.06
326.313	126.06
326.542	167.06
326.77	248.06
326.999	513.06
327.228	1040.06
327.457	2009.06
327.686	1578.06
327.914	418.06
328.143	233.06
328.372	218.06
328.6	164.06
328.829	134.06
329.058	128.06
329.287	149.06
329.515	139.06
329.744	136.06
329.972	161.06
330.201	239.06
330.43	306.06
330.658	186.06
330.887	158.06
331.115	124.06
331.344	88.06
331.572	101.06
331.801	106.06
332.03	95.06
332.258	98.06
332.486	78.06
332.715	83.06
332.943	103.06
333.172	95.06
333.4	92.06
333.629	102.06
333.857	131.06
334.085	158.06
334.314	239.06
334.542	381.06
334.771	363.06
334.999	148.06
335.227	102.06
335.455	88.06
335.684	99.06
335.912	99.06
336.14	98.06
336.369	93.06
336.597	102.06
336.825	93.06
337.053	79.06
337.281	97.06
337.51	89.06
337.738	104.06
337.966	90.06
338.194	105.06
338.422	88.06
338.65	86.06
338.878	84.06
339.106	91.06
339.334	99.06
339.562	95.06
339.79	91.06
340.018	95.06
340.246	86.06
340.474	84.06
340.702	88.06
340.93	71.06
341.158	98.06
341.386	87.06
341.614	85.06
341.842	85.06
342.07	90.06
342.298	86.06
342.526	83.06
342.754	83.06
342.981	72.06
343.209	95.06
343.437	104.06
343.665	90.06
343.893	89.06
344.12	91.06
344.348	92.06
344.576	86.06
344.804	84.06
345.031	101.06
345.259	94.06
345.487	110.06
345.714	89.06
345.942	91.06
346.17	93.06
346.397	89.06
346.625	98.06
346.853	83.06
347.08	99.06
347.308	99.06
347.535	89.06
347.763	109.06
347.99	106.06
348.218	91.06
348.445	100.06
348.673	81.06
348.9	87.06
349.128	92.06
349.355	100.06
349.583	102.06
349.81	104.06
350.037	91.06
350.265	88.06
350.492	97.06
350.72	98.06
350.947	100.06
351.174	114.06
351.402	121.06
351.629	111.06
351.856	110.06
352.083	97.06
352.311	118.06
352.538	102.06
352.765	110.06
352.992	108.06
353.22	108.06
353.447	111.06
353.674	95.06
353.901	81.06
354.128	82.06
354.355	79.06
354.583	96.06
354.81	84.06
355.037	98.06
355.264	101.06
355.491	102.06
355.718	74.06
355.945	99.06
356.172	92.06
356.399	94.06
356.626	86.06
356.853	103.06
357.08	92.06
357.307	97.06
357.534	91.06
357.761	85.06
357.988	93.06
358.215	103.06
358.441	84.06
358.668	94.06
358.895	71.06
359.122	89.06
359.349	92.06
359.576	103.06
359.802	94.06
360.029	109.06
360.256	111.06
360.483	93.06
360.709	99.06
360.936	103.06
361.163	84.06
361.39	92.06
361.616	102.06
361.843	94.06
362.07	76.06
362.296	79.06
362.523	92.06
362.749	93.06
362.976	82.06
363.203	88.06
363.429	83.06
363.656	90.06
363.882	100.06
364.109	90.06
364.335	89.06
364.562	90.06
364.788	96.06
365.015	89.06
365.241	85.06
365.468	92.06
365.694	100.06
365.92	105.06
366.147	93.06
366.373	85.06
366.599	85.06
366.826	90.06
367.052	91.06
367.278	92.06
367.505	98.06
367.731	91.06
367.957	93.06
368.184	90.06
368.41	85.06
368.636	112.06
368.862	130.06
369.089	100.06
369.315	98.06
369.541	91.06
369.767	87.06
369.993	102.06
370.219	80.06
370.445	81.06
370.672	88.06
370.898	106.06
371.124	83.06
371.35	103.06
371.576	101.06
371.802	93.06
372.028	94.06
372.254	92.06
372.48	98.06
372.706	79.06
372.932	78.06
373.158	76.06
373.384	91.06
373.61	96.06
373.835	70.06
374.061	91.06
374.287	90.06
374.513	90.06
374.739	107.06
374.965	91.06
375.191	83.06
375.416	75.06
375.642	99.06
375.868	84.06
376.094	90.06
376.319	79.06
376.545	74.06
376.771	76.06
376.997	92.06
377.222	91.06
377.448	95.06
377.674	83.06
377.899	92.06
378.125	103.06
378.35	97.06
378.576	87.06
378.802	85.06
379.027	87.06
379.253	96.06
379.478	92.06
379.704	90.06
379.929	97.06
380.155	101.06
380.38	99.06
380.606	88.06
380.831	80.06
381.057	105.06
381.282	98.06
381.507	84.06
381.733	80.06
381.958	98.06
382.184	83.06
382.409	101.06
382.634	92.06
382.86	80.06
383.085	91.06
383.31	101.06
383.535	79.06
383.761	100.06
383.986	83.06
384.211	95.06
384.436	105.06
384.662	95.06
384.887	85.06
385.112	88.06
385.337	91.06
385.562	93.06
385.787	103.06
386.013	113.06
386.238	101.06
386.463	96.06
386.688	101.06
386.913	92.06
387.138	96.06
387.363	86.06
387.588	85.06
387.813	92.06
388.038	99.06
388.263	104.06
388.488	104.06
388.713	99.06
388.938	88.06
389.163	93.06
389.387	93.06
389.612	91.06
389.837	84.06
390.062	103.06
390.287	87.06
390.512	98.06
390.736	88.06
390.961	85.06
391.186	83.06
391.411	86.06
391.636	83.06
391.86	89.06
392.085	88.06
392.31	80.06
392.534	83.06
392.759	84.06
392.984	89.06
393.208	85.06
393.433	87.06
393.658	68.06
393.882	71.06
394.107	82.06
394.331	77.06
394.556	84.06
394.78	84.06
395.005	89.06
395.229	91.06
395.454	92.06
395.678	75.06
395.903	72.06
396.127	95.06
396.352	97.06
396.576	95.06
396.801	71.06
397.025	82.06
397.249	60.06
397.474	90.06
397.698	97.06
397.922	74.06
398.147	90.06
398.371	80.06
398.595	84.06
398.82	79.06
399.044	91.06
399.268	78.06
399.492	88.06
399.717	93.06
399.941	95.06
400.165	84.06
400.389	90.06
400.613	88.06
400.837	87.06
401.062	92.06
401.286	87.06
401.51	100.06
401.734	95.06
401.958	89.06
402.182	117.06
402.406	148.06
402.63	111.06
402.854	93.06
403.078	84.06
403.302	93.06
403.526	88.06
403.75	69.06
403.974	106.06
404.198	86.06
404.422	99.06
404.645	89.06
404.869	98.06
405.093	110.06
405.317	110.06
405.541	110.06
405.765	113.06
405.988	114.06
406.212	180.06
406.436	211.06
406.66	144.06
406.883	87.06
407.107	104.06
407.331	110.06
407.555	101.06
407.778	98.06
408.002	91.06
408.226	87.06
408.449	81.06
408.673	84.06
408.896	84.06
409.12	99.06
409.344	99.06
409.567	74.06
409.791	89.06
410.014	95.06
410.238	100.06
410.461	95.06
410.685	100.06
410.908	90.06
411.132	93.06
411.355	113.06
411.578	83.06
411.802	105.06
412.025	94.06
412.249	79.06
412.472	101.06
412.695	106.06
412.919	102.06
413.142	107.06
413.365	86.06
413.589	92.06
413.812	101.06
414.035	84.06
414.258	92.06
414.482	84.06
414.705	88.06
414.928	115.06
415.151	77.06
415.374	84.06
415.597	89.06
415.821	91.06
416.044	86.06
416.267	91.06
416.49	67.06
416.713	96.06
416.936	85.06
417.159	81.06
417.382	79.06
417.605	86.06
417.828	108.06
418.051	107.06
418.274	101.06
418.497	90.06
418.72	95.06
418.943	94.06
419.166	88.06
419.389	77.06
419.611	105.06
419.834	103.06
420.057	79.06
420.28	87.06
420.503	68.06
420.726	88.06
420.948	87.06
421.171	112.06
421.394	95.06
421.617	100.06
421.839	91.06
422.062	86.06
422.285	92.06
422.507	84.06
422.73	100.06
422.953	94.06
423.175	93.06
423.398	84.06
423.621	87.06
423.843	79.06
424.066	77.06
424.288	91.06
424.511	92.06
424.733	84.06
424.956	119.06
425.178	98.06
425.401	99.06
425.623	117.06
425.846	100.06
426.068	82.06
426.291	70.06
426.513	95.06
426.735	96.06
426.958	91.06
427.18	107.06
427.402	152.06
427.625	181.06
427.847	155.06
428.069	152.06
428.292	96.06
428.514	87.06
428.736	89.06
428.958	97.06
429.181	97.06
429.403	90.06
429.625	87.06
429.847	92.06
430.069	103.06
430.292	108.06
430.514	87.06
430.736	86.06
430.958	90.06
431.18	75.06
431.402	83.06
431.624	78.06
431.846	84.06
432.068	76.06
432.29	83.06
432.512	94.06
432.734	86.06
432.956	94.06
433.178	101.06
433.4	118.06
433.622	81.06
433.844	94.06
434.066	102.06
434.287	91.06
434.509	86.06
434.731	98.06
434.953	83.06
435.175	76.06
435.397	83.06
435.618	79.06
435.84	94.06
436.062	131.06
436.284	121.06
436.505	110.06
436.727	120.06
436.949	95.06
437.17	85.06
437.392	105.06
437.614	96.06
437.835	109.06
438.057	123.06
438.278	122.06
438.5	102.06
438.721	135.06
438.943	92.06
439.165	92.06
439.386	90.06
439.608	103.06
439.829	107.06
440.05	114.06
440.272	162.06
440.493	101.06
440.715	103.06
440.936	85.06
441.158	90.06
441.379	82.06
441.6	90.06
441.822	100.06
442.043	94.06
442.264	112.06
442.486	115.06
442.707	99.06
442.928	111.06
443.149	132.06
443.371	140.06
443.592	120.06
443.813	115.06
444.034	124.06
444.255	103.06
444.476	84.06
444.698	82.06
444.919	86.06
445.14	108.06
445.361	123.06
445.582	119.06
445.803	151.06
446.024	149.06
446.245	142.06
446.466	116.06
446.687	96.06
446.908	90.06
447.129	81.06
447.35	91.06
447.571	96.06
447.792	101.06
448.013	96.06
448.234	114.06
448.455	89.06
448.675	138.06
448.896	134.06
449.117	104.06
449.338	112.06
449.559	147.06
449.779	139.06
450	93.06
450.221	80.06
450.442	76.06
450.662	84.06
450.883	108.06
451.104	114.06
451.324	89.06
451.545	87.06
451.766	75.06
451.986	89.06
452.207	76.06
452.428	83.06
452.648	95.06
452.869	108.06
453.089	106.06
453.31	99.06
453.53	100.06
453.751	87.06
453.971	115.06
454.192	94.06
454.412	99.06
454.633	86.06
454.853	85.06
455.073	95.06
455.294	88.06
455.514	107.06
455.734	93.06
455.955	80.06
456.175	82.06
456.395	65.06
456.616	87.06
456.836	76.06
457.056	99.06
457.276	79.06
457.497	80.06
457.717	98.06
457.937	80.06
458.157	90.06
458.377	89.06
458.598	102.06
458.818	151.06
459.038	162.06
459.258	121.06
459.478	108.06
459.698	72.06
459.918	90.06
460.138	82.06
460.358	83.06
460.578	92.06
460.798	101.06
461.018	88.06
461.238	87.06
461.458	80.06
461.678	83.06
461.898	91.06
462.118	76.06
462.338	87.06
462.558	94.06
462.777	86.06
462.997	92.06
463.217	96.06
463.437	90.06
463.657	83.06
463.876	78.06
464.096	72.06
464.316	93.06
464.536	104.06
464.755	94.06
464.975	101.06
465.195	171.06
465.414	166.06
465.634	107.06
465.854	79.06
466.073	98.06
466.293	90.06
466.512	92.06
466.732	93.06
466.951	84.06
467.171	94.06
467.391	91.06
467.61	96.06
467.829	108.06
468.049	166.06
468.268	204.06
468.488	114.06
468.707	84.06
468.927	94.06
469.146	73.06
469.365	89.06
469.585	86.06
469.804	96.06
470.023	96.06
470.243	97.06
470.462	92.06
470.681	104.06
470.901	79.06
471.12	103.06
471.339	93.06
471.558	90.06
471.777	95.06
471.997	124.06
472.216	267.06
472.435	477.06
472.654	160.06
472.873	101.06
473.092	85.06
473.311	92.06
473.53	89.06
473.749	98.06
473.968	104.06
474.187	99.06
474.406	106.06
474.625	82.06
474.844	79.06
475.063	95.06
475.282	70.06
475.501	86.06
475.72	75.06
475.939	89.06
476.158	87.06
476.377	87.06
476.596	92.06
476.814	106.06
477.033	96.06
477.252	88.06
477.471	100.06
477.69	93.06
477.908	98.06
478.127	86.06
478.346	79.06
478.564	99.06
478.783	94.06
479.002	96.06
479.22	88.06
479.439	112.06
479.658	110.06
479.876	109.06
480.095	84.06
480.313	94.06
480.532	96.06
480.751	121.06
480.969	258.06
481.188	804.06
481.406	509.06
481.624	131.06
481.843	94.06
482.061	93.06
482.28	85.06
482.498	91.06
482.717	88.06
482.935	71.06
483.153	94.06
483.372	98.06
483.59	94.06
483.808	94.06
484.027	87.06
484.245	88.06
484.463	100.06
484.681	111.06
484.9	102.06
485.118	95.06
485.336	85.06
485.554	90.06
485.772	106.06
485.99	102.06
486.209	106.06
486.427	107.06
486.645	106.06
486.863	106.06
487.081	90.06
487.299	104.06
487.517	82.06
487.735	92.06
487.953	82.06
488.171	105.06
488.389	90.06
488.607	84.06
488.825	100.06
489.043	99.06
489.261	90.06
489.479	98.06
489.696	71.06
489.914	95.06
490.132	80.06
490.35	91.06
490.568	88.06
490.786	91.06
491.003	84.06
491.221	94.06
491.439	94.06
491.657	87.06
491.874	80.06
492.092	83.06
492.31	74.06
492.527	86.06
492.745	95.06
492.963	92.06
493.18	93.06
493.398	96.06
493.615	101.06
493.833	87.06
494.05	89.06
494.268	69.06
494.485	92.06
494.703	89.06
494.92	79.06
495.138	72.06
495.355	86.06
495.573	103.06
495.79	75.06
496.008	86.06
496.225	88.06
496.442	86.06
496.66	88.06
496.877	78.06
497.094	98.06
497.312	81.06
497.529	86.06
497.746	79.06
497.963	83.06
498.181	80.06
498.398	88.06
498.615	107.06
498.832	104.06
499.049	87.06
499.267	95.06
499.484	93.06
499.701	95.06
499.918	93.06
500.135	81.06
500.352	85.06
500.569	80.06
500.786	98.06
501.003	94.06
501.22	87.06
501.437	98.06
501.654	82.06
501.871	127.06
502.088	100.06
502.305	93.06
502.522	87.06
502.739	98.06
502.956	85.06
503.172	86.06
503.389	103.06
503.606	115.06
503.823	91.06
504.04	90.06
504.256	91.06
504.473	88.06
504.69	86.06
504.907	88.06
505.123	87.06
505.34	88.06
505.557	91.06
505.773	82.06
505.99	90.06
506.207	88.06
506.423	82.06
506.64	101.06
506.856	95.06
507.073	87.06
507.289	103.06
507.506	86.06
507.722	107.06
507.939	116.06
508.155	90.06
508.372	84.06
508.588	93.06
508.805	100.06
509.021	93.06
509.238	87.06
509.454	102.06
509.67	102.06
509.887	102.06
510.103	115.06
510.319	207.06
510.536	687.06
510.752	2145.06
510.968	650.06
511.184	161.06
511.401	126.06
511.617	110.06
511.833	87.06
512.049	100.06
512.265	95.06
512.481	84.06
512.698	102.06
512.914	87.06
513.13	90.06
513.346	99.06
513.562	99.06
513.778	86.06
513.994	103.06
514.21	113.06
514.426	98.06
514.642	132.06
514.858	112.06
515.074	183.06
515.29	428.06
