Data from Circ_2011_H10_HRD10591_00063.txt Node
Date: Wed Jan 03 10:08:11 EST 2024
User: Yrep
Spectrometer: HR+D1059
Trigger mode: 1
Integration Time (sec): 1.000000E-1
Scans to average: 1
Electric dark correction enabled: true
Nonlinearity correction enabled: false
Boxcar width: 0
XAxis mode: Wavelengths
Number of Pixels in Spectrum: 2048
>>>>>Begin Spectral Data<<<<<
223.165	-18.88
223.4	-18.88
223.635	-18.88
223.869	-19.88
224.104	-13.88
224.338	-20.88
224.573	-17.88
224.808	-18.88
225.042	-12.88
225.277	-1.88
225.511	9.12
225.746	-1.88
225.98	10.12
226.215	10.12
226.449	25.12
226.683	9.12
226.918	15.12
227.152	48.12
227.387	43.12
227.621	39.12
227.856	45.12
228.09	51.12
228.324	42.12
228.559	48.12
228.793	49.12
229.027	59.12
229.262	64.12
229.496	56.12
229.73	71.12
229.964	79.12
230.199	75.12
230.433	97.12
230.667	74.12
230.901	65.12
231.136	82.12
231.37	81.12
231.604	75.12
231.838	90.12
232.072	95.12
232.306	82.12
232.541	75.12
232.775	95.12
233.009	83.12
233.243	76.12
233.477	80.12
233.711	75.12
233.945	97.12
234.179	88.12
234.413	74.12
234.647	66.12
234.881	91.12
235.115	72.12
235.349	87.12
235.583	86.12
235.817	82.12
236.051	81.12
236.285	79.12
236.519	83.12
236.753	90.12
236.987	90.12
237.221	81.12
237.455	88.12
237.689	83.12
237.922	85.12
238.156	77.12
238.39	75.12
238.624	78.12
238.858	70.12
239.091	95.12
239.325	80.12
239.559	91.12
239.793	88.12
240.027	73.12
240.26	78.12
240.494	71.12
240.728	86.12
240.961	80.12
241.195	74.12
241.429	79.12
241.662	82.12
241.896	83.12
242.13	89.12
242.363	87.12
242.597	74.12
242.83	75.12
243.064	75.12
243.298	92.12
243.531	82.12
243.765	77.12
243.998	77.12
244.232	76.12
244.465	88.12
244.699	82.12
244.932	83.12
245.166	79.12
245.399	79.12
245.633	100.12
245.866	77.12
246.099	74.12
246.333	84.12
246.566	85.12
246.8	84.12
247.033	86.12
247.266	91.12
247.5	85.12
247.733	84.12
247.966	93.12
248.2	86.12
248.433	78.12
248.666	87.12
248.899	68.12
249.133	74.12
249.366	84.12
249.599	97.12
249.832	89.12
250.066	84.12
250.299	77.12
250.532	76.12
250.765	72.12
250.998	83.12
251.231	81.12
251.465	90.12
251.698	73.12
251.931	87.12
252.164	84.12
252.397	80.12
252.63	92.12
252.863	93.12
253.096	79.12
253.329	85.12
253.562	85.12
253.795	87.12
254.028	93.12
254.261	84.12
254.494	77.12
254.727	93.12
254.96	85.12
255.193	87.12
255.426	75.12
255.659	76.12
255.892	85.12
256.124	79.12
256.357	78.12
256.59	86.12
256.823	93.12
257.056	83.12
257.289	87.12
257.521	79.12
257.754	77.12
257.987	82.12
258.22	92.12
258.452	75.12
258.685	87.12
258.918	85.12
259.151	83.12
259.383	86.12
259.616	83.12
259.849	85.12
260.081	82.12
260.314	90.12
260.547	85.12
260.779	76.12
261.012	91.12
261.244	82.12
261.477	85.12
261.71	89.12
261.942	111.12
262.175	118.12
262.407	85.12
262.64	74.12
262.872	92.12
263.105	81.12
263.337	96.12
263.57	86.12
263.802	82.12
264.035	89.12
264.267	90.12
264.499	87.12
264.732	96.12
264.964	87.12
265.197	94.12
265.429	75.12
265.661	92.12
265.894	89.12
266.126	103.12
266.358	78.12
266.591	87.12
266.823	71.12
267.055	92.12
267.287	78.12
267.52	84.12
267.752	78.12
267.984	73.12
268.216	88.12
268.448	80.12
268.681	78.12
268.913	98.12
269.145	94.12
269.377	94.12
269.609	94.12
269.841	85.12
270.073	75.12
270.306	81.12
270.538	85.12
270.77	90.12
271.002	93.12
271.234	82.12
271.466	80.12
271.698	66.12
271.93	90.12
272.162	81.12
272.394	80.12
272.626	100.12
272.858	87.12
273.09	97.12
273.322	81.12
273.553	76.12
273.785	89.12
274.017	100.12
274.249	103.12
274.481	94.12
274.713	77.12
274.945	75.12
275.176	89.12
275.408	80.12
275.64	85.12
275.872	76.12
276.104	96.12
276.335	87.12
276.567	96.12
276.799	86.12
277.031	118.12
277.262	95.12
277.494	99.12
277.726	89.12
277.957	90.12
278.189	102.12
278.421	82.12
278.652	91.12
278.884	96.12
279.115	105.12
279.347	90.12
279.579	93.12
279.81	96.12
280.042	87.12
280.273	109.12
280.505	105.12
280.736	91.12
280.968	92.12
281.199	90.12
281.431	80.12
281.662	82.12
281.894	101.12
282.125	101.12
282.356	96.12
282.588	137.12
282.819	127.12
283.051	105.12
283.282	85.12
283.513	86.12
283.745	90.12
283.976	104.12
284.207	95.12
284.439	80.12
284.67	89.12
284.901	76.12
285.132	74.12
285.364	88.12
285.595	97.12
285.826	90.12
286.057	92.12
286.288	86.12
286.52	69.12
286.751	74.12
286.982	71.12
287.213	96.12
287.444	91.12
287.675	89.12
287.906	86.12
288.138	75.12
288.369	89.12
288.6	95.12
288.831	91.12
289.062	98.12
289.293	99.12
289.524	93.12
289.755	90.12
289.986	88.12
290.217	88.12
290.448	90.12
290.679	70.12
290.91	102.12
291.141	100.12
291.371	82.12
291.602	98.12
291.833	93.12
292.064	95.12
292.295	81.12
292.526	87.12
292.757	91.12
292.987	91.12
293.218	93.12
293.449	87.12
293.68	90.12
293.91	82.12
294.141	96.12
294.372	90.12
294.603	84.12
294.833	77.12
295.064	87.12
295.295	85.12
295.525	82.12
295.756	107.12
295.987	98.12
296.217	131.12
296.448	103.12
296.679	95.12
296.909	89.12
297.14	97.12
297.37	95.12
297.601	93.12
297.831	86.12
298.062	84.12
298.292	91.12
298.523	91.12
298.753	101.12
298.984	93.12
299.214	88.12
299.445	98.12
299.675	98.12
299.905	94.12
300.136	92.12
300.366	92.12
300.597	87.12
300.827	96.12
301.057	103.12
301.288	91.12
301.518	99.12
301.748	106.12
301.979	106.12
302.209	70.12
302.439	93.12
302.669	86.12
302.9	80.12
303.13	95.12
303.36	100.12
303.59	96.12
303.82	111.12
304.051	93.12
304.281	86.12
304.511	81.12
304.741	79.12
304.971	90.12
305.201	103.12
305.431	91.12
305.661	97.12
305.891	86.12
306.121	91.12
306.352	91.12
306.582	96.12
306.812	105.12
307.042	96.12
307.272	105.12
307.502	97.12
307.731	108.12
307.961	99.12
308.191	90.12
308.421	100.12
308.651	84.12
308.881	103.12
309.111	105.12
309.341	89.12
309.571	90.12
309.8	90.12
310.03	110.12
310.26	98.12
310.49	102.12
310.72	101.12
310.949	107.12
311.179	105.12
311.409	101.12
311.639	91.12
311.868	96.12
312.098	97.12
312.328	120.12
312.557	101.12
312.787	101.12
313.017	96.12
313.246	91.12
313.476	81.12
313.706	86.12
313.935	104.12
314.165	99.12
314.394	100.12
314.624	95.12
314.853	82.12
315.083	91.12
315.312	88.12
315.542	100.12
315.771	93.12
316.001	94.12
316.23	100.12
316.46	86.12
316.689	100.12
316.919	93.12
317.148	95.12
317.377	90.12
317.607	97.12
317.836	107.12
318.065	97.12
318.295	97.12
318.524	84.12
318.753	99.12
318.983	98.12
319.212	92.12
319.441	108.12
319.67	106.12
319.9	89.12
320.129	103.12
320.358	82.12
320.587	106.12
320.816	101.12
321.046	95.12
321.275	113.12
321.504	99.12
321.733	102.12
321.962	107.12
322.191	94.12
322.42	118.12
322.649	103.12
322.878	104.12
323.108	116.12
323.337	127.12
323.566	135.12
323.795	159.12
324.024	211.12
324.253	374.12
324.482	831.12
324.71	1693.12
324.939	2170.12
325.168	821.12
325.397	243.12
325.626	158.12
325.855	126.12
326.084	138.12
326.313	126.12
326.542	151.12
326.77	244.12
326.999	467.12
327.228	935.12
327.457	1725.12
327.686	1358.12
327.914	369.12
328.143	216.12
328.372	193.12
328.6	139.12
328.829	109.12
329.058	117.12
329.287	131.12
329.515	112.12
329.744	122.12
329.972	141.12
330.201	199.12
330.43	241.12
330.658	172.12
330.887	149.12
331.115	126.12
331.344	114.12
331.572	107.12
331.801	107.12
332.03	115.12
332.258	104.12
332.486	106.12
332.715	93.12
332.943	100.12
333.172	94.12
333.4	90.12
333.629	122.12
333.857	114.12
334.085	127.12
334.314	190.12
334.542	280.12
334.771	274.12
334.999	147.12
335.227	91.12
335.455	94.12
335.684	93.12
335.912	98.12
336.14	112.12
336.369	93.12
336.597	98.12
336.825	112.12
337.053	93.12
337.281	90.12
337.51	82.12
337.738	109.12
337.966	97.12
338.194	93.12
338.422	102.12
338.65	103.12
338.878	96.12
339.106	96.12
339.334	96.12
339.562	101.12
339.79	90.12
340.018	73.12
340.246	93.12
340.474	104.12
340.702	93.12
340.93	94.12
341.158	100.12
341.386	100.12
341.614	94.12
341.842	91.12
342.07	102.12
342.298	90.12
342.526	91.12
342.754	101.12
342.981	92.12
343.209	83.12
343.437	95.12
343.665	91.12
343.893	89.12
344.12	91.12
344.348	88.12
344.576	96.12
344.804	96.12
345.031	101.12
345.259	100.12
345.487	91.12
345.714	104.12
345.942	101.12
346.17	89.12
346.397	93.12
346.625	87.12
346.853	83.12
347.08	88.12
347.308	101.12
347.535	98.12
347.763	85.12
347.99	94.12
348.218	96.12
348.445	123.12
348.673	109.12
348.9	93.12
349.128	83.12
349.355	88.12
349.583	95.12
349.81	87.12
350.037	96.12
350.265	91.12
350.492	107.12
350.72	106.12
350.947	118.12
351.174	110.12
351.402	100.12
351.629	105.12
351.856	101.12
352.083	94.12
352.311	94.12
352.538	112.12
352.765	107.12
352.992	114.12
353.22	103.12
353.447	81.12
353.674	98.12
353.901	111.12
354.128	110.12
354.355	104.12
354.583	97.12
354.81	93.12
355.037	99.12
355.264	102.12
355.491	99.12
355.718	97.12
355.945	93.12
356.172	92.12
356.399	94.12
356.626	107.12
356.853	98.12
357.08	93.12
357.307	94.12
357.534	90.12
357.761	88.12
357.988	98.12
358.215	85.12
358.441	93.12
358.668	101.12
358.895	87.12
359.122	95.12
359.349	102.12
359.576	88.12
359.802	96.12
360.029	114.12
360.256	101.12
360.483	102.12
360.709	104.12
360.936	94.12
361.163	97.12
361.39	86.12
361.616	89.12
361.843	104.12
362.07	97.12
362.296	108.12
362.523	101.12
362.749	109.12
362.976	83.12
363.203	78.12
363.429	88.12
363.656	102.12
363.882	110.12
364.109	93.12
364.335	99.12
364.562	93.12
364.788	104.12
365.015	89.12
365.241	89.12
365.468	84.12
365.694	97.12
365.92	93.12
366.147	91.12
366.373	94.12
366.599	94.12
366.826	91.12
367.052	83.12
367.278	95.12
367.505	75.12
367.731	95.12
367.957	103.12
368.184	93.12
368.41	107.12
368.636	118.12
368.862	120.12
369.089	109.12
369.315	85.12
369.541	94.12
369.767	98.12
369.993	91.12
370.219	104.12
370.445	97.12
370.672	90.12
370.898	84.12
371.124	88.12
371.35	94.12
371.576	95.12
371.802	89.12
372.028	86.12
372.254	86.12
372.48	92.12
372.706	93.12
372.932	79.12
373.158	89.12
373.384	91.12
373.61	94.12
373.835	102.12
374.061	91.12
374.287	94.12
374.513	95.12
374.739	94.12
374.965	85.12
375.191	82.12
375.416	98.12
375.642	93.12
375.868	79.12
376.094	73.12
376.319	89.12
376.545	90.12
376.771	97.12
376.997	105.12
377.222	95.12
377.448	104.12
377.674	90.12
377.899	105.12
378.125	109.12
378.35	85.12
378.576	89.12
378.802	88.12
379.027	93.12
379.253	84.12
379.478	90.12
379.704	94.12
379.929	94.12
380.155	96.12
380.38	94.12
380.606	86.12
380.831	97.12
381.057	114.12
381.282	95.12
381.507	100.12
381.733	99.12
381.958	105.12
382.184	104.12
382.409	102.12
382.634	106.12
382.86	95.12
383.085	96.12
383.31	100.12
383.535	103.12
383.761	110.12
383.986	92.12
384.211	90.12
384.436	101.12
384.662	95.12
384.887	95.12
385.112	110.12
385.337	96.12
385.562	101.12
385.787	98.12
386.013	105.12
386.238	92.12
386.463	123.12
386.688	101.12
386.913	107.12
387.138	105.12
387.363	100.12
387.588	98.12
387.813	102.12
388.038	90.12
388.263	110.12
388.488	100.12
388.713	98.12
388.938	99.12
389.163	111.12
389.387	107.12
389.612	81.12
389.837	93.12
390.062	86.12
390.287	80.12
390.512	83.12
390.736	87.12
390.961	84.12
391.186	91.12
391.411	100.12
391.636	87.12
391.86	100.12
392.085	90.12
392.31	81.12
392.534	81.12
392.759	88.12
392.984	89.12
393.208	99.12
393.433	96.12
393.658	94.12
393.882	97.12
394.107	86.12
394.331	89.12
394.556	88.12
394.78	104.12
395.005	78.12
395.229	96.12
395.454	92.12
395.678	93.12
395.903	86.12
396.127	97.12
396.352	90.12
396.576	99.12
396.801	101.12
397.025	89.12
397.249	85.12
397.474	89.12
397.698	95.12
397.922	101.12
398.147	81.12
398.371	83.12
398.595	89.12
398.82	91.12
399.044	94.12
399.268	82.12
399.492	96.12
399.717	89.12
399.941	83.12
400.165	96.12
400.389	96.12
400.613	79.12
400.837	81.12
401.062	101.12
401.286	97.12
401.51	79.12
401.734	94.12
401.958	85.12
402.182	102.12
402.406	139.12
402.63	115.12
402.854	97.12
403.078	105.12
403.302	90.12
403.526	91.12
403.75	93.12
403.974	85.12
404.198	82.12
404.422	89.12
404.645	85.12
404.869	84.12
405.093	99.12
405.317	98.12
405.541	128.12
405.765	98.12
405.988	117.12
406.212	164.12
406.436	207.12
406.66	141.12
406.883	106.12
407.107	109.12
407.331	96.12
407.555	97.12
407.778	101.12
408.002	80.12
408.226	87.12
408.449	97.12
408.673	101.12
408.896	96.12
409.12	89.12
409.344	89.12
409.567	90.12
409.791	96.12
410.014	98.12
410.238	101.12
410.461	102.12
410.685	85.12
410.908	96.12
411.132	107.12
411.355	106.12
411.578	95.12
411.802	92.12
412.025	92.12
412.249	88.12
412.472	92.12
412.695	103.12
412.919	91.12
413.142	95.12
413.365	91.12
413.589	86.12
413.812	88.12
414.035	87.12
414.258	90.12
414.482	91.12
414.705	95.12
414.928	83.12
415.151	103.12
415.374	102.12
415.597	110.12
415.821	86.12
416.044	96.12
416.267	93.12
416.49	91.12
416.713	98.12
416.936	100.12
417.159	85.12
417.382	89.12
417.605	90.12
417.828	103.12
418.051	78.12
418.274	98.12
418.497	80.12
418.72	81.12
418.943	91.12
419.166	89.12
419.389	92.12
419.611	83.12
419.834	94.12
420.057	82.12
420.28	83.12
420.503	108.12
420.726	87.12
420.948	97.12
421.171	81.12
421.394	95.12
421.617	89.12
421.839	94.12
422.062	83.12
422.285	90.12
422.507	100.12
422.73	97.12
422.953	90.12
423.175	95.12
423.398	95.12
423.621	97.12
423.843	80.12
424.066	96.12
424.288	101.12
424.511	97.12
424.733	98.12
424.956	90.12
425.178	96.12
425.401	106.12
425.623	101.12
425.846	98.12
426.068	102.12
426.291	86.12
426.513	89.12
426.735	77.12
426.958	101.12
427.18	102.12
427.402	133.12
427.625	161.12
427.847	137.12
428.069	139.12
428.292	91.12
428.514	102.12
428.736	89.12
428.958	106.12
429.181	97.12
429.403	102.12
429.625	88.12
429.847	98.12
430.069	103.12
430.292	100.12
430.514	88.12
430.736	87.12
430.958	86.12
431.18	99.12
431.402	98.12
431.624	98.12
431.846	97.12
432.068	95.12
432.29	98.12
432.512	90.12
432.734	83.12
432.956	98.12
433.178	92.12
433.4	105.12
433.622	107.12
433.844	90.12
434.066	101.12
434.287	98.12
434.509	101.12
434.731	99.12
434.953	78.12
435.175	101.12
435.397	109.12
435.618	89.12
435.84	112.12
436.062	115.12
436.284	115.12
436.505	96.12
436.727	89.12
436.949	86.12
437.17	90.12
437.392	96.12
437.614	94.12
437.835	106.12
438.057	123.12
438.278	110.12
438.5	113.12
438.721	122.12
438.943	95.12
439.165	89.12
439.386	94.12
439.608	93.12
439.829	108.12
440.05	120.12
440.272	135.12
440.493	96.12
440.715	91.12
440.936	104.12
441.158	86.12
441.379	102.12
441.6	109.12
441.822	82.12
442.043	87.12
442.264	101.12
442.486	98.12
442.707	82.12
442.928	87.12
443.149	121.12
443.371	137.12
443.592	99.12
443.813	96.12
444.034	96.12
444.255	101.12
444.476	90.12
444.698	91.12
444.919	93.12
445.14	126.12
445.361	128.12
445.582	120.12
445.803	146.12
446.024	133.12
446.245	119.12
446.466	125.12
446.687	82.12
446.908	80.12
447.129	81.12
447.35	103.12
447.571	87.12
447.792	92.12
448.013	106.12
448.234	100.12
448.455	109.12
448.675	110.12
448.896	136.12
449.117	97.12
449.338	115.12
449.559	142.12
449.779	130.12
450	91.12
450.221	97.12
450.442	82.12
450.662	102.12
450.883	105.12
451.104	101.12
451.324	91.12
451.545	94.12
451.766	82.12
451.986	94.12
452.207	93.12
452.428	95.12
452.648	100.12
452.869	102.12
453.089	118.12
453.31	109.12
453.53	96.12
453.751	106.12
453.971	98.12
454.192	110.12
454.412	87.12
454.633	105.12
454.853	88.12
455.073	93.12
455.294	89.12
455.514	98.12
455.734	101.12
455.955	87.12
456.175	88.12
456.395	88.12
456.616	85.12
456.836	92.12
457.056	70.12
457.276	96.12
457.497	95.12
457.717	92.12
457.937	88.12
458.157	92.12
458.377	97.12
458.598	104.12
458.818	130.12
459.038	157.12
459.258	114.12
459.478	80.12
459.698	87.12
459.918	86.12
460.138	77.12
460.358	104.12
460.578	85.12
460.798	78.12
461.018	87.12
461.238	83.12
461.458	93.12
461.678	89.12
461.898	88.12
462.118	95.12
462.338	90.12
462.558	71.12
462.777	89.12
462.997	99.12
463.217	97.12
463.437	97.12
463.657	96.12
463.876	91.12
464.096	95.12
464.316	112.12
464.536	84.12
464.755	91.12
464.975	102.12
465.195	144.12
465.414	159.12
465.634	94.12
465.854	82.12
466.073	99.12
466.293	95.12
466.512	100.12
466.732	81.12
466.951	89.12
467.171	91.12
467.391	94.12
467.61	102.12
467.829	104.12
468.049	140.12
468.268	155.12
468.488	102.12
468.707	88.12
468.927	101.12
469.146	91.12
469.365	82.12
469.585	101.12
469.804	106.12
470.023	98.12
470.243	105.12
470.462	108.12
470.681	97.12
470.901	97.12
471.12	98.12
471.339	84.12
471.558	88.12
471.777	111.12
471.997	121.12
472.216	225.12
472.435	342.12
472.654	140.12
472.873	94.12
473.092	78.12
473.311	103.12
473.53	91.12
473.749	82.12
473.968	106.12
474.187	96.12
474.406	84.12
474.625	88.12
474.844	94.12
475.063	98.12
475.282	94.12
475.501	93.12
475.72	91.12
475.939	83.12
476.158	88.12
476.377	86.12
476.596	94.12
476.814	94.12
477.033	79.12
477.252	97.12
477.471	79.12
477.69	90.12
477.908	97.12
478.127	97.12
478.346	99.12
478.564	92.12
478.783	103.12
479.002	110.12
479.22	107.12
479.439	103.12
479.658	91.12
479.876	104.12
480.095	81.12
480.313	105.12
480.532	99.12
480.751	119.12
480.969	199.12
481.188	584.12
481.406	378.12
481.624	131.12
481.843	103.12
482.061	92.12
482.28	103.12
482.498	104.12
482.717	88.12
482.935	86.12
483.153	92.12
483.372	105.12
483.59	87.12
483.808	73.12
484.027	86.12
484.245	89.12
484.463	80.12
484.681	95.12
484.9	96.12
485.118	98.12
485.336	95.12
485.554	96.12
485.772	99.12
485.99	120.12
486.209	106.12
486.427	102.12
486.645	112.12
486.863	109.12
487.081	99.12
487.299	80.12
487.517	102.12
487.735	90.12
487.953	100.12
488.171	102.12
488.389	95.12
488.607	101.12
488.825	90.12
489.043	94.12
489.261	84.12
489.479	91.12
489.696	95.12
489.914	105.12
490.132	102.12
490.35	88.12
490.568	96.12
490.786	100.12
491.003	83.12
491.221	86.12
491.439	93.12
491.657	82.12
491.874	88.12
492.092	89.12
492.31	91.12
492.527	110.12
492.745	101.12
492.963	97.12
493.18	89.12
493.398	92.12
493.615	107.12
493.833	90.12
494.05	91.12
494.268	80.12
494.485	74.12
494.703	91.12
494.92	82.12
495.138	96.12
495.355	96.12
495.573	99.12
495.79	85.12
496.008	98.12
496.225	101.12
496.442	98.12
496.66	81.12
496.877	94.12
497.094	104.12
497.312	89.12
497.529	97.12
497.746	98.12
497.963	98.12
498.181	86.12
498.398	82.12
498.615	109.12
498.832	90.12
499.049	94.12
499.267	92.12
499.484	103.12
499.701	96.12
499.918	103.12
500.135	84.12
500.352	97.12
500.569	94.12
500.786	87.12
501.003	90.12
501.22	96.12
501.437	93.12
501.654	80.12
501.871	115.12
502.088	99.12
502.305	87.12
502.522	77.12
502.739	95.12
502.956	90.12
503.172	98.12
503.389	93.12
503.606	92.12
503.823	105.12
504.04	107.12
504.256	91.12
504.473	90.12
504.69	89.12
504.907	101.12
505.123	94.12
505.34	88.12
505.557	86.12
505.773	96.12
505.99	96.12
506.207	80.12
506.423	102.12
506.64	88.12
506.856	91.12
507.073	99.12
507.289	104.12
507.506	94.12
507.722	104.12
507.939	118.12
508.155	89.12
508.372	96.12
508.588	103.12
508.805	92.12
509.021	85.12
509.238	105.12
509.454	94.12
509.67	96.12
509.887	118.12
510.103	142.12
510.319	203.12
510.536	655.12
510.752	1951.12
510.968	577.12
511.184	146.12
511.401	105.12
511.617	101.12
511.833	95.12
512.049	99.12
512.265	89.12
512.481	102.12
512.698	90.12
512.914	96.12
513.13	85.12
513.346	82.12
513.562	88.12
513.778	106.12
513.994	102.12
514.21	99.12
514.426	111.12
514.642	140.12
