Data from Circ_2011_H10_HRD10591_00019.txt Node
Date: Wed Jan 03 10:08:02 EST 2024
User: Yrep
Spectrometer: HR+D1059
Trigger mode: 1
Integration Time (sec): 1.000000E-1
Scans to average: 1
Electric dark correction enabled: true
Nonlinearity correction enabled: false
Boxcar width: 0
XAxis mode: Wavelengths
Number of Pixels in Spectrum: 2048
>>>>>Begin Spectral Data<<<<<
223.165	-27.69
223.4	-27.69
223.635	-27.69
223.869	-19.69
224.104	-14.69
224.338	-23.69
224.573	-11.69
224.808	-22.69
225.042	-19.69
225.277	-1.69
225.511	1.31
225.746	-3.69
225.98	1.31
226.215	21.31
226.449	22.31
226.683	26.31
226.918	25.31
227.152	47.31
227.387	36.31
227.621	31.31
227.856	37.31
228.09	45.31
228.324	42.31
228.559	40.31
228.793	62.31
229.027	56.31
229.262	66.31
229.496	68.31
229.73	80.31
229.964	65.31
230.199	58.31
230.433	62.31
230.667	78.31
230.901	82.31
231.136	77.31
231.37	73.31
231.604	77.31
231.838	79.31
232.072	87.31
232.306	70.31
232.541	72.31
232.775	79.31
233.009	86.31
233.243	77.31
233.477	83.31
233.711	66.31
233.945	87.31
234.179	84.31
234.413	80.31
234.647	80.31
234.881	70.31
235.115	81.31
235.349	77.31
235.583	83.31
235.817	83.31
236.051	72.31
236.285	74.31
236.519	83.31
236.753	89.31
236.987	81.31
237.221	70.31
237.455	88.31
237.689	65.31
237.922	79.31
238.156	74.31
238.39	74.31
238.624	70.31
238.858	84.31
239.091	76.31
239.325	80.31
239.559	73.31
239.793	62.31
240.027	75.31
240.26	74.31
240.494	81.31
240.728	73.31
240.961	85.31
241.195	66.31
241.429	79.31
241.662	67.31
241.896	73.31
242.13	72.31
242.363	83.31
242.597	77.31
242.83	85.31
243.064	81.31
243.298	74.31
243.531	84.31
243.765	70.31
243.998	83.31
244.232	79.31
244.465	81.31
244.699	79.31
244.932	69.31
245.166	78.31
245.399	79.31
245.633	87.31
245.866	85.31
246.099	78.31
246.333	75.31
246.566	74.31
246.8	72.31
247.033	83.31
247.266	73.31
247.5	74.31
247.733	69.31
247.966	74.31
248.2	79.31
248.433	72.31
248.666	76.31
248.899	82.31
249.133	91.31
249.366	104.31
249.599	93.31
249.832	81.31
250.066	82.31
250.299	79.31
250.532	77.31
250.765	70.31
250.998	77.31
251.231	79.31
251.465	85.31
251.698	73.31
251.931	86.31
252.164	74.31
252.397	81.31
252.63	75.31
252.863	88.31
253.096	90.31
253.329	74.31
253.562	75.31
253.795	71.31
254.028	67.31
254.261	81.31
254.494	82.31
254.727	90.31
254.96	81.31
255.193	84.31
255.426	78.31
255.659	82.31
255.892	64.31
256.124	76.31
256.357	77.31
256.59	85.31
256.823	73.31
257.056	79.31
257.289	89.31
257.521	86.31
257.754	70.31
257.987	86.31
258.22	84.31
258.452	88.31
258.685	83.31
258.918	86.31
259.151	85.31
259.383	75.31
259.616	84.31
259.849	77.31
260.081	85.31
260.314	83.31
260.547	84.31
260.779	96.31
261.012	88.31
261.244	92.31
261.477	82.31
261.71	87.31
261.942	101.31
262.175	103.31
262.407	87.31
262.64	82.31
262.872	95.31
263.105	63.31
263.337	76.31
263.57	88.31
263.802	76.31
264.035	92.31
264.267	90.31
264.499	77.31
264.732	79.31
264.964	83.31
265.197	82.31
265.429	93.31
265.661	77.31
265.894	83.31
266.126	85.31
266.358	81.31
266.591	77.31
266.823	83.31
267.055	78.31
267.287	101.31
267.52	93.31
267.752	71.31
267.984	88.31
268.216	83.31
268.448	86.31
268.681	98.31
268.913	81.31
269.145	82.31
269.377	89.31
269.609	78.31
269.841	88.31
270.073	85.31
270.306	75.31
270.538	79.31
270.77	81.31
271.002	70.31
271.234	86.31
271.466	87.31
271.698	81.31
271.93	93.31
272.162	99.31
272.394	82.31
272.626	82.31
272.858	77.31
273.09	98.31
273.322	82.31
273.553	80.31
273.785	80.31
274.017	74.31
274.249	77.31
274.481	88.31
274.713	91.31
274.945	84.31
275.176	89.31
275.408	89.31
275.64	90.31
275.872	78.31
276.104	90.31
276.335	77.31
276.567	95.31
276.799	92.31
277.031	96.31
277.262	107.31
277.494	77.31
277.726	92.31
277.957	85.31
278.189	86.31
278.421	88.31
278.652	98.31
278.884	84.31
279.115	91.31
279.347	79.31
279.579	88.31
279.81	89.31
280.042	96.31
280.273	91.31
280.505	86.31
280.736	83.31
280.968	68.31
281.199	87.31
281.431	79.31
281.662	91.31
281.894	89.31
282.125	93.31
282.356	114.31
282.588	115.31
282.819	102.31
283.051	92.31
283.282	77.31
283.513	72.31
283.745	74.31
283.976	71.31
284.207	94.31
284.439	85.31
284.67	94.31
284.901	83.31
285.132	79.31
285.364	77.31
285.595	91.31
285.826	77.31
286.057	63.31
286.288	82.31
286.52	77.31
286.751	96.31
286.982	82.31
287.213	87.31
287.444	79.31
287.675	82.31
287.906	87.31
288.138	87.31
288.369	98.31
288.6	94.31
288.831	85.31
289.062	88.31
289.293	89.31
289.524	93.31
289.755	85.31
289.986	69.31
290.217	70.31
290.448	70.31
290.679	77.31
290.91	79.31
291.141	75.31
291.371	100.31
291.602	73.31
291.833	86.31
292.064	78.31
292.295	78.31
292.526	75.31
292.757	99.31
292.987	99.31
293.218	91.31
293.449	79.31
293.68	77.31
293.91	77.31
294.141	91.31
294.372	88.31
294.603	88.31
294.833	81.31
295.064	77.31
295.295	83.31
295.525	72.31
295.756	98.31
295.987	116.31
296.217	135.31
296.448	118.31
296.679	86.31
296.909	82.31
297.14	81.31
297.37	106.31
297.601	83.31
297.831	79.31
298.062	93.31
298.292	91.31
298.523	87.31
298.753	83.31
298.984	79.31
299.214	88.31
299.445	93.31
299.675	100.31
299.905	89.31
300.136	84.31
300.366	91.31
300.597	85.31
300.827	98.31
301.057	85.31
301.288	98.31
301.518	75.31
301.748	76.31
301.979	100.31
302.209	81.31
302.439	99.31
302.669	81.31
302.9	92.31
303.13	89.31
303.36	107.31
303.59	101.31
303.82	107.31
304.051	103.31
304.281	97.31
304.511	92.31
304.741	83.31
304.971	93.31
305.201	91.31
305.431	85.31
305.661	91.31
305.891	91.31
306.121	89.31
306.352	103.31
306.582	97.31
306.812	98.31
307.042	94.31
307.272	97.31
307.502	97.31
307.731	98.31
307.961	95.31
308.191	75.31
308.421	85.31
308.651	94.31
308.881	97.31
309.111	93.31
309.341	95.31
309.571	89.31
309.8	94.31
310.03	102.31
310.26	82.31
310.49	106.31
310.72	94.31
310.949	93.31
311.179	89.31
311.409	86.31
311.639	108.31
311.868	99.31
312.098	98.31
312.328	88.31
312.557	95.31
312.787	107.31
313.017	102.31
313.246	91.31
313.476	89.31
313.706	92.31
313.935	94.31
314.165	100.31
314.394	100.31
314.624	110.31
314.853	75.31
315.083	86.31
315.312	103.31
315.542	85.31
315.771	79.31
316.001	80.31
316.23	89.31
316.46	95.31
316.689	98.31
316.919	93.31
317.148	98.31
317.377	94.31
317.607	95.31
317.836	95.31
318.065	97.31
318.295	92.31
318.524	84.31
318.753	98.31
318.983	87.31
319.212	102.31
319.441	108.31
319.67	91.31
319.9	96.31
320.129	83.31
320.358	97.31
320.587	84.31
320.816	96.31
321.046	92.31
321.275	84.31
321.504	87.31
321.733	99.31
321.962	102.31
322.191	88.31
322.42	98.31
322.649	109.31
322.878	115.31
323.108	113.31
323.337	110.31
323.566	119.31
323.795	158.31
324.024	213.31
324.253	402.31
324.482	846.31
324.71	1736.31
324.939	2317.31
325.168	825.31
325.397	232.31
325.626	167.31
325.855	128.31
326.084	123.31
326.313	138.31
326.542	143.31
326.77	237.31
326.999	494.31
327.228	971.31
327.457	1794.31
327.686	1441.31
327.914	376.31
328.143	207.31
328.372	167.31
328.6	155.31
328.829	115.31
329.058	115.31
329.287	109.31
329.515	114.31
329.744	103.31
329.972	113.31
330.201	137.31
330.43	186.31
330.658	145.31
330.887	134.31
331.115	108.31
331.344	84.31
331.572	92.31
331.801	106.31
332.03	102.31
332.258	99.31
332.486	97.31
332.715	101.31
332.943	93.31
333.172	84.31
333.4	112.31
333.629	104.31
333.857	118.31
334.085	114.31
334.314	137.31
334.542	203.31
334.771	207.31
334.999	123.31
335.227	91.31
335.455	100.31
335.684	94.31
335.912	91.31
336.14	93.31
336.369	100.31
336.597	100.31
336.825	93.31
337.053	89.31
337.281	107.31
337.51	83.31
337.738	97.31
337.966	82.31
338.194	95.31
338.422	99.31
338.65	93.31
338.878	91.31
339.106	89.31
339.334	78.31
339.562	81.31
339.79	97.31
340.018	95.31
340.246	94.31
340.474	96.31
340.702	90.31
340.93	86.31
341.158	100.31
341.386	104.31
341.614	83.31
341.842	99.31
342.07	99.31
342.298	90.31
342.526	85.31
342.754	71.31
342.981	84.31
343.209	83.31
343.437	87.31
343.665	90.31
343.893	91.31
344.12	102.31
344.348	102.31
344.576	83.31
344.804	94.31
345.031	106.31
345.259	100.31
345.487	97.31
345.714	97.31
345.942	75.31
346.17	70.31
346.397	80.31
346.625	94.31
346.853	77.31
347.08	95.31
347.308	92.31
347.535	95.31
347.763	98.31
347.99	93.31
348.218	90.31
348.445	115.31
348.673	91.31
348.9	103.31
349.128	91.31
349.355	100.31
349.583	81.31
349.81	98.31
350.037	74.31
350.265	93.31
350.492	106.31
350.72	83.31
350.947	105.31
351.174	103.31
351.402	89.31
351.629	92.31
351.856	91.31
352.083	81.31
352.311	92.31
352.538	93.31
352.765	93.31
352.992	114.31
353.22	97.31
353.447	98.31
353.674	105.31
353.901	99.31
354.128	90.31
354.355	80.31
354.583	100.31
354.81	83.31
355.037	84.31
355.264	71.31
355.491	98.31
355.718	80.31
355.945	89.31
356.172	92.31
356.399	100.31
356.626	94.31
356.853	97.31
357.08	81.31
357.307	97.31
357.534	95.31
357.761	92.31
357.988	98.31
358.215	96.31
358.441	71.31
358.668	95.31
358.895	86.31
359.122	88.31
359.349	78.31
359.576	115.31
359.802	87.31
360.029	79.31
360.256	102.31
360.483	99.31
360.709	83.31
360.936	98.31
361.163	93.31
361.39	81.31
361.616	101.31
361.843	105.31
362.07	88.31
362.296	98.31
362.523	96.31
362.749	101.31
362.976	84.31
363.203	91.31
363.429	77.31
363.656	89.31
363.882	85.31
364.109	79.31
364.335	79.31
364.562	100.31
364.788	94.31
365.015	101.31
365.241	96.31
365.468	113.31
365.694	106.31
365.92	84.31
366.147	94.31
366.373	93.31
366.599	90.31
366.826	87.31
367.052	97.31
367.278	86.31
367.505	77.31
367.731	78.31
367.957	96.31
368.184	94.31
368.41	88.31
368.636	94.31
368.862	110.31
369.089	101.31
369.315	85.31
369.541	82.31
369.767	83.31
369.993	78.31
370.219	88.31
370.445	90.31
370.672	75.31
370.898	67.31
371.124	97.31
371.35	81.31
371.576	79.31
371.802	76.31
372.028	77.31
372.254	83.31
372.48	90.31
372.706	89.31
372.932	86.31
373.158	92.31
373.384	89.31
373.61	95.31
373.835	77.31
374.061	94.31
374.287	82.31
374.513	92.31
374.739	89.31
374.965	81.31
375.191	81.31
375.416	91.31
375.642	97.31
375.868	89.31
376.094	83.31
376.319	84.31
376.545	90.31
376.771	90.31
376.997	76.31
377.222	93.31
377.448	98.31
377.674	74.31
377.899	88.31
378.125	75.31
378.35	91.31
378.576	75.31
378.802	94.31
379.027	87.31
379.253	86.31
379.478	84.31
379.704	84.31
379.929	86.31
380.155	98.31
380.38	89.31
380.606	87.31
380.831	85.31
381.057	103.31
381.282	85.31
381.507	86.31
381.733	106.31
381.958	105.31
382.184	98.31
382.409	94.31
382.634	95.31
382.86	94.31
383.085	93.31
383.31	78.31
383.535	103.31
383.761	95.31
383.986	85.31
384.211	83.31
384.436	93.31
384.662	103.31
384.887	86.31
385.112	90.31
385.337	87.31
385.562	91.31
385.787	93.31
386.013	91.31
386.238	94.31
386.463	105.31
386.688	112.31
386.913	97.31
387.138	113.31
387.363	103.31
387.588	105.31
387.813	83.31
388.038	92.31
388.263	90.31
388.488	99.31
388.713	95.31
388.938	91.31
389.163	88.31
389.387	89.31
389.612	92.31
389.837	86.31
390.062	80.31
390.287	77.31
390.512	89.31
390.736	88.31
390.961	103.31
391.186	97.31
391.411	90.31
391.636	79.31
391.86	90.31
392.085	75.31
392.31	88.31
392.534	78.31
392.759	72.31
392.984	82.31
393.208	78.31
393.433	94.31
393.658	88.31
393.882	79.31
394.107	76.31
394.331	79.31
394.556	76.31
394.78	83.31
395.005	87.31
395.229	90.31
395.454	82.31
395.678	77.31
395.903	92.31
396.127	88.31
396.352	76.31
396.576	85.31
396.801	89.31
397.025	83.31
397.249	82.31
397.474	95.31
397.698	85.31
397.922	90.31
398.147	79.31
398.371	72.31
398.595	81.31
398.82	78.31
399.044	85.31
399.268	85.31
399.492	98.31
399.717	100.31
399.941	75.31
400.165	82.31
400.389	90.31
400.613	92.31
400.837	65.31
401.062	89.31
401.286	86.31
401.51	92.31
401.734	87.31
401.958	87.31
402.182	127.31
402.406	140.31
402.63	110.31
402.854	88.31
403.078	88.31
403.302	77.31
403.526	94.31
403.75	93.31
403.974	87.31
404.198	83.31
404.422	84.31
404.645	96.31
404.869	88.31
405.093	98.31
405.317	96.31
405.541	76.31
405.765	97.31
405.988	101.31
406.212	142.31
406.436	207.31
406.66	135.31
406.883	80.31
407.107	82.31
407.331	89.31
407.555	98.31
407.778	108.31
408.002	82.31
408.226	85.31
408.449	74.31
408.673	77.31
408.896	83.31
409.12	105.31
409.344	95.31
409.567	88.31
409.791	99.31
410.014	85.31
410.238	82.31
410.461	87.31
410.685	84.31
410.908	86.31
411.132	97.31
411.355	91.31
411.578	103.31
411.802	91.31
412.025	86.31
412.249	77.31
412.472	73.31
412.695	108.31
412.919	94.31
413.142	84.31
413.365	91.31
413.589	83.31
413.812	90.31
414.035	96.31
414.258	88.31
414.482	78.31
414.705	94.31
414.928	91.31
415.151	76.31
415.374	78.31
415.597	84.31
415.821	89.31
416.044	93.31
416.267	80.31
416.49	69.31
416.713	82.31
416.936	101.31
417.159	91.31
417.382	77.31
417.605	99.31
417.828	96.31
418.051	97.31
418.274	89.31
418.497	74.31
418.72	78.31
418.943	86.31
419.166	77.31
419.389	87.31
419.611	83.31
419.834	97.31
420.057	82.31
420.28	87.31
420.503	71.31
420.726	85.31
420.948	96.31
421.171	95.31
421.394	84.31
421.617	93.31
421.839	97.31
422.062	86.31
422.285	93.31
422.507	94.31
422.73	103.31
422.953	98.31
423.175	97.31
423.398	90.31
423.621	77.31
423.843	76.31
424.066	88.31
424.288	79.31
424.511	92.31
424.733	89.31
424.956	101.31
425.178	95.31
425.401	93.31
425.623	97.31
425.846	76.31
426.068	77.31
426.291	91.31
426.513	94.31
426.735	85.31
426.958	103.31
427.18	98.31
427.402	135.31
427.625	154.31
427.847	139.31
428.069	131.31
428.292	89.31
428.514	77.31
428.736	76.31
428.958	87.31
429.181	88.31
429.403	92.31
429.625	89.31
429.847	102.31
430.069	105.31
430.292	106.31
430.514	95.31
430.736	80.31
430.958	87.31
431.18	60.31
431.402	79.31
431.624	85.31
431.846	90.31
432.068	77.31
432.29	85.31
432.512	86.31
432.734	77.31
432.956	95.31
433.178	125.31
433.4	103.31
433.622	87.31
433.844	87.31
434.066	97.31
434.287	89.31
434.509	87.31
434.731	94.31
434.953	79.31
435.175	86.31
435.397	100.31
435.618	88.31
435.84	104.31
436.062	117.31
436.284	110.31
436.505	94.31
436.727	91.31
436.949	100.31
437.17	77.31
437.392	90.31
437.614	77.31
437.835	95.31
438.057	100.31
438.278	108.31
438.5	108.31
438.721	134.31
438.943	106.31
439.165	80.31
439.386	90.31
439.608	77.31
439.829	100.31
440.05	121.31
440.272	129.31
440.493	103.31
440.715	95.31
440.936	77.31
441.158	89.31
441.379	74.31
441.6	87.31
441.822	86.31
442.043	78.31
442.264	96.31
442.486	97.31
442.707	82.31
442.928	99.31
443.149	124.31
443.371	117.31
443.592	106.31
443.813	111.31
444.034	103.31
444.255	80.31
444.476	77.31
444.698	97.31
444.919	91.31
445.14	102.31
445.361	110.31
445.582	102.31
445.803	128.31
446.024	120.31
446.245	122.31
446.466	113.31
446.687	98.31
446.908	86.31
447.129	79.31
447.35	87.31
447.571	94.31
447.792	93.31
448.013	89.31
448.234	100.31
448.455	100.31
448.675	114.31
448.896	104.31
449.117	107.31
449.338	118.31
449.559	118.31
449.779	143.31
450	96.31
450.221	76.31
450.442	76.31
450.662	75.31
450.883	90.31
451.104	102.31
451.324	90.31
451.545	82.31
451.766	86.31
451.986	73.31
452.207	93.31
452.428	90.31
452.648	83.31
452.869	104.31
453.089	102.31
453.31	115.31
453.53	101.31
453.751	88.31
453.971	110.31
454.192	101.31
454.412	77.31
454.633	86.31
454.853	92.31
455.073	77.31
455.294	88.31
455.514	92.31
455.734	84.31
455.955	68.31
456.175	78.31
456.395	84.31
456.616	87.31
456.836	88.31
457.056	84.31
457.276	85.31
457.497	81.31
457.717	82.31
457.937	76.31
458.157	88.31
458.377	85.31
458.598	109.31
458.818	147.31
459.038	153.31
459.258	110.31
459.478	100.31
459.698	87.31
459.918	82.31
460.138	67.31
460.358	81.31
460.578	93.31
460.798	84.31
461.018	83.31
461.238	92.31
461.458	87.31
461.678	84.31
461.898	85.31
462.118	84.31
462.338	81.31
462.558	79.31
462.777	74.31
462.997	80.31
463.217	72.31
463.437	92.31
463.657	91.31
463.876	93.31
464.096	82.31
464.316	90.31
464.536	85.31
464.755	77.31
464.975	99.31
465.195	157.31
465.414	143.31
465.634	91.31
465.854	88.31
466.073	96.31
466.293	79.31
466.512	78.31
466.732	91.31
466.951	76.31
467.171	96.31
467.391	93.31
467.61	91.31
467.829	102.31
468.049	117.31
468.268	134.31
468.488	88.31
468.707	79.31
468.927	77.31
469.146	76.31
469.365	92.31
469.585	87.31
469.804	95.31
470.023	100.31
470.243	78.31
470.462	94.31
470.681	110.31
470.901	87.31
471.12	81.31
471.339	91.31
471.558	96.31
471.777	88.31
471.997	92.31
472.216	168.31
472.435	242.31
472.654	121.31
472.873	92.31
473.092	78.31
473.311	78.31
473.53	90.31
473.749	75.31
473.968	95.31
474.187	98.31
474.406	101.31
474.625	100.31
474.844	78.31
475.063	72.31
475.282	79.31
475.501	79.31
475.72	88.31
475.939	89.31
476.158	82.31
476.377	61.31
476.596	86.31
476.814	94.31
477.033	86.31
477.252	92.31
477.471	86.31
477.69	86.31
477.908	84.31
478.127	91.31
478.346	80.31
478.564	101.31
478.783	85.31
479.002	99.31
479.22	104.31
479.439	89.31
479.658	77.31
479.876	89.31
480.095	97.31
480.313	80.31
480.532	83.31
480.751	93.31
480.969	150.31
481.188	374.31
481.406	264.31
481.624	100.31
481.843	98.31
482.061	91.31
482.28	99.31
482.498	91.31
482.717	86.31
482.935	82.31
483.153	91.31
483.372	86.31
483.59	89.31
483.808	93.31
484.027	79.31
484.245	100.31
484.463	82.31
484.681	95.31
484.9	99.31
485.118	89.31
485.336	82.31
485.554	106.31
485.772	91.31
485.99	98.31
486.209	111.31
486.427	95.31
486.645	103.31
486.863	103.31
487.081	94.31
487.299	109.31
487.517	108.31
487.735	82.31
487.953	85.31
488.171	90.31
488.389	94.31
488.607	98.31
488.825	87.31
489.043	94.31
489.261	82.31
489.479	83.31
489.696	85.31
489.914	96.31
490.132	94.31
490.35	88.31
490.568	82.31
490.786	95.31
491.003	76.31
491.221	92.31
491.439	90.31
491.657	86.31
491.874	73.31
492.092	98.31
492.31	69.31
492.527	93.31
492.745	107.31
492.963	105.31
493.18	82.31
493.398	83.31
493.615	97.31
493.833	97.31
494.05	93.31
494.268	85.31
494.485	98.31
494.703	92.31
494.92	92.31
495.138	93.31
495.355	95.31
495.573	89.31
495.79	93.31
496.008	96.31
496.225	93.31
496.442	91.31
496.66	98.31
496.877	79.31
497.094	75.31
497.312	89.31
497.529	90.31
497.746	77.31
497.963	97.31
498.181	82.31
498.398	87.31
498.615	104.31
498.832	102.31
499.049	89.31
499.267	96.31
499.484	93.31
499.701	99.31
499.918	85.31
500.135	75.31
500.352	83.31
500.569	81.31
500.786	86.31
501.003	77.31
501.22	81.31
501.437	98.31
501.654	89.31
501.871	96.31
502.088	78.31
502.305	84.31
502.522	89.31
502.739	86.31
502.956	80.31
503.172	86.31
503.389	90.31
503.606	83.31
503.823	95.31
504.04	106.31
504.256	78.31
504.473	91.31
504.69	110.31
504.907	100.31
505.123	78.31
505.34	84.31
505.557	100.31
505.773	86.31
505.99	94.31
506.207	90.31
506.423	95.31
506.64	90.31
506.856	90.31
507.073	94.31
507.289	90.31
507.506	92.31
507.722	109.31
507.939	102.31
508.155	93.31
508.372	90.31
508.588	78.31
508.805	78.31
509.021	85.31
509.238	114.31
509.454	101.31
509.67	97.31
509.887	125.31
510.103	113.31
510.319	198.31
510.536	661.31
510.752	2059.31
510.968	589.31
511.184	141.31
511.401	96.31
511.617	84.31
511.833	95.31
512.049	94.31
512.265	97.31
512.481	85.31
512.698	93.31
512.914	96.31
513.13	95.31
513.346	99.31
513.562	97.31
513.778	111.31
513.994	107.31
514.21	98.31
514.426	109.31
514.642	118.31
514.858	117.31
515.074	154.31
515.29	430.31
515.506	1287.31
515.721	499.31
515.937	133.31
516.153	101.31
516.369	75.31
516.585	95.31
