Data from Circ_2011_H10_HRD10591_00012.txt Node
Date: Wed Jan 03 10:08:01 EST 2024
User: Yrep
Spectrometer: HR+D1059
Trigger mode: 1
Integration Time (sec): 1.000000E-1
Scans to average: 1
Electric dark correction enabled: true
Nonlinearity correction enabled: false
Boxcar width: 0
XAxis mode: Wavelengths
Number of Pixels in Spectrum: 2048
>>>>>Begin Spectral Data<<<<<
223.165	-19.19
223.4	-19.19
223.635	-19.19
223.869	-32.19
224.104	-19.19
224.338	-14.19
224.573	-6.19
224.808	-9.19
225.042	-17.19
225.277	-10.19
225.511	-10.19
225.746	-2.19
225.98	14.81
226.215	18.81
226.449	29.81
226.683	13.81
226.918	27.81
227.152	34.81
227.387	38.81
227.621	33.81
227.856	37.81
228.09	45.81
228.324	43.81
228.559	59.81
228.793	48.81
229.027	70.81
229.262	58.81
229.496	68.81
229.73	83.81
229.964	81.81
230.199	61.81
230.433	75.81
230.667	66.81
230.901	73.81
231.136	84.81
231.37	82.81
231.604	73.81
231.838	95.81
232.072	80.81
232.306	79.81
232.541	75.81
232.775	91.81
233.009	73.81
233.243	83.81
233.477	73.81
233.711	73.81
233.945	67.81
234.179	78.81
234.413	76.81
234.647	82.81
234.881	78.81
235.115	78.81
235.349	77.81
235.583	73.81
235.817	81.81
236.051	87.81
236.285	62.81
236.519	66.81
236.753	83.81
236.987	84.81
237.221	79.81
237.455	83.81
237.689	79.81
237.922	76.81
238.156	73.81
238.39	85.81
238.624	77.81
238.858	69.81
239.091	79.81
239.325	78.81
239.559	77.81
239.793	79.81
240.027	66.81
240.26	87.81
240.494	89.81
240.728	79.81
240.961	71.81
241.195	57.81
241.429	67.81
241.662	71.81
241.896	76.81
242.13	76.81
242.363	75.81
242.597	73.81
242.83	85.81
243.064	80.81
243.298	64.81
243.531	59.81
243.765	61.81
243.998	73.81
244.232	78.81
244.465	80.81
244.699	70.81
244.932	77.81
245.166	66.81
245.399	64.81
245.633	78.81
245.866	78.81
246.099	61.81
246.333	86.81
246.566	63.81
246.8	89.81
247.033	66.81
247.266	75.81
247.5	79.81
247.733	79.81
247.966	67.81
248.2	84.81
248.433	77.81
248.666	65.81
248.899	81.81
249.133	82.81
249.366	91.81
249.599	78.81
249.832	83.81
250.066	77.81
250.299	56.81
250.532	82.81
250.765	77.81
250.998	74.81
251.231	74.81
251.465	87.81
251.698	73.81
251.931	83.81
252.164	97.81
252.397	76.81
252.63	86.81
252.863	82.81
253.096	74.81
253.329	83.81
253.562	85.81
253.795	76.81
254.028	81.81
254.261	81.81
254.494	69.81
254.727	91.81
254.96	87.81
255.193	75.81
255.426	86.81
255.659	89.81
255.892	85.81
256.124	90.81
256.357	69.81
256.59	78.81
256.823	78.81
257.056	65.81
257.289	75.81
257.521	73.81
257.754	78.81
257.987	73.81
258.22	87.81
258.452	97.81
258.685	86.81
258.918	91.81
259.151	82.81
259.383	83.81
259.616	75.81
259.849	93.81
260.081	67.81
260.314	81.81
260.547	78.81
260.779	81.81
261.012	78.81
261.244	92.81
261.477	102.81
261.71	81.81
261.942	97.81
262.175	105.81
262.407	78.81
262.64	87.81
262.872	72.81
263.105	84.81
263.337	84.81
263.57	73.81
263.802	84.81
264.035	80.81
264.267	93.81
264.499	85.81
264.732	89.81
264.964	88.81
265.197	80.81
265.429	79.81
265.661	71.81
265.894	88.81
266.126	72.81
266.358	83.81
266.591	88.81
266.823	76.81
267.055	85.81
267.287	83.81
267.52	93.81
267.752	90.81
267.984	83.81
268.216	85.81
268.448	89.81
268.681	75.81
268.913	75.81
269.145	88.81
269.377	89.81
269.609	77.81
269.841	70.81
270.073	88.81
270.306	89.81
270.538	103.81
270.77	83.81
271.002	73.81
271.234	82.81
271.466	83.81
271.698	82.81
271.93	74.81
272.162	88.81
272.394	88.81
272.626	70.81
272.858	94.81
273.09	75.81
273.322	71.81
273.553	83.81
273.785	81.81
274.017	85.81
274.249	82.81
274.481	90.81
274.713	78.81
274.945	81.81
275.176	78.81
275.408	86.81
275.64	82.81
275.872	79.81
276.104	79.81
276.335	82.81
276.567	91.81
276.799	89.81
277.031	93.81
277.262	75.81
277.494	88.81
277.726	83.81
277.957	79.81
278.189	70.81
278.421	82.81
278.652	78.81
278.884	91.81
279.115	72.81
279.347	93.81
279.579	89.81
279.81	89.81
280.042	82.81
280.273	90.81
280.505	90.81
280.736	81.81
280.968	91.81
281.199	87.81
281.431	78.81
281.662	89.81
281.894	73.81
282.125	88.81
282.356	97.81
282.588	124.81
282.819	94.81
283.051	89.81
283.282	82.81
283.513	94.81
283.745	78.81
283.976	77.81
284.207	82.81
284.439	82.81
284.67	85.81
284.901	87.81
285.132	76.81
285.364	83.81
285.595	75.81
285.826	89.81
286.057	77.81
286.288	74.81
286.52	88.81
286.751	87.81
286.982	89.81
287.213	92.81
287.444	88.81
287.675	95.81
287.906	97.81
288.138	82.81
288.369	90.81
288.6	101.81
288.831	81.81
289.062	98.81
289.293	88.81
289.524	76.81
289.755	96.81
289.986	82.81
290.217	78.81
290.448	77.81
290.679	74.81
290.91	92.81
291.141	69.81
291.371	79.81
291.602	76.81
291.833	90.81
292.064	91.81
292.295	77.81
292.526	76.81
292.757	76.81
292.987	84.81
293.218	92.81
293.449	76.81
293.68	86.81
293.91	97.81
294.141	96.81
294.372	76.81
294.603	83.81
294.833	92.81
295.064	93.81
295.295	80.81
295.525	97.81
295.756	96.81
295.987	107.81
296.217	130.81
296.448	111.81
296.679	93.81
296.909	90.81
297.14	84.81
297.37	95.81
297.601	93.81
297.831	96.81
298.062	75.81
298.292	99.81
298.523	87.81
298.753	93.81
298.984	84.81
299.214	83.81
299.445	84.81
299.675	89.81
299.905	84.81
300.136	80.81
300.366	85.81
300.597	79.81
300.827	99.81
301.057	91.81
301.288	122.81
301.518	91.81
301.748	66.81
301.979	88.81
302.209	76.81
302.439	80.81
302.669	83.81
302.9	94.81
303.13	93.81
303.36	75.81
303.59	87.81
303.82	88.81
304.051	90.81
304.281	91.81
304.511	94.81
304.741	79.81
304.971	90.81
305.201	85.81
305.431	78.81
305.661	75.81
305.891	95.81
306.121	101.81
306.352	107.81
306.582	86.81
306.812	89.81
307.042	85.81
307.272	89.81
307.502	97.81
307.731	79.81
307.961	80.81
308.191	91.81
308.421	97.81
308.651	82.81
308.881	91.81
309.111	108.81
309.341	92.81
309.571	101.81
309.8	90.81
310.03	97.81
310.26	103.81
310.49	99.81
310.72	91.81
310.949	110.81
311.179	106.81
311.409	86.81
311.639	106.81
311.868	86.81
312.098	79.81
312.328	81.81
312.557	109.81
312.787	95.81
313.017	90.81
313.246	86.81
313.476	79.81
313.706	79.81
313.935	86.81
314.165	86.81
314.394	105.81
314.624	91.81
314.853	90.81
315.083	85.81
315.312	91.81
315.542	87.81
315.771	96.81
316.001	87.81
316.23	80.81
316.46	73.81
316.689	96.81
316.919	97.81
317.148	78.81
317.377	99.81
317.607	90.81
317.836	85.81
318.065	98.81
318.295	84.81
318.524	110.81
318.753	93.81
318.983	90.81
319.212	87.81
319.441	98.81
319.67	96.81
319.9	94.81
320.129	76.81
320.358	88.81
320.587	84.81
320.816	90.81
321.046	80.81
321.275	81.81
321.504	95.81
321.733	97.81
321.962	103.81
322.191	90.81
322.42	109.81
322.649	110.81
322.878	107.81
323.108	111.81
323.337	119.81
323.566	122.81
323.795	142.81
324.024	180.81
324.253	358.81
324.482	768.81
324.71	1559.81
324.939	2012.81
325.168	740.81
325.397	212.81
325.626	137.81
325.855	138.81
326.084	119.81
326.313	121.81
326.542	141.81
326.77	213.81
326.999	442.81
327.228	888.81
327.457	1605.81
327.686	1267.81
327.914	351.81
328.143	189.81
328.372	157.81
328.6	119.81
328.829	113.81
329.058	110.81
329.287	98.81
329.515	100.81
329.744	92.81
329.972	111.81
330.201	128.81
330.43	158.81
330.658	142.81
330.887	135.81
331.115	127.81
331.344	99.81
331.572	94.81
331.801	109.81
332.03	98.81
332.258	101.81
332.486	86.81
332.715	84.81
332.943	91.81
333.172	98.81
333.4	89.81
333.629	97.81
333.857	109.81
334.085	122.81
334.314	131.81
334.542	190.81
334.771	167.81
334.999	105.81
335.227	97.81
335.455	91.81
335.684	101.81
335.912	86.81
336.14	86.81
336.369	87.81
336.597	93.81
336.825	92.81
337.053	89.81
337.281	85.81
337.51	90.81
337.738	101.81
337.966	96.81
338.194	74.81
338.422	67.81
338.65	94.81
338.878	71.81
339.106	82.81
339.334	90.81
339.562	75.81
339.79	98.81
340.018	90.81
340.246	91.81
340.474	93.81
340.702	76.81
340.93	68.81
341.158	99.81
341.386	91.81
341.614	86.81
341.842	87.81
342.07	88.81
342.298	99.81
342.526	84.81
342.754	78.81
342.981	96.81
343.209	93.81
343.437	101.81
343.665	81.81
343.893	91.81
344.12	97.81
344.348	87.81
344.576	85.81
344.804	83.81
345.031	93.81
345.259	80.81
345.487	92.81
345.714	97.81
345.942	95.81
346.17	91.81
346.397	87.81
346.625	99.81
346.853	91.81
347.08	80.81
347.308	87.81
347.535	91.81
347.763	80.81
347.99	94.81
348.218	90.81
348.445	92.81
348.673	86.81
348.9	88.81
349.128	78.81
349.355	94.81
349.583	87.81
349.81	90.81
350.037	86.81
350.265	103.81
350.492	84.81
350.72	100.81
350.947	97.81
351.174	109.81
351.402	100.81
351.629	100.81
351.856	89.81
352.083	94.81
352.311	81.81
352.538	92.81
352.765	95.81
352.992	119.81
353.22	102.81
353.447	101.81
353.674	98.81
353.901	94.81
354.128	81.81
354.355	101.81
354.583	90.81
354.81	90.81
355.037	91.81
355.264	99.81
355.491	89.81
355.718	85.81
355.945	97.81
356.172	79.81
356.399	84.81
356.626	89.81
356.853	88.81
357.08	88.81
357.307	82.81
357.534	79.81
357.761	92.81
357.988	98.81
358.215	83.81
358.441	78.81
358.668	91.81
358.895	91.81
359.122	78.81
359.349	82.81
359.576	83.81
359.802	101.81
360.029	101.81
360.256	105.81
360.483	82.81
360.709	87.81
360.936	101.81
361.163	104.81
361.39	82.81
361.616	83.81
361.843	76.81
362.07	94.81
362.296	94.81
362.523	89.81
362.749	98.81
362.976	98.81
363.203	85.81
363.429	67.81
363.656	87.81
363.882	86.81
364.109	80.81
364.335	93.81
364.562	102.81
364.788	82.81
365.015	98.81
365.241	94.81
365.468	104.81
365.694	103.81
365.92	93.81
366.147	97.81
366.373	92.81
366.599	92.81
366.826	92.81
367.052	93.81
367.278	76.81
367.505	91.81
367.731	75.81
367.957	85.81
368.184	83.81
368.41	97.81
368.636	105.81
368.862	113.81
369.089	99.81
369.315	93.81
369.541	83.81
369.767	88.81
369.993	95.81
370.219	81.81
370.445	88.81
370.672	83.81
370.898	83.81
371.124	67.81
371.35	91.81
371.576	89.81
371.802	70.81
372.028	78.81
372.254	74.81
372.48	97.81
372.706	81.81
372.932	86.81
373.158	83.81
373.384	84.81
373.61	84.81
373.835	93.81
374.061	84.81
374.287	70.81
374.513	88.81
374.739	86.81
374.965	78.81
375.191	75.81
375.416	97.81
375.642	85.81
375.868	76.81
376.094	76.81
376.319	83.81
376.545	85.81
376.771	79.81
376.997	90.81
377.222	80.81
377.448	78.81
377.674	105.81
377.899	92.81
378.125	87.81
378.35	102.81
378.576	72.81
378.802	82.81
379.027	87.81
379.253	81.81
379.478	80.81
379.704	84.81
379.929	87.81
380.155	89.81
380.38	88.81
380.606	84.81
380.831	99.81
381.057	101.81
381.282	82.81
381.507	81.81
381.733	84.81
381.958	93.81
382.184	69.81
382.409	89.81
382.634	109.81
382.86	91.81
383.085	92.81
383.31	92.81
383.535	107.81
383.761	95.81
383.986	81.81
384.211	85.81
384.436	93.81
384.662	108.81
384.887	83.81
385.112	101.81
385.337	98.81
385.562	89.81
385.787	100.81
386.013	82.81
386.238	86.81
386.463	98.81
386.688	106.81
386.913	100.81
387.138	94.81
387.363	101.81
387.588	82.81
387.813	87.81
388.038	96.81
388.263	96.81
388.488	100.81
388.713	94.81
388.938	88.81
389.163	96.81
389.387	98.81
389.612	85.81
389.837	76.81
390.062	90.81
390.287	88.81
390.512	92.81
390.736	86.81
390.961	98.81
391.186	95.81
391.411	83.81
391.636	95.81
391.86	86.81
392.085	90.81
392.31	93.81
392.534	88.81
392.759	81.81
392.984	79.81
393.208	86.81
393.433	83.81
393.658	94.81
393.882	84.81
394.107	88.81
394.331	92.81
394.556	82.81
394.78	80.81
395.005	83.81
395.229	83.81
395.454	79.81
395.678	79.81
395.903	76.81
396.127	80.81
396.352	89.81
396.576	93.81
396.801	95.81
397.025	94.81
397.249	84.81
397.474	91.81
397.698	77.81
397.922	88.81
398.147	80.81
398.371	79.81
398.595	71.81
398.82	88.81
399.044	87.81
399.268	95.81
399.492	77.81
399.717	76.81
399.941	81.81
400.165	105.81
400.389	91.81
400.613	92.81
400.837	91.81
401.062	89.81
401.286	87.81
401.51	94.81
401.734	95.81
401.958	103.81
402.182	129.81
402.406	130.81
402.63	102.81
402.854	77.81
403.078	78.81
403.302	81.81
403.526	92.81
403.75	93.81
403.974	82.81
404.198	77.81
404.422	84.81
404.645	89.81
404.869	91.81
405.093	94.81
405.317	84.81
405.541	80.81
405.765	91.81
405.988	106.81
406.212	158.81
406.436	182.81
406.66	132.81
406.883	111.81
407.107	86.81
407.331	93.81
407.555	101.81
407.778	90.81
408.002	81.81
408.226	85.81
408.449	83.81
408.673	85.81
408.896	98.81
409.12	97.81
409.344	93.81
409.567	90.81
409.791	80.81
410.014	108.81
410.238	97.81
410.461	91.81
410.685	95.81
410.908	101.81
411.132	91.81
411.355	95.81
411.578	78.81
411.802	95.81
412.025	93.81
412.249	79.81
412.472	94.81
412.695	89.81
412.919	77.81
413.142	85.81
413.365	100.81
413.589	87.81
413.812	76.81
414.035	81.81
414.258	89.81
414.482	80.81
414.705	85.81
414.928	101.81
415.151	85.81
415.374	95.81
415.597	90.81
415.821	84.81
416.044	80.81
416.267	96.81
416.49	71.81
416.713	69.81
416.936	88.81
417.159	85.81
417.382	101.81
417.605	99.81
417.828	75.81
418.051	99.81
418.274	92.81
418.497	84.81
418.72	90.81
418.943	94.81
419.166	78.81
419.389	101.81
419.611	92.81
419.834	79.81
420.057	87.81
420.28	83.81
420.503	85.81
420.726	85.81
420.948	79.81
421.171	80.81
421.394	90.81
421.617	97.81
421.839	98.81
422.062	79.81
422.285	89.81
422.507	79.81
422.73	106.81
422.953	90.81
423.175	86.81
423.398	93.81
423.621	83.81
423.843	79.81
424.066	89.81
424.288	74.81
424.511	86.81
424.733	81.81
424.956	104.81
425.178	91.81
425.401	99.81
425.623	88.81
425.846	93.81
426.068	87.81
426.291	80.81
426.513	99.81
426.735	90.81
426.958	93.81
427.18	98.81
427.402	115.81
427.625	138.81
427.847	104.81
428.069	91.81
428.292	81.81
428.514	76.81
428.736	79.81
428.958	69.81
429.181	78.81
429.403	78.81
429.625	85.81
429.847	88.81
430.069	97.81
430.292	107.81
430.514	87.81
430.736	90.81
430.958	79.81
431.18	94.81
431.402	76.81
431.624	79.81
431.846	81.81
432.068	79.81
432.29	77.81
432.512	79.81
432.734	76.81
432.956	90.81
433.178	87.81
433.4	88.81
433.622	83.81
433.844	93.81
434.066	92.81
434.287	78.81
434.509	90.81
434.731	88.81
434.953	85.81
435.175	86.81
435.397	83.81
435.618	76.81
435.84	100.81
436.062	101.81
436.284	117.81
436.505	105.81
436.727	99.81
436.949	79.81
437.17	89.81
437.392	69.81
437.614	89.81
437.835	101.81
438.057	106.81
438.278	108.81
438.5	94.81
438.721	109.81
438.943	99.81
439.165	90.81
439.386	95.81
439.608	94.81
439.829	90.81
440.05	114.81
440.272	131.81
440.493	106.81
440.715	87.81
440.936	98.81
441.158	82.81
441.379	87.81
441.6	94.81
441.822	98.81
442.043	97.81
442.264	103.81
442.486	104.81
442.707	87.81
442.928	81.81
443.149	114.81
443.371	114.81
443.592	105.81
443.813	100.81
444.034	103.81
444.255	87.81
444.476	77.81
444.698	92.81
444.919	83.81
445.14	115.81
445.361	122.81
445.582	100.81
445.803	129.81
446.024	124.81
446.245	115.81
446.466	110.81
446.687	100.81
446.908	91.81
447.129	90.81
447.35	94.81
447.571	89.81
447.792	90.81
448.013	109.81
448.234	98.81
448.455	95.81
448.675	93.81
448.896	99.81
449.117	88.81
449.338	84.81
449.559	131.81
449.779	126.81
450	92.81
450.221	83.81
450.442	81.81
450.662	78.81
450.883	101.81
451.104	89.81
451.324	93.81
451.545	87.81
451.766	99.81
451.986	79.81
452.207	76.81
452.428	94.81
452.648	77.81
452.869	85.81
453.089	99.81
453.31	112.81
453.53	84.81
453.751	85.81
453.971	86.81
454.192	110.81
454.412	94.81
454.633	87.81
454.853	88.81
455.073	66.81
455.294	68.81
455.514	89.81
455.734	90.81
455.955	90.81
456.175	81.81
456.395	71.81
456.616	77.81
456.836	81.81
457.056	90.81
457.276	75.81
457.497	77.81
457.717	70.81
457.937	76.81
458.157	82.81
458.377	84.81
458.598	100.81
458.818	137.81
459.038	144.81
459.258	127.81
459.478	81.81
459.698	81.81
459.918	85.81
460.138	74.81
460.358	93.81
460.578	81.81
460.798	91.81
461.018	85.81
461.238	92.81
461.458	83.81
461.678	68.81
461.898	80.81
462.118	88.81
462.338	99.81
462.558	96.81
462.777	79.81
462.997	66.81
463.217	72.81
463.437	105.81
463.657	82.81
463.876	90.81
464.096	89.81
464.316	94.81
464.536	81.81
464.755	104.81
464.975	109.81
465.195	139.81
465.414	147.81
465.634	86.81
465.854	94.81
466.073	90.81
466.293	83.81
466.512	83.81
466.732	92.81
466.951	76.81
467.171	83.81
467.391	86.81
467.61	90.81
467.829	90.81
468.049	102.81
468.268	114.81
468.488	93.81
468.707	102.81
468.927	91.81
469.146	78.81
469.365	81.81
469.585	88.81
469.804	98.81
470.023	95.81
470.243	95.81
470.462	90.81
470.681	106.81
470.901	78.81
471.12	74.81
471.339	83.81
471.558	82.81
471.777	84.81
471.997	98.81
472.216	146.81
472.435	187.81
472.654	118.81
472.873	80.81
473.092	86.81
473.311	79.81
473.53	72.81
473.749	84.81
473.968	86.81
474.187	98.81
474.406	99.81
474.625	89.81
474.844	86.81
475.063	86.81
475.282	85.81
475.501	92.81
475.72	83.81
475.939	87.81
476.158	79.81
476.377	78.81
476.596	99.81
476.814	90.81
477.033	79.81
477.252	94.81
477.471	66.81
477.69	100.81
477.908	94.81
478.127	97.81
478.346	86.81
478.564	82.81
478.783	93.81
479.002	79.81
479.22	96.81
479.439	79.81
479.658	100.81
479.876	93.81
480.095	89.81
480.313	91.81
480.532	88.81
480.751	94.81
480.969	126.81
481.188	326.81
481.406	233.81
481.624	101.81
481.843	85.81
482.061	87.81
482.28	87.81
482.498	90.81
482.717	87.81
482.935	90.81
483.153	79.81
483.372	79.81
483.59	78.81
483.808	72.81
484.027	91.81
484.245	86.81
484.463	81.81
484.681	101.81
484.9	89.81
485.118	86.81
485.336	94.81
485.554	99.81
485.772	98.81
485.99	91.81
486.209	88.81
486.427	96.81
486.645	92.81
486.863	106.81
487.081	86.81
487.299	88.81
487.517	98.81
487.735	87.81
487.953	95.81
488.171	93.81
488.389	89.81
488.607	84.81
488.825	96.81
489.043	90.81
489.261	96.81
489.479	91.81
489.696	80.81
489.914	92.81
490.132	99.81
490.35	85.81
490.568	85.81
490.786	76.81
491.003	83.81
491.221	86.81
491.439	87.81
491.657	103.81
491.874	76.81
492.092	78.81
492.31	77.81
492.527	81.81
492.745	85.81
492.963	79.81
493.18	90.81
493.398	83.81
493.615	102.81
493.833	89.81
494.05	94.81
494.268	85.81
494.485	73.81
494.703	90.81
494.92	87.81
495.138	90.81
495.355	86.81
495.573	67.81
495.79	79.81
496.008	92.81
496.225	94.81
496.442	82.81
496.66	95.81
496.877	98.81
497.094	95.81
497.312	95.81
497.529	83.81
497.746	92.81
497.963	90.81
498.181	86.81
498.398	76.81
498.615	104.81
498.832	90.81
499.049	77.81
499.267	77.81
499.484	90.81
499.701	86.81
499.918	97.81
500.135	97.81
500.352	89.81
500.569	85.81
500.786	96.81
501.003	86.81
501.22	79.81
501.437	93.81
501.654	85.81
501.871	87.81
502.088	96.81
502.305	79.81
502.522	77.81
502.739	91.81
502.956	82.81
503.172	76.81
503.389	89.81
503.606	114.81
503.823	107.81
504.04	94.81
504.256	83.81
504.473	81.81
504.69	99.81
504.907	105.81
505.123	100.81
505.34	86.81
505.557	89.81
505.773	93.81
505.99	89.81
506.207	99.81
506.423	85.81
506.64	90.81
506.856	87.81
507.073	78.81
507.289	91.81
507.506	100.81
507.722	101.81
507.939	95.81
508.155	107.81
508.372	87.81
508.588	101.81
508.805	97.81
509.021	84.81
509.238	107.81
509.454	97.81
509.67	98.81
509.887	86.81
510.103	108.81
510.319	173.81
510.536	638.81
510.752	2021.81
510.968	598.81
511.184	137.81
511.401	110.81
511.617	98.81
511.833	93.81
512.049	78.81
512.265	78.81
512.481	91.81
512.698	75.81
512.914	83.81
513.13	93.81
513.346	86.81
513.562	82.81
513.778	92.81
513.994	94.81
514.21	95.81
514.426	103.81
514.642	133.81
514.858	124.81
515.074	157.81
515.29	401.81
515.506	1219.81
515.721	491.81
515.937	142.81
516.153	110.81
516.369	104.81
516.585	94.81
516.801	90.81
517.016	103.81
