Data from Circ_2011_H10_HRD10591_00016.txt Node
Date: Wed Jan 03 10:08:02 EST 2024
User: Yrep
Spectrometer: HR+D1059
Trigger mode: 1
Integration Time (sec): 1.000000E-1
Scans to average: 1
Electric dark correction enabled: true
Nonlinearity correction enabled: false
Boxcar width: 0
XAxis mode: Wavelengths
Number of Pixels in Spectrum: 2048
>>>>>Begin Spectral Data<<<<<
223.165	-33
223.4	-33
223.635	-33
223.869	-11
224.104	-16
224.338	-8
224.573	-16
224.808	-7
225.042	-4
225.277	-2
225.511	2
225.746	14
225.98	12
226.215	6
226.449	2
226.683	13
226.918	23
227.152	25
227.387	41
227.621	29
227.856	50
228.09	56
228.324	48
228.559	61
228.793	58
229.027	56
229.262	74
229.496	80
229.73	99
229.964	79
230.199	78
230.433	80
230.667	75
230.901	77
231.136	57
231.37	71
231.604	75
231.838	94
232.072	80
232.306	90
232.541	87
232.775	74
233.009	78
233.243	90
233.477	81
233.711	87
233.945	63
234.179	79
234.413	93
234.647	90
234.881	81
235.115	78
235.349	91
235.583	65
235.817	93
236.051	77
236.285	94
236.519	80
236.753	84
236.987	88
237.221	89
237.455	78
237.689	77
237.922	83
238.156	84
238.39	88
238.624	81
238.858	94
239.091	83
239.325	69
239.559	97
239.793	89
240.027	92
240.26	69
240.494	89
240.728	86
240.961	71
241.195	82
241.429	82
241.662	83
241.896	78
242.13	66
242.363	80
242.597	73
242.83	95
243.064	80
243.298	77
243.531	74
243.765	80
243.998	76
244.232	82
244.465	95
244.699	80
244.932	71
245.166	74
245.399	69
245.633	81
245.866	83
246.099	93
246.333	89
246.566	90
246.8	85
247.033	91
247.266	86
247.5	88
247.733	86
247.966	87
248.2	85
248.433	90
248.666	94
248.899	89
249.133	95
249.366	102
249.599	93
249.832	83
250.066	81
250.299	74
250.532	78
250.765	74
250.998	90
251.231	93
251.465	82
251.698	69
251.931	95
252.164	87
252.397	73
252.63	80
252.863	85
253.096	78
253.329	87
253.562	84
253.795	86
254.028	91
254.261	89
254.494	76
254.727	79
254.96	83
255.193	81
255.426	92
255.659	83
255.892	75
256.124	94
256.357	88
256.59	99
256.823	101
257.056	87
257.289	97
257.521	90
257.754	88
257.987	75
258.22	83
258.452	87
258.685	89
258.918	78
259.151	71
259.383	70
259.616	77
259.849	74
260.081	93
260.314	88
260.547	74
260.779	80
261.012	80
261.244	82
261.477	90
261.71	96
261.942	112
262.175	123
262.407	100
262.64	93
262.872	88
263.105	80
263.337	83
263.57	78
263.802	81
264.035	101
264.267	87
264.499	97
264.732	86
264.964	80
265.197	87
265.429	89
265.661	71
265.894	91
266.126	81
266.358	84
266.591	78
266.823	94
267.055	98
267.287	75
267.52	91
267.752	91
267.984	82
268.216	94
268.448	89
268.681	99
268.913	90
269.145	83
269.377	90
269.609	73
269.841	99
270.073	82
270.306	93
270.538	94
270.77	72
271.002	87
271.234	86
271.466	71
271.698	88
271.93	91
272.162	74
272.394	90
272.626	83
272.858	70
273.09	92
273.322	82
273.553	79
273.785	85
274.017	90
274.249	90
274.481	100
274.713	84
274.945	94
275.176	93
275.408	81
275.64	95
275.872	94
276.104	98
276.335	83
276.567	110
276.799	126
277.031	96
277.262	98
277.494	96
277.726	86
277.957	95
278.189	86
278.421	92
278.652	94
278.884	68
279.115	85
279.347	77
279.579	90
279.81	98
280.042	87
280.273	93
280.505	110
280.736	93
280.968	90
281.199	112
281.431	82
281.662	98
281.894	88
282.125	101
282.356	110
282.588	129
282.819	112
283.051	90
283.282	85
283.513	80
283.745	88
283.976	93
284.207	96
284.439	97
284.67	89
284.901	80
285.132	80
285.364	89
285.595	106
285.826	91
286.057	97
286.288	81
286.52	86
286.751	83
286.982	88
287.213	90
287.444	85
287.675	94
287.906	100
288.138	91
288.369	78
288.6	108
288.831	84
289.062	96
289.293	88
289.524	73
289.755	86
289.986	73
290.217	88
290.448	88
290.679	92
290.91	96
291.141	77
291.371	82
291.602	97
291.833	93
292.064	98
292.295	85
292.526	91
292.757	95
292.987	86
293.218	90
293.449	93
293.68	90
293.91	87
294.141	93
294.372	89
294.603	97
294.833	91
295.064	69
295.295	96
295.525	88
295.756	111
295.987	103
296.217	123
296.448	112
296.679	105
296.909	92
297.14	90
297.37	101
297.601	77
297.831	89
298.062	96
298.292	87
298.523	79
298.753	83
298.984	97
299.214	99
299.445	89
299.675	90
299.905	92
300.136	92
300.366	90
300.597	89
300.827	88
301.057	97
301.288	101
301.518	92
301.748	89
301.979	92
302.209	80
302.439	87
302.669	78
302.9	89
303.13	83
303.36	86
303.59	106
303.82	108
304.051	102
304.281	97
304.511	92
304.741	90
304.971	97
305.201	79
305.431	88
305.661	86
305.891	98
306.121	98
306.352	101
306.582	114
306.812	93
307.042	96
307.272	82
307.502	98
307.731	101
307.961	102
308.191	105
308.421	94
308.651	94
308.881	94
309.111	80
309.341	97
309.571	102
309.8	103
310.03	101
310.26	96
310.49	96
310.72	114
310.949	112
311.179	104
311.409	80
311.639	95
311.868	94
312.098	101
312.328	97
312.557	91
312.787	105
313.017	102
313.246	101
313.476	101
313.706	87
313.935	105
314.165	92
314.394	96
314.624	90
314.853	96
315.083	96
315.312	97
315.542	90
315.771	98
316.001	94
316.23	102
316.46	92
316.689	93
316.919	84
317.148	104
317.377	77
317.607	92
317.836	103
318.065	110
318.295	96
318.524	80
318.753	102
318.983	97
319.212	98
319.441	110
319.67	106
319.9	98
320.129	97
320.358	102
320.587	106
320.816	100
321.046	105
321.275	110
321.504	111
321.733	108
321.962	101
322.191	106
322.42	106
322.649	118
322.878	119
323.108	122
323.337	126
323.566	141
323.795	145
324.024	207
324.253	411
324.482	839
324.71	1753
324.939	2245
325.168	811
325.397	256
325.626	155
325.855	120
326.084	119
326.313	140
326.542	139
326.77	231
326.999	480
327.228	991
327.457	1765
327.686	1377
327.914	383
328.143	198
328.372	186
328.6	147
328.829	118
329.058	129
329.287	125
329.515	104
329.744	106
329.972	127
330.201	146
330.43	190
330.658	153
330.887	142
331.115	139
331.344	111
331.572	100
331.801	90
332.03	104
332.258	101
332.486	81
332.715	104
332.943	113
333.172	99
333.4	104
333.629	114
333.857	119
334.085	126
334.314	163
334.542	196
334.771	197
334.999	107
335.227	97
335.455	92
335.684	93
335.912	98
336.14	98
336.369	113
336.597	92
336.825	92
337.053	108
337.281	101
337.51	90
337.738	97
337.966	86
338.194	99
338.422	87
338.65	99
338.878	89
339.106	94
339.334	97
339.562	85
339.79	99
340.018	88
340.246	106
340.474	98
340.702	91
340.93	98
341.158	90
341.386	93
341.614	102
341.842	95
342.07	78
342.298	64
342.526	101
342.754	90
342.981	94
343.209	98
343.437	108
343.665	89
343.893	87
344.12	104
344.348	88
344.576	90
344.804	93
345.031	85
345.259	94
345.487	104
345.714	91
345.942	90
346.17	95
346.397	97
346.625	92
346.853	111
347.08	96
347.308	106
347.535	114
347.763	94
347.99	106
348.218	103
348.445	109
348.673	103
348.9	95
349.128	104
349.355	104
349.583	99
349.81	110
350.037	87
350.265	103
350.492	102
350.72	94
350.947	94
351.174	119
351.402	102
351.629	97
351.856	110
352.083	106
352.311	98
352.538	102
352.765	87
352.992	121
353.22	129
353.447	103
353.674	109
353.901	95
354.128	99
354.355	91
354.583	113
354.81	98
355.037	97
355.264	101
355.491	104
355.718	93
355.945	89
356.172	98
356.399	90
356.626	109
356.853	92
357.08	80
357.307	97
357.534	104
357.761	81
357.988	90
358.215	95
358.441	93
358.668	95
358.895	86
359.122	104
359.349	87
359.576	80
359.802	91
360.029	107
360.256	110
360.483	97
360.709	92
360.936	101
361.163	89
361.39	93
361.616	110
361.843	92
362.07	93
362.296	96
362.523	84
362.749	101
362.976	90
363.203	102
363.429	91
363.656	94
363.882	81
364.109	96
364.335	103
364.562	98
364.788	95
365.015	101
365.241	86
365.468	95
365.694	93
365.92	96
366.147	91
366.373	87
366.599	93
366.826	94
367.052	105
367.278	88
367.505	105
367.731	93
367.957	100
368.184	104
368.41	96
368.636	123
368.862	119
369.089	118
369.315	95
369.541	91
369.767	87
369.993	86
370.219	104
370.445	89
370.672	84
370.898	97
371.124	97
371.35	98
371.576	86
371.802	80
372.028	91
372.254	87
372.48	94
372.706	82
372.932	99
373.158	83
373.384	95
373.61	89
373.835	102
374.061	95
374.287	94
374.513	106
374.739	99
374.965	88
375.191	100
375.416	93
375.642	90
375.868	86
376.094	92
376.319	82
376.545	93
376.771	107
376.997	103
377.222	77
377.448	79
377.674	87
377.899	91
378.125	101
378.35	100
378.576	90
378.802	91
379.027	96
379.253	84
379.478	110
379.704	107
379.929	111
380.155	80
380.38	117
380.606	95
380.831	98
381.057	109
381.282	94
381.507	94
381.733	94
381.958	81
382.184	91
382.409	100
382.634	96
382.86	89
383.085	103
383.31	122
383.535	98
383.761	97
383.986	103
384.211	108
384.436	101
384.662	101
384.887	95
385.112	85
385.337	96
385.562	123
385.787	91
386.013	93
386.238	114
386.463	98
386.688	98
386.913	111
387.138	98
387.363	111
387.588	109
387.813	124
388.038	95
388.263	104
388.488	89
388.713	104
388.938	108
389.163	81
389.387	101
389.612	96
389.837	88
390.062	84
390.287	102
390.512	92
390.736	106
390.961	88
391.186	100
391.411	96
391.636	96
391.86	91
392.085	89
392.31	89
392.534	93
392.759	83
392.984	77
393.208	92
393.433	93
393.658	94
393.882	88
394.107	95
394.331	84
394.556	101
394.78	86
395.005	94
395.229	80
395.454	94
395.678	102
395.903	88
396.127	89
396.352	85
396.576	92
396.801	82
397.025	66
397.249	87
397.474	93
397.698	94
397.922	95
398.147	83
398.371	93
398.595	96
398.82	88
399.044	83
399.268	98
399.492	101
399.717	101
399.941	90
400.165	90
400.389	92
400.613	80
400.837	93
401.062	99
401.286	85
401.51	89
401.734	120
401.958	97
402.182	121
402.406	161
402.63	109
402.854	93
403.078	98
403.302	87
403.526	92
403.75	91
403.974	95
404.198	83
404.422	96
404.645	77
404.869	77
405.093	95
405.317	103
405.541	94
405.765	105
405.988	116
406.212	175
406.436	233
406.66	129
406.883	97
407.107	90
407.331	116
407.555	104
407.778	93
408.002	100
408.226	80
408.449	89
408.673	101
408.896	102
409.12	105
409.344	85
409.567	90
409.791	101
410.014	90
410.238	93
410.461	97
410.685	101
410.908	98
411.132	107
411.355	114
411.578	100
411.802	82
412.025	86
412.249	97
412.472	78
412.695	105
412.919	112
413.142	82
413.365	91
413.589	79
413.812	89
414.035	95
414.258	99
414.482	81
414.705	91
414.928	92
415.151	89
415.374	106
415.597	89
415.821	81
416.044	94
416.267	79
416.49	88
416.713	85
416.936	98
417.159	93
417.382	80
417.605	77
417.828	90
418.051	79
418.274	80
418.497	94
418.72	95
418.943	83
419.166	83
419.389	80
419.611	99
419.834	95
420.057	87
420.28	88
420.503	90
420.726	100
420.948	82
421.171	87
421.394	88
421.617	93
421.839	104
422.062	92
422.285	84
422.507	98
422.73	103
422.953	105
423.175	83
423.398	86
423.621	97
423.843	84
424.066	90
424.288	79
424.511	98
424.733	102
424.956	105
425.178	105
425.401	106
425.623	106
425.846	83
426.068	81
426.291	94
426.513	105
426.735	107
426.958	98
427.18	100
427.402	130
427.625	170
427.847	146
428.069	122
428.292	93
428.514	89
428.736	81
428.958	94
429.181	81
429.403	94
429.625	89
429.847	94
430.069	98
430.292	90
430.514	72
430.736	97
430.958	94
431.18	83
431.402	104
431.624	84
431.846	83
432.068	91
432.29	90
432.512	97
432.734	99
432.956	97
433.178	88
433.4	93
433.622	108
433.844	100
434.066	100
434.287	96
434.509	80
434.731	98
434.953	99
435.175	94
435.397	82
435.618	102
435.84	96
436.062	117
436.284	110
436.505	103
436.727	89
436.949	94
437.17	80
437.392	90
437.614	111
437.835	102
438.057	113
438.278	94
438.5	104
438.721	127
438.943	108
439.165	85
439.386	95
439.608	96
439.829	104
440.05	122
440.272	137
440.493	97
440.715	85
440.936	84
441.158	84
441.379	85
441.6	87
441.822	100
442.043	102
442.264	104
442.486	106
442.707	89
442.928	90
443.149	126
443.371	135
443.592	114
443.813	117
444.034	102
444.255	92
444.476	96
444.698	88
444.919	97
445.14	133
445.361	105
445.582	121
445.803	127
446.024	123
446.245	137
446.466	127
446.687	94
446.908	88
447.129	90
447.35	92
447.571	91
447.792	103
448.013	89
448.234	110
448.455	109
448.675	107
448.896	123
449.117	101
449.338	101
449.559	131
449.779	131
450	109
450.221	81
450.442	75
450.662	88
450.883	107
451.104	122
451.324	95
451.545	89
451.766	70
451.986	93
452.207	84
452.428	99
452.648	100
452.869	120
453.089	122
453.31	115
453.53	85
453.751	90
453.971	114
454.192	122
454.412	87
454.633	87
454.853	77
455.073	96
455.294	89
455.514	102
455.734	82
455.955	99
456.175	97
456.395	84
456.616	96
456.836	89
457.056	96
457.276	74
457.497	84
457.717	91
457.937	84
458.157	82
458.377	102
458.598	112
458.818	141
459.038	152
459.258	122
459.478	90
459.698	82
459.918	83
460.138	87
460.358	104
460.578	91
460.798	106
461.018	86
461.238	92
461.458	94
461.678	84
461.898	93
462.118	86
462.338	80
462.558	104
462.777	75
462.997	84
463.217	87
463.437	84
463.657	86
463.876	96
464.096	97
464.316	78
464.536	77
464.755	100
464.975	119
465.195	159
465.414	152
465.634	96
465.854	85
466.073	91
466.293	95
466.512	76
466.732	99
466.951	83
467.171	91
467.391	91
467.61	95
467.829	106
468.049	117
468.268	124
468.488	91
468.707	86
468.927	93
469.146	99
469.365	77
469.585	88
469.804	113
470.023	94
470.243	94
470.462	103
470.681	105
470.901	89
471.12	93
471.339	82
471.558	87
471.777	84
471.997	107
472.216	164
472.435	244
472.654	113
472.873	93
473.092	105
473.311	92
473.53	91
473.749	100
473.968	100
474.187	103
474.406	105
474.625	78
474.844	88
475.063	77
475.282	79
475.501	95
475.72	91
475.939	94
476.158	83
476.377	101
476.596	101
476.814	95
477.033	96
477.252	96
477.471	77
477.69	97
477.908	88
478.127	98
478.346	93
478.564	86
478.783	96
479.002	102
479.22	101
479.439	90
479.658	102
479.876	97
480.095	95
480.313	93
480.532	102
480.751	115
480.969	170
481.188	377
481.406	260
481.624	113
481.843	91
482.061	99
482.28	93
482.498	91
482.717	86
482.935	85
483.153	83
483.372	91
483.59	104
483.808	93
484.027	83
484.245	95
484.463	98
484.681	98
484.9	83
485.118	96
485.336	104
485.554	119
485.772	105
485.99	106
486.209	95
486.427	107
486.645	121
486.863	118
487.081	103
487.299	101
487.517	87
487.735	90
487.953	97
488.171	92
488.389	86
488.607	94
488.825	99
489.043	94
489.261	96
489.479	82
489.696	97
489.914	87
490.132	84
490.35	83
490.568	93
490.786	78
491.003	92
491.221	87
491.439	89
491.657	90
491.874	92
492.092	83
492.31	89
492.527	88
492.745	88
492.963	81
493.18	92
493.398	96
493.615	94
493.833	100
494.05	90
494.268	80
494.485	89
494.703	108
494.92	82
495.138	88
495.355	89
495.573	87
495.79	101
496.008	79
496.225	90
496.442	93
496.66	94
496.877	84
497.094	88
497.312	86
497.529	79
497.746	90
497.963	88
498.181	95
498.398	87
498.615	96
498.832	98
499.049	100
499.267	93
499.484	80
499.701	94
499.918	73
500.135	103
500.352	88
500.569	91
500.786	88
501.003	96
501.22	81
501.437	86
501.654	86
501.871	94
502.088	92
502.305	73
502.522	87
502.739	95
502.956	102
503.172	78
503.389	92
503.606	99
503.823	108
504.04	90
504.256	89
504.473	101
504.69	93
504.907	83
505.123	93
505.34	102
505.557	78
505.773	92
505.99	100
506.207	95
506.423	102
506.64	97
506.856	82
507.073	79
507.289	94
507.506	92
507.722	113
507.939	117
508.155	90
508.372	78
508.588	96
508.805	101
509.021	91
509.238	112
509.454	92
509.67	109
509.887	127
510.103	130
510.319	211
510.536	779
510.752	2428
510.968	682
511.184	151
511.401	105
511.617	106
511.833	99
512.049	96
512.265	91
512.481	85
512.698	78
512.914	90
513.13	93
513.346	89
513.562	90
513.778	91
513.994	102
514.21	90
514.426	109
514.642	139
514.858	128
515.074	162
515.29	445
515.506	1513
515.721	585
515.937	155
516.153	106
516.369	109
516.585	100
516.801	84
517.016	86
517.232	91
517.448	94
517.664	99
517.879	85
518.095	83
518.311	111
518.527	97
518.742	89
518.958	105
519.173	101
519.389	90
519.605	85
519.82	90
520.036	109
520.251	124
520.467	107
520.682	129
520.898	115
521.113	129
521.329	120
521.544	204
521.76	577
521.975	2470
522.19	1511
522.406	324
522.621	107
522.836	95
523.052	106
523.267	89
523.482	92
523.698	95
523.913	143
524.128	94
524.343	102
524.559	83
524.774	91
524.989	105
525.204	113
525.419	95
525.634	89
525.849	82
526.064	93
526.28	90
526.495	94
526.71	87
526.925	76
527.14	91
527.355	73
527.57	105
527.785	99
527.999	90
528.214	95
528.429	92
528.644	89
528.859	89
529.074	86
529.289	129
529.503	181
529.718	104
529.933	94
530.148	89
530.363	88
530.577	91
530.792	82
531.007	92
531.221	88
531.436	94
531.651	94
531.865	95
532.08	84
532.295	92
532.509	77
532.724	91
532.938	91
533.153	79
533.367	83
533.582	91
533.796	90
534.011	93
534.225	89
534.44	97
534.654	88
534.868	97
535.083	94
535.297	95
535.511	109
535.726	92
535.94	106
536.154	79
536.369	94
536.583	86
536.797	86
537.011	84
537.225	89
537.44	95
537.654	88
537.868	97
538.082	101
538.296	93
538.51	91
538.724	90
538.938	100
539.153	88
539.367	105
539.581	94
539.795	89
540.009	98
540.222	104
540.436	102
540.65	106
540.864	110
541.078	91
541.292	89
541.506	92
541.72	97
541.934	88
542.147	93
542.361	93
542.575	94
542.789	87
543.002	90
543.216	95
543.43	95
543.644	92
543.857	86
544.071	93
544.285	102
544.498	95
544.712	89
544.925	79
545.139	94
545.352	92
545.566	96
545.779	92
545.993	81
546.206	68
546.42	100
546.633	95
546.847	91
547.06	81
547.274	90
547.487	95
547.7	80
547.914	82
548.127	92
548.34	102
548.554	81
548.767	89
548.98	93
549.193	89
549.407	102
549.62	113
549.833	85
550.046	81
550.259	109
550.473	95
550.686	86
550.899	92
551.112	87
551.325	89
551.538	86
551.751	91
551.964	91
552.177	88
552.39	90
552.603	73
552.816	88
553.029	95
553.242	90
553.455	99
553.667	110
553.88	100
554.093	87
554.306	94
554.519	90
554.732	83
554.944	86
555.157	92
555.37	94
555.583	92
555.795	87
556.008	81
556.221	91
556.433	93
556.646	103
556.859	94
557.071	100
557.284	99
557.496	98
557.709	86
557.921	91
558.134	85
558.346	87
558.559	84
558.771	93
558.984	90
559.196	93
559.409	86
559.621	97
559.833	78
560.046	97
560.258	91
560.47	117
560.683	77
560.895	83
561.107	91
561.32	103
561.532	98
561.744	93
561.956	81
562.168	86
562.381	87
562.593	102
562.805	93
563.017	78
563.229	101
563.441	90
563.653	96
563.865	88
564.077	93
564.289	102
564.501	91
564.713	89
564.925	94
565.137	104
565.349	83
565.561	95
565.773	100
565.985	77
566.197	76
566.408	90
566.62	79
566.832	91
567.044	93
567.255	95
567.467	101
567.679	97
567.891	78
568.102	87
568.314	94
568.526	91
568.737	86
568.949	87
569.161	88
569.372	88
569.584	82
569.795	94
570.007	113
570.218	232
570.43	149
570.641	91
570.853	75
571.064	97
571.276	94
571.487	88
571.698	83
571.91	98
572.121	80
572.333	88
572.544	91
572.755	80
572.966	90
573.178	89
573.389	77
573.6	97
573.811	96
574.023	84
574.234	78
574.445	99
574.656	92
574.867	88
575.078	80
575.289	86
575.501	103
575.712	97
575.923	91
576.134	86
576.345	90
576.556	86
576.767	97
576.978	84
577.188	103
577.399	94
577.61	107
577.821	103
578.032	125
578.243	279
578.454	780
578.665	217
578.875	97
579.086	93
579.297	92
579.508	88
579.718	81
579.929	97
580.14	97
580.35	95
580.561	93
580.772	80
580.982	89
581.193	94
581.403	76
581.614	93
581.825	90
582.035	95
582.246	86
582.456	89
582.667	87
582.877	90
583.087	90
