Data from Circ_2011_H10_HRD10591_00015.txt Node
Date: Wed Jan 03 10:08:02 EST 2024
User: Yrep
Spectrometer: HR+D1059
Trigger mode: 1
Integration Time (sec): 1.000000E-1
Scans to average: 1
Electric dark correction enabled: true
Nonlinearity correction enabled: false
Boxcar width: 0
XAxis mode: Wavelengths
Number of Pixels in Spectrum: 2048
>>>>>Begin Spectral Data<<<<<
223.165	-14.5
223.4	-14.5
223.635	-14.5
223.869	-21.5
224.104	-10.5
224.338	-12.5
224.573	-18.5
224.808	-5.5
225.042	-6.5
225.277	-12.5
225.511	3.5
225.746	9.5
225.98	10.5
226.215	15.5
226.449	8.5
226.683	2.5
226.918	29.5
227.152	22.5
227.387	38.5
227.621	50.5
227.856	58.5
228.09	40.5
228.324	56.5
228.559	49.5
228.793	55.5
229.027	65.5
229.262	47.5
229.496	69.5
229.73	96.5
229.964	84.5
230.199	71.5
230.433	75.5
230.667	66.5
230.901	77.5
231.136	77.5
231.37	76.5
231.604	86.5
231.838	82.5
232.072	89.5
232.306	71.5
232.541	90.5
232.775	83.5
233.009	81.5
233.243	78.5
233.477	83.5
233.711	76.5
233.945	72.5
234.179	77.5
234.413	73.5
234.647	71.5
234.881	98.5
235.115	63.5
235.349	65.5
235.583	65.5
235.817	70.5
236.051	79.5
236.285	73.5
236.519	73.5
236.753	73.5
236.987	94.5
237.221	83.5
237.455	90.5
237.689	77.5
237.922	70.5
238.156	76.5
238.39	66.5
238.624	77.5
238.858	69.5
239.091	100.5
239.325	72.5
239.559	86.5
239.793	73.5
240.027	69.5
240.26	82.5
240.494	69.5
240.728	78.5
240.961	72.5
241.195	74.5
241.429	69.5
241.662	78.5
241.896	72.5
242.13	76.5
242.363	79.5
242.597	67.5
242.83	90.5
243.064	70.5
243.298	79.5
243.531	71.5
243.765	77.5
243.998	77.5
244.232	82.5
244.465	78.5
244.699	68.5
244.932	80.5
245.166	70.5
245.399	67.5
245.633	82.5
245.866	91.5
246.099	72.5
246.333	76.5
246.566	88.5
246.8	63.5
247.033	76.5
247.266	79.5
247.5	75.5
247.733	71.5
247.966	83.5
248.2	82.5
248.433	71.5
248.666	82.5
248.899	86.5
249.133	87.5
249.366	94.5
249.599	75.5
249.832	90.5
250.066	73.5
250.299	88.5
250.532	69.5
250.765	85.5
250.998	69.5
251.231	78.5
251.465	76.5
251.698	87.5
251.931	77.5
252.164	78.5
252.397	82.5
252.63	86.5
252.863	76.5
253.096	82.5
253.329	84.5
253.562	76.5
253.795	87.5
254.028	60.5
254.261	73.5
254.494	77.5
254.727	65.5
254.96	78.5
255.193	84.5
255.426	92.5
255.659	83.5
255.892	78.5
256.124	72.5
256.357	83.5
256.59	78.5
256.823	59.5
257.056	76.5
257.289	85.5
257.521	92.5
257.754	74.5
257.987	68.5
258.22	89.5
258.452	78.5
258.685	73.5
258.918	74.5
259.151	79.5
259.383	85.5
259.616	78.5
259.849	79.5
260.081	76.5
260.314	79.5
260.547	79.5
260.779	87.5
261.012	76.5
261.244	86.5
261.477	80.5
261.71	83.5
261.942	102.5
262.175	105.5
262.407	91.5
262.64	90.5
262.872	90.5
263.105	92.5
263.337	71.5
263.57	90.5
263.802	83.5
264.035	82.5
264.267	74.5
264.499	73.5
264.732	92.5
264.964	74.5
265.197	76.5
265.429	89.5
265.661	86.5
265.894	89.5
266.126	85.5
266.358	76.5
266.591	96.5
266.823	61.5
267.055	74.5
267.287	97.5
267.52	83.5
267.752	83.5
267.984	72.5
268.216	85.5
268.448	74.5
268.681	80.5
268.913	80.5
269.145	93.5
269.377	83.5
269.609	87.5
269.841	90.5
270.073	91.5
270.306	91.5
270.538	89.5
270.77	83.5
271.002	81.5
271.234	97.5
271.466	85.5
271.698	85.5
271.93	71.5
272.162	79.5
272.394	84.5
272.626	81.5
272.858	87.5
273.09	79.5
273.322	75.5
273.553	75.5
273.785	79.5
274.017	87.5
274.249	77.5
274.481	73.5
274.713	85.5
274.945	73.5
275.176	79.5
275.408	80.5
275.64	74.5
275.872	79.5
276.104	92.5
276.335	83.5
276.567	90.5
276.799	101.5
277.031	95.5
277.262	86.5
277.494	87.5
277.726	78.5
277.957	70.5
278.189	72.5
278.421	85.5
278.652	78.5
278.884	79.5
279.115	80.5
279.347	88.5
279.579	82.5
279.81	95.5
280.042	72.5
280.273	77.5
280.505	91.5
280.736	79.5
280.968	96.5
281.199	82.5
281.431	82.5
281.662	89.5
281.894	91.5
282.125	99.5
282.356	107.5
282.588	106.5
282.819	119.5
283.051	88.5
283.282	88.5
283.513	85.5
283.745	84.5
283.976	72.5
284.207	82.5
284.439	84.5
284.67	80.5
284.901	89.5
285.132	79.5
285.364	78.5
285.595	92.5
285.826	94.5
286.057	84.5
286.288	85.5
286.52	83.5
286.751	76.5
286.982	89.5
287.213	92.5
287.444	78.5
287.675	89.5
287.906	85.5
288.138	88.5
288.369	86.5
288.6	92.5
288.831	71.5
289.062	86.5
289.293	86.5
289.524	89.5
289.755	74.5
289.986	81.5
290.217	82.5
290.448	83.5
290.679	81.5
290.91	85.5
291.141	98.5
291.371	78.5
291.602	77.5
291.833	89.5
292.064	94.5
292.295	78.5
292.526	73.5
292.757	91.5
292.987	86.5
293.218	73.5
293.449	89.5
293.68	103.5
293.91	62.5
294.141	85.5
294.372	90.5
294.603	79.5
294.833	84.5
295.064	90.5
295.295	85.5
295.525	83.5
295.756	97.5
295.987	102.5
296.217	134.5
296.448	104.5
296.679	77.5
296.909	93.5
297.14	99.5
297.37	83.5
297.601	76.5
297.831	80.5
298.062	86.5
298.292	91.5
298.523	82.5
298.753	86.5
298.984	72.5
299.214	84.5
299.445	94.5
299.675	79.5
299.905	95.5
300.136	81.5
300.366	88.5
300.597	89.5
300.827	86.5
301.057	96.5
301.288	105.5
301.518	97.5
301.748	86.5
301.979	90.5
302.209	73.5
302.439	85.5
302.669	90.5
302.9	87.5
303.13	82.5
303.36	89.5
303.59	93.5
303.82	103.5
304.051	79.5
304.281	91.5
304.511	81.5
304.741	94.5
304.971	92.5
305.201	73.5
305.431	85.5
305.661	89.5
305.891	89.5
306.121	102.5
306.352	91.5
306.582	98.5
306.812	89.5
307.042	101.5
307.272	90.5
307.502	96.5
307.731	90.5
307.961	90.5
308.191	75.5
308.421	80.5
308.651	91.5
308.881	86.5
309.111	81.5
309.341	92.5
309.571	95.5
309.8	107.5
310.03	93.5
310.26	93.5
310.49	102.5
310.72	90.5
310.949	99.5
311.179	95.5
311.409	81.5
311.639	86.5
311.868	95.5
312.098	87.5
312.328	88.5
312.557	122.5
312.787	107.5
313.017	109.5
313.246	102.5
313.476	74.5
313.706	85.5
313.935	97.5
314.165	83.5
314.394	74.5
314.624	90.5
314.853	91.5
315.083	91.5
315.312	75.5
315.542	85.5
315.771	101.5
316.001	71.5
316.23	97.5
316.46	83.5
316.689	93.5
316.919	93.5
317.148	93.5
317.377	87.5
317.607	86.5
317.836	83.5
318.065	95.5
318.295	85.5
318.524	88.5
318.753	84.5
318.983	88.5
319.212	93.5
319.441	117.5
319.67	90.5
319.9	95.5
320.129	99.5
320.358	98.5
320.587	89.5
320.816	82.5
321.046	105.5
321.275	95.5
321.504	105.5
321.733	92.5
321.962	99.5
322.191	118.5
322.42	84.5
322.649	124.5
322.878	106.5
323.108	106.5
323.337	107.5
323.566	129.5
323.795	138.5
324.024	199.5
324.253	407.5
324.482	834.5
324.71	1650.5
324.939	2184.5
325.168	786.5
325.397	233.5
325.626	151.5
325.855	109.5
326.084	133.5
326.313	121.5
326.542	161.5
326.77	232.5
326.999	448.5
327.228	937.5
327.457	1704.5
327.686	1345.5
327.914	365.5
328.143	201.5
328.372	168.5
328.6	114.5
328.829	110.5
329.058	119.5
329.287	110.5
329.515	106.5
329.744	107.5
329.972	112.5
330.201	140.5
330.43	175.5
330.658	129.5
330.887	131.5
331.115	115.5
331.344	98.5
331.572	113.5
331.801	107.5
332.03	75.5
332.258	100.5
332.486	79.5
332.715	82.5
332.943	92.5
333.172	78.5
333.4	89.5
333.629	96.5
333.857	107.5
334.085	108.5
334.314	143.5
334.542	179.5
334.771	190.5
334.999	124.5
335.227	95.5
335.455	97.5
335.684	105.5
335.912	101.5
336.14	86.5
336.369	97.5
336.597	97.5
336.825	99.5
337.053	91.5
337.281	85.5
337.51	79.5
337.738	78.5
337.966	89.5
338.194	83.5
338.422	90.5
338.65	110.5
338.878	80.5
339.106	85.5
339.334	88.5
339.562	80.5
339.79	86.5
340.018	92.5
340.246	80.5
340.474	92.5
340.702	85.5
340.93	84.5
341.158	98.5
341.386	90.5
341.614	94.5
341.842	108.5
342.07	90.5
342.298	87.5
342.526	96.5
342.754	85.5
342.981	79.5
343.209	81.5
343.437	105.5
343.665	93.5
343.893	89.5
344.12	90.5
344.348	98.5
344.576	92.5
344.804	86.5
345.031	84.5
345.259	97.5
345.487	87.5
345.714	92.5
345.942	90.5
346.17	88.5
346.397	91.5
346.625	87.5
346.853	81.5
347.08	89.5
347.308	79.5
347.535	82.5
347.763	100.5
347.99	100.5
348.218	108.5
348.445	106.5
348.673	97.5
348.9	103.5
349.128	97.5
349.355	88.5
349.583	87.5
349.81	92.5
350.037	90.5
350.265	97.5
350.492	102.5
350.72	104.5
350.947	93.5
351.174	105.5
351.402	101.5
351.629	87.5
351.856	103.5
352.083	107.5
352.311	92.5
352.538	108.5
352.765	102.5
352.992	108.5
353.22	96.5
353.447	97.5
353.674	86.5
353.901	85.5
354.128	104.5
354.355	88.5
354.583	94.5
354.81	87.5
355.037	88.5
355.264	101.5
355.491	91.5
355.718	89.5
355.945	88.5
356.172	87.5
356.399	89.5
356.626	85.5
356.853	88.5
357.08	96.5
357.307	83.5
357.534	93.5
357.761	86.5
357.988	95.5
358.215	88.5
358.441	99.5
358.668	89.5
358.895	76.5
359.122	82.5
359.349	84.5
359.576	93.5
359.802	106.5
360.029	89.5
360.256	114.5
360.483	101.5
360.709	95.5
360.936	92.5
361.163	100.5
361.39	74.5
361.616	100.5
361.843	87.5
362.07	86.5
362.296	92.5
362.523	83.5
362.749	87.5
362.976	91.5
363.203	87.5
363.429	88.5
363.656	91.5
363.882	85.5
364.109	87.5
364.335	72.5
364.562	97.5
364.788	76.5
365.015	79.5
365.241	100.5
365.468	111.5
365.694	88.5
365.92	98.5
366.147	99.5
366.373	88.5
366.599	100.5
366.826	80.5
367.052	93.5
367.278	94.5
367.505	83.5
367.731	91.5
367.957	93.5
368.184	97.5
368.41	97.5
368.636	108.5
368.862	116.5
369.089	93.5
369.315	96.5
369.541	89.5
369.767	93.5
369.993	90.5
370.219	79.5
370.445	84.5
370.672	86.5
370.898	80.5
371.124	82.5
371.35	76.5
371.576	85.5
371.802	82.5
372.028	81.5
372.254	79.5
372.48	76.5
372.706	77.5
372.932	85.5
373.158	74.5
373.384	84.5
373.61	89.5
373.835	100.5
374.061	82.5
374.287	112.5
374.513	94.5
374.739	89.5
374.965	89.5
375.191	84.5
375.416	85.5
375.642	89.5
375.868	99.5
376.094	95.5
376.319	92.5
376.545	92.5
376.771	86.5
376.997	93.5
377.222	91.5
377.448	87.5
377.674	91.5
377.899	89.5
378.125	89.5
378.35	91.5
378.576	86.5
378.802	86.5
379.027	92.5
379.253	89.5
379.478	90.5
379.704	88.5
379.929	89.5
380.155	90.5
380.38	79.5
380.606	85.5
380.831	97.5
381.057	84.5
381.282	78.5
381.507	89.5
381.733	88.5
381.958	89.5
382.184	96.5
382.409	97.5
382.634	81.5
382.86	82.5
383.085	88.5
383.31	102.5
383.535	93.5
383.761	86.5
383.986	79.5
384.211	90.5
384.436	82.5
384.662	85.5
384.887	87.5
385.112	106.5
385.337	97.5
385.562	100.5
385.787	103.5
386.013	90.5
386.238	108.5
386.463	103.5
386.688	109.5
386.913	96.5
387.138	88.5
387.363	98.5
387.588	113.5
387.813	102.5
388.038	99.5
388.263	111.5
388.488	107.5
388.713	91.5
388.938	101.5
389.163	84.5
389.387	102.5
389.612	92.5
389.837	88.5
390.062	84.5
390.287	92.5
390.512	88.5
390.736	81.5
390.961	86.5
391.186	80.5
391.411	98.5
391.636	83.5
391.86	82.5
392.085	84.5
392.31	86.5
392.534	80.5
392.759	84.5
392.984	85.5
393.208	84.5
393.433	71.5
393.658	91.5
393.882	94.5
394.107	86.5
394.331	99.5
394.556	89.5
394.78	90.5
395.005	101.5
395.229	77.5
395.454	82.5
395.678	80.5
395.903	94.5
396.127	81.5
396.352	76.5
396.576	74.5
396.801	85.5
397.025	90.5
397.249	102.5
397.474	87.5
397.698	82.5
397.922	84.5
398.147	81.5
398.371	91.5
398.595	74.5
398.82	90.5
399.044	102.5
399.268	78.5
399.492	95.5
399.717	87.5
399.941	109.5
400.165	97.5
400.389	74.5
400.613	86.5
400.837	91.5
401.062	72.5
401.286	97.5
401.51	92.5
401.734	93.5
401.958	99.5
402.182	120.5
402.406	156.5
402.63	100.5
402.854	92.5
403.078	80.5
403.302	85.5
403.526	88.5
403.75	83.5
403.974	89.5
404.198	81.5
404.422	100.5
404.645	91.5
404.869	89.5
405.093	106.5
405.317	96.5
405.541	107.5
405.765	81.5
405.988	107.5
406.212	156.5
406.436	192.5
406.66	117.5
406.883	83.5
407.107	78.5
407.331	84.5
407.555	104.5
407.778	89.5
408.002	91.5
408.226	87.5
408.449	83.5
408.673	76.5
408.896	95.5
409.12	91.5
409.344	91.5
409.567	78.5
409.791	82.5
410.014	93.5
410.238	71.5
410.461	88.5
410.685	100.5
410.908	93.5
411.132	104.5
411.355	107.5
411.578	97.5
411.802	79.5
412.025	85.5
412.249	86.5
412.472	86.5
412.695	80.5
412.919	86.5
413.142	99.5
413.365	76.5
413.589	84.5
413.812	91.5
414.035	86.5
414.258	84.5
414.482	92.5
414.705	83.5
414.928	93.5
415.151	81.5
415.374	79.5
415.597	85.5
415.821	101.5
416.044	75.5
416.267	83.5
416.49	81.5
416.713	80.5
416.936	77.5
417.159	84.5
417.382	98.5
417.605	73.5
417.828	94.5
418.051	88.5
418.274	109.5
418.497	83.5
418.72	94.5
418.943	90.5
419.166	86.5
419.389	79.5
419.611	80.5
419.834	94.5
420.057	85.5
420.28	82.5
420.503	81.5
420.726	77.5
420.948	72.5
421.171	89.5
421.394	85.5
421.617	83.5
421.839	76.5
422.062	85.5
422.285	88.5
422.507	94.5
422.73	93.5
422.953	82.5
423.175	87.5
423.398	89.5
423.621	90.5
423.843	95.5
424.066	100.5
424.288	94.5
424.511	99.5
424.733	79.5
424.956	91.5
425.178	111.5
425.401	99.5
425.623	92.5
425.846	89.5
426.068	88.5
426.291	85.5
426.513	85.5
426.735	81.5
426.958	83.5
427.18	101.5
427.402	144.5
427.625	159.5
427.847	123.5
428.069	119.5
428.292	79.5
428.514	74.5
428.736	79.5
428.958	77.5
429.181	87.5
429.403	90.5
429.625	79.5
429.847	99.5
430.069	108.5
430.292	90.5
430.514	77.5
430.736	88.5
430.958	86.5
431.18	76.5
431.402	75.5
431.624	79.5
431.846	90.5
432.068	70.5
432.29	70.5
432.512	102.5
432.734	85.5
432.956	83.5
433.178	74.5
433.4	87.5
433.622	92.5
433.844	78.5
434.066	91.5
434.287	84.5
434.509	77.5
434.731	81.5
434.953	73.5
435.175	90.5
435.397	89.5
435.618	83.5
435.84	94.5
436.062	120.5
436.284	105.5
436.505	88.5
436.727	93.5
436.949	98.5
437.17	100.5
437.392	86.5
437.614	85.5
437.835	102.5
438.057	103.5
438.278	104.5
438.5	99.5
438.721	105.5
438.943	103.5
439.165	78.5
439.386	87.5
439.608	79.5
439.829	100.5
440.05	112.5
440.272	137.5
440.493	100.5
440.715	96.5
440.936	92.5
441.158	97.5
441.379	65.5
441.6	87.5
441.822	87.5
442.043	85.5
442.264	103.5
442.486	84.5
442.707	100.5
442.928	98.5
443.149	118.5
443.371	122.5
443.592	119.5
443.813	126.5
444.034	83.5
444.255	79.5
444.476	78.5
444.698	92.5
444.919	81.5
445.14	118.5
445.361	113.5
445.582	114.5
445.803	130.5
446.024	121.5
446.245	141.5
446.466	105.5
446.687	90.5
446.908	78.5
447.129	85.5
447.35	91.5
447.571	83.5
447.792	89.5
448.013	111.5
448.234	111.5
448.455	88.5
448.675	124.5
448.896	117.5
449.117	108.5
449.338	104.5
449.559	105.5
449.779	142.5
450	110.5
450.221	81.5
450.442	77.5
450.662	93.5
450.883	90.5
451.104	102.5
451.324	93.5
451.545	86.5
451.766	89.5
451.986	73.5
452.207	81.5
452.428	91.5
452.648	93.5
452.869	103.5
453.089	102.5
453.31	104.5
453.53	79.5
453.751	90.5
453.971	90.5
454.192	103.5
454.412	88.5
454.633	85.5
454.853	82.5
455.073	74.5
455.294	93.5
455.514	88.5
455.734	77.5
455.955	81.5
456.175	85.5
456.395	85.5
456.616	86.5
456.836	78.5
457.056	79.5
457.276	82.5
457.497	100.5
457.717	87.5
457.937	90.5
458.157	92.5
458.377	78.5
458.598	101.5
458.818	134.5
459.038	128.5
459.258	107.5
459.478	88.5
459.698	78.5
459.918	72.5
460.138	75.5
460.358	94.5
460.578	92.5
460.798	97.5
461.018	88.5
461.238	77.5
461.458	87.5
461.678	90.5
461.898	84.5
462.118	91.5
462.338	75.5
462.558	75.5
462.777	75.5
462.997	69.5
463.217	84.5
463.437	89.5
463.657	90.5
463.876	75.5
464.096	77.5
464.316	98.5
464.536	86.5
464.755	89.5
464.975	100.5
465.195	145.5
465.414	151.5
465.634	103.5
465.854	78.5
466.073	89.5
466.293	92.5
466.512	87.5
466.732	77.5
466.951	79.5
467.171	98.5
467.391	92.5
467.61	99.5
467.829	94.5
468.049	118.5
468.268	127.5
468.488	78.5
468.707	86.5
468.927	75.5
469.146	102.5
469.365	77.5
469.585	88.5
469.804	84.5
470.023	94.5
470.243	102.5
470.462	96.5
470.681	98.5
470.901	91.5
471.12	81.5
471.339	85.5
471.558	89.5
471.777	91.5
471.997	110.5
472.216	153.5
472.435	228.5
472.654	115.5
472.873	92.5
473.092	78.5
473.311	87.5
473.53	86.5
473.749	86.5
473.968	104.5
474.187	100.5
474.406	94.5
474.625	80.5
474.844	91.5
475.063	83.5
475.282	89.5
475.501	93.5
475.72	88.5
475.939	71.5
476.158	93.5
476.377	77.5
476.596	75.5
476.814	82.5
477.033	90.5
477.252	97.5
477.471	94.5
477.69	90.5
477.908	61.5
478.127	74.5
478.346	94.5
478.564	106.5
478.783	83.5
479.002	88.5
479.22	67.5
479.439	86.5
479.658	95.5
479.876	98.5
480.095	79.5
480.313	108.5
480.532	79.5
480.751	93.5
480.969	149.5
481.188	354.5
481.406	251.5
481.624	93.5
481.843	81.5
482.061	87.5
482.28	97.5
482.498	91.5
482.717	81.5
482.935	85.5
483.153	97.5
483.372	88.5
483.59	84.5
483.808	77.5
484.027	86.5
484.245	98.5
484.463	96.5
484.681	93.5
484.9	98.5
485.118	107.5
485.336	86.5
485.554	90.5
485.772	96.5
485.99	96.5
486.209	100.5
486.427	94.5
486.645	104.5
486.863	103.5
487.081	86.5
487.299	93.5
487.517	92.5
487.735	78.5
487.953	87.5
488.171	102.5
488.389	96.5
488.607	97.5
488.825	90.5
489.043	84.5
489.261	82.5
489.479	93.5
489.696	105.5
489.914	86.5
490.132	90.5
490.35	102.5
490.568	92.5
490.786	87.5
491.003	83.5
491.221	83.5
491.439	113.5
491.657	74.5
491.874	75.5
492.092	78.5
492.31	94.5
492.527	98.5
492.745	75.5
492.963	83.5
493.18	99.5
493.398	90.5
493.615	84.5
493.833	93.5
494.05	74.5
494.268	77.5
494.485	93.5
494.703	83.5
494.92	83.5
495.138	89.5
495.355	77.5
495.573	91.5
495.79	87.5
496.008	94.5
496.225	99.5
496.442	82.5
496.66	68.5
496.877	69.5
497.094	97.5
497.312	78.5
497.529	104.5
497.746	87.5
497.963	78.5
498.181	92.5
498.398	93.5
498.615	107.5
498.832	102.5
499.049	98.5
499.267	97.5
499.484	73.5
499.701	90.5
499.918	99.5
500.135	92.5
500.352	84.5
500.569	85.5
500.786	92.5
501.003	89.5
501.22	82.5
501.437	90.5
501.654	82.5
501.871	96.5
502.088	101.5
502.305	68.5
502.522	90.5
502.739	83.5
502.956	92.5
503.172	86.5
503.389	98.5
503.606	98.5
503.823	95.5
504.04	90.5
504.256	82.5
504.473	90.5
504.69	74.5
504.907	78.5
505.123	92.5
505.34	90.5
505.557	99.5
505.773	93.5
505.99	66.5
506.207	82.5
506.423	96.5
506.64	82.5
506.856	102.5
507.073	88.5
507.289	94.5
507.506	87.5
507.722	114.5
507.939	114.5
508.155	86.5
508.372	81.5
508.588	86.5
508.805	101.5
509.021	89.5
509.238	87.5
509.454	92.5
509.67	99.5
509.887	107.5
510.103	114.5
510.319	189.5
510.536	647.5
510.752	2005.5
510.968	601.5
511.184	140.5
511.401	88.5
511.617	102.5
511.833	81.5
512.049	78.5
512.265	91.5
512.481	102.5
512.698	82.5
512.914	89.5
513.13	83.5
513.346	90.5
513.562	89.5
513.778	97.5
513.994	90.5
514.21	104.5
514.426	119.5
514.642	124.5
514.858	126.5
515.074	148.5
515.29	392.5
515.506	1260.5
515.721	477.5
515.937	143.5
516.153	105.5
516.369	103.5
516.585	92.5
516.801	105.5
517.016	89.5
517.232	89.5
517.448	91.5
517.664	94.5
517.879	90.5
518.095	88.5
518.311	83.5
518.527	81.5
518.742	101.5
518.958	82.5
519.173	80.5
519.389	94.5
519.605	88.5
519.82	94.5
520.036	103.5
520.251	109.5
520.467	102.5
520.682	100.5
520.898	99.5
521.113	110.5
521.329	125.5
521.544	180.5
521.76	471.5
521.975	1998.5
522.19	1257.5
522.406	283.5
522.621	137.5
522.836	81.5
523.052	92.5
523.267	84.5
523.482	87.5
523.698	106.5
523.913	113.5
524.128	103.5
524.343	96.5
524.559	81.5
524.774	86.5
524.989	92.5
525.204	110.5
525.419	93.5
525.634	83.5
525.849	98.5
526.064	90.5
526.28	87.5
526.495	86.5
526.71	84.5
526.925	90.5
527.14	88.5
527.355	82.5
527.57	82.5
527.785	87.5
527.999	84.5
528.214	88.5
528.429	91.5
528.644	99.5
528.859	87.5
529.074	91.5
529.289	126.5
529.503	169.5
529.718	103.5
529.933	78.5
530.148	76.5
530.363	82.5
530.577	74.5
530.792	84.5
531.007	85.5
531.221	88.5
531.436	82.5
531.651	88.5
531.865	90.5
532.08	103.5
532.295	92.5
532.509	94.5
532.724	102.5
532.938	83.5
533.153	94.5
533.367	86.5
533.582	100.5
533.796	81.5
534.011	86.5
534.225	97.5
534.44	100.5
534.654	92.5
534.868	101.5
535.083	82.5
535.297	91.5
535.511	97.5
535.726	93.5
535.94	99.5
536.154	92.5
536.369	109.5
