Data from Circ_2011_H10_HRD10591_00041.txt Node
Date: Wed Jan 03 10:08:07 EST 2024
User: Yrep
Spectrometer: HR+D1059
Trigger mode: 1
Integration Time (sec): 1.000000E-1
Scans to average: 1
Electric dark correction enabled: true
Nonlinearity correction enabled: false
Boxcar width: 0
XAxis mode: Wavelengths
Number of Pixels in Spectrum: 2048
>>>>>Begin Spectral Data<<<<<
223.165	-11.31
223.4	-11.31
223.635	-11.31
223.869	-20.31
224.104	-18.31
224.338	-22.31
224.573	-26.31
224.808	-2.31
225.042	-1.31
225.277	-3.31
225.511	-5.31
225.746	-1.31
225.98	8.69
226.215	12.69
226.449	20.69
226.683	11.69
226.918	22.69
227.152	35.69
227.387	37.69
227.621	28.69
227.856	38.69
228.09	54.69
228.324	44.69
228.559	55.69
228.793	58.69
229.027	61.69
229.262	74.69
229.496	72.69
229.73	77.69
229.964	84.69
230.199	73.69
230.433	65.69
230.667	85.69
230.901	86.69
231.136	84.69
231.37	83.69
231.604	79.69
231.838	74.69
232.072	78.69
232.306	85.69
232.541	87.69
232.775	87.69
233.009	82.69
233.243	80.69
233.477	83.69
233.711	74.69
233.945	84.69
234.179	72.69
234.413	79.69
234.647	80.69
234.881	70.69
235.115	74.69
235.349	85.69
235.583	84.69
235.817	83.69
236.051	61.69
236.285	77.69
236.519	63.69
236.753	91.69
236.987	88.69
237.221	74.69
237.455	94.69
237.689	82.69
237.922	73.69
238.156	68.69
238.39	73.69
238.624	80.69
238.858	79.69
239.091	85.69
239.325	80.69
239.559	89.69
239.793	89.69
240.027	83.69
240.26	81.69
240.494	72.69
240.728	66.69
240.961	75.69
241.195	70.69
241.429	78.69
241.662	77.69
241.896	73.69
242.13	82.69
242.363	73.69
242.597	70.69
242.83	86.69
243.064	74.69
243.298	69.69
243.531	74.69
243.765	68.69
243.998	89.69
244.232	78.69
244.465	80.69
244.699	68.69
244.932	79.69
245.166	72.69
245.399	73.69
245.633	82.69
245.866	84.69
246.099	66.69
246.333	80.69
246.566	74.69
246.8	88.69
247.033	76.69
247.266	70.69
247.5	77.69
247.733	86.69
247.966	69.69
248.2	76.69
248.433	86.69
248.666	77.69
248.899	65.69
249.133	95.69
249.366	98.69
249.599	91.69
249.832	84.69
250.066	91.69
250.299	71.69
250.532	83.69
250.765	78.69
250.998	80.69
251.231	83.69
251.465	70.69
251.698	75.69
251.931	84.69
252.164	72.69
252.397	68.69
252.63	72.69
252.863	67.69
253.096	77.69
253.329	80.69
253.562	74.69
253.795	77.69
254.028	70.69
254.261	93.69
254.494	83.69
254.727	85.69
254.96	76.69
255.193	81.69
255.426	77.69
255.659	78.69
255.892	92.69
256.124	71.69
256.357	77.69
256.59	64.69
256.823	75.69
257.056	63.69
257.289	70.69
257.521	76.69
257.754	73.69
257.987	79.69
258.22	86.69
258.452	92.69
258.685	90.69
258.918	85.69
259.151	91.69
259.383	81.69
259.616	71.69
259.849	78.69
260.081	73.69
260.314	75.69
260.547	67.69
260.779	87.69
261.012	90.69
261.244	87.69
261.477	100.69
261.71	84.69
261.942	130.69
262.175	114.69
262.407	92.69
262.64	82.69
262.872	75.69
263.105	76.69
263.337	86.69
263.57	84.69
263.802	88.69
264.035	72.69
264.267	87.69
264.499	84.69
264.732	73.69
264.964	84.69
265.197	78.69
265.429	92.69
265.661	78.69
265.894	76.69
266.126	98.69
266.358	72.69
266.591	78.69
266.823	67.69
267.055	81.69
267.287	88.69
267.52	86.69
267.752	69.69
267.984	90.69
268.216	77.69
268.448	88.69
268.681	82.69
268.913	84.69
269.145	83.69
269.377	85.69
269.609	87.69
269.841	77.69
270.073	74.69
270.306	69.69
270.538	82.69
270.77	86.69
271.002	87.69
271.234	75.69
271.466	77.69
271.698	75.69
271.93	89.69
272.162	79.69
272.394	90.69
272.626	70.69
272.858	68.69
273.09	84.69
273.322	71.69
273.553	74.69
273.785	81.69
274.017	95.69
274.249	76.69
274.481	84.69
274.713	94.69
274.945	84.69
275.176	85.69
275.408	84.69
275.64	87.69
275.872	99.69
276.104	67.69
276.335	82.69
276.567	81.69
276.799	129.69
277.031	107.69
277.262	107.69
277.494	97.69
277.726	96.69
277.957	86.69
278.189	83.69
278.421	88.69
278.652	75.69
278.884	73.69
279.115	89.69
279.347	92.69
279.579	82.69
279.81	100.69
280.042	100.69
280.273	93.69
280.505	99.69
280.736	95.69
280.968	90.69
281.199	82.69
281.431	94.69
281.662	92.69
281.894	89.69
282.125	84.69
282.356	126.69
282.588	152.69
282.819	137.69
283.051	93.69
283.282	76.69
283.513	96.69
283.745	99.69
283.976	85.69
284.207	73.69
284.439	67.69
284.67	85.69
284.901	85.69
285.132	81.69
285.364	88.69
285.595	88.69
285.826	79.69
286.057	84.69
286.288	75.69
286.52	65.69
286.751	86.69
286.982	84.69
287.213	70.69
287.444	73.69
287.675	82.69
287.906	87.69
288.138	92.69
288.369	92.69
288.6	85.69
288.831	78.69
289.062	77.69
289.293	86.69
289.524	86.69
289.755	80.69
289.986	79.69
290.217	71.69
290.448	86.69
290.679	90.69
290.91	101.69
291.141	81.69
291.371	82.69
291.602	90.69
291.833	92.69
292.064	91.69
292.295	87.69
292.526	80.69
292.757	81.69
292.987	84.69
293.218	83.69
293.449	71.69
293.68	84.69
293.91	90.69
294.141	94.69
294.372	76.69
294.603	85.69
294.833	85.69
295.064	89.69
295.295	92.69
295.525	95.69
295.756	104.69
295.987	125.69
296.217	149.69
296.448	123.69
296.679	84.69
296.909	98.69
297.14	74.69
297.37	76.69
297.601	88.69
297.831	92.69
298.062	91.69
298.292	87.69
298.523	100.69
298.753	75.69
298.984	74.69
299.214	75.69
299.445	76.69
299.675	91.69
299.905	91.69
300.136	89.69
300.366	87.69
300.597	96.69
300.827	97.69
301.057	106.69
301.288	118.69
301.518	97.69
301.748	96.69
301.979	93.69
302.209	89.69
302.439	86.69
302.669	79.69
302.9	81.69
303.13	80.69
303.36	100.69
303.59	99.69
303.82	108.69
304.051	97.69
304.281	82.69
304.511	86.69
304.741	82.69
304.971	87.69
305.201	73.69
305.431	89.69
305.661	86.69
305.891	76.69
306.121	93.69
306.352	100.69
306.582	101.69
306.812	91.69
307.042	105.69
307.272	103.69
307.502	102.69
307.731	103.69
307.961	92.69
308.191	92.69
308.421	81.69
308.651	88.69
308.881	97.69
309.111	92.69
309.341	94.69
309.571	98.69
309.8	101.69
310.03	84.69
310.26	95.69
310.49	94.69
310.72	107.69
310.949	108.69
311.179	103.69
311.409	94.69
311.639	88.69
311.868	99.69
312.098	107.69
312.328	109.69
312.557	106.69
312.787	95.69
313.017	92.69
313.246	95.69
313.476	92.69
313.706	84.69
313.935	105.69
314.165	103.69
314.394	95.69
314.624	92.69
314.853	92.69
315.083	98.69
315.312	93.69
315.542	99.69
315.771	87.69
316.001	103.69
316.23	80.69
316.46	84.69
316.689	95.69
316.919	93.69
317.148	102.69
317.377	89.69
317.607	85.69
317.836	83.69
318.065	89.69
318.295	96.69
318.524	98.69
318.753	99.69
318.983	80.69
319.212	96.69
319.441	106.69
319.67	103.69
319.9	80.69
320.129	84.69
320.358	96.69
320.587	95.69
320.816	103.69
321.046	101.69
321.275	108.69
321.504	92.69
321.733	102.69
321.962	103.69
322.191	116.69
322.42	113.69
322.649	127.69
322.878	118.69
323.108	121.69
323.337	140.69
323.566	161.69
323.795	181.69
324.024	237.69
324.253	493.69
324.482	1066.69
324.71	2255.69
324.939	2975.69
325.168	1060.69
325.397	301.69
325.626	163.69
325.855	129.69
326.084	139.69
326.313	133.69
326.542	188.69
326.77	267.69
326.999	584.69
327.228	1230.69
327.457	2252.69
327.686	1753.69
327.914	472.69
328.143	265.69
328.372	237.69
328.6	161.69
328.829	142.69
329.058	141.69
329.287	143.69
329.515	113.69
329.744	122.69
329.972	158.69
330.201	215.69
330.43	303.69
330.658	218.69
330.887	167.69
331.115	134.69
331.344	105.69
331.572	88.69
331.801	105.69
332.03	111.69
332.258	104.69
332.486	95.69
332.715	101.69
332.943	92.69
333.172	93.69
333.4	105.69
333.629	90.69
333.857	127.69
334.085	146.69
334.314	221.69
334.542	372.69
334.771	370.69
334.999	167.69
335.227	103.69
335.455	104.69
335.684	105.69
335.912	100.69
336.14	85.69
336.369	91.69
336.597	107.69
336.825	90.69
337.053	89.69
337.281	91.69
337.51	101.69
337.738	97.69
337.966	93.69
338.194	95.69
338.422	90.69
338.65	102.69
338.878	100.69
339.106	98.69
339.334	94.69
339.562	86.69
339.79	85.69
340.018	102.69
340.246	106.69
340.474	88.69
340.702	102.69
340.93	92.69
341.158	86.69
341.386	89.69
341.614	96.69
341.842	108.69
342.07	100.69
342.298	90.69
342.526	77.69
342.754	88.69
342.981	82.69
343.209	78.69
343.437	94.69
343.665	94.69
343.893	97.69
344.12	83.69
344.348	88.69
344.576	75.69
344.804	85.69
345.031	89.69
345.259	91.69
345.487	92.69
345.714	89.69
345.942	90.69
346.17	94.69
346.397	108.69
346.625	72.69
346.853	90.69
347.08	77.69
347.308	89.69
347.535	91.69
347.763	106.69
347.99	86.69
348.218	106.69
348.445	103.69
348.673	108.69
348.9	82.69
349.128	81.69
349.355	89.69
349.583	95.69
349.81	79.69
350.037	86.69
350.265	95.69
350.492	91.69
350.72	88.69
350.947	103.69
351.174	103.69
351.402	110.69
351.629	100.69
351.856	92.69
352.083	97.69
352.311	97.69
352.538	102.69
352.765	125.69
352.992	113.69
353.22	100.69
353.447	117.69
353.674	92.69
353.901	103.69
354.128	105.69
354.355	94.69
354.583	98.69
354.81	92.69
355.037	97.69
355.264	96.69
355.491	96.69
355.718	98.69
355.945	98.69
356.172	84.69
356.399	89.69
356.626	85.69
356.853	91.69
357.08	90.69
357.307	88.69
357.534	90.69
357.761	97.69
357.988	92.69
358.215	101.69
358.441	97.69
358.668	89.69
358.895	80.69
359.122	89.69
359.349	105.69
359.576	91.69
359.802	82.69
360.029	128.69
360.256	121.69
360.483	97.69
360.709	84.69
360.936	94.69
361.163	93.69
361.39	91.69
361.616	100.69
361.843	87.69
362.07	101.69
362.296	88.69
362.523	81.69
362.749	90.69
362.976	93.69
363.203	79.69
363.429	77.69
363.656	85.69
363.882	94.69
364.109	79.69
364.335	90.69
364.562	95.69
364.788	93.69
365.015	92.69
365.241	87.69
365.468	110.69
365.694	101.69
365.92	93.69
366.147	100.69
366.373	97.69
366.599	83.69
366.826	89.69
367.052	71.69
367.278	83.69
367.505	102.69
367.731	100.69
367.957	77.69
368.184	99.69
368.41	97.69
368.636	114.69
368.862	135.69
369.089	107.69
369.315	100.69
369.541	88.69
369.767	94.69
369.993	83.69
370.219	80.69
370.445	70.69
370.672	97.69
370.898	84.69
371.124	89.69
371.35	82.69
371.576	90.69
371.802	87.69
372.028	83.69
372.254	82.69
372.48	85.69
372.706	78.69
372.932	82.69
373.158	74.69
373.384	98.69
373.61	85.69
373.835	103.69
374.061	90.69
374.287	95.69
374.513	90.69
374.739	93.69
374.965	91.69
375.191	86.69
375.416	99.69
375.642	83.69
375.868	76.69
376.094	96.69
376.319	77.69
376.545	68.69
376.771	90.69
376.997	88.69
377.222	93.69
377.448	88.69
377.674	88.69
377.899	80.69
378.125	78.69
378.35	82.69
378.576	89.69
378.802	87.69
379.027	67.69
379.253	80.69
379.478	96.69
379.704	88.69
379.929	80.69
380.155	82.69
380.38	95.69
380.606	93.69
380.831	79.69
381.057	103.69
381.282	87.69
381.507	94.69
381.733	96.69
381.958	97.69
382.184	98.69
382.409	103.69
382.634	83.69
382.86	94.69
383.085	86.69
383.31	100.69
383.535	103.69
383.761	92.69
383.986	88.69
384.211	85.69
384.436	94.69
384.662	82.69
384.887	86.69
385.112	99.69
385.337	103.69
385.562	90.69
385.787	69.69
386.013	105.69
386.238	101.69
386.463	84.69
386.688	97.69
386.913	102.69
387.138	90.69
387.363	100.69
387.588	99.69
387.813	89.69
388.038	107.69
388.263	89.69
388.488	93.69
388.713	100.69
388.938	96.69
389.163	97.69
389.387	108.69
389.612	83.69
389.837	91.69
390.062	89.69
390.287	76.69
390.512	93.69
390.736	96.69
390.961	83.69
391.186	81.69
391.411	84.69
391.636	74.69
391.86	85.69
392.085	74.69
392.31	93.69
392.534	77.69
392.759	83.69
392.984	86.69
393.208	85.69
393.433	78.69
393.658	100.69
393.882	79.69
394.107	76.69
394.331	88.69
394.556	103.69
394.78	89.69
395.005	83.69
395.229	80.69
395.454	88.69
395.678	69.69
395.903	74.69
396.127	106.69
396.352	95.69
396.576	74.69
396.801	98.69
397.025	104.69
397.249	91.69
397.474	80.69
397.698	83.69
397.922	93.69
398.147	89.69
398.371	79.69
398.595	82.69
398.82	77.69
399.044	82.69
399.268	78.69
399.492	86.69
399.717	85.69
399.941	80.69
400.165	87.69
400.389	94.69
400.613	85.69
400.837	98.69
401.062	87.69
401.286	92.69
401.51	90.69
401.734	77.69
401.958	103.69
402.182	137.69
402.406	189.69
402.63	130.69
402.854	100.69
403.078	91.69
403.302	105.69
403.526	76.69
403.75	92.69
403.974	103.69
404.198	87.69
404.422	85.69
404.645	71.69
404.869	93.69
405.093	107.69
405.317	106.69
405.541	105.69
405.765	94.69
405.988	134.69
406.212	188.69
406.436	271.69
406.66	179.69
406.883	113.69
407.107	84.69
407.331	109.69
407.555	109.69
407.778	100.69
408.002	81.69
408.226	79.69
408.449	82.69
408.673	89.69
408.896	94.69
409.12	83.69
409.344	82.69
409.567	86.69
409.791	87.69
410.014	87.69
410.238	88.69
410.461	76.69
410.685	99.69
410.908	97.69
411.132	107.69
411.355	105.69
411.578	89.69
411.802	90.69
412.025	82.69
412.249	99.69
412.472	105.69
412.695	105.69
412.919	92.69
413.142	67.69
413.365	64.69
413.589	76.69
413.812	77.69
414.035	94.69
414.258	96.69
414.482	85.69
414.705	87.69
414.928	91.69
415.151	81.69
415.374	89.69
415.597	79.69
415.821	78.69
416.044	88.69
416.267	78.69
416.49	82.69
416.713	85.69
416.936	89.69
417.159	90.69
417.382	85.69
417.605	85.69
417.828	79.69
418.051	83.69
418.274	83.69
418.497	61.69
418.72	78.69
418.943	78.69
419.166	83.69
419.389	83.69
419.611	90.69
419.834	94.69
420.057	89.69
420.28	90.69
420.503	89.69
420.726	69.69
420.948	85.69
421.171	92.69
421.394	80.69
421.617	97.69
421.839	95.69
422.062	89.69
422.285	87.69
422.507	91.69
422.73	92.69
422.953	94.69
423.175	84.69
423.398	92.69
423.621	79.69
423.843	82.69
424.066	87.69
424.288	85.69
424.511	79.69
424.733	92.69
424.956	95.69
425.178	96.69
425.401	100.69
425.623	100.69
425.846	90.69
426.068	101.69
426.291	92.69
426.513	95.69
426.735	92.69
426.958	100.69
427.18	103.69
427.402	157.69
427.625	226.69
427.847	182.69
428.069	162.69
428.292	89.69
428.514	80.69
428.736	91.69
428.958	82.69
429.181	85.69
429.403	69.69
429.625	66.69
429.847	92.69
430.069	102.69
430.292	81.69
430.514	75.69
430.736	73.69
430.958	83.69
431.18	83.69
431.402	86.69
431.624	75.69
431.846	99.69
432.068	71.69
432.29	92.69
432.512	91.69
432.734	87.69
432.956	95.69
433.178	101.69
433.4	96.69
433.622	101.69
433.844	84.69
434.066	92.69
434.287	84.69
434.509	94.69
434.731	94.69
434.953	84.69
435.175	83.69
435.397	98.69
435.618	97.69
435.84	96.69
436.062	133.69
436.284	126.69
436.505	110.69
436.727	103.69
436.949	85.69
437.17	84.69
437.392	85.69
437.614	94.69
437.835	113.69
438.057	137.69
438.278	101.69
438.5	93.69
438.721	133.69
438.943	87.69
439.165	90.69
439.386	96.69
439.608	93.69
439.829	98.69
440.05	135.69
440.272	163.69
440.493	99.69
440.715	86.69
440.936	85.69
441.158	98.69
441.379	86.69
441.6	98.69
441.822	90.69
442.043	91.69
442.264	108.69
442.486	95.69
442.707	106.69
442.928	122.69
443.149	144.69
443.371	152.69
443.592	115.69
443.813	113.69
444.034	119.69
444.255	91.69
444.476	83.69
444.698	85.69
444.919	76.69
445.14	129.69
445.361	125.69
445.582	121.69
445.803	152.69
446.024	158.69
446.245	162.69
446.466	128.69
446.687	95.69
446.908	85.69
447.129	91.69
447.35	81.69
447.571	89.69
447.792	83.69
448.013	110.69
448.234	115.69
448.455	101.69
448.675	111.69
448.896	127.69
449.117	99.69
449.338	114.69
449.559	170.69
449.779	146.69
450	95.69
450.221	97.69
450.442	77.69
450.662	105.69
450.883	104.69
451.104	116.69
451.324	91.69
451.545	73.69
451.766	84.69
451.986	90.69
452.207	97.69
452.428	97.69
452.648	93.69
452.869	106.69
453.089	129.69
453.31	118.69
453.53	97.69
453.751	109.69
453.971	99.69
454.192	107.69
454.412	97.69
454.633	90.69
454.853	86.69
455.073	78.69
455.294	90.69
455.514	123.69
455.734	98.69
455.955	91.69
456.175	84.69
456.395	91.69
456.616	83.69
456.836	85.69
457.056	83.69
457.276	82.69
457.497	71.69
457.717	90.69
457.937	90.69
458.157	78.69
458.377	87.69
458.598	98.69
458.818	165.69
459.038	201.69
459.258	131.69
459.478	92.69
459.698	92.69
459.918	83.69
460.138	86.69
460.358	72.69
460.578	103.69
460.798	87.69
461.018	94.69
461.238	75.69
461.458	94.69
461.678	85.69
461.898	75.69
462.118	89.69
462.338	92.69
462.558	85.69
462.777	82.69
462.997	83.69
463.217	84.69
463.437	84.69
463.657	88.69
463.876	86.69
464.096	86.69
464.316	91.69
464.536	78.69
464.755	90.69
464.975	105.69
465.195	185.69
465.414	208.69
465.634	108.69
465.854	87.69
466.073	84.69
466.293	72.69
466.512	89.69
466.732	86.69
466.951	98.69
467.171	88.69
467.391	95.69
467.61	108.69
467.829	131.69
468.049	147.69
468.268	193.69
468.488	99.69
468.707	93.69
468.927	84.69
469.146	70.69
469.365	97.69
469.585	93.69
469.804	103.69
470.023	103.69
470.243	84.69
470.462	99.69
470.681	125.69
470.901	88.69
471.12	97.69
471.339	100.69
471.558	92.69
471.777	104.69
471.997	112.69
472.216	250.69
472.435	435.69
472.654	165.69
472.873	97.69
473.092	75.69
473.311	85.69
473.53	98.69
473.749	77.69
473.968	98.69
474.187	105.69
474.406	95.69
474.625	83.69
474.844	82.69
475.063	84.69
475.282	89.69
475.501	90.69
475.72	86.69
475.939	88.69
476.158	79.69
476.377	76.69
476.596	87.69
476.814	91.69
477.033	87.69
477.252	94.69
477.471	80.69
477.69	84.69
477.908	87.69
478.127	83.69
478.346	84.69
478.564	102.69
478.783	111.69
479.002	94.69
479.22	92.69
479.439	109.69
479.658	104.69
479.876	106.69
480.095	95.69
480.313	101.69
480.532	87.69
480.751	120.69
480.969	255.69
481.188	766.69
481.406	491.69
481.624	141.69
481.843	91.69
482.061	89.69
482.28	75.69
482.498	85.69
482.717	84.69
482.935	91.69
483.153	93.69
483.372	97.69
483.59	83.69
483.808	87.69
484.027	85.69
484.245	77.69
484.463	90.69
484.681	92.69
484.9	82.69
485.118	90.69
485.336	85.69
485.554	95.69
485.772	96.69
485.99	105.69
486.209	95.69
486.427	100.69
486.645	108.69
486.863	112.69
487.081	102.69
487.299	94.69
487.517	93.69
487.735	93.69
487.953	98.69
488.171	84.69
488.389	109.69
488.607	92.69
488.825	96.69
489.043	79.69
489.261	86.69
489.479	89.69
489.696	90.69
489.914	95.69
490.132	90.69
490.35	96.69
490.568	78.69
490.786	85.69
491.003	87.69
491.221	85.69
491.439	98.69
491.657	102.69
491.874	100.69
492.092	89.69
492.31	79.69
492.527	91.69
492.745	107.69
492.963	79.69
493.18	76.69
493.398	90.69
493.615	101.69
493.833	85.69
494.05	90.69
494.268	94.69
494.485	90.69
494.703	85.69
494.92	90.69
495.138	90.69
495.355	88.69
495.573	98.69
495.79	87.69
496.008	96.69
496.225	87.69
496.442	83.69
496.66	84.69
496.877	80.69
497.094	85.69
497.312	74.69
497.529	86.69
497.746	77.69
497.963	87.69
498.181	89.69
498.398	96.69
498.615	116.69
498.832	105.69
499.049	93.69
499.267	86.69
499.484	79.69
499.701	84.69
499.918	100.69
500.135	93.69
500.352	99.69
500.569	79.69
500.786	87.69
501.003	94.69
501.22	92.69
501.437	93.69
501.654	86.69
501.871	113.69
502.088	96.69
502.305	97.69
502.522	89.69
502.739	109.69
502.956	96.69
503.172	97.69
503.389	93.69
503.606	113.69
503.823	98.69
504.04	82.69
504.256	87.69
504.473	92.69
504.69	82.69
504.907	93.69
505.123	82.69
505.34	83.69
505.557	80.69
505.773	82.69
505.99	83.69
506.207	89.69
506.423	71.69
506.64	93.69
506.856	89.69
507.073	92.69
507.289	94.69
507.506	101.69
507.722	124.69
507.939	126.69
508.155	88.69
508.372	109.69
508.588	93.69
508.805	91.69
509.021	103.69
509.238	95.69
509.454	95.69
509.67	101.69
509.887	108.69
510.103	133.69
510.319	231.69
510.536	871.69
510.752	3009.69
510.968	853.69
511.184	175.69
511.401	127.69
511.617	94.69
511.833	98.69
512.049	104.69
512.265	89.69
512.481	91.69
512.698	86.69
512.914	94.69
513.13	87.69
513.346	84.69
513.562	103.69
513.778	80.69
513.994	114.69
514.21	109.69
514.426	124.69
514.642	164.69
514.858	151.69
515.074	191.69
515.29	599.69
515.506	2123.69
515.721	778.69
