Data from Circ_2011_H10_HRD10591_00039.txt Node
Date: Wed Jan 03 10:08:06 EST 2024
User: Yrep
Spectrometer: HR+D1059
Trigger mode: 1
Integration Time (sec): 1.000000E-1
Scans to average: 1
Electric dark correction enabled: true
Nonlinearity correction enabled: false
Boxcar width: 0
XAxis mode: Wavelengths
Number of Pixels in Spectrum: 2048
>>>>>Begin Spectral Data<<<<<
223.165	-1.44
223.4	-1.44
223.635	-1.44
223.869	-9.44
224.104	-29.44
224.338	-16.44
224.573	-2.44
224.808	-22.44
225.042	-19.44
225.277	-1.44
225.511	-9.44
225.746	0.56
225.98	9.56
226.215	11.56
226.449	18.56
226.683	19.56
226.918	23.56
227.152	28.56
227.387	30.56
227.621	50.56
227.856	45.56
228.09	57.56
228.324	48.56
228.559	48.56
228.793	56.56
229.027	54.56
229.262	64.56
229.496	80.56
229.73	78.56
229.964	73.56
230.199	82.56
230.433	79.56
230.667	81.56
230.901	71.56
231.136	72.56
231.37	79.56
231.604	68.56
231.838	79.56
232.072	83.56
232.306	68.56
232.541	79.56
232.775	71.56
233.009	72.56
233.243	78.56
233.477	77.56
233.711	80.56
233.945	92.56
234.179	78.56
234.413	73.56
234.647	73.56
234.881	76.56
235.115	83.56
235.349	83.56
235.583	84.56
235.817	80.56
236.051	83.56
236.285	71.56
236.519	84.56
236.753	75.56
236.987	79.56
237.221	70.56
237.455	75.56
237.689	79.56
237.922	66.56
238.156	83.56
238.39	87.56
238.624	79.56
238.858	84.56
239.091	82.56
239.325	67.56
239.559	71.56
239.793	68.56
240.027	87.56
240.26	80.56
240.494	77.56
240.728	71.56
240.961	76.56
241.195	87.56
241.429	70.56
241.662	75.56
241.896	68.56
242.13	76.56
242.363	83.56
242.597	78.56
242.83	74.56
243.064	89.56
243.298	82.56
243.531	82.56
243.765	79.56
243.998	79.56
244.232	85.56
244.465	69.56
244.699	90.56
244.932	68.56
245.166	68.56
245.399	83.56
245.633	80.56
245.866	78.56
246.099	78.56
246.333	77.56
246.566	84.56
246.8	82.56
247.033	78.56
247.266	75.56
247.5	75.56
247.733	93.56
247.966	74.56
248.2	69.56
248.433	80.56
248.666	74.56
248.899	73.56
249.133	87.56
249.366	92.56
249.599	76.56
249.832	74.56
250.066	81.56
250.299	93.56
250.532	86.56
250.765	94.56
250.998	89.56
251.231	86.56
251.465	75.56
251.698	74.56
251.931	75.56
252.164	67.56
252.397	86.56
252.63	78.56
252.863	68.56
253.096	66.56
253.329	75.56
253.562	66.56
253.795	64.56
254.028	74.56
254.261	75.56
254.494	79.56
254.727	79.56
254.96	74.56
255.193	74.56
255.426	71.56
255.659	71.56
255.892	73.56
256.124	77.56
256.357	71.56
256.59	83.56
256.823	70.56
257.056	84.56
257.289	83.56
257.521	81.56
257.754	80.56
257.987	77.56
258.22	102.56
258.452	66.56
258.685	83.56
258.918	76.56
259.151	85.56
259.383	69.56
259.616	71.56
259.849	69.56
260.081	80.56
260.314	83.56
260.547	72.56
260.779	80.56
261.012	83.56
261.244	67.56
261.477	90.56
261.71	91.56
261.942	98.56
262.175	102.56
262.407	79.56
262.64	77.56
262.872	90.56
263.105	79.56
263.337	88.56
263.57	83.56
263.802	70.56
264.035	82.56
264.267	86.56
264.499	65.56
264.732	79.56
264.964	90.56
265.197	83.56
265.429	77.56
265.661	81.56
265.894	98.56
266.126	76.56
266.358	84.56
266.591	75.56
266.823	86.56
267.055	77.56
267.287	74.56
267.52	72.56
267.752	88.56
267.984	85.56
268.216	83.56
268.448	87.56
268.681	87.56
268.913	75.56
269.145	93.56
269.377	78.56
269.609	74.56
269.841	88.56
270.073	91.56
270.306	84.56
270.538	80.56
270.77	82.56
271.002	99.56
271.234	78.56
271.466	81.56
271.698	101.56
271.93	85.56
272.162	74.56
272.394	78.56
272.626	87.56
272.858	82.56
273.09	69.56
273.322	85.56
273.553	75.56
273.785	87.56
274.017	71.56
274.249	86.56
274.481	74.56
274.713	76.56
274.945	91.56
275.176	98.56
275.408	88.56
275.64	99.56
275.872	86.56
276.104	78.56
276.335	76.56
276.567	92.56
276.799	121.56
277.031	101.56
277.262	84.56
277.494	96.56
277.726	92.56
277.957	86.56
278.189	79.56
278.421	83.56
278.652	82.56
278.884	81.56
279.115	75.56
279.347	94.56
279.579	79.56
279.81	81.56
280.042	92.56
280.273	94.56
280.505	103.56
280.736	77.56
280.968	85.56
281.199	89.56
281.431	83.56
281.662	81.56
281.894	90.56
282.125	96.56
282.356	106.56
282.588	123.56
282.819	95.56
283.051	85.56
283.282	85.56
283.513	97.56
283.745	78.56
283.976	87.56
284.207	75.56
284.439	64.56
284.67	79.56
284.901	88.56
285.132	72.56
285.364	84.56
285.595	77.56
285.826	91.56
286.057	96.56
286.288	79.56
286.52	91.56
286.751	95.56
286.982	94.56
287.213	85.56
287.444	89.56
287.675	74.56
287.906	85.56
288.138	83.56
288.369	105.56
288.6	106.56
288.831	93.56
289.062	78.56
289.293	79.56
289.524	88.56
289.755	87.56
289.986	95.56
290.217	69.56
290.448	90.56
290.679	90.56
290.91	79.56
291.141	80.56
291.371	92.56
291.602	79.56
291.833	92.56
292.064	78.56
292.295	96.56
292.526	90.56
292.757	90.56
292.987	92.56
293.218	79.56
293.449	87.56
293.68	77.56
293.91	82.56
294.141	83.56
294.372	99.56
294.603	89.56
294.833	86.56
295.064	77.56
295.295	97.56
295.525	91.56
295.756	101.56
295.987	94.56
296.217	121.56
296.448	116.56
296.679	82.56
296.909	87.56
297.14	83.56
297.37	77.56
297.601	91.56
297.831	79.56
298.062	98.56
298.292	97.56
298.523	90.56
298.753	84.56
298.984	83.56
299.214	90.56
299.445	82.56
299.675	94.56
299.905	95.56
300.136	77.56
300.366	80.56
300.597	84.56
300.827	88.56
301.057	94.56
301.288	94.56
301.518	89.56
301.748	98.56
301.979	96.56
302.209	95.56
302.439	99.56
302.669	102.56
302.9	88.56
303.13	101.56
303.36	93.56
303.59	106.56
303.82	106.56
304.051	98.56
304.281	83.56
304.511	65.56
304.741	73.56
304.971	92.56
305.201	91.56
305.431	115.56
305.661	97.56
305.891	93.56
306.121	88.56
306.352	103.56
306.582	98.56
306.812	100.56
307.042	89.56
307.272	95.56
307.502	110.56
307.731	94.56
307.961	103.56
308.191	98.56
308.421	80.56
308.651	78.56
308.881	101.56
309.111	87.56
309.341	95.56
309.571	88.56
309.8	82.56
310.03	89.56
310.26	101.56
310.49	94.56
310.72	93.56
310.949	97.56
311.179	104.56
311.409	72.56
311.639	97.56
311.868	99.56
312.098	93.56
312.328	82.56
312.557	93.56
312.787	114.56
313.017	91.56
313.246	80.56
313.476	98.56
313.706	91.56
313.935	91.56
314.165	99.56
314.394	96.56
314.624	87.56
314.853	95.56
315.083	100.56
315.312	91.56
315.542	83.56
315.771	94.56
316.001	81.56
316.23	83.56
316.46	93.56
316.689	93.56
316.919	76.56
317.148	89.56
317.377	102.56
317.607	84.56
317.836	86.56
318.065	94.56
318.295	79.56
318.524	84.56
318.753	84.56
318.983	103.56
319.212	97.56
319.441	90.56
319.67	118.56
319.9	100.56
320.129	87.56
320.358	89.56
320.587	92.56
320.816	103.56
321.046	118.56
321.275	90.56
321.504	99.56
321.733	104.56
321.962	87.56
322.191	88.56
322.42	101.56
322.649	115.56
322.878	119.56
323.108	114.56
323.337	115.56
323.566	139.56
323.795	139.56
324.024	205.56
324.253	388.56
324.482	834.56
324.71	1707.56
324.939	2254.56
325.168	828.56
325.397	234.56
325.626	152.56
325.855	116.56
326.084	130.56
326.313	134.56
326.542	147.56
326.77	232.56
326.999	471.56
327.228	971.56
327.457	1780.56
327.686	1404.56
327.914	368.56
328.143	201.56
328.372	167.56
328.6	123.56
328.829	114.56
329.058	134.56
329.287	115.56
329.515	116.56
329.744	102.56
329.972	123.56
330.201	169.56
330.43	212.56
330.658	160.56
330.887	143.56
331.115	114.56
331.344	111.56
331.572	118.56
331.801	98.56
332.03	104.56
332.258	100.56
332.486	89.56
332.715	110.56
332.943	80.56
333.172	92.56
333.4	98.56
333.629	120.56
333.857	120.56
334.085	132.56
334.314	178.56
334.542	232.56
334.771	208.56
334.999	117.56
335.227	91.56
335.455	93.56
335.684	102.56
335.912	99.56
336.14	93.56
336.369	117.56
336.597	101.56
336.825	98.56
337.053	96.56
337.281	101.56
337.51	102.56
337.738	106.56
337.966	110.56
338.194	92.56
338.422	93.56
338.65	85.56
338.878	96.56
339.106	89.56
339.334	90.56
339.562	85.56
339.79	88.56
340.018	97.56
340.246	88.56
340.474	102.56
340.702	83.56
340.93	91.56
341.158	85.56
341.386	100.56
341.614	84.56
341.842	90.56
342.07	92.56
342.298	94.56
342.526	82.56
342.754	90.56
342.981	88.56
343.209	94.56
343.437	89.56
343.665	78.56
343.893	92.56
344.12	83.56
344.348	81.56
344.576	79.56
344.804	78.56
345.031	80.56
345.259	103.56
345.487	90.56
345.714	98.56
345.942	95.56
346.17	86.56
346.397	87.56
346.625	102.56
346.853	86.56
347.08	79.56
347.308	82.56
347.535	96.56
347.763	95.56
347.99	88.56
348.218	110.56
348.445	100.56
348.673	114.56
348.9	107.56
349.128	90.56
349.355	93.56
349.583	90.56
349.81	86.56
350.037	90.56
350.265	98.56
350.492	103.56
350.72	94.56
350.947	94.56
351.174	102.56
351.402	113.56
351.629	108.56
351.856	98.56
352.083	103.56
352.311	114.56
352.538	90.56
352.765	108.56
352.992	107.56
353.22	95.56
353.447	90.56
353.674	90.56
353.901	98.56
354.128	96.56
354.355	104.56
354.583	91.56
354.81	89.56
355.037	80.56
355.264	102.56
355.491	91.56
355.718	93.56
355.945	101.56
356.172	93.56
356.399	91.56
356.626	103.56
356.853	98.56
357.08	93.56
357.307	88.56
357.534	83.56
357.761	83.56
357.988	99.56
358.215	108.56
358.441	95.56
358.668	98.56
358.895	88.56
359.122	105.56
359.349	79.56
359.576	102.56
359.802	97.56
360.029	104.56
360.256	104.56
360.483	90.56
360.709	95.56
360.936	87.56
361.163	102.56
361.39	76.56
361.616	78.56
361.843	85.56
362.07	93.56
362.296	90.56
362.523	120.56
362.749	95.56
362.976	98.56
363.203	103.56
363.429	98.56
363.656	79.56
363.882	84.56
364.109	91.56
364.335	100.56
364.562	85.56
364.788	78.56
365.015	80.56
365.241	105.56
365.468	93.56
365.694	107.56
365.92	91.56
366.147	87.56
366.373	83.56
366.599	96.56
366.826	91.56
367.052	101.56
367.278	99.56
367.505	86.56
367.731	90.56
367.957	71.56
368.184	88.56
368.41	95.56
368.636	111.56
368.862	114.56
369.089	95.56
369.315	77.56
369.541	84.56
369.767	96.56
369.993	91.56
370.219	87.56
370.445	108.56
370.672	106.56
370.898	73.56
371.124	81.56
371.35	90.56
371.576	82.56
371.802	75.56
372.028	86.56
372.254	90.56
372.48	80.56
372.706	87.56
372.932	74.56
373.158	74.56
373.384	80.56
373.61	89.56
373.835	80.56
374.061	80.56
374.287	91.56
374.513	95.56
374.739	83.56
374.965	90.56
375.191	84.56
375.416	93.56
375.642	89.56
375.868	74.56
376.094	89.56
376.319	86.56
376.545	79.56
376.771	94.56
376.997	86.56
377.222	80.56
377.448	85.56
377.674	75.56
377.899	91.56
378.125	74.56
378.35	105.56
378.576	87.56
378.802	80.56
379.027	82.56
379.253	86.56
379.478	82.56
379.704	94.56
379.929	103.56
380.155	94.56
380.38	103.56
380.606	108.56
380.831	97.56
381.057	84.56
381.282	110.56
381.507	89.56
381.733	83.56
381.958	89.56
382.184	83.56
382.409	88.56
382.634	96.56
382.86	89.56
383.085	103.56
383.31	95.56
383.535	90.56
383.761	104.56
383.986	93.56
384.211	85.56
384.436	106.56
384.662	88.56
384.887	103.56
385.112	102.56
385.337	99.56
385.562	88.56
385.787	100.56
386.013	105.56
386.238	106.56
386.463	106.56
386.688	97.56
386.913	102.56
387.138	103.56
387.363	93.56
387.588	96.56
387.813	91.56
388.038	106.56
388.263	88.56
388.488	101.56
388.713	101.56
388.938	88.56
389.163	91.56
389.387	89.56
389.612	94.56
389.837	88.56
390.062	94.56
390.287	101.56
390.512	85.56
390.736	82.56
390.961	90.56
391.186	86.56
391.411	82.56
391.636	96.56
391.86	91.56
392.085	86.56
392.31	81.56
392.534	68.56
392.759	85.56
392.984	82.56
393.208	87.56
393.433	91.56
393.658	95.56
393.882	95.56
394.107	92.56
394.331	85.56
394.556	77.56
394.78	85.56
395.005	83.56
395.229	78.56
395.454	83.56
395.678	98.56
395.903	86.56
396.127	90.56
396.352	86.56
396.576	86.56
396.801	76.56
397.025	87.56
397.249	72.56
397.474	82.56
397.698	76.56
397.922	79.56
398.147	85.56
398.371	91.56
398.595	86.56
398.82	80.56
399.044	87.56
399.268	95.56
399.492	90.56
399.717	74.56
399.941	107.56
400.165	88.56
400.389	90.56
400.613	78.56
400.837	100.56
401.062	93.56
401.286	89.56
401.51	88.56
401.734	97.56
401.958	95.56
402.182	134.56
402.406	156.56
402.63	117.56
402.854	92.56
403.078	84.56
403.302	82.56
403.526	87.56
403.75	78.56
403.974	88.56
404.198	83.56
404.422	84.56
404.645	85.56
404.869	88.56
405.093	92.56
405.317	104.56
405.541	103.56
405.765	89.56
405.988	99.56
406.212	153.56
406.436	205.56
406.66	130.56
406.883	108.56
407.107	90.56
407.331	91.56
407.555	88.56
407.778	102.56
408.002	91.56
408.226	83.56
408.449	92.56
408.673	75.56
408.896	97.56
409.12	91.56
409.344	90.56
409.567	83.56
409.791	96.56
410.014	113.56
410.238	82.56
410.461	100.56
410.685	94.56
410.908	106.56
411.132	88.56
411.355	98.56
411.578	106.56
411.802	85.56
412.025	88.56
412.249	86.56
412.472	89.56
412.695	84.56
412.919	75.56
413.142	87.56
413.365	84.56
413.589	80.56
413.812	82.56
414.035	86.56
414.258	74.56
414.482	91.56
414.705	96.56
414.928	90.56
415.151	85.56
415.374	97.56
415.597	78.56
415.821	80.56
416.044	84.56
416.267	87.56
416.49	71.56
416.713	92.56
416.936	84.56
417.159	80.56
417.382	90.56
417.605	79.56
417.828	84.56
418.051	91.56
418.274	94.56
418.497	101.56
418.72	93.56
418.943	96.56
419.166	97.56
419.389	83.56
419.611	95.56
419.834	104.56
420.057	98.56
420.28	93.56
420.503	86.56
420.726	80.56
420.948	85.56
421.171	85.56
421.394	75.56
421.617	91.56
421.839	98.56
422.062	85.56
422.285	79.56
422.507	89.56
422.73	100.56
422.953	93.56
423.175	95.56
423.398	91.56
423.621	88.56
423.843	96.56
424.066	92.56
424.288	106.56
424.511	94.56
424.733	75.56
424.956	106.56
425.178	94.56
425.401	108.56
425.623	111.56
425.846	102.56
426.068	98.56
426.291	81.56
426.513	90.56
426.735	81.56
426.958	86.56
427.18	107.56
427.402	126.56
427.625	158.56
427.847	152.56
428.069	131.56
428.292	90.56
428.514	80.56
428.736	92.56
428.958	102.56
429.181	95.56
429.403	88.56
429.625	77.56
429.847	72.56
430.069	92.56
430.292	96.56
430.514	94.56
430.736	76.56
430.958	81.56
431.18	76.56
431.402	82.56
431.624	84.56
431.846	82.56
432.068	76.56
432.29	68.56
432.512	78.56
432.734	103.56
432.956	91.56
433.178	90.56
433.4	96.56
433.622	92.56
433.844	95.56
434.066	89.56
434.287	98.56
434.509	96.56
434.731	92.56
434.953	87.56
435.175	93.56
435.397	87.56
435.618	101.56
435.84	115.56
436.062	120.56
436.284	116.56
436.505	101.56
436.727	102.56
436.949	86.56
437.17	86.56
437.392	86.56
437.614	87.56
437.835	103.56
438.057	118.56
438.278	99.56
438.5	110.56
438.721	109.56
438.943	98.56
439.165	84.56
439.386	93.56
439.608	89.56
439.829	92.56
440.05	102.56
440.272	140.56
440.493	99.56
440.715	96.56
440.936	99.56
441.158	71.56
441.379	85.56
441.6	80.56
441.822	84.56
442.043	105.56
442.264	103.56
442.486	94.56
442.707	95.56
442.928	98.56
443.149	115.56
443.371	129.56
443.592	106.56
443.813	103.56
444.034	116.56
444.255	100.56
444.476	70.56
444.698	80.56
444.919	80.56
445.14	123.56
445.361	133.56
445.582	118.56
445.803	152.56
446.024	135.56
446.245	136.56
446.466	110.56
446.687	82.56
446.908	83.56
447.129	87.56
447.35	81.56
447.571	93.56
447.792	81.56
448.013	104.56
448.234	106.56
448.455	85.56
448.675	107.56
448.896	107.56
449.117	94.56
449.338	114.56
449.559	126.56
449.779	128.56
450	94.56
450.221	84.56
450.442	84.56
450.662	83.56
450.883	106.56
451.104	103.56
451.324	102.56
451.545	86.56
451.766	99.56
451.986	91.56
452.207	80.56
452.428	97.56
452.648	90.56
452.869	100.56
453.089	100.56
453.31	114.56
453.53	80.56
453.751	81.56
453.971	84.56
454.192	90.56
454.412	83.56
454.633	79.56
454.853	79.56
455.073	102.56
455.294	103.56
455.514	100.56
455.734	95.56
455.955	98.56
456.175	70.56
456.395	82.56
456.616	68.56
456.836	77.56
457.056	90.56
457.276	89.56
457.497	69.56
457.717	71.56
457.937	70.56
458.157	103.56
458.377	84.56
458.598	103.56
458.818	137.56
459.038	138.56
459.258	96.56
459.478	92.56
459.698	82.56
459.918	85.56
460.138	89.56
460.358	86.56
460.578	89.56
460.798	80.56
461.018	91.56
461.238	95.56
461.458	72.56
461.678	83.56
461.898	90.56
462.118	76.56
462.338	87.56
462.558	85.56
462.777	75.56
462.997	88.56
463.217	95.56
463.437	85.56
463.657	88.56
463.876	74.56
464.096	100.56
464.316	83.56
464.536	96.56
464.755	95.56
464.975	98.56
465.195	160.56
465.414	137.56
465.634	103.56
465.854	86.56
466.073	74.56
466.293	77.56
466.512	77.56
466.732	78.56
466.951	86.56
467.171	93.56
467.391	93.56
467.61	98.56
467.829	103.56
468.049	115.56
468.268	135.56
468.488	102.56
468.707	80.56
468.927	80.56
469.146	72.56
469.365	72.56
469.585	75.56
469.804	90.56
470.023	96.56
470.243	93.56
470.462	92.56
470.681	111.56
470.901	83.56
471.12	93.56
471.339	89.56
471.558	95.56
471.777	98.56
471.997	108.56
472.216	169.56
472.435	285.56
472.654	114.56
472.873	87.56
473.092	76.56
473.311	87.56
473.53	76.56
473.749	79.56
473.968	92.56
474.187	83.56
474.406	96.56
474.625	89.56
474.844	76.56
475.063	90.56
475.282	95.56
475.501	85.56
475.72	93.56
475.939	71.56
476.158	80.56
476.377	76.56
476.596	84.56
476.814	90.56
477.033	100.56
477.252	96.56
477.471	100.56
477.69	103.56
477.908	88.56
478.127	91.56
478.346	88.56
478.564	83.56
478.783	95.56
479.002	83.56
479.22	98.56
479.439	83.56
479.658	107.56
479.876	103.56
480.095	75.56
480.313	95.56
480.532	101.56
480.751	116.56
480.969	172.56
481.188	472.56
481.406	314.56
481.624	111.56
481.843	109.56
482.061	94.56
482.28	88.56
482.498	93.56
482.717	82.56
482.935	88.56
483.153	79.56
483.372	90.56
483.59	78.56
483.808	77.56
484.027	88.56
484.245	83.56
484.463	95.56
484.681	96.56
484.9	98.56
485.118	91.56
485.336	92.56
485.554	84.56
485.772	91.56
485.99	98.56
486.209	90.56
486.427	87.56
486.645	95.56
486.863	104.56
487.081	95.56
487.299	105.56
487.517	94.56
487.735	86.56
487.953	86.56
488.171	101.56
488.389	88.56
488.607	96.56
488.825	87.56
489.043	83.56
489.261	86.56
489.479	100.56
489.696	84.56
489.914	89.56
490.132	91.56
490.35	103.56
490.568	87.56
490.786	97.56
491.003	86.56
491.221	96.56
491.439	96.56
491.657	89.56
491.874	99.56
492.092	88.56
492.31	98.56
492.527	85.56
492.745	80.56
492.963	95.56
493.18	83.56
493.398	99.56
493.615	88.56
493.833	93.56
494.05	77.56
494.268	85.56
494.485	93.56
494.703	93.56
494.92	87.56
495.138	89.56
495.355	87.56
495.573	85.56
495.79	81.56
496.008	93.56
496.225	88.56
496.442	84.56
496.66	93.56
496.877	109.56
497.094	90.56
497.312	88.56
497.529	82.56
497.746	91.56
497.963	82.56
498.181	91.56
498.398	90.56
498.615	103.56
498.832	103.56
499.049	88.56
499.267	83.56
499.484	86.56
499.701	88.56
499.918	102.56
500.135	94.56
500.352	70.56
500.569	80.56
500.786	89.56
501.003	89.56
501.22	93.56
501.437	82.56
501.654	80.56
501.871	110.56
502.088	100.56
502.305	85.56
502.522	85.56
502.739	99.56
502.956	83.56
503.172	78.56
503.389	104.56
503.606	95.56
503.823	95.56
504.04	87.56
504.256	81.56
504.473	99.56
504.69	87.56
504.907	90.56
505.123	90.56
505.34	87.56
505.557	93.56
505.773	90.56
505.99	89.56
506.207	92.56
506.423	83.56
506.64	78.56
506.856	80.56
507.073	91.56
507.289	86.56
507.506	89.56
507.722	105.56
507.939	104.56
508.155	81.56
508.372	90.56
508.588	92.56
508.805	102.56
509.021	105.56
509.238	101.56
509.454	87.56
509.67	100.56
509.887	105.56
510.103	114.56
510.319	205.56
510.536	695.56
510.752	2174.56
510.968	628.56
511.184	155.56
511.401	125.56
511.617	99.56
511.833	90.56
512.049	95.56
512.265	103.56
512.481	82.56
512.698	90.56
512.914	100.56
513.13	77.56
513.346	87.56
513.562	90.56
513.778	94.56
513.994	91.56
514.21	93.56
514.426	114.56
514.642	140.56
514.858	116.56
515.074	165.56
515.29	404.56
515.506	1354.56
515.721	525.56
515.937	154.56
516.153	98.56
