Data from Circ_2011_H10_HRD10591_00052.txt Node
Date: Wed Jan 03 10:08:09 EST 2024
User: Yrep
Spectrometer: HR+D1059
Trigger mode: 1
Integration Time (sec): 1.000000E-1
Scans to average: 1
Electric dark correction enabled: true
Nonlinearity correction enabled: false
Boxcar width: 0
XAxis mode: Wavelengths
Number of Pixels in Spectrum: 2048
>>>>>Begin Spectral Data<<<<<
223.165	-15.75
223.4	-15.75
223.635	-15.75
223.869	-17.75
224.104	-13.75
224.338	-17.75
224.573	-14.75
224.808	-18.75
225.042	-5.75
225.277	0.25
225.511	-3.75
225.746	5.25
225.98	-1.75
226.215	19.25
226.449	11.25
226.683	15.25
226.918	24.25
227.152	34.25
227.387	25.25
227.621	44.25
227.856	44.25
228.09	46.25
228.324	48.25
228.559	66.25
228.793	52.25
229.027	65.25
229.262	71.25
229.496	74.25
229.73	90.25
229.964	85.25
230.199	63.25
230.433	70.25
230.667	86.25
230.901	74.25
231.136	73.25
231.37	63.25
231.604	96.25
231.838	77.25
232.072	89.25
232.306	75.25
232.541	79.25
232.775	90.25
233.009	74.25
233.243	84.25
233.477	80.25
233.711	82.25
233.945	69.25
234.179	81.25
234.413	79.25
234.647	74.25
234.881	86.25
235.115	94.25
235.349	84.25
235.583	73.25
235.817	70.25
236.051	83.25
236.285	80.25
236.519	94.25
236.753	77.25
236.987	87.25
237.221	97.25
237.455	88.25
237.689	75.25
237.922	81.25
238.156	76.25
238.39	77.25
238.624	76.25
238.858	68.25
239.091	88.25
239.325	73.25
239.559	69.25
239.793	73.25
240.027	80.25
240.26	85.25
240.494	81.25
240.728	77.25
240.961	80.25
241.195	85.25
241.429	70.25
241.662	79.25
241.896	82.25
242.13	71.25
242.363	81.25
242.597	82.25
242.83	80.25
243.064	81.25
243.298	69.25
243.531	85.25
243.765	77.25
243.998	87.25
244.232	78.25
244.465	82.25
244.699	64.25
244.932	83.25
245.166	70.25
245.399	78.25
245.633	85.25
245.866	74.25
246.099	77.25
246.333	72.25
246.566	78.25
246.8	70.25
247.033	81.25
247.266	76.25
247.5	84.25
247.733	84.25
247.966	71.25
248.2	82.25
248.433	80.25
248.666	81.25
248.899	67.25
249.133	86.25
249.366	91.25
249.599	77.25
249.832	77.25
250.066	74.25
250.299	85.25
250.532	92.25
250.765	74.25
250.998	87.25
251.231	72.25
251.465	77.25
251.698	75.25
251.931	101.25
252.164	86.25
252.397	87.25
252.63	76.25
252.863	85.25
253.096	78.25
253.329	86.25
253.562	89.25
253.795	74.25
254.028	77.25
254.261	85.25
254.494	89.25
254.727	77.25
254.96	80.25
255.193	89.25
255.426	94.25
255.659	96.25
255.892	77.25
256.124	90.25
256.357	96.25
256.59	81.25
256.823	79.25
257.056	89.25
257.289	91.25
257.521	88.25
257.754	77.25
257.987	93.25
258.22	89.25
258.452	101.25
258.685	74.25
258.918	68.25
259.151	84.25
259.383	72.25
259.616	79.25
259.849	74.25
260.081	87.25
260.314	86.25
260.547	89.25
260.779	71.25
261.012	87.25
261.244	101.25
261.477	93.25
261.71	98.25
261.942	117.25
262.175	118.25
262.407	95.25
262.64	78.25
262.872	96.25
263.105	69.25
263.337	74.25
263.57	87.25
263.802	82.25
264.035	96.25
264.267	86.25
264.499	77.25
264.732	73.25
264.964	77.25
265.197	80.25
265.429	84.25
265.661	88.25
265.894	81.25
266.126	69.25
266.358	82.25
266.591	80.25
266.823	87.25
267.055	93.25
267.287	81.25
267.52	69.25
267.752	74.25
267.984	86.25
268.216	92.25
268.448	86.25
268.681	84.25
268.913	72.25
269.145	99.25
269.377	81.25
269.609	88.25
269.841	81.25
270.073	86.25
270.306	79.25
270.538	86.25
270.77	86.25
271.002	86.25
271.234	88.25
271.466	86.25
271.698	86.25
271.93	81.25
272.162	81.25
272.394	82.25
272.626	90.25
272.858	90.25
273.09	78.25
273.322	95.25
273.553	90.25
273.785	81.25
274.017	96.25
274.249	75.25
274.481	79.25
274.713	83.25
274.945	87.25
275.176	92.25
275.408	80.25
275.64	87.25
275.872	89.25
276.104	89.25
276.335	96.25
276.567	84.25
276.799	119.25
277.031	105.25
277.262	110.25
277.494	106.25
277.726	93.25
277.957	79.25
278.189	94.25
278.421	82.25
278.652	100.25
278.884	86.25
279.115	84.25
279.347	89.25
279.579	82.25
279.81	100.25
280.042	98.25
280.273	94.25
280.505	114.25
280.736	94.25
280.968	94.25
281.199	86.25
281.431	100.25
281.662	81.25
281.894	86.25
282.125	93.25
282.356	118.25
282.588	141.25
282.819	109.25
283.051	95.25
283.282	87.25
283.513	84.25
283.745	76.25
283.976	82.25
284.207	92.25
284.439	92.25
284.67	87.25
284.901	88.25
285.132	98.25
285.364	81.25
285.595	89.25
285.826	89.25
286.057	89.25
286.288	79.25
286.52	90.25
286.751	69.25
286.982	84.25
287.213	81.25
287.444	90.25
287.675	85.25
287.906	81.25
288.138	72.25
288.369	93.25
288.6	90.25
288.831	75.25
289.062	85.25
289.293	88.25
289.524	78.25
289.755	81.25
289.986	80.25
290.217	82.25
290.448	102.25
290.679	86.25
290.91	98.25
291.141	81.25
291.371	94.25
291.602	89.25
291.833	87.25
292.064	92.25
292.295	86.25
292.526	94.25
292.757	77.25
292.987	85.25
293.218	90.25
293.449	88.25
293.68	81.25
293.91	84.25
294.141	93.25
294.372	85.25
294.603	95.25
294.833	105.25
295.064	98.25
295.295	92.25
295.525	97.25
295.756	95.25
295.987	121.25
296.217	147.25
296.448	133.25
296.679	94.25
296.909	76.25
297.14	74.25
297.37	95.25
297.601	96.25
297.831	93.25
298.062	104.25
298.292	90.25
298.523	102.25
298.753	107.25
298.984	85.25
299.214	103.25
299.445	92.25
299.675	91.25
299.905	85.25
300.136	91.25
300.366	90.25
300.597	102.25
300.827	107.25
301.057	85.25
301.288	85.25
301.518	88.25
301.748	83.25
301.979	97.25
302.209	91.25
302.439	93.25
302.669	89.25
302.9	90.25
303.13	88.25
303.36	108.25
303.59	96.25
303.82	107.25
304.051	85.25
304.281	82.25
304.511	89.25
304.741	87.25
304.971	91.25
305.201	90.25
305.431	103.25
305.661	100.25
305.891	98.25
306.121	91.25
306.352	95.25
306.582	101.25
306.812	94.25
307.042	97.25
307.272	93.25
307.502	108.25
307.731	111.25
307.961	76.25
308.191	92.25
308.421	95.25
308.651	88.25
308.881	92.25
309.111	92.25
309.341	93.25
309.571	95.25
309.8	101.25
310.03	94.25
310.26	103.25
310.49	90.25
310.72	94.25
310.949	114.25
311.179	98.25
311.409	89.25
311.639	104.25
311.868	108.25
312.098	88.25
312.328	93.25
312.557	99.25
312.787	89.25
313.017	94.25
313.246	90.25
313.476	85.25
313.706	98.25
313.935	117.25
314.165	105.25
314.394	111.25
314.624	106.25
314.853	102.25
315.083	97.25
315.312	89.25
315.542	101.25
315.771	85.25
316.001	93.25
316.23	98.25
316.46	96.25
316.689	108.25
316.919	101.25
317.148	104.25
317.377	100.25
317.607	89.25
317.836	90.25
318.065	88.25
318.295	96.25
318.524	93.25
318.753	91.25
318.983	101.25
319.212	104.25
319.441	116.25
319.67	105.25
319.9	97.25
320.129	102.25
320.358	102.25
320.587	111.25
320.816	105.25
321.046	100.25
321.275	97.25
321.504	86.25
321.733	97.25
321.962	100.25
322.191	94.25
322.42	112.25
322.649	111.25
322.878	119.25
323.108	137.25
323.337	136.25
323.566	136.25
323.795	164.25
324.024	228.25
324.253	422.25
324.482	914.25
324.71	1887.25
324.939	2488.25
325.168	958.25
325.397	264.25
325.626	161.25
325.855	139.25
326.084	134.25
326.313	141.25
326.542	172.25
326.77	246.25
326.999	508.25
327.228	1070.25
327.457	1967.25
327.686	1574.25
327.914	441.25
328.143	235.25
328.372	216.25
328.6	174.25
328.829	130.25
329.058	133.25
329.287	147.25
329.515	124.25
329.744	137.25
329.972	173.25
330.201	231.25
330.43	305.25
330.658	214.25
330.887	164.25
331.115	117.25
331.344	90.25
331.572	103.25
331.801	90.25
332.03	113.25
332.258	108.25
332.486	99.25
332.715	111.25
332.943	97.25
333.172	89.25
333.4	106.25
333.629	123.25
333.857	134.25
334.085	170.25
334.314	234.25
334.542	349.25
334.771	334.25
334.999	151.25
335.227	104.25
335.455	94.25
335.684	104.25
335.912	90.25
336.14	107.25
336.369	98.25
336.597	98.25
336.825	100.25
337.053	84.25
337.281	86.25
337.51	99.25
337.738	93.25
337.966	94.25
338.194	88.25
338.422	95.25
338.65	100.25
338.878	82.25
339.106	85.25
339.334	90.25
339.562	80.25
339.79	100.25
340.018	97.25
340.246	91.25
340.474	94.25
340.702	80.25
340.93	84.25
341.158	92.25
341.386	99.25
341.614	104.25
341.842	96.25
342.07	90.25
342.298	101.25
342.526	90.25
342.754	104.25
342.981	92.25
343.209	98.25
343.437	97.25
343.665	82.25
343.893	92.25
344.12	98.25
344.348	103.25
344.576	86.25
344.804	86.25
345.031	102.25
345.259	109.25
345.487	92.25
345.714	88.25
345.942	89.25
346.17	107.25
346.397	89.25
346.625	94.25
346.853	101.25
347.08	101.25
347.308	96.25
347.535	88.25
347.763	108.25
347.99	101.25
348.218	97.25
348.445	112.25
348.673	107.25
348.9	111.25
349.128	94.25
349.355	97.25
349.583	96.25
349.81	102.25
350.037	104.25
350.265	112.25
350.492	85.25
350.72	68.25
350.947	104.25
351.174	109.25
351.402	93.25
351.629	110.25
351.856	88.25
352.083	116.25
352.311	102.25
352.538	124.25
352.765	120.25
352.992	110.25
353.22	123.25
353.447	116.25
353.674	102.25
353.901	85.25
354.128	109.25
354.355	102.25
354.583	109.25
354.81	97.25
355.037	108.25
355.264	97.25
355.491	96.25
355.718	84.25
355.945	93.25
356.172	98.25
356.399	106.25
356.626	93.25
356.853	84.25
357.08	90.25
357.307	93.25
357.534	91.25
357.761	90.25
357.988	103.25
358.215	82.25
358.441	90.25
358.668	78.25
358.895	83.25
359.122	96.25
359.349	88.25
359.576	97.25
359.802	103.25
360.029	131.25
360.256	129.25
360.483	101.25
360.709	96.25
360.936	84.25
361.163	86.25
361.39	110.25
361.616	103.25
361.843	92.25
362.07	92.25
362.296	96.25
362.523	94.25
362.749	80.25
362.976	90.25
363.203	100.25
363.429	94.25
363.656	87.25
363.882	96.25
364.109	99.25
364.335	100.25
364.562	81.25
364.788	91.25
365.015	110.25
365.241	116.25
365.468	113.25
365.694	119.25
365.92	80.25
366.147	100.25
366.373	84.25
366.599	89.25
366.826	97.25
367.052	93.25
367.278	80.25
367.505	87.25
367.731	87.25
367.957	97.25
368.184	80.25
368.41	108.25
368.636	113.25
368.862	118.25
369.089	119.25
369.315	99.25
369.541	89.25
369.767	100.25
369.993	88.25
370.219	77.25
370.445	85.25
370.672	93.25
370.898	88.25
371.124	97.25
371.35	89.25
371.576	98.25
371.802	81.25
372.028	90.25
372.254	100.25
372.48	94.25
372.706	93.25
372.932	91.25
373.158	90.25
373.384	96.25
373.61	73.25
373.835	87.25
374.061	86.25
374.287	84.25
374.513	93.25
374.739	95.25
374.965	89.25
375.191	85.25
375.416	82.25
375.642	93.25
375.868	89.25
376.094	83.25
376.319	109.25
376.545	92.25
376.771	95.25
376.997	100.25
377.222	81.25
377.448	107.25
377.674	97.25
377.899	101.25
378.125	90.25
378.35	98.25
378.576	88.25
378.802	89.25
379.027	86.25
379.253	88.25
379.478	93.25
379.704	93.25
379.929	95.25
380.155	81.25
380.38	89.25
380.606	102.25
380.831	94.25
381.057	90.25
381.282	86.25
381.507	100.25
381.733	92.25
381.958	86.25
382.184	87.25
382.409	82.25
382.634	99.25
382.86	84.25
383.085	101.25
383.31	100.25
383.535	94.25
383.761	94.25
383.986	93.25
384.211	100.25
384.436	111.25
384.662	95.25
384.887	99.25
385.112	98.25
385.337	92.25
385.562	94.25
385.787	92.25
386.013	93.25
386.238	113.25
386.463	104.25
386.688	109.25
386.913	93.25
387.138	90.25
387.363	97.25
387.588	90.25
387.813	94.25
388.038	100.25
388.263	107.25
388.488	103.25
388.713	85.25
388.938	99.25
389.163	101.25
389.387	101.25
389.612	91.25
389.837	96.25
390.062	89.25
390.287	104.25
390.512	85.25
390.736	94.25
390.961	97.25
391.186	94.25
391.411	90.25
391.636	100.25
391.86	81.25
392.085	96.25
392.31	88.25
392.534	93.25
392.759	85.25
392.984	90.25
393.208	90.25
393.433	94.25
393.658	89.25
393.882	84.25
394.107	86.25
394.331	94.25
394.556	90.25
394.78	96.25
395.005	95.25
395.229	84.25
395.454	88.25
395.678	95.25
395.903	96.25
396.127	80.25
396.352	75.25
396.576	82.25
396.801	80.25
397.025	89.25
397.249	81.25
397.474	84.25
397.698	111.25
397.922	85.25
398.147	95.25
398.371	74.25
398.595	91.25
398.82	74.25
399.044	95.25
399.268	75.25
399.492	89.25
399.717	91.25
399.941	81.25
400.165	102.25
400.389	100.25
400.613	77.25
400.837	92.25
401.062	98.25
401.286	75.25
401.51	97.25
401.734	106.25
401.958	122.25
402.182	122.25
402.406	140.25
402.63	129.25
402.854	92.25
403.078	92.25
403.302	102.25
403.526	83.25
403.75	86.25
403.974	91.25
404.198	88.25
404.422	84.25
404.645	78.25
404.869	92.25
405.093	97.25
405.317	120.25
405.541	118.25
405.765	103.25
405.988	132.25
406.212	177.25
406.436	227.25
406.66	161.25
406.883	110.25
407.107	93.25
407.331	113.25
407.555	102.25
407.778	122.25
408.002	101.25
408.226	94.25
408.449	82.25
408.673	86.25
408.896	84.25
409.12	98.25
409.344	92.25
409.567	73.25
409.791	93.25
410.014	91.25
410.238	88.25
410.461	106.25
410.685	95.25
410.908	87.25
411.132	103.25
411.355	97.25
411.578	98.25
411.802	95.25
412.025	74.25
412.249	101.25
412.472	122.25
412.695	111.25
412.919	93.25
413.142	101.25
413.365	93.25
413.589	93.25
413.812	91.25
414.035	95.25
414.258	95.25
414.482	83.25
414.705	95.25
414.928	79.25
415.151	88.25
415.374	98.25
415.597	88.25
415.821	88.25
416.044	81.25
416.267	82.25
416.49	90.25
416.713	94.25
416.936	96.25
417.159	79.25
417.382	91.25
417.605	92.25
417.828	99.25
418.051	101.25
418.274	87.25
418.497	90.25
418.72	89.25
418.943	88.25
419.166	98.25
419.389	101.25
419.611	96.25
419.834	86.25
420.057	97.25
420.28	79.25
420.503	92.25
420.726	89.25
420.948	92.25
421.171	102.25
421.394	93.25
421.617	81.25
421.839	92.25
422.062	97.25
422.285	106.25
422.507	100.25
422.73	122.25
422.953	103.25
423.175	103.25
423.398	98.25
423.621	76.25
423.843	106.25
424.066	96.25
424.288	85.25
424.511	93.25
424.733	101.25
424.956	126.25
425.178	116.25
425.401	111.25
425.623	94.25
425.846	86.25
426.068	87.25
426.291	94.25
426.513	102.25
426.735	100.25
426.958	97.25
427.18	108.25
427.402	174.25
427.625	205.25
427.847	151.25
428.069	140.25
428.292	97.25
428.514	77.25
428.736	79.25
428.958	89.25
429.181	93.25
429.403	77.25
429.625	80.25
429.847	90.25
430.069	118.25
430.292	101.25
430.514	93.25
430.736	90.25
430.958	88.25
431.18	89.25
431.402	72.25
431.624	85.25
431.846	84.25
432.068	87.25
432.29	82.25
432.512	85.25
432.734	85.25
432.956	82.25
433.178	104.25
433.4	101.25
433.622	77.25
433.844	90.25
434.066	88.25
434.287	86.25
434.509	89.25
434.731	108.25
434.953	87.25
435.175	96.25
435.397	100.25
435.618	87.25
435.84	110.25
436.062	143.25
436.284	126.25
436.505	116.25
436.727	103.25
436.949	95.25
437.17	88.25
437.392	89.25
437.614	93.25
437.835	102.25
438.057	130.25
438.278	121.25
438.5	111.25
438.721	138.25
438.943	107.25
439.165	100.25
439.386	88.25
439.608	83.25
439.829	99.25
440.05	127.25
440.272	160.25
440.493	106.25
440.715	101.25
440.936	85.25
441.158	99.25
441.379	87.25
441.6	88.25
441.822	102.25
442.043	115.25
442.264	116.25
442.486	105.25
442.707	101.25
442.928	104.25
443.149	134.25
443.371	140.25
443.592	133.25
443.813	135.25
444.034	126.25
444.255	104.25
444.476	82.25
444.698	83.25
444.919	86.25
445.14	149.25
445.361	144.25
445.582	126.25
445.803	148.25
446.024	153.25
446.245	159.25
446.466	134.25
446.687	100.25
446.908	96.25
447.129	82.25
447.35	82.25
447.571	98.25
447.792	80.25
448.013	104.25
448.234	117.25
448.455	103.25
448.675	152.25
448.896	161.25
449.117	89.25
449.338	110.25
449.559	147.25
449.779	158.25
450	101.25
450.221	93.25
450.442	87.25
450.662	86.25
450.883	119.25
451.104	120.25
451.324	85.25
451.545	92.25
451.766	90.25
451.986	87.25
452.207	87.25
452.428	85.25
452.648	94.25
452.869	114.25
453.089	106.25
453.31	129.25
453.53	88.25
453.751	86.25
453.971	118.25
454.192	100.25
454.412	103.25
454.633	75.25
454.853	102.25
455.073	90.25
455.294	97.25
455.514	115.25
455.734	92.25
455.955	100.25
456.175	70.25
456.395	92.25
456.616	70.25
456.836	82.25
457.056	81.25
457.276	83.25
457.497	82.25
457.717	84.25
457.937	92.25
458.157	82.25
458.377	101.25
458.598	107.25
458.818	161.25
459.038	170.25
459.258	132.25
459.478	97.25
459.698	85.25
459.918	89.25
460.138	98.25
460.358	87.25
460.578	91.25
460.798	93.25
461.018	98.25
461.238	88.25
461.458	101.25
461.678	87.25
461.898	85.25
462.118	74.25
462.338	81.25
462.558	74.25
462.777	88.25
462.997	91.25
463.217	100.25
463.437	78.25
463.657	81.25
463.876	90.25
464.096	80.25
464.316	94.25
464.536	104.25
464.755	100.25
464.975	86.25
465.195	181.25
465.414	159.25
465.634	100.25
465.854	91.25
466.073	68.25
466.293	80.25
466.512	73.25
466.732	71.25
466.951	97.25
467.171	95.25
467.391	103.25
467.61	92.25
467.829	112.25
468.049	159.25
468.268	170.25
468.488	106.25
468.707	82.25
468.927	80.25
469.146	93.25
469.365	92.25
469.585	87.25
469.804	103.25
470.023	100.25
470.243	92.25
470.462	96.25
470.681	99.25
470.901	93.25
471.12	91.25
471.339	104.25
471.558	79.25
471.777	97.25
471.997	121.25
472.216	231.25
472.435	412.25
472.654	168.25
472.873	94.25
473.092	88.25
473.311	102.25
473.53	94.25
473.749	90.25
473.968	114.25
474.187	108.25
474.406	100.25
474.625	90.25
474.844	91.25
475.063	78.25
475.282	98.25
475.501	81.25
475.72	88.25
475.939	83.25
476.158	101.25
476.377	93.25
476.596	92.25
476.814	102.25
477.033	85.25
477.252	86.25
477.471	88.25
477.69	97.25
477.908	104.25
478.127	105.25
478.346	92.25
478.564	88.25
478.783	81.25
479.002	90.25
479.22	93.25
479.439	89.25
479.658	97.25
479.876	96.25
480.095	87.25
480.313	108.25
480.532	117.25
480.751	118.25
480.969	203.25
481.188	655.25
481.406	426.25
481.624	120.25
481.843	92.25
482.061	94.25
482.28	80.25
482.498	91.25
482.717	88.25
482.935	93.25
483.153	92.25
483.372	99.25
483.59	93.25
483.808	97.25
484.027	100.25
484.245	95.25
484.463	85.25
484.681	92.25
484.9	80.25
485.118	104.25
485.336	92.25
485.554	101.25
485.772	99.25
485.99	100.25
486.209	95.25
486.427	85.25
486.645	103.25
486.863	105.25
487.081	114.25
487.299	111.25
487.517	83.25
487.735	87.25
487.953	92.25
488.171	98.25
488.389	94.25
488.607	90.25
488.825	89.25
489.043	99.25
489.261	102.25
489.479	83.25
489.696	94.25
489.914	92.25
490.132	82.25
490.35	76.25
490.568	77.25
490.786	86.25
491.003	94.25
491.221	104.25
491.439	97.25
491.657	105.25
491.874	89.25
492.092	92.25
492.31	94.25
492.527	74.25
492.745	97.25
492.963	81.25
493.18	79.25
493.398	94.25
493.615	93.25
493.833	106.25
494.05	96.25
494.268	87.25
494.485	76.25
494.703	92.25
494.92	80.25
495.138	90.25
495.355	91.25
495.573	100.25
495.79	87.25
496.008	90.25
496.225	91.25
496.442	102.25
496.66	86.25
496.877	81.25
497.094	88.25
497.312	97.25
497.529	94.25
497.746	93.25
497.963	104.25
498.181	90.25
498.398	95.25
498.615	116.25
498.832	104.25
499.049	88.25
499.267	90.25
499.484	79.25
499.701	97.25
499.918	93.25
500.135	84.25
500.352	89.25
500.569	81.25
500.786	82.25
501.003	84.25
501.22	87.25
501.437	93.25
501.654	101.25
501.871	111.25
502.088	90.25
502.305	87.25
502.522	84.25
502.739	82.25
502.956	87.25
503.172	94.25
503.389	104.25
503.606	103.25
503.823	96.25
504.04	81.25
504.256	81.25
504.473	89.25
504.69	85.25
504.907	88.25
505.123	82.25
505.34	96.25
505.557	105.25
505.773	96.25
505.99	93.25
506.207	102.25
506.423	90.25
506.64	70.25
506.856	84.25
507.073	93.25
507.289	84.25
507.506	94.25
507.722	109.25
507.939	106.25
508.155	104.25
508.372	95.25
508.588	104.25
508.805	87.25
509.021	94.25
509.238	101.25
509.454	103.25
509.67	87.25
509.887	112.25
510.103	119.25
510.319	205.25
510.536	692.25
510.752	2185.25
510.968	646.25
511.184	154.25
511.401	100.25
511.617	118.25
511.833	105.25
512.049	81.25
512.265	100.25
512.481	102.25
512.698	94.25
512.914	85.25
513.13	81.25
513.346	97.25
513.562	93.25
513.778	90.25
513.994	107.25
514.21	97.25
514.426	134.25
514.642	140.25
