Data from Circ_2011_H10_HRD10591_00048.txt Node
Date: Wed Jan 03 10:08:08 EST 2024
User: Yrep
Spectrometer: HR+D1059
Trigger mode: 1
Integration Time (sec): 1.000000E-1
Scans to average: 1
Electric dark correction enabled: true
Nonlinearity correction enabled: false
Boxcar width: 0
XAxis mode: Wavelengths
Number of Pixels in Spectrum: 2048
>>>>>Begin Spectral Data<<<<<
223.165	-24.75
223.4	-24.75
223.635	-24.75
223.869	-13.75
224.104	-24.75
224.338	-10.75
224.573	-17.75
224.808	-6.75
225.042	5.25
225.277	0.25
225.511	-1.75
225.746	-5.75
225.98	-6.75
226.215	-2.75
226.449	20.25
226.683	18.25
226.918	36.25
227.152	35.25
227.387	41.25
227.621	55.25
227.856	37.25
228.09	50.25
228.324	54.25
228.559	51.25
228.793	45.25
229.027	47.25
229.262	57.25
229.496	72.25
229.73	82.25
229.964	82.25
230.199	75.25
230.433	58.25
230.667	75.25
230.901	57.25
231.136	74.25
231.37	72.25
231.604	68.25
231.838	82.25
232.072	77.25
232.306	68.25
232.541	76.25
232.775	81.25
233.009	78.25
233.243	72.25
233.477	76.25
233.711	81.25
233.945	65.25
234.179	71.25
234.413	81.25
234.647	74.25
234.881	73.25
235.115	82.25
235.349	74.25
235.583	78.25
235.817	78.25
236.051	70.25
236.285	70.25
236.519	70.25
236.753	66.25
236.987	75.25
237.221	86.25
237.455	89.25
237.689	76.25
237.922	85.25
238.156	78.25
238.39	87.25
238.624	68.25
238.858	75.25
239.091	73.25
239.325	69.25
239.559	71.25
239.793	85.25
240.027	72.25
240.26	72.25
240.494	65.25
240.728	69.25
240.961	70.25
241.195	73.25
241.429	78.25
241.662	79.25
241.896	63.25
242.13	74.25
242.363	78.25
242.597	72.25
242.83	75.25
243.064	63.25
243.298	82.25
243.531	65.25
243.765	82.25
243.998	85.25
244.232	80.25
244.465	69.25
244.699	57.25
244.932	81.25
245.166	73.25
245.399	74.25
245.633	68.25
245.866	72.25
246.099	70.25
246.333	75.25
246.566	78.25
246.8	81.25
247.033	81.25
247.266	73.25
247.5	88.25
247.733	75.25
247.966	81.25
248.2	66.25
248.433	64.25
248.666	64.25
248.899	89.25
249.133	86.25
249.366	88.25
249.599	92.25
249.832	73.25
250.066	72.25
250.299	67.25
250.532	71.25
250.765	62.25
250.998	68.25
251.231	69.25
251.465	70.25
251.698	79.25
251.931	69.25
252.164	80.25
252.397	78.25
252.63	75.25
252.863	75.25
253.096	75.25
253.329	88.25
253.562	70.25
253.795	75.25
254.028	75.25
254.261	70.25
254.494	86.25
254.727	88.25
254.96	69.25
255.193	84.25
255.426	75.25
255.659	73.25
255.892	80.25
256.124	80.25
256.357	94.25
256.59	67.25
256.823	82.25
257.056	64.25
257.289	83.25
257.521	78.25
257.754	75.25
257.987	61.25
258.22	85.25
258.452	78.25
258.685	73.25
258.918	63.25
259.151	63.25
259.383	81.25
259.616	81.25
259.849	89.25
260.081	70.25
260.314	93.25
260.547	77.25
260.779	85.25
261.012	76.25
261.244	82.25
261.477	92.25
261.71	99.25
261.942	100.25
262.175	111.25
262.407	95.25
262.64	73.25
262.872	71.25
263.105	77.25
263.337	81.25
263.57	83.25
263.802	80.25
264.035	80.25
264.267	84.25
264.499	76.25
264.732	79.25
264.964	74.25
265.197	88.25
265.429	70.25
265.661	69.25
265.894	80.25
266.126	69.25
266.358	80.25
266.591	65.25
266.823	75.25
267.055	89.25
267.287	86.25
267.52	85.25
267.752	85.25
267.984	76.25
268.216	71.25
268.448	78.25
268.681	71.25
268.913	71.25
269.145	82.25
269.377	80.25
269.609	70.25
269.841	96.25
270.073	81.25
270.306	79.25
270.538	63.25
270.77	74.25
271.002	73.25
271.234	95.25
271.466	76.25
271.698	84.25
271.93	73.25
272.162	79.25
272.394	76.25
272.626	76.25
272.858	75.25
273.09	63.25
273.322	69.25
273.553	78.25
273.785	74.25
274.017	91.25
274.249	81.25
274.481	72.25
274.713	78.25
274.945	79.25
275.176	82.25
275.408	81.25
275.64	92.25
275.872	77.25
276.104	73.25
276.335	90.25
276.567	91.25
276.799	101.25
277.031	110.25
277.262	93.25
277.494	81.25
277.726	83.25
277.957	86.25
278.189	77.25
278.421	79.25
278.652	69.25
278.884	68.25
279.115	73.25
279.347	84.25
279.579	76.25
279.81	86.25
280.042	82.25
280.273	104.25
280.505	102.25
280.736	82.25
280.968	83.25
281.199	85.25
281.431	89.25
281.662	89.25
281.894	83.25
282.125	79.25
282.356	106.25
282.588	116.25
282.819	107.25
283.051	103.25
283.282	70.25
283.513	89.25
283.745	78.25
283.976	77.25
284.207	83.25
284.439	77.25
284.67	74.25
284.901	69.25
285.132	70.25
285.364	85.25
285.595	88.25
285.826	71.25
286.057	78.25
286.288	87.25
286.52	65.25
286.751	70.25
286.982	81.25
287.213	96.25
287.444	75.25
287.675	70.25
287.906	88.25
288.138	86.25
288.369	93.25
288.6	92.25
288.831	77.25
289.062	81.25
289.293	82.25
289.524	76.25
289.755	101.25
289.986	88.25
290.217	89.25
290.448	94.25
290.679	87.25
290.91	73.25
291.141	79.25
291.371	79.25
291.602	84.25
291.833	81.25
292.064	77.25
292.295	89.25
292.526	83.25
292.757	82.25
292.987	75.25
293.218	75.25
293.449	81.25
293.68	87.25
293.91	93.25
294.141	85.25
294.372	80.25
294.603	89.25
294.833	80.25
295.064	81.25
295.295	69.25
295.525	73.25
295.756	96.25
295.987	125.25
296.217	139.25
296.448	126.25
296.679	102.25
296.909	79.25
297.14	97.25
297.37	86.25
297.601	90.25
297.831	72.25
298.062	94.25
298.292	79.25
298.523	83.25
298.753	83.25
298.984	87.25
299.214	76.25
299.445	93.25
299.675	96.25
299.905	92.25
300.136	84.25
300.366	84.25
300.597	85.25
300.827	95.25
301.057	99.25
301.288	112.25
301.518	89.25
301.748	90.25
301.979	96.25
302.209	63.25
302.439	85.25
302.669	89.25
302.9	73.25
303.13	85.25
303.36	85.25
303.59	102.25
303.82	88.25
304.051	81.25
304.281	84.25
304.511	79.25
304.741	86.25
304.971	95.25
305.201	94.25
305.431	90.25
305.661	88.25
305.891	85.25
306.121	82.25
306.352	85.25
306.582	101.25
306.812	90.25
307.042	88.25
307.272	90.25
307.502	98.25
307.731	101.25
307.961	84.25
308.191	83.25
308.421	80.25
308.651	89.25
308.881	73.25
309.111	83.25
309.341	86.25
309.571	92.25
309.8	78.25
310.03	98.25
310.26	95.25
310.49	88.25
310.72	104.25
310.949	104.25
311.179	103.25
311.409	88.25
311.639	89.25
311.868	102.25
312.098	93.25
312.328	79.25
312.557	87.25
312.787	91.25
313.017	106.25
313.246	94.25
313.476	89.25
313.706	91.25
313.935	94.25
314.165	102.25
314.394	91.25
314.624	87.25
314.853	95.25
315.083	97.25
315.312	84.25
315.542	100.25
315.771	93.25
316.001	86.25
316.23	106.25
316.46	87.25
316.689	97.25
316.919	94.25
317.148	92.25
317.377	86.25
317.607	88.25
317.836	82.25
318.065	91.25
318.295	99.25
318.524	89.25
318.753	98.25
318.983	89.25
319.212	96.25
319.441	109.25
319.67	104.25
319.9	86.25
320.129	74.25
320.358	103.25
320.587	85.25
320.816	87.25
321.046	87.25
321.275	100.25
321.504	86.25
321.733	97.25
321.962	90.25
322.191	94.25
322.42	97.25
322.649	113.25
322.878	114.25
323.108	132.25
323.337	117.25
323.566	132.25
323.795	169.25
324.024	229.25
324.253	462.25
324.482	967.25
324.71	2006.25
324.939	2606.25
325.168	945.25
325.397	263.25
325.626	153.25
325.855	139.25
326.084	135.25
326.313	133.25
326.542	149.25
326.77	265.25
326.999	534.25
327.228	1081.25
327.457	1990.25
327.686	1626.25
327.914	432.25
328.143	243.25
328.372	242.25
328.6	155.25
328.829	157.25
329.058	150.25
329.287	138.25
329.515	123.25
329.744	121.25
329.972	166.25
330.201	244.25
330.43	315.25
330.658	215.25
330.887	184.25
331.115	133.25
331.344	95.25
331.572	88.25
331.801	114.25
332.03	96.25
332.258	105.25
332.486	110.25
332.715	90.25
332.943	91.25
333.172	101.25
333.4	92.25
333.629	94.25
333.857	114.25
334.085	154.25
334.314	230.25
334.542	405.25
334.771	346.25
334.999	148.25
335.227	84.25
335.455	97.25
335.684	82.25
335.912	97.25
336.14	101.25
336.369	86.25
336.597	101.25
336.825	95.25
337.053	95.25
337.281	84.25
337.51	98.25
337.738	106.25
337.966	94.25
338.194	98.25
338.422	75.25
338.65	88.25
338.878	86.25
339.106	82.25
339.334	102.25
339.562	71.25
339.79	93.25
340.018	103.25
340.246	98.25
340.474	79.25
340.702	97.25
340.93	84.25
341.158	84.25
341.386	90.25
341.614	95.25
341.842	98.25
342.07	88.25
342.298	95.25
342.526	86.25
342.754	91.25
342.981	85.25
343.209	84.25
343.437	89.25
343.665	72.25
343.893	85.25
344.12	93.25
344.348	98.25
344.576	84.25
344.804	89.25
345.031	93.25
345.259	106.25
345.487	90.25
345.714	78.25
345.942	78.25
346.17	80.25
346.397	81.25
346.625	96.25
346.853	91.25
347.08	93.25
347.308	85.25
347.535	92.25
347.763	91.25
347.99	90.25
348.218	100.25
348.445	112.25
348.673	96.25
348.9	92.25
349.128	110.25
349.355	82.25
349.583	94.25
349.81	91.25
350.037	88.25
350.265	87.25
350.492	105.25
350.72	74.25
350.947	84.25
351.174	98.25
351.402	109.25
351.629	102.25
351.856	92.25
352.083	98.25
352.311	98.25
352.538	112.25
352.765	105.25
352.992	104.25
353.22	120.25
353.447	109.25
353.674	98.25
353.901	79.25
354.128	94.25
354.355	101.25
354.583	109.25
354.81	95.25
355.037	73.25
355.264	90.25
355.491	81.25
355.718	81.25
355.945	88.25
356.172	86.25
356.399	87.25
356.626	86.25
356.853	81.25
357.08	90.25
357.307	93.25
357.534	83.25
357.761	83.25
357.988	84.25
358.215	88.25
358.441	98.25
358.668	72.25
358.895	87.25
359.122	93.25
359.349	77.25
359.576	91.25
359.802	90.25
360.029	108.25
360.256	113.25
360.483	101.25
360.709	81.25
360.936	79.25
361.163	76.25
361.39	94.25
361.616	109.25
361.843	87.25
362.07	83.25
362.296	92.25
362.523	85.25
362.749	88.25
362.976	88.25
363.203	90.25
363.429	86.25
363.656	81.25
363.882	83.25
364.109	75.25
364.335	85.25
364.562	92.25
364.788	85.25
365.015	81.25
365.241	105.25
365.468	99.25
365.694	99.25
365.92	96.25
366.147	92.25
366.373	77.25
366.599	83.25
366.826	73.25
367.052	85.25
367.278	93.25
367.505	87.25
367.731	91.25
367.957	78.25
368.184	92.25
368.41	114.25
368.636	114.25
368.862	113.25
369.089	97.25
369.315	96.25
369.541	85.25
369.767	88.25
369.993	88.25
370.219	90.25
370.445	86.25
370.672	88.25
370.898	79.25
371.124	72.25
371.35	70.25
371.576	80.25
371.802	79.25
372.028	87.25
372.254	73.25
372.48	70.25
372.706	63.25
372.932	81.25
373.158	100.25
373.384	70.25
373.61	82.25
373.835	103.25
374.061	80.25
374.287	82.25
374.513	84.25
374.739	84.25
374.965	79.25
375.191	103.25
375.416	65.25
375.642	83.25
375.868	90.25
376.094	87.25
376.319	77.25
376.545	71.25
376.771	84.25
376.997	82.25
377.222	93.25
377.448	81.25
377.674	93.25
377.899	79.25
378.125	77.25
378.35	94.25
378.576	89.25
378.802	80.25
379.027	86.25
379.253	99.25
379.478	72.25
379.704	75.25
379.929	73.25
380.155	83.25
380.38	89.25
380.606	81.25
380.831	104.25
381.057	83.25
381.282	99.25
381.507	80.25
381.733	81.25
381.958	66.25
382.184	95.25
382.409	95.25
382.634	89.25
382.86	87.25
383.085	79.25
383.31	101.25
383.535	107.25
383.761	82.25
383.986	84.25
384.211	88.25
384.436	96.25
384.662	76.25
384.887	105.25
385.112	97.25
385.337	96.25
385.562	99.25
385.787	85.25
386.013	106.25
386.238	104.25
386.463	97.25
386.688	96.25
386.913	89.25
387.138	101.25
387.363	93.25
387.588	93.25
387.813	82.25
388.038	99.25
388.263	94.25
388.488	98.25
388.713	78.25
388.938	81.25
389.163	96.25
389.387	88.25
389.612	82.25
389.837	87.25
390.062	81.25
390.287	86.25
390.512	84.25
390.736	92.25
390.961	95.25
391.186	89.25
391.411	102.25
391.636	71.25
391.86	89.25
392.085	80.25
392.31	89.25
392.534	75.25
392.759	89.25
392.984	80.25
393.208	77.25
393.433	77.25
393.658	71.25
393.882	83.25
394.107	83.25
394.331	78.25
394.556	95.25
394.78	69.25
395.005	87.25
395.229	75.25
395.454	68.25
395.678	65.25
395.903	86.25
396.127	83.25
396.352	82.25
396.576	74.25
396.801	75.25
397.025	78.25
397.249	86.25
397.474	87.25
397.698	88.25
397.922	93.25
398.147	92.25
398.371	83.25
398.595	81.25
398.82	90.25
399.044	79.25
399.268	88.25
399.492	66.25
399.717	88.25
399.941	96.25
400.165	90.25
400.389	95.25
400.613	94.25
400.837	93.25
401.062	89.25
401.286	76.25
401.51	86.25
401.734	94.25
401.958	102.25
402.182	135.25
402.406	161.25
402.63	110.25
402.854	96.25
403.078	80.25
403.302	81.25
403.526	80.25
403.75	89.25
403.974	80.25
404.198	100.25
404.422	91.25
404.645	95.25
404.869	95.25
405.093	95.25
405.317	117.25
405.541	100.25
405.765	93.25
405.988	105.25
406.212	170.25
406.436	240.25
406.66	146.25
406.883	99.25
407.107	86.25
407.331	104.25
407.555	102.25
407.778	78.25
408.002	82.25
408.226	87.25
408.449	82.25
408.673	82.25
408.896	92.25
409.12	84.25
409.344	81.25
409.567	90.25
409.791	102.25
410.014	86.25
410.238	73.25
410.461	75.25
410.685	79.25
410.908	91.25
411.132	102.25
411.355	78.25
411.578	76.25
411.802	80.25
412.025	77.25
412.249	86.25
412.472	90.25
412.695	118.25
412.919	89.25
413.142	72.25
413.365	90.25
413.589	96.25
413.812	86.25
414.035	91.25
414.258	85.25
414.482	84.25
414.705	82.25
414.928	86.25
415.151	81.25
415.374	80.25
415.597	90.25
415.821	86.25
416.044	68.25
416.267	79.25
416.49	87.25
416.713	92.25
416.936	86.25
417.159	80.25
417.382	79.25
417.605	92.25
417.828	86.25
418.051	95.25
418.274	74.25
418.497	86.25
418.72	69.25
418.943	85.25
419.166	76.25
419.389	90.25
419.611	74.25
419.834	84.25
420.057	83.25
420.28	84.25
420.503	90.25
420.726	87.25
420.948	89.25
421.171	95.25
421.394	93.25
421.617	99.25
421.839	84.25
422.062	89.25
422.285	74.25
422.507	97.25
422.73	109.25
422.953	78.25
423.175	83.25
423.398	84.25
423.621	78.25
423.843	79.25
424.066	83.25
424.288	90.25
424.511	83.25
424.733	103.25
424.956	132.25
425.178	96.25
425.401	87.25
425.623	97.25
425.846	94.25
426.068	112.25
426.291	95.25
426.513	83.25
426.735	96.25
426.958	99.25
427.18	117.25
427.402	155.25
427.625	195.25
427.847	173.25
428.069	144.25
428.292	101.25
428.514	79.25
428.736	75.25
428.958	95.25
429.181	86.25
429.403	88.25
429.625	87.25
429.847	102.25
430.069	110.25
430.292	98.25
430.514	91.25
430.736	93.25
430.958	82.25
431.18	75.25
431.402	86.25
431.624	78.25
431.846	82.25
432.068	80.25
432.29	79.25
432.512	83.25
432.734	93.25
432.956	92.25
433.178	92.25
433.4	96.25
433.622	81.25
433.844	85.25
434.066	82.25
434.287	84.25
434.509	82.25
434.731	88.25
434.953	109.25
435.175	79.25
435.397	82.25
435.618	93.25
435.84	99.25
436.062	141.25
436.284	125.25
436.505	104.25
436.727	87.25
436.949	80.25
437.17	79.25
437.392	92.25
437.614	88.25
437.835	129.25
438.057	121.25
438.278	119.25
438.5	126.25
438.721	131.25
438.943	120.25
439.165	74.25
439.386	87.25
439.608	96.25
439.829	100.25
440.05	143.25
440.272	171.25
440.493	109.25
440.715	75.25
440.936	80.25
441.158	74.25
441.379	81.25
441.6	89.25
441.822	97.25
442.043	94.25
442.264	110.25
442.486	111.25
442.707	89.25
442.928	102.25
443.149	136.25
443.371	146.25
443.592	122.25
443.813	126.25
444.034	123.25
444.255	86.25
444.476	75.25
444.698	96.25
444.919	89.25
445.14	132.25
445.361	111.25
445.582	121.25
445.803	169.25
446.024	165.25
446.245	166.25
446.466	120.25
446.687	103.25
446.908	93.25
447.129	87.25
447.35	82.25
447.571	82.25
447.792	101.25
448.013	103.25
448.234	109.25
448.455	102.25
448.675	119.25
448.896	135.25
449.117	106.25
449.338	98.25
449.559	149.25
449.779	154.25
450	94.25
450.221	83.25
450.442	78.25
450.662	103.25
450.883	104.25
451.104	106.25
451.324	85.25
451.545	74.25
451.766	93.25
451.986	80.25
452.207	77.25
452.428	95.25
452.648	98.25
452.869	103.25
453.089	123.25
453.31	125.25
453.53	102.25
453.751	94.25
453.971	94.25
454.192	119.25
454.412	82.25
454.633	67.25
454.853	75.25
455.073	81.25
455.294	94.25
455.514	104.25
455.734	82.25
455.955	91.25
456.175	78.25
456.395	79.25
456.616	88.25
456.836	96.25
457.056	74.25
457.276	82.25
457.497	66.25
457.717	94.25
457.937	86.25
458.157	90.25
458.377	80.25
458.598	113.25
458.818	135.25
459.038	180.25
459.258	143.25
459.478	96.25
459.698	76.25
459.918	87.25
460.138	81.25
460.358	64.25
460.578	83.25
460.798	97.25
461.018	102.25
461.238	86.25
461.458	80.25
461.678	75.25
461.898	69.25
462.118	90.25
462.338	71.25
462.558	79.25
462.777	86.25
462.997	80.25
463.217	106.25
463.437	82.25
463.657	77.25
463.876	89.25
464.096	92.25
464.316	95.25
464.536	97.25
464.755	85.25
464.975	102.25
465.195	172.25
465.414	170.25
465.634	103.25
465.854	80.25
466.073	85.25
466.293	87.25
466.512	85.25
466.732	81.25
466.951	95.25
467.171	95.25
467.391	99.25
467.61	100.25
467.829	110.25
468.049	150.25
468.268	185.25
468.488	95.25
468.707	93.25
468.927	84.25
469.146	73.25
469.365	73.25
469.585	82.25
469.804	95.25
470.023	94.25
470.243	102.25
470.462	103.25
470.681	117.25
470.901	89.25
471.12	83.25
471.339	94.25
471.558	88.25
471.777	90.25
471.997	127.25
472.216	255.25
472.435	480.25
472.654	176.25
472.873	99.25
473.092	83.25
473.311	63.25
473.53	81.25
473.749	72.25
473.968	106.25
474.187	111.25
474.406	100.25
474.625	92.25
474.844	88.25
475.063	72.25
475.282	85.25
475.501	80.25
475.72	98.25
475.939	78.25
476.158	78.25
476.377	88.25
476.596	78.25
476.814	90.25
477.033	102.25
477.252	80.25
477.471	80.25
477.69	81.25
477.908	82.25
478.127	87.25
478.346	81.25
478.564	97.25
478.783	102.25
479.002	112.25
479.22	88.25
479.439	101.25
479.658	106.25
479.876	93.25
480.095	95.25
480.313	97.25
480.532	104.25
480.751	131.25
480.969	248.25
481.188	791.25
481.406	493.25
481.624	135.25
481.843	93.25
482.061	85.25
482.28	83.25
482.498	75.25
482.717	92.25
482.935	66.25
483.153	84.25
483.372	82.25
483.59	91.25
483.808	80.25
484.027	85.25
484.245	98.25
484.463	98.25
484.681	83.25
484.9	86.25
485.118	73.25
485.336	95.25
485.554	89.25
485.772	86.25
485.99	88.25
486.209	91.25
486.427	107.25
486.645	100.25
486.863	118.25
487.081	102.25
487.299	82.25
487.517	94.25
487.735	81.25
487.953	84.25
488.171	103.25
488.389	93.25
488.607	95.25
488.825	94.25
489.043	94.25
489.261	89.25
489.479	71.25
489.696	95.25
489.914	83.25
490.132	94.25
490.35	77.25
490.568	66.25
490.786	78.25
491.003	79.25
491.221	84.25
491.439	82.25
491.657	87.25
491.874	79.25
492.092	79.25
492.31	80.25
492.527	79.25
492.745	89.25
492.963	79.25
493.18	75.25
493.398	80.25
493.615	76.25
493.833	90.25
494.05	84.25
494.268	78.25
494.485	89.25
494.703	66.25
494.92	83.25
495.138	76.25
495.355	80.25
495.573	94.25
495.79	96.25
496.008	86.25
496.225	69.25
496.442	80.25
496.66	92.25
496.877	88.25
497.094	88.25
497.312	78.25
497.529	80.25
497.746	85.25
497.963	79.25
498.181	96.25
498.398	85.25
498.615	96.25
498.832	107.25
499.049	92.25
499.267	71.25
499.484	83.25
499.701	83.25
499.918	72.25
500.135	76.25
500.352	85.25
500.569	91.25
500.786	92.25
501.003	77.25
501.22	73.25
501.437	95.25
501.654	87.25
501.871	97.25
502.088	97.25
502.305	90.25
502.522	89.25
502.739	82.25
502.956	95.25
503.172	99.25
503.389	93.25
503.606	100.25
503.823	96.25
504.04	85.25
504.256	79.25
504.473	78.25
504.69	96.25
504.907	105.25
505.123	88.25
505.34	71.25
505.557	88.25
505.773	87.25
505.99	84.25
506.207	84.25
506.423	81.25
506.64	79.25
506.856	93.25
507.073	94.25
507.289	94.25
507.506	86.25
507.722	106.25
507.939	121.25
508.155	100.25
508.372	94.25
508.588	83.25
508.805	101.25
509.021	103.25
509.238	84.25
509.454	97.25
509.67	86.25
509.887	106.25
510.103	114.25
510.319	203.25
510.536	768.25
510.752	2461.25
510.968	692.25
511.184	135.25
511.401	102.25
511.617	95.25
511.833	95.25
512.049	85.25
512.265	90.25
512.481	87.25
512.698	72.25
512.914	83.25
513.13	88.25
513.346	85.25
513.562	86.25
513.778	98.25
513.994	94.25
514.21	113.25
514.426	105.25
514.642	150.25
514.858	137.25
515.074	167.25
515.29	489.25
515.506	1735.25
515.721	649.25
515.937	178.25
516.153	125.25
516.369	105.25
