Data from Circ_2011_H10_HRD10591_00089.txt Node
Date: Wed Jan 03 10:08:16 EST 2024
User: Yrep
Spectrometer: HR+D1059
Trigger mode: 1
Integration Time (sec): 1.000000E-1
Scans to average: 1
Electric dark correction enabled: true
Nonlinearity correction enabled: false
Boxcar width: 0
XAxis mode: Wavelengths
Number of Pixels in Spectrum: 2048
>>>>>Begin Spectral Data<<<<<
223.165	-5.94
223.4	-5.94
223.635	-5.94
223.869	-13.94
224.104	-18.94
224.338	-21.94
224.573	-23.94
224.808	-14.94
225.042	-7.94
225.277	-1.94
225.511	-5.94
225.746	-5.94
225.98	-4.94
226.215	26.06
226.449	23.06
226.683	27.06
226.918	20.06
227.152	30.06
227.387	30.06
227.621	38.06
227.856	35.06
228.09	44.06
228.324	41.06
228.559	58.06
228.793	74.06
229.027	68.06
229.262	61.06
229.496	78.06
229.73	92.06
229.964	90.06
230.199	66.06
230.433	69.06
230.667	75.06
230.901	74.06
231.136	70.06
231.37	85.06
231.604	77.06
231.838	84.06
232.072	91.06
232.306	84.06
232.541	84.06
232.775	78.06
233.009	80.06
233.243	74.06
233.477	79.06
233.711	73.06
233.945	77.06
234.179	75.06
234.413	82.06
234.647	68.06
234.881	82.06
235.115	80.06
235.349	76.06
235.583	83.06
235.817	82.06
236.051	68.06
236.285	63.06
236.519	84.06
236.753	88.06
236.987	76.06
237.221	79.06
237.455	80.06
237.689	78.06
237.922	83.06
238.156	71.06
238.39	74.06
238.624	76.06
238.858	78.06
239.091	72.06
239.325	77.06
239.559	80.06
239.793	93.06
240.027	70.06
240.26	73.06
240.494	77.06
240.728	73.06
240.961	95.06
241.195	65.06
241.429	74.06
241.662	67.06
241.896	76.06
242.13	85.06
242.363	80.06
242.597	72.06
242.83	70.06
243.064	76.06
243.298	76.06
243.531	76.06
243.765	81.06
243.998	71.06
244.232	82.06
244.465	79.06
244.699	67.06
244.932	64.06
245.166	80.06
245.399	86.06
245.633	76.06
245.866	80.06
246.099	77.06
246.333	72.06
246.566	79.06
246.8	78.06
247.033	79.06
247.266	72.06
247.5	85.06
247.733	72.06
247.966	71.06
248.2	80.06
248.433	74.06
248.666	75.06
248.899	75.06
249.133	76.06
249.366	103.06
249.599	87.06
249.832	79.06
250.066	77.06
250.299	87.06
250.532	84.06
250.765	61.06
250.998	88.06
251.231	65.06
251.465	79.06
251.698	85.06
251.931	72.06
252.164	75.06
252.397	76.06
252.63	83.06
252.863	68.06
253.096	75.06
253.329	80.06
253.562	85.06
253.795	87.06
254.028	93.06
254.261	87.06
254.494	84.06
254.727	91.06
254.96	83.06
255.193	79.06
255.426	79.06
255.659	84.06
255.892	91.06
256.124	92.06
256.357	93.06
256.59	89.06
256.823	77.06
257.056	73.06
257.289	93.06
257.521	86.06
257.754	86.06
257.987	88.06
258.22	79.06
258.452	86.06
258.685	86.06
258.918	88.06
259.151	96.06
259.383	74.06
259.616	86.06
259.849	80.06
260.081	71.06
260.314	75.06
260.547	76.06
260.779	82.06
261.012	81.06
261.244	64.06
261.477	96.06
261.71	94.06
261.942	107.06
262.175	103.06
262.407	98.06
262.64	76.06
262.872	91.06
263.105	86.06
263.337	89.06
263.57	78.06
263.802	78.06
264.035	90.06
264.267	84.06
264.499	95.06
264.732	84.06
264.964	75.06
265.197	93.06
265.429	91.06
265.661	90.06
265.894	86.06
266.126	80.06
266.358	87.06
266.591	91.06
266.823	75.06
267.055	73.06
267.287	85.06
267.52	94.06
267.752	70.06
267.984	80.06
268.216	97.06
268.448	82.06
268.681	88.06
268.913	80.06
269.145	83.06
269.377	98.06
269.609	79.06
269.841	94.06
270.073	79.06
270.306	85.06
270.538	85.06
270.77	83.06
271.002	71.06
271.234	82.06
271.466	93.06
271.698	87.06
271.93	87.06
272.162	77.06
272.394	98.06
272.626	83.06
272.858	80.06
273.09	74.06
273.322	85.06
273.553	83.06
273.785	73.06
274.017	81.06
274.249	88.06
274.481	82.06
274.713	86.06
274.945	79.06
275.176	88.06
275.408	105.06
275.64	94.06
275.872	100.06
276.104	106.06
276.335	98.06
276.567	100.06
276.799	108.06
277.031	101.06
277.262	111.06
277.494	99.06
277.726	88.06
277.957	79.06
278.189	86.06
278.421	79.06
278.652	94.06
278.884	88.06
279.115	98.06
279.347	84.06
279.579	97.06
279.81	98.06
280.042	108.06
280.273	126.06
280.505	110.06
280.736	97.06
280.968	86.06
281.199	82.06
281.431	88.06
281.662	84.06
281.894	92.06
282.125	98.06
282.356	127.06
282.588	154.06
282.819	109.06
283.051	100.06
283.282	81.06
283.513	88.06
283.745	92.06
283.976	83.06
284.207	88.06
284.439	93.06
284.67	81.06
284.901	67.06
285.132	77.06
285.364	80.06
285.595	84.06
285.826	93.06
286.057	100.06
286.288	95.06
286.52	94.06
286.751	95.06
286.982	94.06
287.213	88.06
287.444	98.06
287.675	90.06
287.906	82.06
288.138	93.06
288.369	87.06
288.6	91.06
288.831	106.06
289.062	79.06
289.293	97.06
289.524	85.06
289.755	91.06
289.986	92.06
290.217	87.06
290.448	88.06
290.679	87.06
290.91	92.06
291.141	89.06
291.371	96.06
291.602	93.06
291.833	77.06
292.064	95.06
292.295	98.06
292.526	87.06
292.757	74.06
292.987	87.06
293.218	88.06
293.449	97.06
293.68	103.06
293.91	90.06
294.141	90.06
294.372	85.06
294.603	102.06
294.833	85.06
295.064	89.06
295.295	99.06
295.525	103.06
295.756	106.06
295.987	133.06
296.217	140.06
296.448	133.06
296.679	96.06
296.909	87.06
297.14	88.06
297.37	89.06
297.601	90.06
297.831	102.06
298.062	90.06
298.292	91.06
298.523	85.06
298.753	82.06
298.984	81.06
299.214	90.06
299.445	90.06
299.675	94.06
299.905	100.06
300.136	86.06
300.366	93.06
300.597	85.06
300.827	97.06
301.057	89.06
301.288	94.06
301.518	80.06
301.748	90.06
301.979	101.06
302.209	79.06
302.439	95.06
302.669	75.06
302.9	90.06
303.13	87.06
303.36	98.06
303.59	101.06
303.82	91.06
304.051	80.06
304.281	96.06
304.511	78.06
304.741	91.06
304.971	108.06
305.201	88.06
305.431	94.06
305.661	98.06
305.891	86.06
306.121	118.06
306.352	109.06
306.582	107.06
306.812	92.06
307.042	78.06
307.272	99.06
307.502	117.06
307.731	116.06
307.961	77.06
308.191	84.06
308.421	100.06
308.651	95.06
308.881	88.06
309.111	84.06
309.341	106.06
309.571	92.06
309.8	87.06
310.03	96.06
310.26	113.06
310.49	101.06
310.72	107.06
310.949	103.06
311.179	97.06
311.409	86.06
311.639	86.06
311.868	84.06
312.098	91.06
312.328	94.06
312.557	98.06
312.787	103.06
313.017	106.06
313.246	97.06
313.476	96.06
313.706	87.06
313.935	95.06
314.165	106.06
314.394	90.06
314.624	102.06
314.853	90.06
315.083	91.06
315.312	86.06
315.542	87.06
315.771	106.06
316.001	87.06
316.23	109.06
316.46	94.06
316.689	88.06
316.919	92.06
317.148	92.06
317.377	85.06
317.607	87.06
317.836	98.06
318.065	102.06
318.295	80.06
318.524	94.06
318.753	91.06
318.983	100.06
319.212	96.06
319.441	81.06
319.67	101.06
319.9	99.06
320.129	104.06
320.358	96.06
320.587	94.06
320.816	94.06
321.046	107.06
321.275	103.06
321.504	89.06
321.733	93.06
321.962	97.06
322.191	107.06
322.42	105.06
322.649	129.06
322.878	107.06
323.108	106.06
323.337	138.06
323.566	164.06
323.795	158.06
324.024	233.06
324.253	469.06
324.482	984.06
324.71	2113.06
324.939	2736.06
325.168	998.06
325.397	287.06
325.626	159.06
325.855	146.06
326.084	134.06
326.313	147.06
326.542	167.06
326.77	274.06
326.999	548.06
327.228	1145.06
327.457	2088.06
327.686	1666.06
327.914	453.06
328.143	273.06
328.372	250.06
328.6	181.06
328.829	141.06
329.058	140.06
329.287	164.06
329.515	131.06
329.744	134.06
329.972	171.06
330.201	280.06
330.43	372.06
330.658	226.06
330.887	184.06
331.115	143.06
331.344	115.06
331.572	106.06
331.801	105.06
332.03	112.06
332.258	90.06
332.486	97.06
332.715	100.06
332.943	103.06
333.172	108.06
333.4	101.06
333.629	128.06
333.857	146.06
334.085	188.06
334.314	283.06
334.542	476.06
334.771	447.06
334.999	176.06
335.227	111.06
335.455	103.06
335.684	103.06
335.912	91.06
336.14	86.06
336.369	86.06
336.597	128.06
336.825	108.06
337.053	101.06
337.281	99.06
337.51	101.06
337.738	90.06
337.966	84.06
338.194	94.06
338.422	97.06
338.65	99.06
338.878	70.06
339.106	84.06
339.334	74.06
339.562	88.06
339.79	95.06
340.018	96.06
340.246	93.06
340.474	100.06
340.702	94.06
340.93	89.06
341.158	94.06
341.386	102.06
341.614	91.06
341.842	88.06
342.07	86.06
342.298	96.06
342.526	98.06
342.754	86.06
342.981	103.06
343.209	105.06
343.437	96.06
343.665	88.06
343.893	82.06
344.12	81.06
344.348	86.06
344.576	79.06
344.804	104.06
345.031	107.06
345.259	104.06
345.487	95.06
345.714	91.06
345.942	99.06
346.17	80.06
346.397	89.06
346.625	79.06
346.853	107.06
347.08	93.06
347.308	78.06
347.535	119.06
347.763	101.06
347.99	101.06
348.218	89.06
348.445	121.06
348.673	95.06
348.9	99.06
349.128	96.06
349.355	92.06
349.583	101.06
349.81	99.06
350.037	94.06
350.265	94.06
350.492	96.06
350.72	91.06
350.947	88.06
351.174	113.06
351.402	114.06
351.629	99.06
351.856	106.06
352.083	112.06
352.311	112.06
352.538	138.06
352.765	121.06
352.992	134.06
353.22	114.06
353.447	138.06
353.674	109.06
353.901	85.06
354.128	111.06
354.355	87.06
354.583	106.06
354.81	105.06
355.037	106.06
355.264	92.06
355.491	102.06
355.718	71.06
355.945	78.06
356.172	89.06
356.399	89.06
356.626	78.06
356.853	97.06
357.08	98.06
357.307	84.06
357.534	100.06
357.761	87.06
357.988	109.06
358.215	90.06
358.441	86.06
358.668	92.06
358.895	75.06
359.122	107.06
359.349	93.06
359.576	88.06
359.802	104.06
360.029	136.06
360.256	108.06
360.483	116.06
360.709	100.06
360.936	93.06
361.163	99.06
361.39	90.06
361.616	108.06
361.843	96.06
362.07	86.06
362.296	85.06
362.523	97.06
362.749	92.06
362.976	91.06
363.203	93.06
363.429	94.06
363.656	93.06
363.882	93.06
364.109	82.06
364.335	90.06
364.562	76.06
364.788	95.06
365.015	103.06
365.241	103.06
365.468	106.06
365.694	97.06
365.92	100.06
366.147	105.06
366.373	91.06
366.599	76.06
366.826	88.06
367.052	97.06
367.278	101.06
367.505	97.06
367.731	95.06
367.957	83.06
368.184	106.06
368.41	97.06
368.636	106.06
368.862	133.06
369.089	101.06
369.315	99.06
369.541	96.06
369.767	98.06
369.993	83.06
370.219	104.06
370.445	87.06
370.672	76.06
370.898	86.06
371.124	89.06
371.35	76.06
371.576	88.06
371.802	84.06
372.028	80.06
372.254	91.06
372.48	94.06
372.706	80.06
372.932	90.06
373.158	87.06
373.384	79.06
373.61	92.06
373.835	91.06
374.061	87.06
374.287	79.06
374.513	98.06
374.739	105.06
374.965	98.06
375.191	83.06
375.416	88.06
375.642	93.06
375.868	81.06
376.094	88.06
376.319	90.06
376.545	88.06
376.771	91.06
376.997	80.06
377.222	75.06
377.448	104.06
377.674	92.06
377.899	97.06
378.125	92.06
378.35	87.06
378.576	92.06
378.802	94.06
379.027	76.06
379.253	96.06
379.478	96.06
379.704	95.06
379.929	103.06
380.155	93.06
380.38	101.06
380.606	93.06
380.831	85.06
381.057	90.06
381.282	96.06
381.507	84.06
381.733	83.06
381.958	91.06
382.184	86.06
382.409	91.06
382.634	87.06
382.86	97.06
383.085	86.06
383.31	74.06
383.535	96.06
383.761	98.06
383.986	105.06
384.211	105.06
384.436	105.06
384.662	108.06
384.887	99.06
385.112	95.06
385.337	91.06
385.562	96.06
385.787	100.06
386.013	103.06
386.238	105.06
386.463	98.06
386.688	99.06
386.913	85.06
387.138	90.06
387.363	100.06
387.588	100.06
387.813	92.06
388.038	106.06
388.263	97.06
388.488	89.06
388.713	93.06
388.938	71.06
389.163	90.06
389.387	95.06
389.612	87.06
389.837	86.06
390.062	86.06
390.287	85.06
390.512	84.06
390.736	97.06
390.961	91.06
391.186	90.06
391.411	90.06
391.636	105.06
391.86	70.06
392.085	82.06
392.31	77.06
392.534	92.06
392.759	81.06
392.984	71.06
393.208	94.06
393.433	92.06
393.658	91.06
393.882	83.06
394.107	106.06
394.331	87.06
394.556	96.06
394.78	91.06
395.005	74.06
395.229	80.06
395.454	95.06
395.678	88.06
395.903	90.06
396.127	90.06
396.352	88.06
396.576	85.06
396.801	73.06
397.025	86.06
397.249	96.06
397.474	75.06
397.698	79.06
397.922	88.06
398.147	87.06
398.371	89.06
398.595	78.06
398.82	83.06
399.044	81.06
399.268	90.06
399.492	89.06
399.717	87.06
399.941	94.06
400.165	101.06
400.389	109.06
400.613	86.06
400.837	79.06
401.062	79.06
401.286	80.06
401.51	87.06
401.734	78.06
401.958	116.06
402.182	122.06
402.406	163.06
402.63	123.06
402.854	96.06
403.078	99.06
403.302	100.06
403.526	83.06
403.75	73.06
403.974	91.06
404.198	85.06
404.422	76.06
404.645	79.06
404.869	97.06
405.093	108.06
405.317	127.06
405.541	123.06
405.765	102.06
405.988	126.06
406.212	184.06
406.436	233.06
406.66	148.06
406.883	110.06
407.107	107.06
407.331	118.06
407.555	102.06
407.778	105.06
408.002	86.06
408.226	97.06
408.449	97.06
408.673	91.06
408.896	100.06
409.12	102.06
409.344	84.06
409.567	98.06
409.791	77.06
410.014	84.06
410.238	90.06
410.461	83.06
410.685	94.06
410.908	98.06
411.132	92.06
411.355	93.06
411.578	97.06
411.802	106.06
412.025	87.06
412.249	97.06
412.472	99.06
412.695	116.06
412.919	108.06
413.142	89.06
413.365	87.06
413.589	82.06
413.812	90.06
414.035	92.06
414.258	86.06
414.482	93.06
414.705	89.06
414.928	87.06
415.151	107.06
415.374	89.06
415.597	77.06
415.821	87.06
416.044	72.06
416.267	89.06
416.49	89.06
416.713	88.06
416.936	87.06
417.159	88.06
417.382	87.06
417.605	95.06
417.828	92.06
418.051	88.06
418.274	97.06
418.497	69.06
418.72	79.06
418.943	94.06
419.166	84.06
419.389	72.06
419.611	81.06
419.834	86.06
420.057	94.06
420.28	86.06
420.503	79.06
420.726	79.06
420.948	87.06
421.171	91.06
421.394	101.06
421.617	94.06
421.839	80.06
422.062	80.06
422.285	105.06
422.507	95.06
422.73	90.06
422.953	90.06
423.175	102.06
423.398	84.06
423.621	93.06
423.843	93.06
424.066	83.06
424.288	78.06
424.511	98.06
424.733	108.06
424.956	117.06
425.178	93.06
425.401	106.06
425.623	98.06
425.846	88.06
426.068	80.06
426.291	99.06
426.513	84.06
426.735	94.06
426.958	97.06
427.18	118.06
427.402	154.06
427.625	182.06
427.847	178.06
428.069	153.06
428.292	93.06
428.514	88.06
428.736	88.06
428.958	92.06
429.181	98.06
429.403	83.06
429.625	77.06
429.847	98.06
430.069	106.06
430.292	97.06
430.514	73.06
430.736	85.06
430.958	101.06
431.18	87.06
431.402	90.06
431.624	79.06
431.846	96.06
432.068	104.06
432.29	102.06
432.512	104.06
432.734	96.06
432.956	96.06
433.178	86.06
433.4	105.06
433.622	92.06
433.844	82.06
434.066	75.06
434.287	83.06
434.509	80.06
434.731	85.06
434.953	84.06
435.175	85.06
435.397	97.06
435.618	100.06
435.84	104.06
436.062	138.06
436.284	118.06
436.505	117.06
436.727	105.06
436.949	101.06
437.17	95.06
437.392	91.06
437.614	93.06
437.835	116.06
438.057	121.06
438.278	126.06
438.5	120.06
438.721	121.06
438.943	109.06
439.165	94.06
439.386	86.06
439.608	92.06
439.829	99.06
440.05	124.06
440.272	167.06
440.493	121.06
440.715	95.06
440.936	99.06
441.158	76.06
441.379	75.06
441.6	106.06
441.822	82.06
442.043	100.06
442.264	119.06
442.486	108.06
442.707	95.06
442.928	118.06
443.149	150.06
443.371	143.06
443.592	109.06
443.813	107.06
444.034	121.06
444.255	89.06
444.476	83.06
444.698	98.06
444.919	92.06
445.14	144.06
445.361	138.06
445.582	118.06
445.803	160.06
446.024	170.06
446.245	154.06
446.466	137.06
446.687	90.06
446.908	95.06
447.129	90.06
447.35	95.06
447.571	84.06
447.792	106.06
448.013	101.06
448.234	115.06
448.455	109.06
448.675	116.06
448.896	127.06
449.117	106.06
449.338	114.06
449.559	136.06
449.779	139.06
450	102.06
450.221	71.06
450.442	86.06
450.662	97.06
450.883	117.06
451.104	108.06
451.324	99.06
451.545	83.06
451.766	90.06
451.986	85.06
452.207	89.06
452.428	91.06
452.648	90.06
452.869	110.06
453.089	118.06
453.31	114.06
453.53	86.06
453.751	95.06
453.971	124.06
454.192	108.06
454.412	86.06
454.633	65.06
454.853	90.06
455.073	98.06
455.294	88.06
455.514	121.06
455.734	102.06
455.955	88.06
456.175	86.06
456.395	87.06
456.616	83.06
456.836	79.06
457.056	93.06
457.276	80.06
457.497	86.06
457.717	82.06
457.937	81.06
458.157	88.06
458.377	95.06
458.598	106.06
458.818	168.06
459.038	178.06
459.258	126.06
459.478	98.06
459.698	101.06
459.918	83.06
460.138	67.06
460.358	99.06
460.578	111.06
460.798	93.06
461.018	94.06
461.238	92.06
461.458	77.06
461.678	84.06
461.898	87.06
462.118	82.06
462.338	88.06
462.558	77.06
462.777	77.06
462.997	95.06
463.217	99.06
463.437	90.06
463.657	84.06
463.876	99.06
464.096	84.06
464.316	78.06
464.536	100.06
464.755	94.06
464.975	116.06
465.195	172.06
465.414	204.06
465.634	93.06
465.854	93.06
466.073	90.06
466.293	79.06
466.512	79.06
466.732	88.06
466.951	90.06
467.171	85.06
467.391	103.06
467.61	116.06
467.829	120.06
468.049	180.06
468.268	219.06
468.488	108.06
468.707	88.06
468.927	86.06
469.146	88.06
469.365	80.06
469.585	94.06
469.804	106.06
470.023	114.06
470.243	89.06
470.462	97.06
470.681	118.06
470.901	86.06
471.12	86.06
471.339	84.06
471.558	93.06
471.777	100.06
471.997	141.06
472.216	315.06
472.435	575.06
472.654	195.06
472.873	114.06
473.092	86.06
473.311	78.06
473.53	75.06
473.749	88.06
473.968	95.06
474.187	101.06
474.406	120.06
474.625	95.06
474.844	107.06
475.063	90.06
475.282	102.06
475.501	91.06
475.72	89.06
475.939	91.06
476.158	77.06
476.377	79.06
476.596	85.06
476.814	92.06
477.033	93.06
477.252	86.06
477.471	86.06
477.69	91.06
477.908	87.06
478.127	96.06
478.346	92.06
478.564	104.06
478.783	103.06
479.002	99.06
479.22	89.06
479.439	104.06
479.658	108.06
479.876	85.06
480.095	92.06
480.313	88.06
480.532	98.06
480.751	130.06
480.969	296.06
481.188	990.06
481.406	628.06
481.624	155.06
481.843	92.06
482.061	95.06
482.28	100.06
482.498	82.06
482.717	94.06
482.935	84.06
483.153	96.06
483.372	93.06
483.59	90.06
483.808	94.06
484.027	90.06
484.245	86.06
484.463	97.06
484.681	87.06
484.9	85.06
485.118	92.06
485.336	94.06
485.554	93.06
485.772	103.06
485.99	84.06
486.209	94.06
486.427	107.06
486.645	97.06
486.863	117.06
487.081	93.06
487.299	103.06
487.517	89.06
487.735	87.06
487.953	94.06
488.171	87.06
488.389	100.06
488.607	98.06
488.825	90.06
489.043	95.06
489.261	88.06
489.479	89.06
489.696	72.06
489.914	80.06
490.132	94.06
490.35	96.06
490.568	100.06
490.786	96.06
491.003	95.06
491.221	85.06
491.439	88.06
491.657	100.06
491.874	98.06
492.092	80.06
492.31	80.06
492.527	87.06
492.745	99.06
492.963	101.06
493.18	99.06
493.398	83.06
493.615	85.06
493.833	80.06
494.05	88.06
494.268	86.06
494.485	81.06
494.703	94.06
494.92	95.06
495.138	75.06
495.355	94.06
495.573	86.06
495.79	93.06
496.008	87.06
496.225	98.06
496.442	96.06
496.66	102.06
496.877	86.06
497.094	94.06
497.312	106.06
497.529	87.06
497.746	95.06
497.963	90.06
498.181	103.06
498.398	114.06
498.615	114.06
498.832	106.06
499.049	84.06
499.267	73.06
499.484	94.06
499.701	80.06
499.918	84.06
500.135	94.06
500.352	91.06
500.569	91.06
500.786	91.06
501.003	93.06
501.22	93.06
501.437	85.06
501.654	102.06
501.871	118.06
502.088	104.06
502.305	86.06
502.522	84.06
502.739	94.06
502.956	112.06
503.172	78.06
503.389	91.06
503.606	105.06
503.823	108.06
504.04	87.06
504.256	91.06
504.473	73.06
504.69	89.06
504.907	86.06
505.123	81.06
505.34	85.06
505.557	81.06
505.773	80.06
505.99	90.06
506.207	89.06
506.423	90.06
506.64	90.06
506.856	88.06
507.073	90.06
507.289	87.06
507.506	90.06
507.722	110.06
507.939	112.06
508.155	98.06
508.372	95.06
508.588	84.06
508.805	98.06
509.021	96.06
509.238	109.06
509.454	105.06
509.67	98.06
509.887	118.06
510.103	132.06
510.319	228.06
510.536	742.06
510.752	2421.06
510.968	676.06
511.184	145.06
511.401	133.06
511.617	107.06
511.833	87.06
512.049	87.06
512.265	98.06
512.481	92.06
512.698	94.06
512.914	70.06
513.13	85.06
513.346	94.06
513.562	99.06
513.778	98.06
513.994	96.06
514.21	108.06
514.426	114.06
514.642	138.06
514.858	131.06
515.074	187.06
