Data from Circ_2011_H10_HRD10591_00004.txt Node
Date: Wed Jan 03 10:07:59 EST 2024
User: Yrep
Spectrometer: HR+D1059
Trigger mode: 1
Integration Time (sec): 1.000000E-1
Scans to average: 1
Electric dark correction enabled: true
Nonlinearity correction enabled: false
Boxcar width: 0
XAxis mode: Wavelengths
Number of Pixels in Spectrum: 2048
>>>>>Begin Spectral Data<<<<<
223.165	-17.31
223.4	-17.31
223.635	-17.31
223.869	-15.31
224.104	-12.31
224.338	-19.31
224.573	-22.31
224.808	-18.31
225.042	-21.31
225.277	2.69
225.511	2.69
225.746	4.69
225.98	18.69
226.215	18.69
226.449	22.69
226.683	17.69
226.918	16.69
227.152	21.69
227.387	38.69
227.621	45.69
227.856	62.69
228.09	52.69
228.324	36.69
228.559	49.69
228.793	63.69
229.027	81.69
229.262	73.69
229.496	75.69
229.73	84.69
229.964	72.69
230.199	74.69
230.433	82.69
230.667	78.69
230.901	78.69
231.136	72.69
231.37	89.69
231.604	72.69
231.838	85.69
232.072	86.69
232.306	72.69
232.541	72.69
232.775	76.69
233.009	79.69
233.243	73.69
233.477	74.69
233.711	70.69
233.945	82.69
234.179	87.69
234.413	87.69
234.647	74.69
234.881	79.69
235.115	73.69
235.349	86.69
235.583	86.69
235.817	85.69
236.051	75.69
236.285	78.69
236.519	80.69
236.753	72.69
236.987	76.69
237.221	77.69
237.455	86.69
237.689	80.69
237.922	85.69
238.156	81.69
238.39	74.69
238.624	80.69
238.858	71.69
239.091	76.69
239.325	85.69
239.559	95.69
239.793	88.69
240.027	85.69
240.26	85.69
240.494	86.69
240.728	83.69
240.961	83.69
241.195	80.69
241.429	84.69
241.662	82.69
241.896	87.69
242.13	81.69
242.363	63.69
242.597	80.69
242.83	70.69
243.064	68.69
243.298	68.69
243.531	86.69
243.765	84.69
243.998	79.69
244.232	92.69
244.465	82.69
244.699	91.69
244.932	77.69
245.166	71.69
245.399	70.69
245.633	70.69
245.866	88.69
246.099	76.69
246.333	80.69
246.566	82.69
246.8	65.69
247.033	70.69
247.266	74.69
247.5	85.69
247.733	66.69
247.966	100.69
248.2	84.69
248.433	83.69
248.666	93.69
248.899	76.69
249.133	82.69
249.366	96.69
249.599	88.69
249.832	69.69
250.066	83.69
250.299	78.69
250.532	82.69
250.765	77.69
250.998	84.69
251.231	66.69
251.465	78.69
251.698	78.69
251.931	75.69
252.164	89.69
252.397	59.69
252.63	74.69
252.863	90.69
253.096	68.69
253.329	93.69
253.562	91.69
253.795	81.69
254.028	85.69
254.261	85.69
254.494	87.69
254.727	81.69
254.96	72.69
255.193	67.69
255.426	93.69
255.659	91.69
255.892	83.69
256.124	78.69
256.357	79.69
256.59	83.69
256.823	78.69
257.056	89.69
257.289	88.69
257.521	84.69
257.754	72.69
257.987	103.69
258.22	81.69
258.452	99.69
258.685	84.69
258.918	78.69
259.151	78.69
259.383	84.69
259.616	82.69
259.849	84.69
260.081	77.69
260.314	86.69
260.547	72.69
260.779	70.69
261.012	72.69
261.244	78.69
261.477	92.69
261.71	83.69
261.942	107.69
262.175	116.69
262.407	87.69
262.64	85.69
262.872	76.69
263.105	73.69
263.337	99.69
263.57	91.69
263.802	89.69
264.035	91.69
264.267	82.69
264.499	79.69
264.732	99.69
264.964	77.69
265.197	92.69
265.429	76.69
265.661	85.69
265.894	76.69
266.126	84.69
266.358	84.69
266.591	85.69
266.823	71.69
267.055	82.69
267.287	85.69
267.52	82.69
267.752	85.69
267.984	75.69
268.216	85.69
268.448	96.69
268.681	81.69
268.913	84.69
269.145	84.69
269.377	80.69
269.609	91.69
269.841	93.69
270.073	71.69
270.306	84.69
270.538	79.69
270.77	90.69
271.002	93.69
271.234	87.69
271.466	92.69
271.698	87.69
271.93	89.69
272.162	98.69
272.394	88.69
272.626	87.69
272.858	75.69
273.09	93.69
273.322	91.69
273.553	86.69
273.785	96.69
274.017	86.69
274.249	79.69
274.481	100.69
274.713	87.69
274.945	89.69
275.176	76.69
275.408	100.69
275.64	89.69
275.872	90.69
276.104	97.69
276.335	80.69
276.567	96.69
276.799	111.69
277.031	99.69
277.262	103.69
277.494	102.69
277.726	82.69
277.957	69.69
278.189	85.69
278.421	84.69
278.652	98.69
278.884	90.69
279.115	85.69
279.347	95.69
279.579	87.69
279.81	85.69
280.042	88.69
280.273	94.69
280.505	82.69
280.736	95.69
280.968	83.69
281.199	75.69
281.431	94.69
281.662	97.69
281.894	90.69
282.125	91.69
282.356	121.69
282.588	146.69
282.819	129.69
283.051	77.69
283.282	77.69
283.513	87.69
283.745	82.69
283.976	102.69
284.207	79.69
284.439	102.69
284.67	78.69
284.901	77.69
285.132	80.69
285.364	89.69
285.595	92.69
285.826	79.69
286.057	97.69
286.288	89.69
286.52	80.69
286.751	79.69
286.982	93.69
287.213	97.69
287.444	93.69
287.675	88.69
287.906	95.69
288.138	79.69
288.369	89.69
288.6	92.69
288.831	100.69
289.062	88.69
289.293	88.69
289.524	85.69
289.755	81.69
289.986	95.69
290.217	100.69
290.448	68.69
290.679	81.69
290.91	95.69
291.141	90.69
291.371	84.69
291.602	96.69
291.833	77.69
292.064	92.69
292.295	85.69
292.526	92.69
292.757	87.69
292.987	92.69
293.218	94.69
293.449	78.69
293.68	84.69
293.91	83.69
294.141	85.69
294.372	85.69
294.603	79.69
294.833	91.69
295.064	87.69
295.295	98.69
295.525	103.69
295.756	97.69
295.987	93.69
296.217	136.69
296.448	133.69
296.679	95.69
296.909	82.69
297.14	95.69
297.37	101.69
297.601	78.69
297.831	92.69
298.062	78.69
298.292	94.69
298.523	92.69
298.753	88.69
298.984	85.69
299.214	87.69
299.445	90.69
299.675	83.69
299.905	97.69
300.136	80.69
300.366	82.69
300.597	90.69
300.827	85.69
301.057	96.69
301.288	96.69
301.518	86.69
301.748	92.69
301.979	99.69
302.209	92.69
302.439	95.69
302.669	90.69
302.9	82.69
303.13	94.69
303.36	119.69
303.59	115.69
303.82	105.69
304.051	97.69
304.281	86.69
304.511	80.69
304.741	97.69
304.971	97.69
305.201	104.69
305.431	79.69
305.661	100.69
305.891	104.69
306.121	86.69
306.352	108.69
306.582	93.69
306.812	96.69
307.042	85.69
307.272	112.69
307.502	98.69
307.731	107.69
307.961	92.69
308.191	84.69
308.421	86.69
308.651	97.69
308.881	96.69
309.111	79.69
309.341	87.69
309.571	94.69
309.8	103.69
310.03	103.69
310.26	89.69
310.49	84.69
310.72	95.69
310.949	116.69
311.179	104.69
311.409	88.69
311.639	96.69
311.868	103.69
312.098	92.69
312.328	99.69
312.557	102.69
312.787	102.69
313.017	101.69
313.246	91.69
313.476	71.69
313.706	95.69
313.935	97.69
314.165	102.69
314.394	107.69
314.624	90.69
314.853	105.69
315.083	94.69
315.312	91.69
315.542	103.69
315.771	86.69
316.001	90.69
316.23	101.69
316.46	90.69
316.689	104.69
316.919	98.69
317.148	96.69
317.377	96.69
317.607	94.69
317.836	95.69
318.065	91.69
318.295	80.69
318.524	96.69
318.753	87.69
318.983	87.69
319.212	99.69
319.441	104.69
319.67	106.69
319.9	93.69
320.129	75.69
320.358	95.69
320.587	106.69
320.816	105.69
321.046	104.69
321.275	99.69
321.504	69.69
321.733	94.69
321.962	101.69
322.191	95.69
322.42	96.69
322.649	106.69
322.878	116.69
323.108	124.69
323.337	130.69
323.566	132.69
323.795	144.69
324.024	223.69
324.253	441.69
324.482	945.69
324.71	1908.69
324.939	2538.69
325.168	911.69
325.397	255.69
325.626	163.69
325.855	129.69
326.084	122.69
326.313	145.69
326.542	168.69
326.77	253.69
326.999	511.69
327.228	1076.69
327.457	1942.69
327.686	1544.69
327.914	418.69
328.143	233.69
328.372	181.69
328.6	118.69
328.829	128.69
329.058	116.69
329.287	144.69
329.515	101.69
329.744	121.69
329.972	140.69
330.201	164.69
330.43	210.69
330.658	164.69
330.887	144.69
331.115	136.69
331.344	99.69
331.572	98.69
331.801	111.69
332.03	110.69
332.258	85.69
332.486	101.69
332.715	98.69
332.943	104.69
333.172	106.69
333.4	101.69
333.629	117.69
333.857	112.69
334.085	136.69
334.314	151.69
334.542	221.69
334.771	217.69
334.999	125.69
335.227	112.69
335.455	93.69
335.684	93.69
335.912	103.69
336.14	101.69
336.369	90.69
336.597	97.69
336.825	96.69
337.053	105.69
337.281	102.69
337.51	94.69
337.738	81.69
337.966	92.69
338.194	114.69
338.422	91.69
338.65	82.69
338.878	85.69
339.106	88.69
339.334	82.69
339.562	98.69
339.79	82.69
340.018	95.69
340.246	89.69
340.474	95.69
340.702	100.69
340.93	104.69
341.158	98.69
341.386	80.69
341.614	82.69
341.842	80.69
342.07	98.69
342.298	90.69
342.526	99.69
342.754	104.69
342.981	96.69
343.209	88.69
343.437	108.69
343.665	96.69
343.893	82.69
344.12	84.69
344.348	87.69
344.576	95.69
344.804	98.69
345.031	112.69
345.259	93.69
345.487	101.69
345.714	88.69
345.942	100.69
346.17	100.69
346.397	97.69
346.625	90.69
346.853	93.69
347.08	98.69
347.308	89.69
347.535	117.69
347.763	94.69
347.99	102.69
348.218	96.69
348.445	104.69
348.673	96.69
348.9	97.69
349.128	106.69
349.355	96.69
349.583	94.69
349.81	104.69
350.037	95.69
350.265	95.69
350.492	95.69
350.72	99.69
350.947	109.69
351.174	99.69
351.402	96.69
351.629	103.69
351.856	119.69
352.083	101.69
352.311	98.69
352.538	103.69
352.765	102.69
352.992	122.69
353.22	105.69
353.447	107.69
353.674	92.69
353.901	88.69
354.128	93.69
354.355	85.69
354.583	105.69
354.81	95.69
355.037	92.69
355.264	90.69
355.491	101.69
355.718	88.69
355.945	94.69
356.172	90.69
356.399	96.69
356.626	93.69
356.853	108.69
357.08	106.69
357.307	103.69
357.534	96.69
357.761	101.69
357.988	94.69
358.215	83.69
358.441	85.69
358.668	98.69
358.895	86.69
359.122	81.69
359.349	87.69
359.576	89.69
359.802	106.69
360.029	109.69
360.256	124.69
360.483	98.69
360.709	90.69
360.936	98.69
361.163	95.69
361.39	88.69
361.616	87.69
361.843	103.69
362.07	105.69
362.296	88.69
362.523	105.69
362.749	84.69
362.976	79.69
363.203	85.69
363.429	81.69
363.656	90.69
363.882	98.69
364.109	96.69
364.335	98.69
364.562	96.69
364.788	91.69
365.015	89.69
365.241	91.69
365.468	106.69
365.694	95.69
365.92	98.69
366.147	94.69
366.373	90.69
366.599	98.69
366.826	89.69
367.052	91.69
367.278	89.69
367.505	104.69
367.731	103.69
367.957	88.69
368.184	89.69
368.41	104.69
368.636	106.69
368.862	122.69
369.089	111.69
369.315	90.69
369.541	81.69
369.767	101.69
369.993	87.69
370.219	80.69
370.445	88.69
370.672	92.69
370.898	79.69
371.124	77.69
371.35	86.69
371.576	78.69
371.802	83.69
372.028	81.69
372.254	97.69
372.48	87.69
372.706	86.69
372.932	84.69
373.158	81.69
373.384	95.69
373.61	92.69
373.835	86.69
374.061	104.69
374.287	86.69
374.513	97.69
374.739	77.69
374.965	81.69
375.191	100.69
375.416	95.69
375.642	95.69
375.868	87.69
376.094	92.69
376.319	94.69
376.545	73.69
376.771	93.69
376.997	88.69
377.222	89.69
377.448	90.69
377.674	81.69
377.899	107.69
378.125	101.69
378.35	93.69
378.576	93.69
378.802	83.69
379.027	76.69
379.253	94.69
379.478	89.69
379.704	95.69
379.929	96.69
380.155	92.69
380.38	95.69
380.606	88.69
380.831	92.69
381.057	109.69
381.282	100.69
381.507	87.69
381.733	95.69
381.958	94.69
382.184	104.69
382.409	97.69
382.634	90.69
382.86	91.69
383.085	102.69
383.31	108.69
383.535	99.69
383.761	83.69
383.986	88.69
384.211	90.69
384.436	84.69
384.662	95.69
384.887	112.69
385.112	105.69
385.337	81.69
385.562	95.69
385.787	93.69
386.013	101.69
386.238	105.69
386.463	105.69
386.688	97.69
386.913	89.69
387.138	93.69
387.363	92.69
387.588	102.69
387.813	96.69
388.038	92.69
388.263	108.69
388.488	104.69
388.713	97.69
388.938	88.69
389.163	93.69
389.387	95.69
389.612	96.69
389.837	96.69
390.062	101.69
390.287	93.69
390.512	77.69
390.736	109.69
390.961	92.69
391.186	95.69
391.411	88.69
391.636	82.69
391.86	98.69
392.085	89.69
392.31	88.69
392.534	90.69
392.759	87.69
392.984	102.69
393.208	96.69
393.433	85.69
393.658	95.69
393.882	99.69
394.107	71.69
394.331	81.69
394.556	86.69
394.78	86.69
395.005	84.69
395.229	89.69
395.454	82.69
395.678	102.69
395.903	108.69
396.127	94.69
396.352	93.69
396.576	93.69
396.801	83.69
397.025	93.69
397.249	105.69
397.474	95.69
397.698	94.69
397.922	85.69
398.147	77.69
398.371	78.69
398.595	95.69
398.82	100.69
399.044	76.69
399.268	82.69
399.492	82.69
399.717	85.69
399.941	86.69
400.165	98.69
400.389	98.69
400.613	83.69
400.837	99.69
401.062	92.69
401.286	92.69
401.51	86.69
401.734	103.69
401.958	103.69
402.182	127.69
402.406	169.69
402.63	112.69
402.854	90.69
403.078	80.69
403.302	82.69
403.526	96.69
403.75	73.69
403.974	76.69
404.198	66.69
404.422	96.69
404.645	101.69
404.869	90.69
405.093	97.69
405.317	110.69
405.541	100.69
405.765	92.69
405.988	132.69
406.212	185.69
406.436	248.69
406.66	123.69
406.883	110.69
407.107	98.69
407.331	88.69
407.555	108.69
407.778	91.69
408.002	96.69
408.226	91.69
408.449	106.69
408.673	103.69
408.896	108.69
409.12	101.69
409.344	98.69
409.567	95.69
409.791	94.69
410.014	100.69
410.238	104.69
410.461	90.69
410.685	96.69
410.908	105.69
411.132	111.69
411.355	106.69
411.578	90.69
411.802	79.69
412.025	117.69
412.249	108.69
412.472	86.69
412.695	104.69
412.919	92.69
413.142	86.69
413.365	77.69
413.589	89.69
413.812	101.69
414.035	97.69
414.258	84.69
414.482	99.69
414.705	91.69
414.928	90.69
415.151	89.69
415.374	90.69
415.597	85.69
415.821	93.69
416.044	88.69
416.267	91.69
416.49	85.69
416.713	89.69
416.936	82.69
417.159	86.69
417.382	83.69
417.605	80.69
417.828	90.69
418.051	94.69
418.274	88.69
418.497	92.69
418.72	95.69
418.943	93.69
419.166	91.69
419.389	80.69
419.611	106.69
419.834	97.69
420.057	116.69
420.28	83.69
420.503	83.69
420.726	88.69
420.948	87.69
421.171	91.69
421.394	93.69
421.617	90.69
421.839	100.69
422.062	91.69
422.285	95.69
422.507	100.69
422.73	95.69
422.953	78.69
423.175	97.69
423.398	89.69
423.621	80.69
423.843	82.69
424.066	80.69
424.288	83.69
424.511	82.69
424.733	100.69
424.956	110.69
425.178	102.69
425.401	96.69
425.623	99.69
425.846	104.69
426.068	103.69
426.291	94.69
426.513	89.69
426.735	80.69
426.958	103.69
427.18	119.69
427.402	135.69
427.625	196.69
427.847	143.69
428.069	127.69
428.292	96.69
428.514	90.69
428.736	92.69
428.958	68.69
429.181	84.69
429.403	72.69
429.625	78.69
429.847	110.69
430.069	107.69
430.292	89.69
430.514	103.69
430.736	100.69
430.958	75.69
431.18	85.69
431.402	97.69
431.624	90.69
431.846	84.69
432.068	88.69
432.29	89.69
432.512	92.69
432.734	107.69
432.956	89.69
433.178	95.69
433.4	96.69
433.622	87.69
433.844	98.69
434.066	102.69
434.287	99.69
434.509	89.69
434.731	80.69
434.953	90.69
435.175	94.69
435.397	87.69
435.618	89.69
435.84	104.69
436.062	119.69
436.284	130.69
436.505	113.69
436.727	124.69
436.949	96.69
437.17	82.69
437.392	99.69
437.614	90.69
437.835	106.69
438.057	130.69
438.278	114.69
438.5	109.69
438.721	135.69
438.943	120.69
439.165	84.69
439.386	92.69
439.608	99.69
439.829	101.69
440.05	134.69
440.272	153.69
440.493	103.69
440.715	86.69
440.936	96.69
441.158	87.69
441.379	79.69
441.6	97.69
441.822	103.69
442.043	95.69
442.264	106.69
442.486	92.69
442.707	98.69
442.928	108.69
443.149	144.69
443.371	133.69
443.592	113.69
443.813	123.69
444.034	116.69
444.255	91.69
444.476	78.69
444.698	88.69
444.919	96.69
445.14	139.69
445.361	127.69
445.582	123.69
445.803	161.69
446.024	131.69
446.245	138.69
446.466	105.69
446.687	92.69
446.908	101.69
447.129	102.69
447.35	91.69
447.571	80.69
447.792	94.69
448.013	95.69
448.234	87.69
448.455	102.69
448.675	122.69
448.896	131.69
449.117	106.69
449.338	108.69
449.559	143.69
449.779	143.69
450	104.69
450.221	93.69
450.442	86.69
450.662	84.69
450.883	106.69
451.104	115.69
451.324	98.69
451.545	80.69
451.766	94.69
451.986	93.69
452.207	89.69
452.428	90.69
452.648	93.69
452.869	117.69
453.089	111.69
453.31	124.69
453.53	89.69
453.751	88.69
453.971	116.69
454.192	109.69
454.412	110.69
454.633	88.69
454.853	80.69
455.073	91.69
455.294	90.69
455.514	105.69
455.734	88.69
455.955	85.69
456.175	93.69
456.395	101.69
456.616	87.69
456.836	88.69
457.056	76.69
457.276	86.69
457.497	82.69
457.717	84.69
457.937	87.69
458.157	99.69
458.377	93.69
458.598	109.69
458.818	134.69
459.038	163.69
459.258	125.69
459.478	94.69
459.698	70.69
459.918	99.69
460.138	81.69
460.358	84.69
460.578	82.69
460.798	76.69
461.018	96.69
461.238	82.69
461.458	76.69
461.678	88.69
461.898	103.69
462.118	91.69
462.338	91.69
462.558	100.69
462.777	100.69
462.997	90.69
463.217	82.69
463.437	81.69
463.657	94.69
463.876	88.69
464.096	105.69
464.316	91.69
464.536	96.69
464.755	90.69
464.975	98.69
465.195	168.69
465.414	168.69
465.634	93.69
465.854	98.69
466.073	81.69
466.293	90.69
466.512	83.69
466.732	87.69
466.951	86.69
467.171	88.69
467.391	101.69
467.61	98.69
467.829	109.69
468.049	119.69
468.268	138.69
468.488	105.69
468.707	85.69
468.927	79.69
469.146	91.69
469.365	88.69
469.585	102.69
469.804	100.69
470.023	100.69
470.243	100.69
470.462	96.69
470.681	112.69
470.901	84.69
471.12	76.69
471.339	81.69
471.558	88.69
471.777	80.69
471.997	108.69
472.216	184.69
472.435	262.69
472.654	134.69
472.873	104.69
473.092	101.69
473.311	80.69
473.53	88.69
473.749	94.69
473.968	94.69
474.187	107.69
474.406	96.69
474.625	85.69
474.844	86.69
475.063	100.69
475.282	71.69
475.501	88.69
475.72	95.69
475.939	91.69
476.158	84.69
476.377	86.69
476.596	82.69
476.814	102.69
477.033	105.69
477.252	87.69
477.471	91.69
477.69	97.69
477.908	97.69
478.127	92.69
478.346	82.69
478.564	92.69
478.783	94.69
479.002	82.69
479.22	98.69
479.439	101.69
479.658	110.69
479.876	94.69
480.095	87.69
480.313	114.69
480.532	113.69
480.751	108.69
480.969	172.69
481.188	424.69
481.406	280.69
481.624	132.69
481.843	81.69
482.061	90.69
482.28	93.69
482.498	81.69
482.717	82.69
482.935	92.69
483.153	79.69
483.372	92.69
483.59	99.69
483.808	104.69
484.027	87.69
484.245	96.69
484.463	91.69
484.681	94.69
484.9	79.69
485.118	110.69
485.336	85.69
485.554	100.69
485.772	103.69
485.99	125.69
486.209	117.69
486.427	105.69
486.645	107.69
486.863	106.69
487.081	110.69
487.299	95.69
487.517	105.69
487.735	103.69
487.953	87.69
488.171	88.69
488.389	98.69
488.607	103.69
488.825	87.69
489.043	84.69
489.261	74.69
489.479	89.69
489.696	94.69
489.914	88.69
490.132	85.69
490.35	97.69
490.568	85.69
490.786	86.69
491.003	108.69
491.221	102.69
491.439	89.69
491.657	105.69
491.874	105.69
492.092	93.69
492.31	89.69
492.527	90.69
492.745	97.69
492.963	88.69
493.18	87.69
493.398	82.69
493.615	108.69
493.833	101.69
494.05	93.69
494.268	98.69
494.485	100.69
494.703	81.69
494.92	93.69
495.138	84.69
495.355	93.69
495.573	85.69
495.79	83.69
496.008	81.69
496.225	83.69
496.442	92.69
496.66	95.69
496.877	101.69
497.094	94.69
497.312	88.69
497.529	101.69
497.746	100.69
497.963	85.69
498.181	96.69
498.398	93.69
498.615	102.69
498.832	102.69
499.049	110.69
499.267	100.69
499.484	93.69
499.701	94.69
499.918	92.69
500.135	83.69
500.352	99.69
500.569	82.69
500.786	88.69
501.003	87.69
501.22	93.69
501.437	89.69
501.654	96.69
501.871	109.69
502.088	100.69
502.305	93.69
502.522	91.69
502.739	89.69
502.956	84.69
503.172	104.69
503.389	97.69
503.606	108.69
503.823	123.69
504.04	94.69
504.256	100.69
504.473	94.69
504.69	94.69
504.907	88.69
505.123	98.69
505.34	78.69
505.557	93.69
505.773	78.69
505.99	89.69
506.207	87.69
506.423	102.69
506.64	89.69
506.856	108.69
507.073	98.69
507.289	79.69
507.506	89.69
507.722	119.69
507.939	116.69
508.155	96.69
508.372	78.69
508.588	102.69
508.805	110.69
509.021	104.69
509.238	108.69
509.454	101.69
509.67	100.69
509.887	101.69
510.103	126.69
510.319	193.69
510.536	767.69
510.752	2496.69
510.968	711.69
511.184	155.69
511.401	96.69
511.617	88.69
511.833	96.69
512.049	77.69
512.265	89.69
512.481	89.69
512.698	88.69
512.914	94.69
513.13	87.69
513.346	88.69
513.562	100.69
513.778	104.69
513.994	85.69
514.21	109.69
514.426	123.69
514.642	128.69
514.858	130.69
