Data from Circ_2011_H10_HRD10591_00011.txt Node
Date: Wed Jan 03 10:08:01 EST 2024
User: Yrep
Spectrometer: HR+D1059
Trigger mode: 1
Integration Time (sec): 1.000000E-1
Scans to average: 1
Electric dark correction enabled: true
Nonlinearity correction enabled: false
Boxcar width: 0
XAxis mode: Wavelengths
Number of Pixels in Spectrum: 2048
>>>>>Begin Spectral Data<<<<<
223.165	-25.75
223.4	-25.75
223.635	-25.75
223.869	-19.75
224.104	-17.75
224.338	-12.75
224.573	-10.75
224.808	-5.75
225.042	-11.75
225.277	9.25
225.511	-0.75
225.746	-8.75
225.98	6.25
226.215	15.25
226.449	14.25
226.683	22.25
226.918	22.25
227.152	24.25
227.387	34.25
227.621	40.25
227.856	41.25
228.09	45.25
228.324	52.25
228.559	68.25
228.793	48.25
229.027	66.25
229.262	75.25
229.496	77.25
229.73	68.25
229.964	85.25
230.199	81.25
230.433	66.25
230.667	78.25
230.901	78.25
231.136	71.25
231.37	68.25
231.604	76.25
231.838	78.25
232.072	87.25
232.306	89.25
232.541	86.25
232.775	75.25
233.009	88.25
233.243	92.25
233.477	87.25
233.711	80.25
233.945	63.25
234.179	78.25
234.413	79.25
234.647	65.25
234.881	82.25
235.115	80.25
235.349	75.25
235.583	74.25
235.817	76.25
236.051	75.25
236.285	87.25
236.519	72.25
236.753	83.25
236.987	75.25
237.221	80.25
237.455	81.25
237.689	77.25
237.922	82.25
238.156	78.25
238.39	66.25
238.624	63.25
238.858	76.25
239.091	88.25
239.325	92.25
239.559	91.25
239.793	72.25
240.027	80.25
240.26	83.25
240.494	74.25
240.728	86.25
240.961	76.25
241.195	88.25
241.429	76.25
241.662	64.25
241.896	84.25
242.13	70.25
242.363	70.25
242.597	70.25
242.83	77.25
243.064	87.25
243.298	76.25
243.531	73.25
243.765	77.25
243.998	84.25
244.232	83.25
244.465	83.25
244.699	98.25
244.932	88.25
245.166	86.25
245.399	82.25
245.633	72.25
245.866	81.25
246.099	71.25
246.333	71.25
246.566	77.25
246.8	87.25
247.033	85.25
247.266	77.25
247.5	83.25
247.733	66.25
247.966	70.25
248.2	80.25
248.433	77.25
248.666	79.25
248.899	76.25
249.133	75.25
249.366	84.25
249.599	101.25
249.832	68.25
250.066	75.25
250.299	75.25
250.532	87.25
250.765	91.25
250.998	84.25
251.231	81.25
251.465	68.25
251.698	74.25
251.931	69.25
252.164	81.25
252.397	66.25
252.63	83.25
252.863	74.25
253.096	95.25
253.329	89.25
253.562	79.25
253.795	84.25
254.028	87.25
254.261	72.25
254.494	73.25
254.727	74.25
254.96	86.25
255.193	82.25
255.426	86.25
255.659	68.25
255.892	78.25
256.124	74.25
256.357	84.25
256.59	85.25
256.823	79.25
257.056	72.25
257.289	68.25
257.521	82.25
257.754	92.25
257.987	92.25
258.22	79.25
258.452	98.25
258.685	89.25
258.918	76.25
259.151	80.25
259.383	87.25
259.616	89.25
259.849	76.25
260.081	85.25
260.314	74.25
260.547	94.25
260.779	75.25
261.012	86.25
261.244	95.25
261.477	83.25
261.71	106.25
261.942	120.25
262.175	127.25
262.407	94.25
262.64	98.25
262.872	83.25
263.105	92.25
263.337	84.25
263.57	74.25
263.802	85.25
264.035	76.25
264.267	61.25
264.499	85.25
264.732	75.25
264.964	80.25
265.197	92.25
265.429	89.25
265.661	70.25
265.894	91.25
266.126	94.25
266.358	81.25
266.591	76.25
266.823	87.25
267.055	79.25
267.287	87.25
267.52	92.25
267.752	80.25
267.984	78.25
268.216	90.25
268.448	83.25
268.681	85.25
268.913	92.25
269.145	69.25
269.377	80.25
269.609	100.25
269.841	90.25
270.073	88.25
270.306	89.25
270.538	84.25
270.77	80.25
271.002	79.25
271.234	81.25
271.466	86.25
271.698	74.25
271.93	86.25
272.162	85.25
272.394	95.25
272.626	84.25
272.858	80.25
273.09	87.25
273.322	92.25
273.553	80.25
273.785	94.25
274.017	75.25
274.249	71.25
274.481	95.25
274.713	82.25
274.945	88.25
275.176	82.25
275.408	87.25
275.64	100.25
275.872	92.25
276.104	90.25
276.335	90.25
276.567	108.25
276.799	111.25
277.031	101.25
277.262	100.25
277.494	91.25
277.726	94.25
277.957	89.25
278.189	83.25
278.421	76.25
278.652	66.25
278.884	79.25
279.115	95.25
279.347	94.25
279.579	91.25
279.81	85.25
280.042	87.25
280.273	105.25
280.505	89.25
280.736	79.25
280.968	94.25
281.199	81.25
281.431	66.25
281.662	79.25
281.894	114.25
282.125	99.25
282.356	122.25
282.588	146.25
282.819	125.25
283.051	91.25
283.282	98.25
283.513	79.25
283.745	89.25
283.976	73.25
284.207	86.25
284.439	79.25
284.67	81.25
284.901	83.25
285.132	85.25
285.364	78.25
285.595	85.25
285.826	92.25
286.057	83.25
286.288	90.25
286.52	71.25
286.751	79.25
286.982	90.25
287.213	84.25
287.444	87.25
287.675	94.25
287.906	96.25
288.138	90.25
288.369	77.25
288.6	82.25
288.831	100.25
289.062	83.25
289.293	85.25
289.524	76.25
289.755	82.25
289.986	77.25
290.217	74.25
290.448	79.25
290.679	93.25
290.91	88.25
291.141	102.25
291.371	91.25
291.602	71.25
291.833	89.25
292.064	86.25
292.295	81.25
292.526	87.25
292.757	93.25
292.987	95.25
293.218	86.25
293.449	92.25
293.68	86.25
293.91	90.25
294.141	90.25
294.372	89.25
294.603	90.25
294.833	72.25
295.064	101.25
295.295	102.25
295.525	94.25
295.756	91.25
295.987	117.25
296.217	139.25
296.448	132.25
296.679	87.25
296.909	88.25
297.14	92.25
297.37	98.25
297.601	83.25
297.831	69.25
298.062	102.25
298.292	111.25
298.523	74.25
298.753	87.25
298.984	86.25
299.214	102.25
299.445	101.25
299.675	98.25
299.905	110.25
300.136	88.25
300.366	86.25
300.597	92.25
300.827	76.25
301.057	106.25
301.288	101.25
301.518	91.25
301.748	95.25
301.979	86.25
302.209	91.25
302.439	96.25
302.669	91.25
302.9	99.25
303.13	89.25
303.36	101.25
303.59	91.25
303.82	101.25
304.051	87.25
304.281	92.25
304.511	99.25
304.741	77.25
304.971	99.25
305.201	85.25
305.431	91.25
305.661	83.25
305.891	84.25
306.121	92.25
306.352	109.25
306.582	104.25
306.812	92.25
307.042	93.25
307.272	99.25
307.502	90.25
307.731	101.25
307.961	77.25
308.191	103.25
308.421	92.25
308.651	105.25
308.881	96.25
309.111	101.25
309.341	98.25
309.571	91.25
309.8	103.25
310.03	98.25
310.26	90.25
310.49	105.25
310.72	94.25
310.949	86.25
311.179	98.25
311.409	97.25
311.639	101.25
311.868	98.25
312.098	90.25
312.328	96.25
312.557	103.25
312.787	90.25
313.017	99.25
313.246	98.25
313.476	97.25
313.706	100.25
313.935	92.25
314.165	89.25
314.394	96.25
314.624	89.25
314.853	98.25
315.083	99.25
315.312	87.25
315.542	86.25
315.771	84.25
316.001	97.25
316.23	88.25
316.46	90.25
316.689	88.25
316.919	106.25
317.148	109.25
317.377	90.25
317.607	91.25
317.836	105.25
318.065	89.25
318.295	96.25
318.524	81.25
318.753	87.25
318.983	91.25
319.212	104.25
319.441	106.25
319.67	112.25
319.9	104.25
320.129	101.25
320.358	83.25
320.587	87.25
320.816	104.25
321.046	116.25
321.275	105.25
321.504	92.25
321.733	109.25
321.962	108.25
322.191	91.25
322.42	112.25
322.649	115.25
322.878	122.25
323.108	138.25
323.337	133.25
323.566	145.25
323.795	150.25
324.024	235.25
324.253	480.25
324.482	1005.25
324.71	2114.25
324.939	2792.25
325.168	967.25
325.397	290.25
325.626	166.25
325.855	133.25
326.084	124.25
326.313	140.25
326.542	151.25
326.77	272.25
326.999	545.25
327.228	1144.25
327.457	2126.25
327.686	1664.25
327.914	441.25
328.143	229.25
328.372	180.25
328.6	142.25
328.829	135.25
329.058	125.25
329.287	139.25
329.515	115.25
329.744	121.25
329.972	122.25
330.201	156.25
330.43	188.25
330.658	155.25
330.887	165.25
331.115	136.25
331.344	111.25
331.572	110.25
331.801	117.25
332.03	105.25
332.258	100.25
332.486	90.25
332.715	87.25
332.943	102.25
333.172	102.25
333.4	100.25
333.629	110.25
333.857	107.25
334.085	111.25
334.314	147.25
334.542	212.25
334.771	193.25
334.999	107.25
335.227	102.25
335.455	81.25
335.684	93.25
335.912	100.25
336.14	99.25
336.369	107.25
336.597	107.25
336.825	91.25
337.053	92.25
337.281	87.25
337.51	86.25
337.738	100.25
337.966	108.25
338.194	105.25
338.422	105.25
338.65	101.25
338.878	98.25
339.106	97.25
339.334	77.25
339.562	74.25
339.79	85.25
340.018	99.25
340.246	77.25
340.474	102.25
340.702	89.25
340.93	88.25
341.158	79.25
341.386	94.25
341.614	91.25
341.842	89.25
342.07	98.25
342.298	91.25
342.526	86.25
342.754	91.25
342.981	91.25
343.209	99.25
343.437	89.25
343.665	83.25
343.893	86.25
344.12	103.25
344.348	96.25
344.576	104.25
344.804	101.25
345.031	92.25
345.259	104.25
345.487	96.25
345.714	83.25
345.942	103.25
346.17	97.25
346.397	91.25
346.625	94.25
346.853	83.25
347.08	93.25
347.308	83.25
347.535	103.25
347.763	95.25
347.99	94.25
348.218	90.25
348.445	118.25
348.673	112.25
348.9	88.25
349.128	92.25
349.355	88.25
349.583	97.25
349.81	100.25
350.037	91.25
350.265	101.25
350.492	99.25
350.72	103.25
350.947	104.25
351.174	107.25
351.402	125.25
351.629	101.25
351.856	94.25
352.083	99.25
352.311	91.25
352.538	103.25
352.765	102.25
352.992	116.25
353.22	117.25
353.447	103.25
353.674	91.25
353.901	100.25
354.128	99.25
354.355	108.25
354.583	88.25
354.81	92.25
355.037	94.25
355.264	100.25
355.491	87.25
355.718	99.25
355.945	86.25
356.172	94.25
356.399	97.25
356.626	100.25
356.853	96.25
357.08	83.25
357.307	83.25
357.534	86.25
357.761	87.25
357.988	102.25
358.215	95.25
358.441	99.25
358.668	91.25
358.895	100.25
359.122	94.25
359.349	101.25
359.576	99.25
359.802	106.25
360.029	115.25
360.256	119.25
360.483	102.25
360.709	93.25
360.936	91.25
361.163	103.25
361.39	96.25
361.616	87.25
361.843	85.25
362.07	109.25
362.296	100.25
362.523	84.25
362.749	77.25
362.976	86.25
363.203	89.25
363.429	93.25
363.656	77.25
363.882	75.25
364.109	92.25
364.335	89.25
364.562	82.25
364.788	91.25
365.015	101.25
365.241	100.25
365.468	109.25
365.694	103.25
365.92	88.25
366.147	92.25
366.373	95.25
366.599	86.25
366.826	86.25
367.052	98.25
367.278	97.25
367.505	99.25
367.731	87.25
367.957	91.25
368.184	86.25
368.41	107.25
368.636	121.25
368.862	135.25
369.089	106.25
369.315	99.25
369.541	76.25
369.767	99.25
369.993	75.25
370.219	84.25
370.445	91.25
370.672	86.25
370.898	95.25
371.124	96.25
371.35	85.25
371.576	79.25
371.802	86.25
372.028	90.25
372.254	90.25
372.48	74.25
372.706	86.25
372.932	95.25
373.158	78.25
373.384	85.25
373.61	95.25
373.835	89.25
374.061	94.25
374.287	85.25
374.513	85.25
374.739	77.25
374.965	74.25
375.191	85.25
375.416	97.25
375.642	80.25
375.868	107.25
376.094	87.25
376.319	92.25
376.545	88.25
376.771	98.25
376.997	100.25
377.222	100.25
377.448	87.25
377.674	102.25
377.899	93.25
378.125	92.25
378.35	84.25
378.576	78.25
378.802	98.25
379.027	84.25
379.253	80.25
379.478	93.25
379.704	80.25
379.929	102.25
380.155	83.25
380.38	94.25
380.606	100.25
380.831	100.25
381.057	100.25
381.282	93.25
381.507	81.25
381.733	110.25
381.958	84.25
382.184	88.25
382.409	88.25
382.634	87.25
382.86	94.25
383.085	98.25
383.31	92.25
383.535	107.25
383.761	107.25
383.986	92.25
384.211	95.25
384.436	90.25
384.662	93.25
384.887	95.25
385.112	112.25
385.337	106.25
385.562	100.25
385.787	103.25
386.013	102.25
386.238	114.25
386.463	87.25
386.688	91.25
386.913	108.25
387.138	93.25
387.363	102.25
387.588	89.25
387.813	91.25
388.038	105.25
388.263	105.25
388.488	110.25
388.713	86.25
388.938	80.25
389.163	100.25
389.387	96.25
389.612	95.25
389.837	80.25
390.062	85.25
390.287	86.25
390.512	85.25
390.736	88.25
390.961	91.25
391.186	76.25
391.411	83.25
391.636	92.25
391.86	98.25
392.085	86.25
392.31	80.25
392.534	99.25
392.759	100.25
392.984	79.25
393.208	84.25
393.433	91.25
393.658	93.25
393.882	79.25
394.107	83.25
394.331	85.25
394.556	99.25
394.78	90.25
395.005	83.25
395.229	90.25
395.454	93.25
395.678	80.25
395.903	95.25
396.127	93.25
396.352	91.25
396.576	78.25
396.801	79.25
397.025	74.25
397.249	89.25
397.474	94.25
397.698	82.25
397.922	84.25
398.147	80.25
398.371	90.25
398.595	79.25
398.82	83.25
399.044	88.25
399.268	93.25
399.492	84.25
399.717	81.25
399.941	99.25
400.165	92.25
400.389	76.25
400.613	99.25
400.837	92.25
401.062	91.25
401.286	80.25
401.51	90.25
401.734	97.25
401.958	109.25
402.182	136.25
402.406	178.25
402.63	122.25
402.854	104.25
403.078	88.25
403.302	87.25
403.526	73.25
403.75	82.25
403.974	70.25
404.198	84.25
404.422	87.25
404.645	87.25
404.869	101.25
405.093	98.25
405.317	98.25
405.541	94.25
405.765	93.25
405.988	128.25
406.212	190.25
406.436	254.25
406.66	163.25
406.883	111.25
407.107	99.25
407.331	94.25
407.555	96.25
407.778	94.25
408.002	93.25
408.226	82.25
408.449	98.25
408.673	102.25
408.896	86.25
409.12	95.25
409.344	87.25
409.567	90.25
409.791	90.25
410.014	91.25
410.238	82.25
410.461	84.25
410.685	95.25
410.908	101.25
411.132	90.25
411.355	98.25
411.578	100.25
411.802	78.25
412.025	80.25
412.249	89.25
412.472	100.25
412.695	90.25
412.919	80.25
413.142	85.25
413.365	93.25
413.589	102.25
413.812	100.25
414.035	83.25
414.258	75.25
414.482	87.25
414.705	84.25
414.928	79.25
415.151	89.25
415.374	83.25
415.597	80.25
415.821	90.25
416.044	92.25
416.267	86.25
416.49	85.25
416.713	92.25
416.936	77.25
417.159	77.25
417.382	95.25
417.605	88.25
417.828	79.25
418.051	91.25
418.274	92.25
418.497	85.25
418.72	86.25
418.943	84.25
419.166	84.25
419.389	95.25
419.611	79.25
419.834	77.25
420.057	97.25
420.28	95.25
420.503	95.25
420.726	95.25
420.948	89.25
421.171	81.25
421.394	98.25
421.617	99.25
421.839	100.25
422.062	92.25
422.285	95.25
422.507	89.25
422.73	105.25
422.953	93.25
423.175	99.25
423.398	93.25
423.621	88.25
423.843	91.25
424.066	79.25
424.288	86.25
424.511	94.25
424.733	100.25
424.956	111.25
425.178	102.25
425.401	95.25
425.623	100.25
425.846	96.25
426.068	98.25
426.291	86.25
426.513	84.25
426.735	85.25
426.958	93.25
427.18	121.25
427.402	139.25
427.625	189.25
427.847	143.25
428.069	125.25
428.292	87.25
428.514	85.25
428.736	77.25
428.958	91.25
429.181	89.25
429.403	78.25
429.625	79.25
429.847	103.25
430.069	90.25
430.292	84.25
430.514	90.25
430.736	85.25
430.958	71.25
431.18	77.25
431.402	97.25
431.624	99.25
431.846	77.25
432.068	88.25
432.29	75.25
432.512	68.25
432.734	75.25
432.956	85.25
433.178	100.25
433.4	100.25
433.622	89.25
433.844	82.25
434.066	86.25
434.287	88.25
434.509	82.25
434.731	103.25
434.953	87.25
435.175	90.25
435.397	83.25
435.618	86.25
435.84	107.25
436.062	124.25
436.284	110.25
436.505	99.25
436.727	117.25
436.949	92.25
437.17	86.25
437.392	69.25
437.614	84.25
437.835	110.25
438.057	109.25
438.278	114.25
438.5	110.25
438.721	130.25
438.943	99.25
439.165	87.25
439.386	88.25
439.608	92.25
439.829	101.25
440.05	127.25
440.272	131.25
440.493	96.25
440.715	91.25
440.936	92.25
441.158	89.25
441.379	78.25
441.6	79.25
441.822	90.25
442.043	94.25
442.264	111.25
442.486	102.25
442.707	108.25
442.928	101.25
443.149	131.25
443.371	152.25
443.592	105.25
443.813	105.25
444.034	115.25
444.255	77.25
444.476	101.25
444.698	85.25
444.919	84.25
445.14	130.25
445.361	142.25
445.582	114.25
445.803	138.25
446.024	135.25
446.245	162.25
446.466	115.25
446.687	87.25
446.908	87.25
447.129	83.25
447.35	102.25
447.571	84.25
447.792	86.25
448.013	103.25
448.234	96.25
448.455	99.25
448.675	115.25
448.896	131.25
449.117	97.25
449.338	114.25
449.559	133.25
449.779	135.25
450	90.25
450.221	88.25
450.442	79.25
450.662	104.25
450.883	107.25
451.104	105.25
451.324	91.25
451.545	90.25
451.766	75.25
451.986	81.25
452.207	92.25
452.428	81.25
452.648	107.25
452.869	115.25
453.089	112.25
453.31	122.25
453.53	99.25
453.751	88.25
453.971	104.25
454.192	108.25
454.412	98.25
454.633	87.25
454.853	91.25
455.073	69.25
455.294	92.25
455.514	101.25
455.734	96.25
455.955	95.25
456.175	86.25
456.395	76.25
456.616	90.25
456.836	76.25
457.056	77.25
457.276	80.25
457.497	80.25
457.717	85.25
457.937	78.25
458.157	82.25
458.377	77.25
458.598	107.25
458.818	178.25
459.038	186.25
459.258	137.25
459.478	96.25
459.698	77.25
459.918	77.25
460.138	99.25
460.358	80.25
460.578	80.25
460.798	87.25
461.018	88.25
461.238	81.25
461.458	82.25
461.678	75.25
461.898	85.25
462.118	78.25
462.338	79.25
462.558	73.25
462.777	76.25
462.997	91.25
463.217	79.25
463.437	84.25
463.657	98.25
463.876	91.25
464.096	98.25
464.316	102.25
464.536	80.25
464.755	97.25
464.975	100.25
465.195	177.25
465.414	189.25
465.634	105.25
465.854	87.25
466.073	86.25
466.293	99.25
466.512	80.25
466.732	84.25
466.951	89.25
467.171	101.25
467.391	90.25
467.61	118.25
467.829	86.25
468.049	105.25
468.268	141.25
468.488	102.25
468.707	80.25
468.927	75.25
469.146	76.25
469.365	94.25
469.585	97.25
469.804	98.25
470.023	104.25
470.243	90.25
470.462	109.25
470.681	120.25
470.901	107.25
471.12	75.25
471.339	87.25
471.558	92.25
471.777	93.25
471.997	103.25
472.216	153.25
472.435	228.25
472.654	115.25
472.873	87.25
473.092	74.25
473.311	76.25
473.53	78.25
473.749	82.25
473.968	102.25
474.187	104.25
474.406	101.25
474.625	81.25
474.844	93.25
475.063	86.25
475.282	83.25
475.501	78.25
475.72	79.25
475.939	94.25
476.158	80.25
476.377	82.25
476.596	88.25
476.814	101.25
477.033	107.25
477.252	94.25
477.471	85.25
477.69	90.25
477.908	96.25
478.127	98.25
478.346	96.25
478.564	94.25
478.783	109.25
479.002	93.25
479.22	95.25
479.439	114.25
479.658	114.25
479.876	85.25
480.095	81.25
480.313	91.25
480.532	91.25
480.751	109.25
480.969	158.25
481.188	359.25
481.406	242.25
481.624	103.25
481.843	89.25
482.061	81.25
482.28	90.25
482.498	73.25
482.717	82.25
482.935	86.25
483.153	86.25
483.372	79.25
483.59	84.25
483.808	78.25
484.027	80.25
484.245	90.25
484.463	101.25
484.681	74.25
484.9	82.25
485.118	99.25
485.336	89.25
485.554	93.25
485.772	94.25
485.99	96.25
486.209	99.25
486.427	115.25
486.645	101.25
486.863	108.25
487.081	108.25
487.299	84.25
487.517	86.25
487.735	93.25
487.953	92.25
488.171	89.25
488.389	92.25
488.607	103.25
488.825	96.25
489.043	103.25
489.261	97.25
489.479	82.25
489.696	82.25
489.914	89.25
490.132	90.25
490.35	100.25
490.568	88.25
490.786	76.25
491.003	91.25
491.221	104.25
491.439	81.25
491.657	96.25
491.874	94.25
492.092	82.25
492.31	88.25
492.527	85.25
492.745	80.25
492.963	99.25
493.18	91.25
493.398	81.25
493.615	102.25
493.833	105.25
494.05	99.25
494.268	81.25
494.485	83.25
494.703	91.25
494.92	83.25
495.138	85.25
495.355	88.25
495.573	99.25
495.79	96.25
496.008	90.25
496.225	90.25
496.442	87.25
496.66	107.25
496.877	90.25
497.094	88.25
497.312	83.25
497.529	91.25
497.746	79.25
497.963	97.25
498.181	103.25
498.398	88.25
498.615	114.25
498.832	106.25
499.049	76.25
499.267	84.25
499.484	79.25
499.701	94.25
499.918	88.25
500.135	93.25
500.352	85.25
500.569	92.25
500.786	97.25
501.003	87.25
501.22	103.25
501.437	77.25
501.654	92.25
501.871	105.25
502.088	97.25
502.305	92.25
502.522	90.25
502.739	84.25
502.956	80.25
503.172	104.25
503.389	93.25
503.606	117.25
503.823	100.25
504.04	91.25
504.256	79.25
504.473	77.25
504.69	89.25
504.907	104.25
505.123	81.25
505.34	91.25
505.557	91.25
505.773	81.25
505.99	75.25
506.207	94.25
506.423	100.25
506.64	89.25
506.856	99.25
507.073	92.25
507.289	92.25
507.506	93.25
507.722	134.25
507.939	114.25
508.155	106.25
508.372	105.25
508.588	100.25
508.805	95.25
509.021	80.25
509.238	93.25
509.454	114.25
509.67	112.25
509.887	115.25
510.103	140.25
510.319	240.25
510.536	849.25
510.752	2749.25
510.968	768.25
511.184	173.25
511.401	118.25
511.617	107.25
511.833	93.25
512.049	77.25
512.265	89.25
512.481	101.25
512.698	85.25
512.914	101.25
513.13	84.25
513.346	84.25
513.562	88.25
513.778	85.25
513.994	88.25
514.21	109.25
514.426	132.25
514.642	150.25
514.858	138.25
515.074	188.25
