Data from Circ_2011_H10_HRD10591_00002.txt Node
Date: Wed Jan 03 10:07:59 EST 2024
User: Yrep
Spectrometer: HR+D1059
Trigger mode: 1
Integration Time (sec): 1.000000E-1
Scans to average: 1
Electric dark correction enabled: true
Nonlinearity correction enabled: false
Boxcar width: 0
XAxis mode: Wavelengths
Number of Pixels in Spectrum: 2048
>>>>>Begin Spectral Data<<<<<
223.165	2.62
223.4	2.62
223.635	2.62
223.869	-13.38
224.104	-29.38
224.338	-31.38
224.573	-18.38
224.808	-16.38
225.042	-12.38
225.277	-1.38
225.511	1.62
225.746	-10.38
225.98	9.62
226.215	19.62
226.449	13.62
226.683	16.62
226.918	32.62
227.152	36.62
227.387	39.62
227.621	42.62
227.856	34.62
228.09	54.62
228.324	55.62
228.559	68.62
228.793	57.62
229.027	59.62
229.262	61.62
229.496	83.62
229.73	91.62
229.964	95.62
230.199	71.62
230.433	76.62
230.667	88.62
230.901	87.62
231.136	79.62
231.37	80.62
231.604	87.62
231.838	90.62
232.072	83.62
232.306	77.62
232.541	85.62
232.775	67.62
233.009	94.62
233.243	92.62
233.477	81.62
233.711	80.62
233.945	78.62
234.179	89.62
234.413	84.62
234.647	83.62
234.881	69.62
235.115	85.62
235.349	93.62
235.583	78.62
235.817	80.62
236.051	82.62
236.285	72.62
236.519	79.62
236.753	93.62
236.987	93.62
237.221	104.62
237.455	81.62
237.689	84.62
237.922	69.62
238.156	85.62
238.39	78.62
238.624	81.62
238.858	77.62
239.091	75.62
239.325	87.62
239.559	74.62
239.793	83.62
240.027	73.62
240.26	85.62
240.494	78.62
240.728	78.62
240.961	73.62
241.195	61.62
241.429	84.62
241.662	77.62
241.896	75.62
242.13	65.62
242.363	74.62
242.597	68.62
242.83	75.62
243.064	87.62
243.298	81.62
243.531	60.62
243.765	63.62
243.998	72.62
244.232	74.62
244.465	71.62
244.699	64.62
244.932	64.62
245.166	72.62
245.399	76.62
245.633	69.62
245.866	69.62
246.099	80.62
246.333	80.62
246.566	79.62
246.8	73.62
247.033	78.62
247.266	82.62
247.5	85.62
247.733	86.62
247.966	79.62
248.2	69.62
248.433	85.62
248.666	79.62
248.899	74.62
249.133	89.62
249.366	100.62
249.599	106.62
249.832	83.62
250.066	91.62
250.299	94.62
250.532	88.62
250.765	88.62
250.998	89.62
251.231	85.62
251.465	80.62
251.698	82.62
251.931	86.62
252.164	81.62
252.397	75.62
252.63	81.62
252.863	78.62
253.096	83.62
253.329	89.62
253.562	87.62
253.795	88.62
254.028	98.62
254.261	82.62
254.494	77.62
254.727	79.62
254.96	68.62
255.193	78.62
255.426	90.62
255.659	79.62
255.892	82.62
256.124	72.62
256.357	95.62
256.59	77.62
256.823	97.62
257.056	73.62
257.289	91.62
257.521	72.62
257.754	90.62
257.987	96.62
258.22	114.62
258.452	83.62
258.685	77.62
258.918	84.62
259.151	65.62
259.383	80.62
259.616	78.62
259.849	90.62
260.081	74.62
260.314	76.62
260.547	82.62
260.779	85.62
261.012	86.62
261.244	90.62
261.477	81.62
261.71	102.62
261.942	95.62
262.175	117.62
262.407	90.62
262.64	88.62
262.872	75.62
263.105	80.62
263.337	77.62
263.57	74.62
263.802	88.62
264.035	86.62
264.267	73.62
264.499	82.62
264.732	72.62
264.964	87.62
265.197	90.62
265.429	87.62
265.661	88.62
265.894	86.62
266.126	83.62
266.358	94.62
266.591	85.62
266.823	92.62
267.055	70.62
267.287	89.62
267.52	83.62
267.752	86.62
267.984	105.62
268.216	89.62
268.448	92.62
268.681	91.62
268.913	96.62
269.145	86.62
269.377	73.62
269.609	86.62
269.841	83.62
270.073	89.62
270.306	89.62
270.538	86.62
270.77	92.62
271.002	86.62
271.234	82.62
271.466	87.62
271.698	86.62
271.93	93.62
272.162	97.62
272.394	92.62
272.626	84.62
272.858	90.62
273.09	73.62
273.322	88.62
273.553	90.62
273.785	87.62
274.017	89.62
274.249	92.62
274.481	88.62
274.713	91.62
274.945	94.62
275.176	91.62
275.408	105.62
275.64	83.62
275.872	96.62
276.104	89.62
276.335	104.62
276.567	97.62
276.799	101.62
277.031	117.62
277.262	94.62
277.494	90.62
277.726	95.62
277.957	76.62
278.189	83.62
278.421	84.62
278.652	80.62
278.884	96.62
279.115	73.62
279.347	82.62
279.579	97.62
279.81	80.62
280.042	104.62
280.273	84.62
280.505	88.62
280.736	95.62
280.968	103.62
281.199	85.62
281.431	101.62
281.662	96.62
281.894	110.62
282.125	96.62
282.356	114.62
282.588	127.62
282.819	102.62
283.051	81.62
283.282	87.62
283.513	90.62
283.745	86.62
283.976	84.62
284.207	83.62
284.439	81.62
284.67	91.62
284.901	91.62
285.132	89.62
285.364	92.62
285.595	79.62
285.826	91.62
286.057	93.62
286.288	87.62
286.52	74.62
286.751	85.62
286.982	70.62
287.213	89.62
287.444	81.62
287.675	83.62
287.906	92.62
288.138	88.62
288.369	109.62
288.6	93.62
288.831	88.62
289.062	91.62
289.293	94.62
289.524	88.62
289.755	98.62
289.986	94.62
290.217	87.62
290.448	93.62
290.679	96.62
290.91	98.62
291.141	85.62
291.371	97.62
291.602	93.62
291.833	80.62
292.064	94.62
292.295	88.62
292.526	88.62
292.757	102.62
292.987	89.62
293.218	98.62
293.449	96.62
293.68	86.62
293.91	79.62
294.141	91.62
294.372	94.62
294.603	89.62
294.833	103.62
295.064	100.62
295.295	91.62
295.525	99.62
295.756	103.62
295.987	107.62
296.217	147.62
296.448	122.62
296.679	98.62
296.909	101.62
297.14	93.62
297.37	92.62
297.601	100.62
297.831	78.62
298.062	86.62
298.292	91.62
298.523	87.62
298.753	97.62
298.984	89.62
299.214	88.62
299.445	94.62
299.675	98.62
299.905	92.62
300.136	90.62
300.366	96.62
300.597	100.62
300.827	101.62
301.057	117.62
301.288	101.62
301.518	88.62
301.748	82.62
301.979	95.62
302.209	90.62
302.439	101.62
302.669	90.62
302.9	94.62
303.13	96.62
303.36	104.62
303.59	103.62
303.82	120.62
304.051	87.62
304.281	97.62
304.511	91.62
304.741	85.62
304.971	98.62
305.201	107.62
305.431	85.62
305.661	94.62
305.891	95.62
306.121	86.62
306.352	101.62
306.582	105.62
306.812	82.62
307.042	98.62
307.272	99.62
307.502	106.62
307.731	103.62
307.961	91.62
308.191	93.62
308.421	91.62
308.651	85.62
308.881	96.62
309.111	90.62
309.341	91.62
309.571	92.62
309.8	95.62
310.03	99.62
310.26	93.62
310.49	108.62
310.72	101.62
310.949	118.62
311.179	100.62
311.409	93.62
311.639	100.62
311.868	109.62
312.098	92.62
312.328	106.62
312.557	99.62
312.787	114.62
313.017	126.62
313.246	95.62
313.476	91.62
313.706	84.62
313.935	94.62
314.165	105.62
314.394	115.62
314.624	93.62
314.853	104.62
315.083	89.62
315.312	93.62
315.542	94.62
315.771	98.62
316.001	91.62
316.23	86.62
316.46	103.62
316.689	89.62
316.919	97.62
317.148	109.62
317.377	112.62
317.607	95.62
317.836	88.62
318.065	106.62
318.295	88.62
318.524	89.62
318.753	93.62
318.983	98.62
319.212	103.62
319.441	105.62
319.67	95.62
319.9	96.62
320.129	83.62
320.358	87.62
320.587	84.62
320.816	83.62
321.046	95.62
321.275	118.62
321.504	99.62
321.733	105.62
321.962	96.62
322.191	105.62
322.42	105.62
322.649	117.62
322.878	113.62
323.108	115.62
323.337	135.62
323.566	129.62
323.795	151.62
324.024	217.62
324.253	428.62
324.482	893.62
324.71	1859.62
324.939	2373.62
325.168	864.62
325.397	238.62
325.626	166.62
325.855	130.62
326.084	109.62
326.313	119.62
326.542	137.62
326.77	249.62
326.999	506.62
327.228	1033.62
327.457	1876.62
327.686	1499.62
327.914	422.62
328.143	214.62
328.372	161.62
328.6	129.62
328.829	118.62
329.058	127.62
329.287	138.62
329.515	122.62
329.744	106.62
329.972	128.62
330.201	138.62
330.43	174.62
330.658	131.62
330.887	147.62
331.115	127.62
331.344	106.62
331.572	101.62
331.801	84.62
332.03	113.62
332.258	90.62
332.486	109.62
332.715	83.62
332.943	105.62
333.172	108.62
333.4	101.62
333.629	109.62
333.857	131.62
334.085	125.62
334.314	139.62
334.542	182.62
334.771	197.62
334.999	133.62
335.227	110.62
335.455	100.62
335.684	98.62
335.912	100.62
336.14	81.62
336.369	90.62
336.597	110.62
336.825	75.62
337.053	97.62
337.281	94.62
337.51	79.62
337.738	87.62
337.966	99.62
338.194	103.62
338.422	104.62
338.65	87.62
338.878	95.62
339.106	105.62
339.334	89.62
339.562	93.62
339.79	95.62
340.018	106.62
340.246	98.62
340.474	103.62
340.702	98.62
340.93	103.62
341.158	106.62
341.386	92.62
341.614	83.62
341.842	89.62
342.07	96.62
342.298	98.62
342.526	93.62
342.754	80.62
342.981	84.62
343.209	96.62
343.437	113.62
343.665	86.62
343.893	94.62
344.12	98.62
344.348	91.62
344.576	102.62
344.804	99.62
345.031	94.62
345.259	102.62
345.487	99.62
345.714	104.62
345.942	88.62
346.17	89.62
346.397	92.62
346.625	111.62
346.853	94.62
347.08	100.62
347.308	95.62
347.535	90.62
347.763	96.62
347.99	109.62
348.218	108.62
348.445	105.62
348.673	90.62
348.9	92.62
349.128	103.62
349.355	94.62
349.583	85.62
349.81	85.62
350.037	110.62
350.265	98.62
350.492	103.62
350.72	95.62
350.947	103.62
351.174	99.62
351.402	109.62
351.629	95.62
351.856	106.62
352.083	87.62
352.311	91.62
352.538	112.62
352.765	115.62
352.992	122.62
353.22	106.62
353.447	108.62
353.674	103.62
353.901	107.62
354.128	108.62
354.355	106.62
354.583	96.62
354.81	108.62
355.037	94.62
355.264	99.62
355.491	103.62
355.718	94.62
355.945	97.62
356.172	99.62
356.399	102.62
356.626	97.62
356.853	95.62
357.08	94.62
357.307	90.62
357.534	91.62
357.761	97.62
357.988	84.62
358.215	90.62
358.441	107.62
358.668	88.62
358.895	88.62
359.122	96.62
359.349	83.62
359.576	96.62
359.802	102.62
360.029	106.62
360.256	110.62
360.483	96.62
360.709	98.62
360.936	109.62
361.163	85.62
361.39	81.62
361.616	91.62
361.843	98.62
362.07	87.62
362.296	87.62
362.523	86.62
362.749	116.62
362.976	99.62
363.203	100.62
363.429	90.62
363.656	90.62
363.882	76.62
364.109	101.62
364.335	98.62
364.562	102.62
364.788	95.62
365.015	91.62
365.241	86.62
365.468	118.62
365.694	103.62
365.92	102.62
366.147	93.62
366.373	87.62
366.599	90.62
366.826	81.62
367.052	90.62
367.278	80.62
367.505	90.62
367.731	92.62
367.957	97.62
368.184	96.62
368.41	111.62
368.636	113.62
368.862	118.62
369.089	117.62
369.315	85.62
369.541	105.62
369.767	94.62
369.993	94.62
370.219	87.62
370.445	89.62
370.672	95.62
370.898	73.62
371.124	81.62
371.35	87.62
371.576	95.62
371.802	91.62
372.028	96.62
372.254	80.62
372.48	89.62
372.706	80.62
372.932	88.62
373.158	98.62
373.384	83.62
373.61	92.62
373.835	89.62
374.061	92.62
374.287	106.62
374.513	86.62
374.739	90.62
374.965	69.62
375.191	94.62
375.416	97.62
375.642	93.62
375.868	97.62
376.094	99.62
376.319	86.62
376.545	78.62
376.771	101.62
376.997	111.62
377.222	89.62
377.448	100.62
377.674	93.62
377.899	84.62
378.125	113.62
378.35	94.62
378.576	78.62
378.802	95.62
379.027	96.62
379.253	94.62
379.478	71.62
379.704	88.62
379.929	78.62
380.155	93.62
380.38	100.62
380.606	94.62
380.831	84.62
381.057	92.62
381.282	107.62
381.507	101.62
381.733	92.62
381.958	89.62
382.184	104.62
382.409	98.62
382.634	114.62
382.86	102.62
383.085	92.62
383.31	97.62
383.535	101.62
383.761	101.62
383.986	94.62
384.211	92.62
384.436	97.62
384.662	87.62
384.887	100.62
385.112	106.62
385.337	103.62
385.562	114.62
385.787	106.62
386.013	102.62
386.238	94.62
386.463	114.62
386.688	104.62
386.913	107.62
387.138	95.62
387.363	101.62
387.588	89.62
387.813	97.62
388.038	106.62
388.263	104.62
388.488	105.62
388.713	85.62
388.938	102.62
389.163	88.62
389.387	87.62
389.612	93.62
389.837	112.62
390.062	101.62
390.287	86.62
390.512	78.62
390.736	91.62
390.961	96.62
391.186	81.62
391.411	98.62
391.636	89.62
391.86	89.62
392.085	94.62
392.31	71.62
392.534	96.62
392.759	96.62
392.984	83.62
393.208	92.62
393.433	87.62
393.658	73.62
393.882	95.62
394.107	98.62
394.331	54.62
394.556	84.62
394.78	88.62
395.005	107.62
395.229	87.62
395.454	110.62
395.678	82.62
395.903	91.62
396.127	81.62
396.352	90.62
396.576	87.62
396.801	88.62
397.025	89.62
397.249	87.62
397.474	118.62
397.698	103.62
397.922	90.62
398.147	85.62
398.371	86.62
398.595	86.62
398.82	85.62
399.044	90.62
399.268	80.62
399.492	96.62
399.717	97.62
399.941	86.62
400.165	94.62
400.389	93.62
400.613	89.62
400.837	91.62
401.062	82.62
401.286	88.62
401.51	82.62
401.734	86.62
401.958	96.62
402.182	125.62
402.406	148.62
402.63	112.62
402.854	110.62
403.078	117.62
403.302	82.62
403.526	101.62
403.75	95.62
403.974	77.62
404.198	90.62
404.422	106.62
404.645	97.62
404.869	93.62
405.093	87.62
405.317	95.62
405.541	104.62
405.765	92.62
405.988	128.62
406.212	167.62
406.436	243.62
406.66	148.62
406.883	105.62
407.107	102.62
407.331	104.62
407.555	97.62
407.778	106.62
408.002	88.62
408.226	87.62
408.449	88.62
408.673	93.62
408.896	96.62
409.12	98.62
409.344	99.62
409.567	85.62
409.791	84.62
410.014	95.62
410.238	89.62
410.461	88.62
410.685	100.62
410.908	101.62
411.132	97.62
411.355	103.62
411.578	107.62
411.802	87.62
412.025	103.62
412.249	93.62
412.472	96.62
412.695	103.62
412.919	104.62
413.142	97.62
413.365	101.62
413.589	80.62
413.812	97.62
414.035	94.62
414.258	98.62
414.482	81.62
414.705	74.62
414.928	86.62
415.151	97.62
415.374	90.62
415.597	100.62
415.821	86.62
416.044	107.62
416.267	94.62
416.49	90.62
416.713	95.62
416.936	91.62
417.159	91.62
417.382	90.62
417.605	93.62
417.828	96.62
418.051	90.62
418.274	89.62
418.497	97.62
418.72	85.62
418.943	99.62
419.166	81.62
419.389	87.62
419.611	81.62
419.834	97.62
420.057	104.62
420.28	82.62
420.503	88.62
420.726	93.62
420.948	90.62
421.171	94.62
421.394	97.62
421.617	99.62
421.839	88.62
422.062	97.62
422.285	98.62
422.507	102.62
422.73	98.62
422.953	89.62
423.175	88.62
423.398	94.62
423.621	92.62
423.843	99.62
424.066	92.62
424.288	76.62
424.511	98.62
424.733	95.62
424.956	116.62
425.178	106.62
425.401	95.62
425.623	102.62
425.846	95.62
426.068	84.62
426.291	94.62
426.513	90.62
426.735	88.62
426.958	96.62
427.18	118.62
427.402	136.62
427.625	157.62
427.847	146.62
428.069	115.62
428.292	98.62
428.514	87.62
428.736	90.62
428.958	79.62
429.181	81.62
429.403	87.62
429.625	88.62
429.847	93.62
430.069	105.62
430.292	97.62
430.514	89.62
430.736	104.62
430.958	111.62
431.18	79.62
431.402	91.62
431.624	98.62
431.846	86.62
432.068	88.62
432.29	91.62
432.512	98.62
432.734	90.62
432.956	92.62
433.178	93.62
433.4	99.62
433.622	96.62
433.844	103.62
434.066	98.62
434.287	98.62
434.509	100.62
434.731	87.62
434.953	97.62
435.175	94.62
435.397	95.62
435.618	89.62
435.84	107.62
436.062	142.62
436.284	112.62
436.505	109.62
436.727	90.62
436.949	99.62
437.17	91.62
437.392	97.62
437.614	86.62
437.835	123.62
438.057	123.62
438.278	110.62
438.5	105.62
438.721	120.62
438.943	106.62
439.165	101.62
439.386	84.62
439.608	88.62
439.829	90.62
440.05	126.62
440.272	140.62
440.493	102.62
440.715	105.62
440.936	87.62
441.158	87.62
441.379	93.62
441.6	93.62
441.822	104.62
442.043	101.62
442.264	95.62
442.486	118.62
442.707	93.62
442.928	101.62
443.149	144.62
443.371	145.62
443.592	110.62
443.813	106.62
444.034	103.62
444.255	88.62
444.476	80.62
444.698	86.62
444.919	82.62
445.14	118.62
445.361	119.62
445.582	122.62
445.803	138.62
446.024	143.62
446.245	136.62
446.466	113.62
446.687	93.62
446.908	102.62
447.129	95.62
447.35	97.62
447.571	99.62
447.792	96.62
448.013	96.62
448.234	104.62
448.455	110.62
448.675	120.62
448.896	118.62
449.117	93.62
449.338	91.62
449.559	115.62
449.779	136.62
450	104.62
450.221	94.62
450.442	87.62
450.662	90.62
450.883	109.62
451.104	114.62
451.324	105.62
451.545	95.62
451.766	81.62
451.986	82.62
452.207	86.62
452.428	81.62
452.648	88.62
452.869	117.62
453.089	121.62
453.31	109.62
453.53	102.62
453.751	91.62
453.971	108.62
454.192	105.62
454.412	87.62
454.633	94.62
454.853	93.62
455.073	101.62
455.294	98.62
455.514	102.62
455.734	96.62
455.955	93.62
456.175	90.62
456.395	77.62
456.616	99.62
456.836	96.62
457.056	78.62
457.276	93.62
457.497	100.62
457.717	95.62
457.937	81.62
458.157	85.62
458.377	94.62
458.598	115.62
458.818	151.62
459.038	158.62
459.258	117.62
459.478	93.62
459.698	81.62
459.918	90.62
460.138	91.62
460.358	92.62
460.578	91.62
460.798	94.62
461.018	87.62
461.238	74.62
461.458	79.62
461.678	85.62
461.898	74.62
462.118	92.62
462.338	82.62
462.558	93.62
462.777	75.62
462.997	92.62
463.217	94.62
463.437	107.62
463.657	83.62
463.876	86.62
464.096	88.62
464.316	102.62
464.536	97.62
464.755	102.62
464.975	113.62
465.195	167.62
465.414	164.62
465.634	108.62
465.854	90.62
466.073	78.62
466.293	94.62
466.512	94.62
466.732	75.62
466.951	94.62
467.171	97.62
467.391	95.62
467.61	107.62
467.829	99.62
468.049	119.62
468.268	114.62
468.488	82.62
468.707	77.62
468.927	73.62
469.146	97.62
469.365	83.62
469.585	87.62
469.804	104.62
470.023	96.62
470.243	99.62
470.462	102.62
470.681	101.62
470.901	106.62
471.12	96.62
471.339	89.62
471.558	81.62
471.777	101.62
471.997	88.62
472.216	153.62
472.435	220.62
472.654	118.62
472.873	94.62
473.092	100.62
473.311	92.62
473.53	83.62
473.749	93.62
473.968	101.62
474.187	96.62
474.406	97.62
474.625	106.62
474.844	89.62
475.063	89.62
475.282	86.62
475.501	87.62
475.72	97.62
475.939	88.62
476.158	82.62
476.377	85.62
476.596	95.62
476.814	85.62
477.033	102.62
477.252	103.62
477.471	81.62
477.69	89.62
477.908	106.62
478.127	102.62
478.346	94.62
478.564	91.62
478.783	96.62
479.002	102.62
479.22	102.62
479.439	89.62
479.658	113.62
479.876	105.62
480.095	109.62
480.313	101.62
480.532	96.62
480.751	113.62
480.969	143.62
481.188	351.62
481.406	256.62
481.624	105.62
481.843	94.62
482.061	94.62
482.28	88.62
482.498	77.62
482.717	98.62
482.935	87.62
483.153	89.62
483.372	86.62
483.59	99.62
483.808	105.62
484.027	114.62
484.245	101.62
484.463	94.62
484.681	96.62
484.9	100.62
485.118	98.62
485.336	85.62
485.554	98.62
485.772	97.62
485.99	104.62
486.209	94.62
486.427	105.62
486.645	105.62
486.863	104.62
487.081	125.62
487.299	94.62
487.517	98.62
487.735	102.62
487.953	74.62
488.171	78.62
488.389	93.62
488.607	108.62
488.825	97.62
489.043	82.62
489.261	86.62
489.479	80.62
489.696	95.62
489.914	109.62
490.132	93.62
490.35	96.62
490.568	92.62
490.786	87.62
491.003	101.62
491.221	91.62
491.439	91.62
491.657	106.62
491.874	98.62
492.092	92.62
492.31	90.62
492.527	87.62
492.745	102.62
492.963	101.62
493.18	92.62
493.398	93.62
493.615	103.62
493.833	90.62
494.05	100.62
494.268	94.62
494.485	91.62
494.703	95.62
494.92	94.62
495.138	81.62
495.355	89.62
495.573	88.62
495.79	87.62
496.008	100.62
496.225	88.62
496.442	86.62
496.66	84.62
496.877	72.62
497.094	94.62
497.312	109.62
497.529	73.62
497.746	102.62
497.963	93.62
498.181	103.62
498.398	93.62
498.615	110.62
498.832	104.62
499.049	93.62
499.267	80.62
499.484	102.62
499.701	91.62
499.918	103.62
500.135	78.62
500.352	82.62
500.569	92.62
500.786	89.62
501.003	99.62
501.22	84.62
501.437	88.62
501.654	101.62
501.871	133.62
502.088	103.62
502.305	90.62
502.522	83.62
502.739	85.62
502.956	87.62
503.172	104.62
503.389	103.62
503.606	100.62
503.823	115.62
504.04	82.62
504.256	94.62
504.473	92.62
504.69	77.62
504.907	94.62
505.123	99.62
505.34	90.62
505.557	89.62
505.773	98.62
505.99	72.62
506.207	83.62
506.423	96.62
506.64	100.62
506.856	98.62
507.073	84.62
507.289	106.62
507.506	112.62
507.722	103.62
507.939	113.62
508.155	101.62
508.372	100.62
508.588	102.62
508.805	98.62
509.021	111.62
509.238	107.62
509.454	102.62
509.67	106.62
509.887	110.62
510.103	124.62
510.319	210.62
510.536	729.62
510.752	2350.62
510.968	680.62
511.184	167.62
511.401	113.62
511.617	106.62
511.833	84.62
512.049	102.62
512.265	100.62
512.481	82.62
512.698	93.62
512.914	89.62
513.13	96.62
513.346	87.62
513.562	83.62
513.778	79.62
513.994	90.62
514.21	104.62
514.426	127.62
