Data from Circ_2011_H10_HRD10591_00067.txt Node
Date: Wed Jan 03 10:08:12 EST 2024
User: Yrep
Spectrometer: HR+D1059
Trigger mode: 1
Integration Time (sec): 1.000000E-1
Scans to average: 1
Electric dark correction enabled: true
Nonlinearity correction enabled: false
Boxcar width: 0
XAxis mode: Wavelengths
Number of Pixels in Spectrum: 2048
>>>>>Begin Spectral Data<<<<<
223.165	-8.62
223.4	-8.62
223.635	-8.62
223.869	-13.62
224.104	-40.62
224.338	-9.62
224.573	-11.62
224.808	-21.62
225.042	-4.62
225.277	-1.62
225.511	1.38
225.746	3.38
225.98	5.38
226.215	20.38
226.449	13.38
226.683	14.38
226.918	32.38
227.152	21.38
227.387	38.38
227.621	49.38
227.856	46.38
228.09	39.38
228.324	40.38
228.559	54.38
228.793	52.38
229.027	56.38
229.262	52.38
229.496	78.38
229.73	97.38
229.964	93.38
230.199	69.38
230.433	69.38
230.667	77.38
230.901	74.38
231.136	77.38
231.37	63.38
231.604	77.38
231.838	83.38
232.072	89.38
232.306	83.38
232.541	76.38
232.775	76.38
233.009	87.38
233.243	68.38
233.477	64.38
233.711	82.38
233.945	83.38
234.179	66.38
234.413	65.38
234.647	79.38
234.881	79.38
235.115	86.38
235.349	79.38
235.583	79.38
235.817	76.38
236.051	74.38
236.285	75.38
236.519	84.38
236.753	47.38
236.987	64.38
237.221	86.38
237.455	80.38
237.689	79.38
237.922	72.38
238.156	69.38
238.39	73.38
238.624	72.38
238.858	71.38
239.091	79.38
239.325	96.38
239.559	75.38
239.793	84.38
240.027	82.38
240.26	68.38
240.494	78.38
240.728	72.38
240.961	87.38
241.195	71.38
241.429	81.38
241.662	69.38
241.896	66.38
242.13	79.38
242.363	84.38
242.597	71.38
242.83	75.38
243.064	76.38
243.298	80.38
243.531	75.38
243.765	68.38
243.998	88.38
244.232	70.38
244.465	84.38
244.699	83.38
244.932	78.38
245.166	82.38
245.399	80.38
245.633	72.38
245.866	81.38
246.099	92.38
246.333	79.38
246.566	70.38
246.8	85.38
247.033	71.38
247.266	83.38
247.5	80.38
247.733	82.38
247.966	86.38
248.2	70.38
248.433	72.38
248.666	88.38
248.899	83.38
249.133	86.38
249.366	103.38
249.599	94.38
249.832	70.38
250.066	56.38
250.299	71.38
250.532	79.38
250.765	73.38
250.998	75.38
251.231	82.38
251.465	62.38
251.698	82.38
251.931	86.38
252.164	82.38
252.397	87.38
252.63	79.38
252.863	87.38
253.096	81.38
253.329	80.38
253.562	72.38
253.795	78.38
254.028	81.38
254.261	76.38
254.494	75.38
254.727	80.38
254.96	76.38
255.193	79.38
255.426	79.38
255.659	66.38
255.892	78.38
256.124	80.38
256.357	82.38
256.59	84.38
256.823	78.38
257.056	82.38
257.289	88.38
257.521	75.38
257.754	77.38
257.987	86.38
258.22	96.38
258.452	86.38
258.685	100.38
258.918	79.38
259.151	73.38
259.383	92.38
259.616	67.38
259.849	73.38
260.081	67.38
260.314	81.38
260.547	85.38
260.779	83.38
261.012	86.38
261.244	81.38
261.477	85.38
261.71	97.38
261.942	127.38
262.175	122.38
262.407	100.38
262.64	84.38
262.872	83.38
263.105	83.38
263.337	87.38
263.57	84.38
263.802	92.38
264.035	75.38
264.267	68.38
264.499	84.38
264.732	82.38
264.964	68.38
265.197	87.38
265.429	75.38
265.661	72.38
265.894	90.38
266.126	82.38
266.358	82.38
266.591	75.38
266.823	88.38
267.055	82.38
267.287	89.38
267.52	73.38
267.752	82.38
267.984	89.38
268.216	77.38
268.448	85.38
268.681	87.38
268.913	74.38
269.145	88.38
269.377	93.38
269.609	90.38
269.841	95.38
270.073	91.38
270.306	80.38
270.538	87.38
270.77	84.38
271.002	87.38
271.234	69.38
271.466	88.38
271.698	78.38
271.93	78.38
272.162	84.38
272.394	101.38
272.626	80.38
272.858	89.38
273.09	90.38
273.322	85.38
273.553	96.38
273.785	88.38
274.017	80.38
274.249	88.38
274.481	87.38
274.713	86.38
274.945	81.38
275.176	86.38
275.408	92.38
275.64	93.38
275.872	91.38
276.104	94.38
276.335	88.38
276.567	104.38
276.799	112.38
277.031	118.38
277.262	101.38
277.494	79.38
277.726	93.38
277.957	86.38
278.189	88.38
278.421	81.38
278.652	82.38
278.884	103.38
279.115	94.38
279.347	83.38
279.579	95.38
279.81	97.38
280.042	97.38
280.273	119.38
280.505	102.38
280.736	88.38
280.968	80.38
281.199	82.38
281.431	87.38
281.662	83.38
281.894	89.38
282.125	105.38
282.356	139.38
282.588	170.38
282.819	122.38
283.051	88.38
283.282	84.38
283.513	87.38
283.745	87.38
283.976	91.38
284.207	94.38
284.439	90.38
284.67	88.38
284.901	81.38
285.132	89.38
285.364	79.38
285.595	91.38
285.826	96.38
286.057	76.38
286.288	77.38
286.52	85.38
286.751	92.38
286.982	86.38
287.213	89.38
287.444	88.38
287.675	111.38
287.906	85.38
288.138	88.38
288.369	90.38
288.6	98.38
288.831	90.38
289.062	81.38
289.293	83.38
289.524	76.38
289.755	85.38
289.986	95.38
290.217	99.38
290.448	86.38
290.679	83.38
290.91	101.38
291.141	76.38
291.371	99.38
291.602	90.38
291.833	94.38
292.064	85.38
292.295	107.38
292.526	97.38
292.757	69.38
292.987	82.38
293.218	97.38
293.449	78.38
293.68	86.38
293.91	73.38
294.141	96.38
294.372	81.38
294.603	92.38
294.833	80.38
295.064	90.38
295.295	83.38
295.525	92.38
295.756	110.38
295.987	119.38
296.217	148.38
296.448	123.38
296.679	92.38
296.909	92.38
297.14	91.38
297.37	82.38
297.601	85.38
297.831	79.38
298.062	82.38
298.292	89.38
298.523	85.38
298.753	85.38
298.984	71.38
299.214	103.38
299.445	110.38
299.675	96.38
299.905	99.38
300.136	91.38
300.366	77.38
300.597	95.38
300.827	85.38
301.057	90.38
301.288	101.38
301.518	95.38
301.748	92.38
301.979	102.38
302.209	91.38
302.439	103.38
302.669	86.38
302.9	93.38
303.13	90.38
303.36	98.38
303.59	115.38
303.82	117.38
304.051	95.38
304.281	91.38
304.511	88.38
304.741	78.38
304.971	75.38
305.201	97.38
305.431	99.38
305.661	98.38
305.891	103.38
306.121	86.38
306.352	102.38
306.582	91.38
306.812	98.38
307.042	99.38
307.272	89.38
307.502	95.38
307.731	101.38
307.961	90.38
308.191	78.38
308.421	84.38
308.651	95.38
308.881	91.38
309.111	97.38
309.341	82.38
309.571	107.38
309.8	103.38
310.03	98.38
310.26	85.38
310.49	97.38
310.72	100.38
310.949	107.38
311.179	98.38
311.409	80.38
311.639	111.38
311.868	89.38
312.098	90.38
312.328	102.38
312.557	108.38
312.787	123.38
313.017	100.38
313.246	92.38
313.476	76.38
313.706	102.38
313.935	102.38
314.165	102.38
314.394	110.38
314.624	93.38
314.853	106.38
315.083	93.38
315.312	94.38
315.542	100.38
315.771	92.38
316.001	95.38
316.23	94.38
316.46	79.38
316.689	83.38
316.919	105.38
317.148	96.38
317.377	100.38
317.607	98.38
317.836	94.38
318.065	88.38
318.295	82.38
318.524	102.38
318.753	90.38
318.983	84.38
319.212	95.38
319.441	99.38
319.67	96.38
319.9	102.38
320.129	88.38
320.358	90.38
320.587	109.38
320.816	106.38
321.046	97.38
321.275	107.38
321.504	91.38
321.733	93.38
321.962	108.38
322.191	108.38
322.42	89.38
322.649	114.38
322.878	109.38
323.108	117.38
323.337	127.38
323.566	150.38
323.795	180.38
324.024	229.38
324.253	494.38
324.482	1063.38
324.71	2230.38
324.939	2940.38
325.168	1048.38
325.397	308.38
325.626	163.38
325.855	130.38
326.084	130.38
326.313	143.38
326.542	144.38
326.77	255.38
326.999	571.38
327.228	1205.38
327.457	2269.38
327.686	1796.38
327.914	464.38
328.143	273.38
328.372	250.38
328.6	180.38
328.829	139.38
329.058	148.38
329.287	165.38
329.515	120.38
329.744	145.38
329.972	184.38
330.201	298.38
330.43	394.38
330.658	239.38
330.887	178.38
331.115	141.38
331.344	113.38
331.572	100.38
331.801	117.38
332.03	116.38
332.258	113.38
332.486	103.38
332.715	100.38
332.943	89.38
333.172	103.38
333.4	94.38
333.629	123.38
333.857	150.38
334.085	181.38
334.314	270.38
334.542	500.38
334.771	458.38
334.999	168.38
335.227	123.38
335.455	105.38
335.684	105.38
335.912	104.38
336.14	93.38
336.369	114.38
336.597	107.38
336.825	79.38
337.053	98.38
337.281	103.38
337.51	94.38
337.738	92.38
337.966	101.38
338.194	100.38
338.422	105.38
338.65	90.38
338.878	101.38
339.106	90.38
339.334	78.38
339.562	91.38
339.79	94.38
340.018	101.38
340.246	101.38
340.474	102.38
340.702	88.38
340.93	84.38
341.158	97.38
341.386	79.38
341.614	92.38
341.842	103.38
342.07	86.38
342.298	98.38
342.526	96.38
342.754	84.38
342.981	95.38
343.209	91.38
343.437	95.38
343.665	82.38
343.893	99.38
344.12	91.38
344.348	88.38
344.576	93.38
344.804	99.38
345.031	101.38
345.259	104.38
345.487	92.38
345.714	93.38
345.942	89.38
346.17	88.38
346.397	80.38
346.625	86.38
346.853	75.38
347.08	82.38
347.308	90.38
347.535	91.38
347.763	115.38
347.99	100.38
348.218	103.38
348.445	104.38
348.673	100.38
348.9	100.38
349.128	91.38
349.355	77.38
349.583	88.38
349.81	80.38
350.037	95.38
350.265	102.38
350.492	98.38
350.72	87.38
350.947	94.38
351.174	112.38
351.402	112.38
351.629	112.38
351.856	100.38
352.083	110.38
352.311	109.38
352.538	120.38
352.765	101.38
352.992	104.38
353.22	124.38
353.447	97.38
353.674	91.38
353.901	104.38
354.128	104.38
354.355	94.38
354.583	94.38
354.81	106.38
355.037	92.38
355.264	100.38
355.491	91.38
355.718	90.38
355.945	95.38
356.172	102.38
356.399	102.38
356.626	106.38
356.853	91.38
357.08	102.38
357.307	85.38
357.534	95.38
357.761	93.38
357.988	104.38
358.215	96.38
358.441	82.38
358.668	90.38
358.895	91.38
359.122	89.38
359.349	80.38
359.576	79.38
359.802	103.38
360.029	117.38
360.256	123.38
360.483	103.38
360.709	84.38
360.936	93.38
361.163	119.38
361.39	98.38
361.616	102.38
361.843	90.38
362.07	99.38
362.296	105.38
362.523	85.38
362.749	98.38
362.976	113.38
363.203	86.38
363.429	84.38
363.656	90.38
363.882	90.38
364.109	89.38
364.335	82.38
364.562	94.38
364.788	92.38
365.015	103.38
365.241	103.38
365.468	97.38
365.694	108.38
365.92	88.38
366.147	102.38
366.373	87.38
366.599	92.38
366.826	79.38
367.052	82.38
367.278	91.38
367.505	87.38
367.731	103.38
367.957	85.38
368.184	86.38
368.41	105.38
368.636	115.38
368.862	124.38
369.089	96.38
369.315	94.38
369.541	96.38
369.767	80.38
369.993	83.38
370.219	78.38
370.445	94.38
370.672	88.38
370.898	86.38
371.124	87.38
371.35	76.38
371.576	93.38
371.802	83.38
372.028	77.38
372.254	80.38
372.48	75.38
372.706	83.38
372.932	90.38
373.158	81.38
373.384	101.38
373.61	88.38
373.835	87.38
374.061	89.38
374.287	82.38
374.513	91.38
374.739	88.38
374.965	85.38
375.191	65.38
375.416	78.38
375.642	87.38
375.868	96.38
376.094	113.38
376.319	91.38
376.545	87.38
376.771	83.38
376.997	85.38
377.222	87.38
377.448	76.38
377.674	92.38
377.899	92.38
378.125	87.38
378.35	98.38
378.576	102.38
378.802	99.38
379.027	82.38
379.253	95.38
379.478	95.38
379.704	75.38
379.929	95.38
380.155	99.38
380.38	80.38
380.606	82.38
380.831	91.38
381.057	100.38
381.282	80.38
381.507	91.38
381.733	101.38
381.958	78.38
382.184	98.38
382.409	88.38
382.634	99.38
382.86	89.38
383.085	91.38
383.31	88.38
383.535	95.38
383.761	99.38
383.986	101.38
384.211	85.38
384.436	95.38
384.662	107.38
384.887	77.38
385.112	118.38
385.337	93.38
385.562	84.38
385.787	106.38
386.013	95.38
386.238	105.38
386.463	93.38
386.688	96.38
386.913	80.38
387.138	96.38
387.363	95.38
387.588	94.38
387.813	105.38
388.038	100.38
388.263	106.38
388.488	97.38
388.713	99.38
388.938	91.38
389.163	89.38
389.387	106.38
389.612	88.38
389.837	87.38
390.062	84.38
390.287	93.38
390.512	93.38
390.736	94.38
390.961	88.38
391.186	84.38
391.411	79.38
391.636	80.38
391.86	79.38
392.085	78.38
392.31	92.38
392.534	83.38
392.759	87.38
392.984	89.38
393.208	79.38
393.433	82.38
393.658	95.38
393.882	69.38
394.107	74.38
394.331	89.38
394.556	78.38
394.78	79.38
395.005	82.38
395.229	81.38
395.454	86.38
395.678	87.38
395.903	97.38
396.127	94.38
396.352	86.38
396.576	91.38
396.801	96.38
397.025	88.38
397.249	90.38
397.474	77.38
397.698	71.38
397.922	92.38
398.147	91.38
398.371	93.38
398.595	76.38
398.82	76.38
399.044	84.38
399.268	91.38
399.492	102.38
399.717	94.38
399.941	91.38
400.165	94.38
400.389	83.38
400.613	90.38
400.837	83.38
401.062	92.38
401.286	76.38
401.51	79.38
401.734	105.38
401.958	95.38
402.182	136.38
402.406	178.38
402.63	125.38
402.854	102.38
403.078	80.38
403.302	80.38
403.526	87.38
403.75	103.38
403.974	91.38
404.198	77.38
404.422	99.38
404.645	83.38
404.869	96.38
405.093	94.38
405.317	115.38
405.541	116.38
405.765	101.38
405.988	132.38
406.212	208.38
406.436	260.38
406.66	162.38
406.883	104.38
407.107	91.38
407.331	93.38
407.555	95.38
407.778	103.38
408.002	91.38
408.226	91.38
408.449	96.38
408.673	79.38
408.896	75.38
409.12	102.38
409.344	100.38
409.567	106.38
409.791	80.38
410.014	86.38
410.238	86.38
410.461	88.38
410.685	88.38
410.908	92.38
411.132	102.38
411.355	96.38
411.578	87.38
411.802	78.38
412.025	85.38
412.249	92.38
412.472	106.38
412.695	120.38
412.919	95.38
413.142	90.38
413.365	90.38
413.589	106.38
413.812	79.38
414.035	89.38
414.258	86.38
414.482	98.38
414.705	101.38
414.928	84.38
415.151	69.38
415.374	86.38
415.597	91.38
415.821	90.38
416.044	82.38
416.267	85.38
416.49	82.38
416.713	95.38
416.936	87.38
417.159	95.38
417.382	80.38
417.605	76.38
417.828	75.38
418.051	86.38
418.274	98.38
418.497	81.38
418.72	93.38
418.943	97.38
419.166	102.38
419.389	90.38
419.611	66.38
419.834	90.38
420.057	83.38
420.28	79.38
420.503	92.38
420.726	81.38
420.948	93.38
421.171	87.38
421.394	93.38
421.617	88.38
421.839	86.38
422.062	104.38
422.285	107.38
422.507	106.38
422.73	109.38
422.953	91.38
423.175	87.38
423.398	94.38
423.621	73.38
423.843	93.38
424.066	79.38
424.288	101.38
424.511	94.38
424.733	106.38
424.956	116.38
425.178	108.38
425.401	119.38
425.623	95.38
425.846	99.38
426.068	87.38
426.291	88.38
426.513	95.38
426.735	84.38
426.958	72.38
427.18	120.38
427.402	161.38
427.625	200.38
427.847	162.38
428.069	165.38
428.292	116.38
428.514	92.38
428.736	87.38
428.958	77.38
429.181	77.38
429.403	84.38
429.625	77.38
429.847	85.38
430.069	120.38
430.292	89.38
430.514	90.38
430.736	76.38
430.958	80.38
431.18	81.38
431.402	74.38
431.624	81.38
431.846	92.38
432.068	95.38
432.29	77.38
432.512	80.38
432.734	76.38
432.956	103.38
433.178	100.38
433.4	107.38
433.622	85.38
433.844	100.38
434.066	88.38
434.287	88.38
434.509	90.38
434.731	92.38
434.953	90.38
435.175	87.38
435.397	97.38
435.618	92.38
435.84	103.38
436.062	146.38
436.284	120.38
436.505	102.38
436.727	102.38
436.949	89.38
437.17	92.38
437.392	93.38
437.614	91.38
437.835	108.38
438.057	142.38
438.278	122.38
438.5	124.38
438.721	143.38
438.943	105.38
439.165	84.38
439.386	90.38
439.608	91.38
439.829	106.38
440.05	132.38
440.272	175.38
440.493	124.38
440.715	101.38
440.936	76.38
441.158	84.38
441.379	89.38
441.6	100.38
441.822	95.38
442.043	83.38
442.264	111.38
442.486	110.38
442.707	78.38
442.928	109.38
443.149	164.38
443.371	149.38
443.592	137.38
443.813	136.38
444.034	111.38
444.255	83.38
444.476	88.38
444.698	84.38
444.919	94.38
445.14	139.38
445.361	155.38
445.582	132.38
445.803	167.38
446.024	158.38
446.245	153.38
446.466	127.38
446.687	93.38
446.908	91.38
447.129	91.38
447.35	87.38
447.571	91.38
447.792	98.38
448.013	96.38
448.234	124.38
448.455	114.38
448.675	131.38
448.896	131.38
449.117	101.38
449.338	118.38
449.559	158.38
449.779	155.38
450	104.38
450.221	85.38
450.442	96.38
450.662	87.38
450.883	121.38
451.104	144.38
451.324	98.38
451.545	90.38
451.766	98.38
451.986	82.38
452.207	93.38
452.428	94.38
452.648	116.38
452.869	120.38
453.089	129.38
453.31	126.38
453.53	103.38
453.751	92.38
453.971	112.38
454.192	115.38
454.412	84.38
454.633	77.38
454.853	89.38
455.073	85.38
455.294	104.38
455.514	109.38
455.734	99.38
455.955	84.38
456.175	89.38
456.395	92.38
456.616	79.38
456.836	79.38
457.056	78.38
457.276	71.38
457.497	70.38
457.717	88.38
457.937	85.38
458.157	80.38
458.377	94.38
458.598	119.38
458.818	166.38
459.038	204.38
459.258	146.38
459.478	90.38
459.698	88.38
459.918	92.38
460.138	81.38
460.358	75.38
460.578	103.38
460.798	99.38
461.018	93.38
461.238	80.38
461.458	81.38
461.678	64.38
461.898	88.38
462.118	79.38
462.338	90.38
462.558	96.38
462.777	82.38
462.997	90.38
463.217	90.38
463.437	85.38
463.657	91.38
463.876	92.38
464.096	94.38
464.316	96.38
464.536	90.38
464.755	103.38
464.975	111.38
465.195	213.38
465.414	187.38
465.634	109.38
465.854	93.38
466.073	106.38
466.293	83.38
466.512	88.38
466.732	89.38
466.951	98.38
467.171	87.38
467.391	97.38
467.61	107.38
467.829	109.38
468.049	176.38
468.268	235.38
468.488	97.38
468.707	101.38
468.927	81.38
469.146	79.38
469.365	90.38
469.585	99.38
469.804	96.38
470.023	98.38
470.243	85.38
470.462	101.38
470.681	133.38
470.901	93.38
471.12	80.38
471.339	77.38
471.558	99.38
471.777	97.38
471.997	144.38
472.216	310.38
472.435	598.38
472.654	197.38
472.873	102.38
473.092	86.38
473.311	80.38
473.53	85.38
473.749	95.38
473.968	102.38
474.187	122.38
474.406	100.38
474.625	79.38
474.844	87.38
475.063	77.38
475.282	83.38
475.501	94.38
475.72	82.38
475.939	83.38
476.158	91.38
476.377	95.38
476.596	73.38
476.814	88.38
477.033	107.38
477.252	82.38
477.471	87.38
477.69	105.38
477.908	91.38
478.127	91.38
478.346	83.38
478.564	93.38
478.783	107.38
479.002	96.38
479.22	88.38
479.439	117.38
479.658	115.38
479.876	102.38
480.095	99.38
480.313	88.38
480.532	107.38
480.751	127.38
480.969	294.38
481.188	1002.38
481.406	648.38
481.624	158.38
481.843	110.38
482.061	94.38
482.28	92.38
482.498	77.38
482.717	90.38
482.935	91.38
483.153	82.38
483.372	91.38
483.59	99.38
483.808	87.38
484.027	98.38
484.245	98.38
484.463	100.38
484.681	103.38
484.9	90.38
485.118	93.38
485.336	105.38
485.554	103.38
485.772	92.38
485.99	97.38
486.209	101.38
486.427	115.38
486.645	115.38
486.863	115.38
487.081	92.38
487.299	94.38
487.517	96.38
487.735	98.38
487.953	76.38
488.171	95.38
488.389	97.38
488.607	92.38
488.825	93.38
489.043	91.38
489.261	89.38
489.479	91.38
489.696	96.38
489.914	80.38
490.132	76.38
490.35	93.38
490.568	90.38
490.786	87.38
491.003	91.38
491.221	91.38
491.439	99.38
491.657	99.38
491.874	96.38
492.092	86.38
492.31	101.38
492.527	97.38
492.745	94.38
492.963	77.38
493.18	92.38
493.398	76.38
493.615	91.38
493.833	84.38
494.05	86.38
494.268	103.38
494.485	81.38
494.703	79.38
494.92	88.38
495.138	92.38
495.355	82.38
495.573	94.38
495.79	80.38
496.008	83.38
496.225	80.38
496.442	104.38
496.66	90.38
496.877	74.38
497.094	86.38
497.312	85.38
497.529	88.38
497.746	93.38
497.963	97.38
498.181	79.38
498.398	85.38
498.615	111.38
498.832	110.38
499.049	92.38
499.267	80.38
499.484	96.38
499.701	102.38
499.918	78.38
500.135	92.38
500.352	90.38
500.569	76.38
500.786	92.38
501.003	89.38
501.22	90.38
501.437	79.38
501.654	80.38
501.871	121.38
502.088	104.38
502.305	104.38
502.522	85.38
502.739	94.38
502.956	88.38
503.172	102.38
503.389	97.38
503.606	102.38
503.823	88.38
504.04	84.38
504.256	93.38
504.473	90.38
504.69	74.38
504.907	93.38
505.123	83.38
505.34	87.38
505.557	101.38
505.773	90.38
505.99	93.38
506.207	86.38
506.423	98.38
506.64	86.38
506.856	83.38
507.073	96.38
507.289	76.38
507.506	102.38
507.722	111.38
507.939	113.38
508.155	109.38
508.372	95.38
508.588	100.38
508.805	94.38
509.021	90.38
509.238	95.38
509.454	105.38
509.67	110.38
509.887	99.38
510.103	152.38
510.319	238.38
510.536	886.38
510.752	2906.38
510.968	815.38
511.184	176.38
511.401	120.38
511.617	102.38
511.833	86.38
512.049	103.38
512.265	102.38
512.481	85.38
512.698	90.38
512.914	90.38
513.13	93.38
513.346	97.38
513.562	104.38
513.778	106.38
513.994	78.38
514.21	108.38
514.426	117.38
514.642	148.38
514.858	153.38
