Data from Circ_2011_H10_HRD10591_00076.txt Node
Date: Wed Jan 03 10:08:14 EST 2024
User: Yrep
Spectrometer: HR+D1059
Trigger mode: 1
Integration Time (sec): 1.000000E-1
Scans to average: 1
Electric dark correction enabled: true
Nonlinearity correction enabled: false
Boxcar width: 0
XAxis mode: Wavelengths
Number of Pixels in Spectrum: 2048
>>>>>Begin Spectral Data<<<<<
223.165	-9.56
223.4	-9.56
223.635	-9.56
223.869	-8.56
224.104	-24.56
224.338	-25.56
224.573	-16.56
224.808	-9.56
225.042	-5.56
225.277	-4.56
225.511	3.44
225.746	2.44
225.98	2.44
226.215	-0.56
226.449	18.44
226.683	26.44
226.918	28.44
227.152	23.44
227.387	41.44
227.621	35.44
227.856	66.44
228.09	39.44
228.324	43.44
228.559	49.44
228.793	54.44
229.027	62.44
229.262	78.44
229.496	71.44
229.73	84.44
229.964	86.44
230.199	83.44
230.433	76.44
230.667	65.44
230.901	77.44
231.136	79.44
231.37	80.44
231.604	87.44
231.838	58.44
232.072	73.44
232.306	63.44
232.541	78.44
232.775	71.44
233.009	79.44
233.243	87.44
233.477	90.44
233.711	80.44
233.945	78.44
234.179	86.44
234.413	88.44
234.647	86.44
234.881	82.44
235.115	94.44
235.349	72.44
235.583	72.44
235.817	80.44
236.051	68.44
236.285	85.44
236.519	78.44
236.753	79.44
236.987	86.44
237.221	80.44
237.455	83.44
237.689	85.44
237.922	79.44
238.156	77.44
238.39	74.44
238.624	78.44
238.858	75.44
239.091	83.44
239.325	69.44
239.559	86.44
239.793	94.44
240.027	62.44
240.26	79.44
240.494	71.44
240.728	71.44
240.961	72.44
241.195	79.44
241.429	83.44
241.662	74.44
241.896	65.44
242.13	80.44
242.363	77.44
242.597	95.44
242.83	78.44
243.064	82.44
243.298	82.44
243.531	73.44
243.765	67.44
243.998	80.44
244.232	81.44
244.465	79.44
244.699	70.44
244.932	70.44
245.166	87.44
245.399	80.44
245.633	81.44
245.866	76.44
246.099	78.44
246.333	72.44
246.566	92.44
246.8	73.44
247.033	79.44
247.266	83.44
247.5	80.44
247.733	62.44
247.966	76.44
248.2	84.44
248.433	90.44
248.666	85.44
248.899	91.44
249.133	95.44
249.366	90.44
249.599	95.44
249.832	68.44
250.066	82.44
250.299	66.44
250.532	69.44
250.765	80.44
250.998	89.44
251.231	78.44
251.465	68.44
251.698	77.44
251.931	50.44
252.164	69.44
252.397	98.44
252.63	87.44
252.863	86.44
253.096	83.44
253.329	73.44
253.562	90.44
253.795	85.44
254.028	89.44
254.261	74.44
254.494	84.44
254.727	80.44
254.96	67.44
255.193	83.44
255.426	78.44
255.659	83.44
255.892	77.44
256.124	83.44
256.357	84.44
256.59	85.44
256.823	92.44
257.056	77.44
257.289	88.44
257.521	77.44
257.754	92.44
257.987	86.44
258.22	88.44
258.452	88.44
258.685	68.44
258.918	86.44
259.151	79.44
259.383	83.44
259.616	88.44
259.849	78.44
260.081	79.44
260.314	72.44
260.547	94.44
260.779	88.44
261.012	82.44
261.244	75.44
261.477	95.44
261.71	99.44
261.942	94.44
262.175	114.44
262.407	88.44
262.64	87.44
262.872	83.44
263.105	86.44
263.337	83.44
263.57	86.44
263.802	91.44
264.035	87.44
264.267	83.44
264.499	86.44
264.732	87.44
264.964	95.44
265.197	87.44
265.429	93.44
265.661	83.44
265.894	86.44
266.126	87.44
266.358	79.44
266.591	84.44
266.823	96.44
267.055	82.44
267.287	90.44
267.52	69.44
267.752	75.44
267.984	88.44
268.216	77.44
268.448	89.44
268.681	79.44
268.913	71.44
269.145	92.44
269.377	82.44
269.609	80.44
269.841	76.44
270.073	89.44
270.306	87.44
270.538	80.44
270.77	86.44
271.002	89.44
271.234	75.44
271.466	87.44
271.698	97.44
271.93	82.44
272.162	90.44
272.394	88.44
272.626	80.44
272.858	84.44
273.09	80.44
273.322	92.44
273.553	76.44
273.785	77.44
274.017	70.44
274.249	87.44
274.481	83.44
274.713	80.44
274.945	85.44
275.176	72.44
275.408	79.44
275.64	87.44
275.872	77.44
276.104	84.44
276.335	90.44
276.567	86.44
276.799	105.44
277.031	100.44
277.262	104.44
277.494	88.44
277.726	85.44
277.957	91.44
278.189	89.44
278.421	97.44
278.652	87.44
278.884	88.44
279.115	94.44
279.347	103.44
279.579	94.44
279.81	78.44
280.042	93.44
280.273	100.44
280.505	90.44
280.736	97.44
280.968	86.44
281.199	73.44
281.431	95.44
281.662	100.44
281.894	84.44
282.125	88.44
282.356	122.44
282.588	138.44
282.819	94.44
283.051	104.44
283.282	95.44
283.513	83.44
283.745	83.44
283.976	86.44
284.207	72.44
284.439	93.44
284.67	88.44
284.901	91.44
285.132	92.44
285.364	94.44
285.595	84.44
285.826	81.44
286.057	85.44
286.288	90.44
286.52	84.44
286.751	70.44
286.982	87.44
287.213	77.44
287.444	77.44
287.675	75.44
287.906	76.44
288.138	94.44
288.369	96.44
288.6	88.44
288.831	83.44
289.062	79.44
289.293	94.44
289.524	74.44
289.755	84.44
289.986	98.44
290.217	86.44
290.448	94.44
290.679	83.44
290.91	92.44
291.141	103.44
291.371	89.44
291.602	101.44
291.833	75.44
292.064	83.44
292.295	90.44
292.526	90.44
292.757	90.44
292.987	87.44
293.218	82.44
293.449	83.44
293.68	94.44
293.91	88.44
294.141	88.44
294.372	93.44
294.603	80.44
294.833	87.44
295.064	88.44
295.295	87.44
295.525	89.44
295.756	96.44
295.987	109.44
296.217	120.44
296.448	129.44
296.679	89.44
296.909	74.44
297.14	86.44
297.37	88.44
297.601	71.44
297.831	77.44
298.062	81.44
298.292	73.44
298.523	81.44
298.753	83.44
298.984	77.44
299.214	98.44
299.445	88.44
299.675	94.44
299.905	96.44
300.136	75.44
300.366	93.44
300.597	86.44
300.827	99.44
301.057	92.44
301.288	119.44
301.518	82.44
301.748	78.44
301.979	100.44
302.209	87.44
302.439	79.44
302.669	97.44
302.9	99.44
303.13	84.44
303.36	101.44
303.59	102.44
303.82	99.44
304.051	82.44
304.281	82.44
304.511	93.44
304.741	86.44
304.971	69.44
305.201	82.44
305.431	90.44
305.661	82.44
305.891	79.44
306.121	77.44
306.352	93.44
306.582	98.44
306.812	94.44
307.042	102.44
307.272	116.44
307.502	118.44
307.731	95.44
307.961	84.44
308.191	90.44
308.421	96.44
308.651	83.44
308.881	79.44
309.111	88.44
309.341	98.44
309.571	94.44
309.8	90.44
310.03	95.44
310.26	109.44
310.49	93.44
310.72	95.44
310.949	102.44
311.179	90.44
311.409	90.44
311.639	88.44
311.868	94.44
312.098	93.44
312.328	91.44
312.557	97.44
312.787	89.44
313.017	101.44
313.246	104.44
313.476	89.44
313.706	102.44
313.935	91.44
314.165	95.44
314.394	110.44
314.624	91.44
314.853	87.44
315.083	86.44
315.312	90.44
315.542	90.44
315.771	85.44
316.001	95.44
316.23	86.44
316.46	103.44
316.689	84.44
316.919	103.44
317.148	98.44
317.377	109.44
317.607	100.44
317.836	76.44
318.065	100.44
318.295	91.44
318.524	89.44
318.753	83.44
318.983	82.44
319.212	101.44
319.441	108.44
319.67	104.44
319.9	102.44
320.129	91.44
320.358	86.44
320.587	89.44
320.816	101.44
321.046	98.44
321.275	94.44
321.504	82.44
321.733	88.44
321.962	93.44
322.191	124.44
322.42	110.44
322.649	119.44
322.878	112.44
323.108	107.44
323.337	126.44
323.566	119.44
323.795	156.44
324.024	211.44
324.253	410.44
324.482	871.44
324.71	1751.44
324.939	2270.44
325.168	845.44
325.397	275.44
325.626	153.44
325.855	134.44
326.084	114.44
326.313	143.44
326.542	170.44
326.77	234.44
326.999	469.44
327.228	968.44
327.457	1794.44
327.686	1451.44
327.914	400.44
328.143	226.44
328.372	195.44
328.6	156.44
328.829	117.44
329.058	133.44
329.287	119.44
329.515	111.44
329.744	117.44
329.972	143.44
330.201	212.44
330.43	273.44
330.658	191.44
330.887	153.44
331.115	122.44
331.344	99.44
331.572	92.44
331.801	109.44
332.03	109.44
332.258	111.44
332.486	100.44
332.715	94.44
332.943	86.44
333.172	88.44
333.4	78.44
333.629	116.44
333.857	123.44
334.085	153.44
334.314	209.44
334.542	321.44
334.771	324.44
334.999	149.44
335.227	114.44
335.455	100.44
335.684	102.44
335.912	103.44
336.14	81.44
336.369	102.44
336.597	103.44
336.825	102.44
337.053	87.44
337.281	90.44
337.51	88.44
337.738	92.44
337.966	92.44
338.194	99.44
338.422	103.44
338.65	83.44
338.878	95.44
339.106	78.44
339.334	92.44
339.562	95.44
339.79	83.44
340.018	80.44
340.246	85.44
340.474	106.44
340.702	79.44
340.93	83.44
341.158	80.44
341.386	91.44
341.614	88.44
341.842	95.44
342.07	89.44
342.298	98.44
342.526	84.44
342.754	103.44
342.981	84.44
343.209	88.44
343.437	101.44
343.665	94.44
343.893	101.44
344.12	81.44
344.348	99.44
344.576	96.44
344.804	88.44
345.031	89.44
345.259	96.44
345.487	82.44
345.714	92.44
345.942	82.44
346.17	78.44
346.397	98.44
346.625	71.44
346.853	92.44
347.08	93.44
347.308	93.44
347.535	100.44
347.763	96.44
347.99	90.44
348.218	103.44
348.445	102.44
348.673	93.44
348.9	96.44
349.128	90.44
349.355	93.44
349.583	87.44
349.81	90.44
350.037	95.44
350.265	91.44
350.492	109.44
350.72	91.44
350.947	89.44
351.174	109.44
351.402	98.44
351.629	100.44
351.856	93.44
352.083	102.44
352.311	109.44
352.538	120.44
352.765	115.44
352.992	106.44
353.22	117.44
353.447	106.44
353.674	96.44
353.901	100.44
354.128	101.44
354.355	88.44
354.583	88.44
354.81	100.44
355.037	92.44
355.264	91.44
355.491	93.44
355.718	87.44
355.945	91.44
356.172	94.44
356.399	94.44
356.626	85.44
356.853	96.44
357.08	82.44
357.307	84.44
357.534	101.44
357.761	79.44
357.988	94.44
358.215	77.44
358.441	78.44
358.668	99.44
358.895	86.44
359.122	86.44
359.349	96.44
359.576	92.44
359.802	85.44
360.029	104.44
360.256	96.44
360.483	96.44
360.709	79.44
360.936	97.44
361.163	94.44
361.39	85.44
361.616	78.44
361.843	94.44
362.07	89.44
362.296	90.44
362.523	93.44
362.749	84.44
362.976	82.44
363.203	97.44
363.429	89.44
363.656	95.44
363.882	82.44
364.109	80.44
364.335	100.44
364.562	77.44
364.788	84.44
365.015	91.44
365.241	106.44
365.468	93.44
365.694	90.44
365.92	104.44
366.147	94.44
366.373	77.44
366.599	73.44
366.826	79.44
367.052	84.44
367.278	66.44
367.505	87.44
367.731	86.44
367.957	94.44
368.184	91.44
368.41	109.44
368.636	89.44
368.862	118.44
369.089	100.44
369.315	87.44
369.541	91.44
369.767	98.44
369.993	101.44
370.219	87.44
370.445	75.44
370.672	84.44
370.898	79.44
371.124	93.44
371.35	83.44
371.576	83.44
371.802	78.44
372.028	86.44
372.254	104.44
372.48	91.44
372.706	80.44
372.932	84.44
373.158	88.44
373.384	82.44
373.61	90.44
373.835	84.44
374.061	86.44
374.287	77.44
374.513	75.44
374.739	83.44
374.965	87.44
375.191	85.44
375.416	85.44
375.642	107.44
375.868	91.44
376.094	84.44
376.319	79.44
376.545	90.44
376.771	72.44
376.997	82.44
377.222	90.44
377.448	83.44
377.674	79.44
377.899	82.44
378.125	88.44
378.35	87.44
378.576	91.44
378.802	102.44
379.027	100.44
379.253	93.44
379.478	89.44
379.704	95.44
379.929	96.44
380.155	93.44
380.38	92.44
380.606	84.44
380.831	84.44
381.057	79.44
381.282	98.44
381.507	67.44
381.733	86.44
381.958	90.44
382.184	102.44
382.409	91.44
382.634	75.44
382.86	90.44
383.085	79.44
383.31	95.44
383.535	89.44
383.761	90.44
383.986	88.44
384.211	93.44
384.436	96.44
384.662	92.44
384.887	96.44
385.112	96.44
385.337	94.44
385.562	107.44
385.787	92.44
386.013	96.44
386.238	103.44
386.463	104.44
386.688	108.44
386.913	95.44
387.138	102.44
387.363	91.44
387.588	102.44
387.813	82.44
388.038	98.44
388.263	107.44
388.488	118.44
388.713	92.44
388.938	99.44
389.163	106.44
389.387	100.44
389.612	89.44
389.837	99.44
390.062	84.44
390.287	86.44
390.512	87.44
390.736	90.44
390.961	93.44
391.186	86.44
391.411	95.44
391.636	75.44
391.86	85.44
392.085	91.44
392.31	82.44
392.534	89.44
392.759	84.44
392.984	87.44
393.208	92.44
393.433	76.44
393.658	86.44
393.882	76.44
394.107	96.44
394.331	82.44
394.556	92.44
394.78	86.44
395.005	86.44
395.229	80.44
395.454	87.44
395.678	83.44
395.903	83.44
396.127	91.44
396.352	84.44
396.576	79.44
396.801	87.44
397.025	84.44
397.249	86.44
397.474	79.44
397.698	82.44
397.922	85.44
398.147	88.44
398.371	93.44
398.595	95.44
398.82	95.44
399.044	85.44
399.268	80.44
399.492	86.44
399.717	93.44
399.941	89.44
400.165	89.44
400.389	91.44
400.613	72.44
400.837	81.44
401.062	86.44
401.286	80.44
401.51	81.44
401.734	86.44
401.958	78.44
402.182	108.44
402.406	163.44
402.63	124.44
402.854	94.44
403.078	76.44
403.302	104.44
403.526	89.44
403.75	80.44
403.974	75.44
404.198	94.44
404.422	92.44
404.645	74.44
404.869	91.44
405.093	81.44
405.317	108.44
405.541	80.44
405.765	92.44
405.988	128.44
406.212	164.44
406.436	214.44
406.66	140.44
406.883	111.44
407.107	83.44
407.331	96.44
407.555	88.44
407.778	80.44
408.002	84.44
408.226	95.44
408.449	96.44
408.673	88.44
408.896	103.44
409.12	80.44
409.344	89.44
409.567	86.44
409.791	105.44
410.014	86.44
410.238	91.44
410.461	92.44
410.685	95.44
410.908	98.44
411.132	95.44
411.355	99.44
411.578	91.44
411.802	87.44
412.025	91.44
412.249	92.44
412.472	94.44
412.695	105.44
412.919	104.44
413.142	88.44
413.365	82.44
413.589	88.44
413.812	88.44
414.035	102.44
414.258	73.44
414.482	83.44
414.705	90.44
414.928	83.44
415.151	92.44
415.374	83.44
415.597	82.44
415.821	91.44
416.044	82.44
416.267	97.44
416.49	86.44
416.713	93.44
416.936	87.44
417.159	78.44
417.382	94.44
417.605	96.44
417.828	83.44
418.051	84.44
418.274	84.44
418.497	83.44
418.72	94.44
418.943	92.44
419.166	98.44
419.389	80.44
419.611	111.44
419.834	88.44
420.057	89.44
420.28	83.44
420.503	83.44
420.726	86.44
420.948	87.44
421.171	92.44
421.394	80.44
421.617	83.44
421.839	85.44
422.062	90.44
422.285	110.44
422.507	101.44
422.73	109.44
422.953	87.44
423.175	92.44
423.398	96.44
423.621	88.44
423.843	88.44
424.066	80.44
424.288	87.44
424.511	81.44
424.733	87.44
424.956	85.44
425.178	104.44
425.401	128.44
425.623	105.44
425.846	94.44
426.068	86.44
426.291	69.44
426.513	86.44
426.735	99.44
426.958	100.44
427.18	108.44
427.402	140.44
427.625	169.44
427.847	149.44
428.069	149.44
428.292	88.44
428.514	97.44
428.736	91.44
428.958	77.44
429.181	92.44
429.403	81.44
429.625	73.44
429.847	96.44
430.069	82.44
430.292	88.44
430.514	87.44
430.736	78.44
430.958	89.44
431.18	89.44
431.402	79.44
431.624	93.44
431.846	85.44
432.068	76.44
432.29	76.44
432.512	95.44
432.734	83.44
432.956	90.44
433.178	90.44
433.4	98.44
433.622	86.44
433.844	93.44
434.066	78.44
434.287	92.44
434.509	80.44
434.731	96.44
434.953	78.44
435.175	86.44
435.397	88.44
435.618	85.44
435.84	103.44
436.062	143.44
436.284	108.44
436.505	96.44
436.727	105.44
436.949	94.44
437.17	76.44
437.392	86.44
437.614	103.44
437.835	107.44
438.057	120.44
438.278	97.44
438.5	114.44
438.721	118.44
438.943	104.44
439.165	88.44
439.386	92.44
439.608	91.44
439.829	104.44
440.05	138.44
440.272	131.44
440.493	95.44
440.715	103.44
440.936	95.44
441.158	86.44
441.379	75.44
441.6	93.44
441.822	97.44
442.043	92.44
442.264	88.44
442.486	108.44
442.707	85.44
442.928	107.44
443.149	128.44
443.371	124.44
443.592	114.44
443.813	116.44
444.034	87.44
444.255	77.44
444.476	91.44
444.698	96.44
444.919	94.44
445.14	130.44
445.361	137.44
445.582	122.44
445.803	132.44
446.024	135.44
446.245	156.44
446.466	110.44
446.687	80.44
446.908	79.44
447.129	90.44
447.35	84.44
447.571	86.44
447.792	93.44
448.013	92.44
448.234	104.44
448.455	84.44
448.675	117.44
448.896	102.44
449.117	98.44
449.338	100.44
449.559	119.44
449.779	142.44
450	105.44
450.221	82.44
450.442	108.44
450.662	85.44
450.883	96.44
451.104	126.44
451.324	86.44
451.545	92.44
451.766	80.44
451.986	82.44
452.207	78.44
452.428	91.44
452.648	89.44
452.869	107.44
453.089	108.44
453.31	110.44
453.53	96.44
453.751	87.44
453.971	92.44
454.192	93.44
454.412	80.44
454.633	77.44
454.853	74.44
455.073	90.44
455.294	83.44
455.514	89.44
455.734	93.44
455.955	83.44
456.175	81.44
456.395	91.44
456.616	103.44
456.836	72.44
457.056	82.44
457.276	80.44
457.497	82.44
457.717	93.44
457.937	90.44
458.157	83.44
458.377	91.44
458.598	112.44
458.818	146.44
459.038	161.44
459.258	110.44
459.478	74.44
459.698	87.44
459.918	87.44
460.138	78.44
460.358	88.44
460.578	86.44
460.798	88.44
461.018	85.44
461.238	97.44
461.458	76.44
461.678	79.44
461.898	88.44
462.118	101.44
462.338	95.44
462.558	86.44
462.777	95.44
462.997	93.44
463.217	91.44
463.437	87.44
463.657	91.44
463.876	85.44
464.096	89.44
464.316	81.44
464.536	87.44
464.755	91.44
464.975	106.44
465.195	155.44
465.414	150.44
465.634	84.44
465.854	80.44
466.073	89.44
466.293	87.44
466.512	92.44
466.732	83.44
466.951	95.44
467.171	100.44
467.391	110.44
467.61	91.44
467.829	108.44
468.049	152.44
468.268	183.44
468.488	97.44
468.707	101.44
468.927	66.44
469.146	84.44
469.365	86.44
469.585	96.44
469.804	96.44
470.023	101.44
470.243	96.44
470.462	100.44
470.681	110.44
470.901	98.44
471.12	103.44
471.339	91.44
471.558	103.44
471.777	79.44
471.997	119.44
472.216	231.44
472.435	409.44
472.654	162.44
472.873	91.44
473.092	82.44
473.311	84.44
473.53	87.44
473.749	82.44
473.968	97.44
474.187	97.44
474.406	98.44
474.625	84.44
474.844	95.44
475.063	88.44
475.282	81.44
475.501	80.44
475.72	92.44
475.939	90.44
476.158	95.44
476.377	85.44
476.596	96.44
476.814	99.44
477.033	80.44
477.252	80.44
477.471	72.44
477.69	96.44
477.908	85.44
478.127	85.44
478.346	94.44
478.564	93.44
478.783	97.44
479.002	92.44
479.22	94.44
479.439	95.44
479.658	93.44
479.876	106.44
480.095	92.44
480.313	98.44
480.532	107.44
480.751	121.44
480.969	223.44
481.188	698.44
481.406	443.44
481.624	120.44
481.843	94.44
482.061	88.44
482.28	83.44
482.498	78.44
482.717	90.44
482.935	97.44
483.153	88.44
483.372	92.44
483.59	93.44
483.808	74.44
484.027	95.44
484.245	86.44
484.463	92.44
484.681	97.44
484.9	86.44
485.118	86.44
485.336	78.44
485.554	100.44
485.772	95.44
485.99	106.44
486.209	114.44
486.427	107.44
486.645	93.44
486.863	123.44
487.081	94.44
487.299	102.44
487.517	86.44
487.735	90.44
487.953	95.44
488.171	108.44
488.389	100.44
488.607	93.44
488.825	103.44
489.043	88.44
489.261	89.44
489.479	92.44
489.696	92.44
489.914	88.44
490.132	84.44
490.35	73.44
490.568	84.44
490.786	88.44
491.003	90.44
491.221	79.44
491.439	95.44
491.657	90.44
491.874	87.44
492.092	96.44
492.31	94.44
492.527	88.44
492.745	92.44
492.963	80.44
493.18	91.44
493.398	94.44
493.615	85.44
493.833	95.44
494.05	99.44
494.268	91.44
494.485	82.44
494.703	77.44
494.92	92.44
495.138	91.44
495.355	82.44
495.573	90.44
495.79	77.44
496.008	103.44
496.225	78.44
496.442	94.44
496.66	100.44
496.877	94.44
497.094	103.44
497.312	89.44
497.529	84.44
497.746	93.44
497.963	95.44
498.181	80.44
498.398	78.44
498.615	103.44
498.832	103.44
499.049	97.44
499.267	78.44
499.484	94.44
499.701	69.44
499.918	84.44
500.135	75.44
500.352	83.44
500.569	86.44
500.786	82.44
501.003	92.44
501.22	74.44
501.437	94.44
501.654	93.44
501.871	115.44
502.088	98.44
502.305	83.44
502.522	80.44
502.739	77.44
502.956	94.44
503.172	93.44
503.389	97.44
503.606	107.44
503.823	73.44
504.04	85.44
504.256	80.44
504.473	101.44
504.69	90.44
504.907	102.44
505.123	68.44
505.34	86.44
505.557	83.44
505.773	104.44
505.99	77.44
506.207	80.44
506.423	84.44
506.64	76.44
506.856	82.44
507.073	95.44
507.289	88.44
507.506	87.44
507.722	114.44
507.939	92.44
508.155	89.44
508.372	96.44
508.588	93.44
508.805	91.44
509.021	108.44
509.238	102.44
509.454	93.44
509.67	98.44
509.887	102.44
510.103	134.44
510.319	189.44
510.536	711.44
510.752	2198.44
510.968	627.44
511.184	156.44
511.401	104.44
511.617	100.44
511.833	90.44
512.049	120.44
512.265	107.44
512.481	91.44
512.698	93.44
512.914	98.44
513.13	83.44
513.346	89.44
513.562	104.44
513.778	89.44
513.994	100.44
514.21	107.44
514.426	108.44
514.642	135.44
514.858	124.44
515.074	162.44
515.29	417.44
515.506	1391.44
515.721	537.44
515.937	142.44
516.153	110.44
