Data from Circ_2011_H10_HRD10591_00100.txt Node
Date: Wed Jan 03 10:08:19 EST 2024
User: Yrep
Spectrometer: HR+D1059
Trigger mode: 1
Integration Time (sec): 1.000000E-1
Scans to average: 1
Electric dark correction enabled: true
Nonlinearity correction enabled: false
Boxcar width: 0
XAxis mode: Wavelengths
Number of Pixels in Spectrum: 2048
>>>>>Begin Spectral Data<<<<<
223.165	-20.44
223.4	-20.44
223.635	-20.44
223.869	-11.44
224.104	-11.44
224.338	-10.44
224.573	-21.44
224.808	-23.44
225.042	0.56
225.277	-9.44
225.511	-3.44
225.746	9.56
225.98	10.56
226.215	11.56
226.449	13.56
226.683	15.56
226.918	26.56
227.152	23.56
227.387	24.56
227.621	53.56
227.856	40.56
228.09	47.56
228.324	62.56
228.559	48.56
228.793	62.56
229.027	72.56
229.262	57.56
229.496	72.56
229.73	78.56
229.964	69.56
230.199	81.56
230.433	80.56
230.667	91.56
230.901	74.56
231.136	71.56
231.37	62.56
231.604	77.56
231.838	71.56
232.072	80.56
232.306	78.56
232.541	64.56
232.775	85.56
233.009	78.56
233.243	83.56
233.477	84.56
233.711	79.56
233.945	88.56
234.179	77.56
234.413	84.56
234.647	77.56
234.881	64.56
235.115	83.56
235.349	86.56
235.583	71.56
235.817	80.56
236.051	70.56
236.285	77.56
236.519	81.56
236.753	77.56
236.987	81.56
237.221	79.56
237.455	75.56
237.689	79.56
237.922	66.56
238.156	74.56
238.39	82.56
238.624	90.56
238.858	88.56
239.091	84.56
239.325	67.56
239.559	75.56
239.793	87.56
240.027	82.56
240.26	68.56
240.494	81.56
240.728	86.56
240.961	81.56
241.195	70.56
241.429	71.56
241.662	85.56
241.896	84.56
242.13	82.56
242.363	79.56
242.597	71.56
242.83	68.56
243.064	62.56
243.298	78.56
243.531	75.56
243.765	80.56
243.998	75.56
244.232	78.56
244.465	78.56
244.699	80.56
244.932	69.56
245.166	79.56
245.399	79.56
245.633	70.56
245.866	80.56
246.099	81.56
246.333	84.56
246.566	81.56
246.8	93.56
247.033	72.56
247.266	79.56
247.5	86.56
247.733	69.56
247.966	76.56
248.2	82.56
248.433	85.56
248.666	85.56
248.899	70.56
249.133	93.56
249.366	95.56
249.599	100.56
249.832	91.56
250.066	77.56
250.299	75.56
250.532	68.56
250.765	76.56
250.998	87.56
251.231	62.56
251.465	96.56
251.698	97.56
251.931	77.56
252.164	66.56
252.397	85.56
252.63	90.56
252.863	74.56
253.096	68.56
253.329	74.56
253.562	87.56
253.795	82.56
254.028	87.56
254.261	91.56
254.494	91.56
254.727	77.56
254.96	61.56
255.193	88.56
255.426	73.56
255.659	75.56
255.892	88.56
256.124	84.56
256.357	81.56
256.59	76.56
256.823	87.56
257.056	87.56
257.289	86.56
257.521	77.56
257.754	86.56
257.987	70.56
258.22	82.56
258.452	80.56
258.685	85.56
258.918	88.56
259.151	82.56
259.383	66.56
259.616	70.56
259.849	82.56
260.081	74.56
260.314	88.56
260.547	86.56
260.779	77.56
261.012	89.56
261.244	72.56
261.477	100.56
261.71	80.56
261.942	94.56
262.175	99.56
262.407	90.56
262.64	83.56
262.872	79.56
263.105	77.56
263.337	85.56
263.57	87.56
263.802	90.56
264.035	83.56
264.267	89.56
264.499	95.56
264.732	79.56
264.964	74.56
265.197	76.56
265.429	79.56
265.661	76.56
265.894	86.56
266.126	87.56
266.358	87.56
266.591	75.56
266.823	91.56
267.055	80.56
267.287	75.56
267.52	71.56
267.752	75.56
267.984	79.56
268.216	79.56
268.448	91.56
268.681	93.56
268.913	78.56
269.145	73.56
269.377	97.56
269.609	83.56
269.841	68.56
270.073	90.56
270.306	87.56
270.538	78.56
270.77	88.56
271.002	87.56
271.234	87.56
271.466	83.56
271.698	93.56
271.93	97.56
272.162	78.56
272.394	96.56
272.626	86.56
272.858	80.56
273.09	81.56
273.322	87.56
273.553	88.56
273.785	77.56
274.017	84.56
274.249	77.56
274.481	78.56
274.713	91.56
274.945	72.56
275.176	77.56
275.408	85.56
275.64	84.56
275.872	100.56
276.104	95.56
276.335	82.56
276.567	99.56
276.799	94.56
277.031	86.56
277.262	94.56
277.494	86.56
277.726	78.56
277.957	86.56
278.189	91.56
278.421	73.56
278.652	81.56
278.884	85.56
279.115	86.56
279.347	79.56
279.579	91.56
279.81	92.56
280.042	100.56
280.273	90.56
280.505	90.56
280.736	83.56
280.968	95.56
281.199	95.56
281.431	88.56
281.662	95.56
281.894	104.56
282.125	87.56
282.356	102.56
282.588	136.56
282.819	106.56
283.051	93.56
283.282	87.56
283.513	85.56
283.745	79.56
283.976	89.56
284.207	79.56
284.439	81.56
284.67	72.56
284.901	74.56
285.132	87.56
285.364	94.56
285.595	97.56
285.826	99.56
286.057	91.56
286.288	79.56
286.52	84.56
286.751	86.56
286.982	84.56
287.213	69.56
287.444	91.56
287.675	89.56
287.906	82.56
288.138	87.56
288.369	94.56
288.6	86.56
288.831	84.56
289.062	84.56
289.293	85.56
289.524	88.56
289.755	84.56
289.986	91.56
290.217	94.56
290.448	72.56
290.679	86.56
290.91	75.56
291.141	82.56
291.371	96.56
291.602	91.56
291.833	84.56
292.064	77.56
292.295	72.56
292.526	78.56
292.757	85.56
292.987	79.56
293.218	88.56
293.449	92.56
293.68	95.56
293.91	83.56
294.141	94.56
294.372	86.56
294.603	89.56
294.833	88.56
295.064	90.56
295.295	80.56
295.525	94.56
295.756	90.56
295.987	92.56
296.217	117.56
296.448	114.56
296.679	111.56
296.909	84.56
297.14	93.56
297.37	92.56
297.601	93.56
297.831	90.56
298.062	75.56
298.292	73.56
298.523	95.56
298.753	92.56
298.984	84.56
299.214	97.56
299.445	92.56
299.675	92.56
299.905	82.56
300.136	79.56
300.366	81.56
300.597	97.56
300.827	86.56
301.057	87.56
301.288	92.56
301.518	88.56
301.748	93.56
301.979	90.56
302.209	85.56
302.439	92.56
302.669	79.56
302.9	83.56
303.13	98.56
303.36	81.56
303.59	103.56
303.82	84.56
304.051	103.56
304.281	90.56
304.511	77.56
304.741	74.56
304.971	85.56
305.201	80.56
305.431	90.56
305.661	95.56
305.891	98.56
306.121	89.56
306.352	95.56
306.582	99.56
306.812	85.56
307.042	91.56
307.272	106.56
307.502	94.56
307.731	99.56
307.961	94.56
308.191	98.56
308.421	96.56
308.651	88.56
308.881	87.56
309.111	96.56
309.341	77.56
309.571	93.56
309.8	91.56
310.03	101.56
310.26	98.56
310.49	88.56
310.72	91.56
310.949	96.56
311.179	95.56
311.409	76.56
311.639	92.56
311.868	90.56
312.098	83.56
312.328	91.56
312.557	96.56
312.787	109.56
313.017	78.56
313.246	88.56
313.476	105.56
313.706	92.56
313.935	92.56
314.165	86.56
314.394	86.56
314.624	93.56
314.853	85.56
315.083	100.56
315.312	101.56
315.542	92.56
315.771	93.56
316.001	92.56
316.23	87.56
316.46	91.56
316.689	76.56
316.919	94.56
317.148	82.56
317.377	83.56
317.607	91.56
317.836	105.56
318.065	94.56
318.295	81.56
318.524	75.56
318.753	95.56
318.983	107.56
319.212	95.56
319.441	99.56
319.67	103.56
319.9	89.56
320.129	91.56
320.358	83.56
320.587	86.56
320.816	103.56
321.046	98.56
321.275	107.56
321.504	96.56
321.733	102.56
321.962	91.56
322.191	110.56
322.42	95.56
322.649	107.56
322.878	116.56
323.108	109.56
323.337	116.56
323.566	124.56
323.795	152.56
324.024	188.56
324.253	362.56
324.482	741.56
324.71	1525.56
324.939	1959.56
325.168	737.56
325.397	223.56
325.626	142.56
325.855	116.56
326.084	125.56
326.313	127.56
326.542	138.56
326.77	190.56
326.999	429.56
327.228	858.56
327.457	1557.56
327.686	1226.56
327.914	349.56
328.143	189.56
328.372	179.56
328.6	139.56
328.829	106.56
329.058	113.56
329.287	100.56
329.515	102.56
329.744	118.56
329.972	127.56
330.201	181.56
330.43	215.56
330.658	143.56
330.887	118.56
331.115	114.56
331.344	87.56
331.572	109.56
331.801	93.56
332.03	88.56
332.258	90.56
332.486	100.56
332.715	84.56
332.943	86.56
333.172	90.56
333.4	98.56
333.629	84.56
333.857	118.56
334.085	148.56
334.314	176.56
334.542	284.56
334.771	244.56
334.999	131.56
335.227	111.56
335.455	104.56
335.684	91.56
335.912	86.56
336.14	105.56
336.369	84.56
336.597	91.56
336.825	97.56
337.053	81.56
337.281	82.56
337.51	103.56
337.738	86.56
337.966	95.56
338.194	85.56
338.422	80.56
338.65	87.56
338.878	98.56
339.106	71.56
339.334	93.56
339.562	88.56
339.79	94.56
340.018	89.56
340.246	91.56
340.474	87.56
340.702	92.56
340.93	96.56
341.158	88.56
341.386	81.56
341.614	92.56
341.842	91.56
342.07	87.56
342.298	78.56
342.526	83.56
342.754	90.56
342.981	86.56
343.209	96.56
343.437	104.56
343.665	88.56
343.893	79.56
344.12	89.56
344.348	85.56
344.576	82.56
344.804	83.56
345.031	80.56
345.259	89.56
345.487	91.56
345.714	92.56
345.942	88.56
346.17	72.56
346.397	92.56
346.625	91.56
346.853	101.56
347.08	91.56
347.308	98.56
347.535	83.56
347.763	92.56
347.99	107.56
348.218	110.56
348.445	99.56
348.673	99.56
348.9	86.56
349.128	88.56
349.355	95.56
349.583	80.56
349.81	78.56
350.037	85.56
350.265	92.56
350.492	94.56
350.72	91.56
350.947	90.56
351.174	108.56
351.402	106.56
351.629	101.56
351.856	84.56
352.083	94.56
352.311	108.56
352.538	106.56
352.765	97.56
352.992	103.56
353.22	96.56
353.447	99.56
353.674	98.56
353.901	86.56
354.128	82.56
354.355	90.56
354.583	85.56
354.81	84.56
355.037	99.56
355.264	88.56
355.491	100.56
355.718	94.56
355.945	98.56
356.172	88.56
356.399	90.56
356.626	87.56
356.853	93.56
357.08	100.56
357.307	98.56
357.534	79.56
357.761	88.56
357.988	91.56
358.215	88.56
358.441	80.56
358.668	94.56
358.895	92.56
359.122	81.56
359.349	88.56
359.576	92.56
359.802	86.56
360.029	99.56
360.256	98.56
360.483	90.56
360.709	87.56
360.936	95.56
361.163	92.56
361.39	96.56
361.616	89.56
361.843	92.56
362.07	109.56
362.296	87.56
362.523	84.56
362.749	83.56
362.976	100.56
363.203	90.56
363.429	91.56
363.656	87.56
363.882	105.56
364.109	99.56
364.335	97.56
364.562	104.56
364.788	82.56
365.015	88.56
365.241	84.56
365.468	105.56
365.694	91.56
365.92	90.56
366.147	85.56
366.373	74.56
366.599	101.56
366.826	90.56
367.052	79.56
367.278	94.56
367.505	88.56
367.731	101.56
367.957	87.56
368.184	101.56
368.41	101.56
368.636	99.56
368.862	109.56
369.089	89.56
369.315	78.56
369.541	71.56
369.767	75.56
369.993	70.56
370.219	80.56
370.445	86.56
370.672	79.56
370.898	79.56
371.124	90.56
371.35	96.56
371.576	83.56
371.802	89.56
372.028	88.56
372.254	83.56
372.48	80.56
372.706	93.56
372.932	96.56
373.158	88.56
373.384	78.56
373.61	98.56
373.835	91.56
374.061	79.56
374.287	81.56
374.513	80.56
374.739	86.56
374.965	92.56
375.191	84.56
375.416	91.56
375.642	101.56
375.868	82.56
376.094	96.56
376.319	95.56
376.545	78.56
376.771	90.56
376.997	100.56
377.222	80.56
377.448	83.56
377.674	92.56
377.899	99.56
378.125	95.56
378.35	93.56
378.576	81.56
378.802	101.56
379.027	91.56
379.253	85.56
379.478	84.56
379.704	79.56
379.929	87.56
380.155	96.56
380.38	82.56
380.606	79.56
380.831	84.56
381.057	91.56
381.282	86.56
381.507	92.56
381.733	92.56
381.958	106.56
382.184	103.56
382.409	110.56
382.634	92.56
382.86	98.56
383.085	84.56
383.31	99.56
383.535	101.56
383.761	108.56
383.986	101.56
384.211	102.56
384.436	97.56
384.662	79.56
384.887	93.56
385.112	89.56
385.337	91.56
385.562	99.56
385.787	96.56
386.013	108.56
386.238	113.56
386.463	105.56
386.688	102.56
386.913	103.56
387.138	88.56
387.363	81.56
387.588	80.56
387.813	98.56
388.038	98.56
388.263	100.56
388.488	102.56
388.713	93.56
388.938	78.56
389.163	102.56
389.387	104.56
389.612	100.56
389.837	102.56
390.062	95.56
390.287	91.56
390.512	96.56
390.736	109.56
390.961	97.56
391.186	98.56
391.411	99.56
391.636	100.56
391.86	80.56
392.085	88.56
392.31	102.56
392.534	82.56
392.759	75.56
392.984	76.56
393.208	89.56
393.433	80.56
393.658	89.56
393.882	74.56
394.107	90.56
394.331	92.56
394.556	108.56
394.78	93.56
395.005	91.56
395.229	72.56
395.454	98.56
395.678	85.56
395.903	78.56
396.127	82.56
396.352	94.56
396.576	84.56
396.801	92.56
397.025	103.56
397.249	82.56
397.474	92.56
397.698	89.56
397.922	87.56
398.147	78.56
398.371	60.56
398.595	91.56
398.82	75.56
399.044	87.56
399.268	84.56
399.492	102.56
399.717	96.56
399.941	91.56
400.165	95.56
400.389	88.56
400.613	92.56
400.837	75.56
401.062	90.56
401.286	100.56
401.51	97.56
401.734	94.56
401.958	102.56
402.182	120.56
402.406	122.56
402.63	105.56
402.854	78.56
403.078	92.56
403.302	91.56
403.526	98.56
403.75	91.56
403.974	71.56
404.198	74.56
404.422	85.56
404.645	81.56
404.869	83.56
405.093	80.56
405.317	101.56
405.541	103.56
405.765	90.56
405.988	102.56
406.212	137.56
406.436	182.56
406.66	120.56
406.883	85.56
407.107	93.56
407.331	87.56
407.555	92.56
407.778	95.56
408.002	82.56
408.226	95.56
408.449	80.56
408.673	86.56
408.896	89.56
409.12	100.56
409.344	91.56
409.567	94.56
409.791	88.56
410.014	80.56
410.238	87.56
410.461	95.56
410.685	85.56
410.908	105.56
411.132	110.56
411.355	95.56
411.578	88.56
411.802	93.56
412.025	97.56
412.249	90.56
412.472	98.56
412.695	99.56
412.919	105.56
413.142	86.56
413.365	79.56
413.589	88.56
413.812	93.56
414.035	94.56
414.258	85.56
414.482	107.56
414.705	101.56
414.928	81.56
415.151	102.56
415.374	90.56
415.597	93.56
415.821	98.56
416.044	75.56
416.267	78.56
416.49	78.56
416.713	85.56
416.936	88.56
417.159	83.56
417.382	87.56
417.605	102.56
417.828	81.56
418.051	88.56
418.274	98.56
418.497	83.56
418.72	84.56
418.943	83.56
419.166	93.56
419.389	88.56
419.611	79.56
419.834	83.56
420.057	82.56
420.28	87.56
420.503	94.56
420.726	86.56
420.948	95.56
421.171	80.56
421.394	91.56
421.617	77.56
421.839	83.56
422.062	95.56
422.285	86.56
422.507	82.56
422.73	94.56
422.953	94.56
423.175	81.56
423.398	78.56
423.621	89.56
423.843	89.56
424.066	100.56
424.288	88.56
424.511	86.56
424.733	87.56
424.956	83.56
425.178	90.56
425.401	100.56
425.623	100.56
425.846	101.56
426.068	79.56
426.291	91.56
426.513	79.56
426.735	87.56
426.958	95.56
427.18	97.56
427.402	120.56
427.625	135.56
427.847	136.56
428.069	120.56
428.292	105.56
428.514	104.56
428.736	94.56
428.958	77.56
429.181	78.56
429.403	78.56
429.625	79.56
429.847	85.56
430.069	104.56
430.292	99.56
430.514	78.56
430.736	90.56
430.958	85.56
431.18	71.56
431.402	86.56
431.624	92.56
431.846	74.56
432.068	75.56
432.29	87.56
432.512	86.56
432.734	83.56
432.956	89.56
433.178	90.56
433.4	125.56
433.622	99.56
433.844	91.56
434.066	76.56
434.287	87.56
434.509	84.56
434.731	82.56
434.953	86.56
435.175	86.56
435.397	77.56
435.618	86.56
435.84	84.56
436.062	117.56
436.284	112.56
436.505	80.56
436.727	88.56
436.949	83.56
437.17	92.56
437.392	82.56
437.614	98.56
437.835	88.56
438.057	104.56
438.278	88.56
438.5	92.56
438.721	104.56
438.943	98.56
439.165	93.56
439.386	88.56
439.608	86.56
439.829	89.56
440.05	115.56
440.272	118.56
440.493	100.56
440.715	85.56
440.936	76.56
441.158	94.56
441.379	87.56
441.6	92.56
441.822	100.56
442.043	88.56
442.264	85.56
442.486	101.56
442.707	86.56
442.928	83.56
443.149	107.56
443.371	93.56
443.592	100.56
443.813	100.56
444.034	104.56
444.255	84.56
444.476	104.56
444.698	86.56
444.919	74.56
445.14	136.56
445.361	124.56
445.582	106.56
445.803	110.56
446.024	121.56
446.245	109.56
446.466	106.56
446.687	99.56
446.908	85.56
447.129	97.56
447.35	93.56
447.571	86.56
447.792	93.56
448.013	99.56
448.234	101.56
448.455	80.56
448.675	92.56
448.896	107.56
449.117	80.56
449.338	102.56
449.559	103.56
449.779	117.56
450	90.56
450.221	80.56
450.442	100.56
450.662	93.56
450.883	92.56
451.104	109.56
451.324	92.56
451.545	73.56
451.766	70.56
451.986	82.56
452.207	110.56
452.428	75.56
452.648	90.56
452.869	91.56
453.089	110.56
453.31	112.56
453.53	94.56
453.751	95.56
453.971	96.56
454.192	85.56
454.412	84.56
454.633	73.56
454.853	85.56
455.073	69.56
455.294	96.56
455.514	79.56
455.734	79.56
455.955	79.56
456.175	82.56
456.395	96.56
456.616	86.56
456.836	91.56
457.056	77.56
457.276	79.56
457.497	80.56
457.717	75.56
457.937	82.56
458.157	82.56
458.377	92.56
458.598	92.56
458.818	130.56
459.038	124.56
459.258	109.56
459.478	88.56
459.698	79.56
459.918	79.56
460.138	95.56
460.358	91.56
460.578	77.56
460.798	90.56
461.018	77.56
461.238	79.56
461.458	84.56
461.678	82.56
461.898	77.56
462.118	95.56
462.338	90.56
462.558	80.56
462.777	77.56
462.997	95.56
463.217	88.56
463.437	86.56
463.657	79.56
463.876	88.56
464.096	98.56
464.316	85.56
464.536	90.56
464.755	85.56
464.975	110.56
465.195	117.56
465.414	123.56
465.634	94.56
465.854	96.56
466.073	94.56
466.293	83.56
466.512	76.56
466.732	94.56
466.951	87.56
467.171	91.56
467.391	98.56
467.61	102.56
467.829	105.56
468.049	136.56
468.268	159.56
468.488	90.56
468.707	70.56
468.927	79.56
469.146	84.56
469.365	103.56
469.585	92.56
469.804	82.56
470.023	77.56
470.243	92.56
470.462	86.56
470.681	91.56
470.901	83.56
471.12	87.56
471.339	84.56
471.558	105.56
471.777	96.56
471.997	111.56
472.216	217.56
472.435	352.56
472.654	133.56
472.873	94.56
473.092	95.56
473.311	79.56
473.53	81.56
473.749	95.56
473.968	100.56
474.187	94.56
474.406	80.56
474.625	87.56
474.844	92.56
475.063	79.56
475.282	71.56
475.501	80.56
475.72	92.56
475.939	85.56
476.158	80.56
476.377	99.56
476.596	104.56
476.814	94.56
477.033	97.56
477.252	98.56
477.471	91.56
477.69	74.56
477.908	75.56
478.127	90.56
478.346	79.56
478.564	82.56
478.783	100.56
479.002	102.56
479.22	100.56
479.439	87.56
479.658	96.56
479.876	87.56
480.095	64.56
480.313	90.56
480.532	92.56
480.751	124.56
480.969	206.56
481.188	588.56
481.406	353.56
481.624	112.56
481.843	96.56
482.061	92.56
482.28	86.56
482.498	95.56
482.717	85.56
482.935	86.56
483.153	79.56
483.372	93.56
483.59	95.56
483.808	91.56
484.027	82.56
484.245	94.56
484.463	78.56
484.681	103.56
484.9	99.56
485.118	101.56
485.336	95.56
485.554	79.56
485.772	99.56
485.99	94.56
486.209	99.56
486.427	111.56
486.645	93.56
486.863	107.56
487.081	97.56
487.299	108.56
487.517	104.56
487.735	88.56
487.953	105.56
488.171	79.56
488.389	95.56
488.607	109.56
488.825	104.56
489.043	98.56
489.261	89.56
489.479	78.56
489.696	97.56
489.914	94.56
490.132	91.56
490.35	111.56
490.568	78.56
490.786	83.56
491.003	96.56
491.221	90.56
491.439	103.56
491.657	91.56
491.874	91.56
492.092	81.56
492.31	87.56
492.527	82.56
492.745	84.56
492.963	91.56
493.18	100.56
493.398	119.56
493.615	91.56
493.833	86.56
494.05	60.56
494.268	85.56
494.485	99.56
494.703	99.56
494.92	93.56
495.138	99.56
495.355	90.56
495.573	96.56
495.79	88.56
496.008	91.56
496.225	86.56
496.442	92.56
496.66	98.56
496.877	76.56
497.094	102.56
497.312	92.56
497.529	103.56
497.746	95.56
497.963	101.56
498.181	92.56
498.398	106.56
498.615	123.56
498.832	93.56
499.049	82.56
499.267	90.56
499.484	84.56
499.701	100.56
499.918	87.56
500.135	91.56
500.352	79.56
500.569	88.56
500.786	97.56
501.003	99.56
501.22	70.56
501.437	85.56
501.654	83.56
501.871	100.56
502.088	89.56
502.305	85.56
502.522	78.56
502.739	84.56
502.956	90.56
503.172	106.56
503.389	94.56
503.606	109.56
503.823	90.56
504.04	88.56
504.256	89.56
504.473	79.56
504.69	94.56
504.907	91.56
505.123	84.56
505.34	95.56
505.557	83.56
505.773	88.56
505.99	88.56
506.207	95.56
506.423	89.56
506.64	99.56
506.856	87.56
507.073	92.56
507.289	88.56
507.506	101.56
507.722	101.56
507.939	104.56
508.155	86.56
508.372	95.56
508.588	101.56
508.805	94.56
509.021	107.56
509.238	86.56
509.454	106.56
509.67	87.56
509.887	98.56
510.103	125.56
510.319	188.56
510.536	555.56
510.752	1691.56
510.968	512.56
511.184	135.56
511.401	100.56
511.617	89.56
511.833	83.56
512.049	99.56
512.265	98.56
512.481	85.56
512.698	88.56
512.914	93.56
513.13	105.56
513.346	83.56
513.562	93.56
513.778	103.56
513.994	90.56
514.21	92.56
514.426	128.56
514.642	122.56
514.858	119.56
515.074	164.56
515.29	319.56
515.506	1042.56
515.721	428.56
515.937	127.56
516.153	112.56
516.369	79.56
