Data from Circ_2011_H10_HRD10591_00081.txt Node
Date: Wed Jan 03 10:08:15 EST 2024
User: Yrep
Spectrometer: HR+D1059
Trigger mode: 1
Integration Time (sec): 1.000000E-1
Scans to average: 1
Electric dark correction enabled: true
Nonlinearity correction enabled: false
Boxcar width: 0
XAxis mode: Wavelengths
Number of Pixels in Spectrum: 2048
>>>>>Begin Spectral Data<<<<<
223.165	-19
223.4	-19
223.635	-19
223.869	-18
224.104	-12
224.338	-25
224.573	-11
224.808	-23
225.042	-2
225.277	-2
225.511	-6
225.746	-8
225.98	13
226.215	6
226.449	21
226.683	20
226.918	35
227.152	31
227.387	38
227.621	37
227.856	47
228.09	29
228.324	46
228.559	62
228.793	47
229.027	66
229.262	79
229.496	66
229.73	85
229.964	71
230.199	75
230.433	71
230.667	75
230.901	76
231.136	80
231.37	86
231.604	75
231.838	74
232.072	71
232.306	75
232.541	69
232.775	92
233.009	85
233.243	79
233.477	86
233.711	74
233.945	90
234.179	80
234.413	79
234.647	58
234.881	62
235.115	80
235.349	85
235.583	83
235.817	73
236.051	63
236.285	79
236.519	77
236.753	84
236.987	84
237.221	79
237.455	77
237.689	74
237.922	89
238.156	76
238.39	79
238.624	78
238.858	72
239.091	86
239.325	85
239.559	71
239.793	68
240.027	57
240.26	82
240.494	88
240.728	78
240.961	65
241.195	88
241.429	84
241.662	77
241.896	67
242.13	71
242.363	77
242.597	75
242.83	84
243.064	66
243.298	80
243.531	71
243.765	65
243.998	76
244.232	83
244.465	92
244.699	90
244.932	98
245.166	82
245.399	84
245.633	81
245.866	63
246.099	79
246.333	79
246.566	76
246.8	83
247.033	82
247.266	79
247.5	78
247.733	97
247.966	78
248.2	77
248.433	79
248.666	82
248.899	71
249.133	78
249.366	111
249.599	99
249.832	80
250.066	84
250.299	78
250.532	86
250.765	76
250.998	81
251.231	85
251.465	67
251.698	70
251.931	90
252.164	84
252.397	78
252.63	93
252.863	86
253.096	79
253.329	79
253.562	75
253.795	91
254.028	88
254.261	84
254.494	75
254.727	81
254.96	73
255.193	92
255.426	91
255.659	79
255.892	78
256.124	83
256.357	89
256.59	86
256.823	75
257.056	82
257.289	84
257.521	92
257.754	80
257.987	80
258.22	95
258.452	94
258.685	83
258.918	80
259.151	82
259.383	70
259.616	78
259.849	94
260.081	86
260.314	91
260.547	87
260.779	94
261.012	97
261.244	73
261.477	88
261.71	89
261.942	116
262.175	105
262.407	90
262.64	82
262.872	81
263.105	86
263.337	90
263.57	70
263.802	63
264.035	89
264.267	73
264.499	80
264.732	85
264.964	81
265.197	70
265.429	77
265.661	86
265.894	81
266.126	91
266.358	94
266.591	90
266.823	102
267.055	101
267.287	90
267.52	85
267.752	85
267.984	87
268.216	90
268.448	93
268.681	72
268.913	76
269.145	94
269.377	74
269.609	95
269.841	78
270.073	76
270.306	87
270.538	78
270.77	78
271.002	91
271.234	93
271.466	80
271.698	83
271.93	89
272.162	66
272.394	88
272.626	87
272.858	79
273.09	80
273.322	86
273.553	78
273.785	80
274.017	84
274.249	83
274.481	82
274.713	84
274.945	90
275.176	86
275.408	90
275.64	85
275.872	84
276.104	96
276.335	86
276.567	93
276.799	97
277.031	99
277.262	98
277.494	91
277.726	84
277.957	86
278.189	82
278.421	79
278.652	83
278.884	70
279.115	81
279.347	94
279.579	76
279.81	85
280.042	95
280.273	107
280.505	106
280.736	90
280.968	88
281.199	82
281.431	74
281.662	76
281.894	91
282.125	86
282.356	119
282.588	152
282.819	128
283.051	85
283.282	82
283.513	92
283.745	85
283.976	90
284.207	90
284.439	84
284.67	84
284.901	81
285.132	81
285.364	96
285.595	93
285.826	84
286.057	87
286.288	95
286.52	80
286.751	86
286.982	92
287.213	91
287.444	92
287.675	85
287.906	78
288.138	89
288.369	90
288.6	80
288.831	81
289.062	82
289.293	85
289.524	80
289.755	86
289.986	73
290.217	75
290.448	83
290.679	77
290.91	85
291.141	84
291.371	84
291.602	80
291.833	90
292.064	79
292.295	92
292.526	96
292.757	84
292.987	89
293.218	92
293.449	94
293.68	84
293.91	80
294.141	92
294.372	107
294.603	95
294.833	93
295.064	91
295.295	90
295.525	90
295.756	107
295.987	121
296.217	138
296.448	115
296.679	99
296.909	84
297.14	89
297.37	83
297.601	79
297.831	81
298.062	101
298.292	85
298.523	95
298.753	88
298.984	77
299.214	78
299.445	85
299.675	89
299.905	78
300.136	96
300.366	83
300.597	97
300.827	81
301.057	97
301.288	101
301.518	92
301.748	86
301.979	97
302.209	88
302.439	81
302.669	88
302.9	80
303.13	83
303.36	78
303.59	98
303.82	126
304.051	111
304.281	84
304.511	98
304.741	91
304.971	86
305.201	88
305.431	89
305.661	93
305.891	100
306.121	97
306.352	101
306.582	103
306.812	96
307.042	91
307.272	98
307.502	103
307.731	85
307.961	81
308.191	101
308.421	86
308.651	90
308.881	100
309.111	94
309.341	94
309.571	99
309.8	96
310.03	90
310.26	95
310.49	94
310.72	91
310.949	103
311.179	103
311.409	88
311.639	100
311.868	98
312.098	102
312.328	104
312.557	101
312.787	93
313.017	108
313.246	86
313.476	94
313.706	93
313.935	85
314.165	98
314.394	106
314.624	103
314.853	92
315.083	99
315.312	87
315.542	93
315.771	99
316.001	101
316.23	96
316.46	91
316.689	95
316.919	86
317.148	97
317.377	96
317.607	87
317.836	99
318.065	98
318.295	78
318.524	91
318.753	86
318.983	98
319.212	98
319.441	112
319.67	89
319.9	90
320.129	92
320.358	94
320.587	93
320.816	108
321.046	99
321.275	87
321.504	92
321.733	94
321.962	94
322.191	103
322.42	91
322.649	103
322.878	114
323.108	124
323.337	123
323.566	139
323.795	142
324.024	210
324.253	428
324.482	958
324.71	1987
324.939	2639
325.168	926
325.397	250
325.626	165
325.855	140
326.084	128
326.313	134
326.542	166
326.77	243
326.999	531
327.228	1092
327.457	2024
327.686	1617
327.914	414
328.143	238
328.372	229
328.6	166
328.829	124
329.058	139
329.287	131
329.515	114
329.744	104
329.972	166
330.201	234
330.43	318
330.658	192
330.887	154
331.115	114
331.344	85
331.572	102
331.801	114
332.03	123
332.258	93
332.486	87
332.715	99
332.943	93
333.172	94
333.4	93
333.629	115
333.857	126
334.085	167
334.314	228
334.542	365
334.771	333
334.999	142
335.227	103
335.455	94
335.684	88
335.912	90
336.14	92
336.369	91
336.597	96
336.825	100
337.053	89
337.281	95
337.51	101
337.738	98
337.966	99
338.194	101
338.422	98
338.65	85
338.878	91
339.106	88
339.334	87
339.562	95
339.79	94
340.018	101
340.246	95
340.474	91
340.702	86
340.93	98
341.158	83
341.386	95
341.614	88
341.842	103
342.07	82
342.298	93
342.526	86
342.754	81
342.981	101
343.209	94
343.437	93
343.665	89
343.893	99
344.12	90
344.348	88
344.576	79
344.804	100
345.031	94
345.259	97
345.487	87
345.714	78
345.942	94
346.17	109
346.397	100
346.625	91
346.853	93
347.08	84
347.308	103
347.535	105
347.763	93
347.99	94
348.218	96
348.445	119
348.673	92
348.9	84
349.128	81
349.355	83
349.583	93
349.81	91
350.037	83
350.265	94
350.492	95
350.72	86
350.947	111
351.174	103
351.402	106
351.629	112
351.856	102
352.083	90
352.311	115
352.538	103
352.765	116
352.992	117
353.22	119
353.447	89
353.674	102
353.901	95
354.128	102
354.355	98
354.583	91
354.81	93
355.037	86
355.264	103
355.491	115
355.718	114
355.945	93
356.172	84
356.399	104
356.626	93
356.853	84
357.08	100
357.307	88
357.534	91
357.761	93
357.988	101
358.215	90
358.441	84
358.668	72
358.895	79
359.122	79
359.349	86
359.576	87
359.802	103
360.029	125
360.256	96
360.483	92
360.709	84
360.936	87
361.163	92
361.39	79
361.616	79
361.843	82
362.07	99
362.296	91
362.523	85
362.749	83
362.976	102
363.203	83
363.429	68
363.656	87
363.882	90
364.109	95
364.335	85
364.562	85
364.788	87
365.015	99
365.241	96
365.468	98
365.694	95
365.92	87
366.147	89
366.373	86
366.599	91
366.826	97
367.052	85
367.278	87
367.505	98
367.731	98
367.957	86
368.184	86
368.41	96
368.636	92
368.862	112
369.089	96
369.315	78
369.541	86
369.767	88
369.993	96
370.219	93
370.445	95
370.672	89
370.898	87
371.124	71
371.35	94
371.576	79
371.802	103
372.028	84
372.254	94
372.48	82
372.706	85
372.932	92
373.158	84
373.384	91
373.61	96
373.835	85
374.061	69
374.287	94
374.513	78
374.739	90
374.965	96
375.191	102
375.416	93
375.642	85
375.868	86
376.094	90
376.319	82
376.545	99
376.771	83
376.997	93
377.222	85
377.448	85
377.674	95
377.899	102
378.125	98
378.35	85
378.576	86
378.802	90
379.027	89
379.253	85
379.478	95
379.704	85
379.929	84
380.155	92
380.38	89
380.606	98
380.831	92
381.057	91
381.282	99
381.507	106
381.733	91
381.958	79
382.184	93
382.409	87
382.634	92
382.86	107
383.085	102
383.31	93
383.535	114
383.761	102
383.986	83
384.211	115
384.436	100
384.662	79
384.887	84
385.112	94
385.337	93
385.562	101
385.787	95
386.013	94
386.238	94
386.463	93
386.688	104
386.913	98
387.138	100
387.363	108
387.588	94
387.813	95
388.038	103
388.263	106
388.488	108
388.713	96
388.938	101
389.163	98
389.387	101
389.612	86
389.837	92
390.062	87
390.287	89
390.512	86
390.736	81
390.961	86
391.186	95
391.411	83
391.636	83
391.86	84
392.085	80
392.31	79
392.534	75
392.759	91
392.984	87
393.208	84
393.433	87
393.658	90
393.882	84
394.107	77
394.331	77
394.556	80
394.78	90
395.005	83
395.229	96
395.454	81
395.678	91
395.903	81
396.127	66
396.352	93
396.576	67
396.801	76
397.025	84
397.249	80
397.474	95
397.698	87
397.922	80
398.147	98
398.371	95
398.595	79
398.82	83
399.044	75
399.268	95
399.492	87
399.717	94
399.941	98
400.165	100
400.389	101
400.613	82
400.837	88
401.062	80
401.286	86
401.51	86
401.734	90
401.958	99
402.182	129
402.406	143
402.63	106
402.854	83
403.078	89
403.302	82
403.526	83
403.75	83
403.974	87
404.198	86
404.422	98
404.645	78
404.869	89
405.093	82
405.317	99
405.541	115
405.765	93
405.988	116
406.212	156
406.436	200
406.66	147
406.883	114
407.107	90
407.331	76
407.555	94
407.778	104
408.002	90
408.226	81
408.449	88
408.673	83
408.896	80
409.12	86
409.344	91
409.567	78
409.791	76
410.014	98
410.238	77
410.461	86
410.685	82
410.908	101
411.132	117
411.355	102
411.578	103
411.802	91
412.025	89
412.249	86
412.472	98
412.695	91
412.919	102
413.142	92
413.365	74
413.589	81
413.812	78
414.035	79
414.258	90
414.482	91
414.705	75
414.928	76
415.151	100
415.374	85
415.597	94
415.821	87
416.044	96
416.267	85
416.49	89
416.713	94
416.936	94
417.159	89
417.382	98
417.605	87
417.828	89
418.051	98
418.274	98
418.497	106
418.72	85
418.943	83
419.166	92
419.389	91
419.611	86
419.834	91
420.057	87
420.28	85
420.503	86
420.726	95
420.948	87
421.171	107
421.394	93
421.617	89
421.839	108
422.062	88
422.285	83
422.507	93
422.73	110
422.953	101
423.175	77
423.398	89
423.621	87
423.843	91
424.066	76
424.288	87
424.511	82
424.733	90
424.956	103
425.178	100
425.401	91
425.623	108
425.846	89
426.068	89
426.291	95
426.513	85
426.735	88
426.958	92
427.18	111
427.402	147
427.625	182
427.847	153
428.069	139
428.292	107
428.514	92
428.736	103
428.958	83
429.181	82
429.403	79
429.625	86
429.847	86
430.069	109
430.292	95
430.514	96
430.736	96
430.958	83
431.18	85
431.402	74
431.624	90
431.846	80
432.068	79
432.29	89
432.512	87
432.734	94
432.956	95
433.178	104
433.4	92
433.622	89
433.844	74
434.066	91
434.287	100
434.509	89
434.731	81
434.953	85
435.175	93
435.397	84
435.618	92
435.84	100
436.062	139
436.284	121
436.505	98
436.727	103
436.949	91
437.17	80
437.392	69
437.614	93
437.835	102
438.057	138
438.278	117
438.5	117
438.721	130
438.943	103
439.165	89
439.386	78
439.608	98
439.829	109
440.05	115
440.272	144
440.493	114
440.715	88
440.936	88
441.158	88
441.379	86
441.6	97
441.822	95
442.043	92
442.264	104
442.486	115
442.707	99
442.928	105
443.149	127
443.371	134
443.592	116
443.813	112
444.034	110
444.255	88
444.476	87
444.698	77
444.919	91
445.14	136
445.361	107
445.582	115
445.803	151
446.024	143
446.245	142
446.466	115
446.687	92
446.908	92
447.129	82
447.35	86
447.571	75
447.792	85
448.013	98
448.234	94
448.455	101
448.675	126
448.896	126
449.117	103
449.338	118
449.559	140
449.779	124
450	98
450.221	98
450.442	99
450.662	86
450.883	102
451.104	97
451.324	81
451.545	71
451.766	82
451.986	98
452.207	101
452.428	100
452.648	99
452.869	111
453.089	101
453.31	111
453.53	87
453.751	81
453.971	106
454.192	107
454.412	89
454.633	84
454.853	92
455.073	69
455.294	83
455.514	95
455.734	78
455.955	94
456.175	82
456.395	82
456.616	85
456.836	97
457.056	84
457.276	85
457.497	93
457.717	86
457.937	90
458.157	78
458.377	86
458.598	94
458.818	138
459.038	152
459.258	117
459.478	95
459.698	95
459.918	95
460.138	93
460.358	84
460.578	81
460.798	83
461.018	76
461.238	89
461.458	87
461.678	73
461.898	82
462.118	80
462.338	90
462.558	88
462.777	87
462.997	84
463.217	97
463.437	93
463.657	79
463.876	91
464.096	82
464.316	93
464.536	74
464.755	101
464.975	108
465.195	167
465.414	167
465.634	124
465.854	79
466.073	96
466.293	89
466.512	83
466.732	84
466.951	96
467.171	102
467.391	89
467.61	118
467.829	104
468.049	171
468.268	199
468.488	114
468.707	93
468.927	83
469.146	76
469.365	99
469.585	90
469.804	89
470.023	90
470.243	80
470.462	106
470.681	109
470.901	93
471.12	92
471.339	82
471.558	95
471.777	73
471.997	123
472.216	249
472.435	459
472.654	167
472.873	103
473.092	93
473.311	99
473.53	80
473.749	93
473.968	99
474.187	98
474.406	108
474.625	88
474.844	79
475.063	90
475.282	85
475.501	82
475.72	95
475.939	90
476.158	95
476.377	100
476.596	90
476.814	89
477.033	89
477.252	91
477.471	86
477.69	95
477.908	74
478.127	78
478.346	93
478.564	99
478.783	95
479.002	98
479.22	102
479.439	93
479.658	98
479.876	87
480.095	86
480.313	97
480.532	107
480.751	109
480.969	245
481.188	783
481.406	520
481.624	145
481.843	85
482.061	93
482.28	74
482.498	90
482.717	85
482.935	94
483.153	83
483.372	83
483.59	85
483.808	94
484.027	90
484.245	96
484.463	107
484.681	86
484.9	92
485.118	103
485.336	96
485.554	94
485.772	90
485.99	115
486.209	98
486.427	90
486.645	94
486.863	108
487.081	111
487.299	85
487.517	91
487.735	82
487.953	80
488.171	98
488.389	100
488.607	105
488.825	99
489.043	96
489.261	91
489.479	98
489.696	101
489.914	75
490.132	89
490.35	97
490.568	96
490.786	87
491.003	89
491.221	99
491.439	88
491.657	92
491.874	84
492.092	83
492.31	90
492.527	90
492.745	94
492.963	96
493.18	85
493.398	92
493.615	92
493.833	98
494.05	101
494.268	91
494.485	93
494.703	88
494.92	92
495.138	81
495.355	90
495.573	95
495.79	78
496.008	96
496.225	93
496.442	85
496.66	84
496.877	99
497.094	92
497.312	84
497.529	109
497.746	99
497.963	74
498.181	80
498.398	83
498.615	113
498.832	103
499.049	95
499.267	93
499.484	90
499.701	85
499.918	84
500.135	90
500.352	98
500.569	82
500.786	89
501.003	100
501.22	95
501.437	80
501.654	86
501.871	113
502.088	94
502.305	90
502.522	85
502.739	74
502.956	76
503.172	82
503.389	100
503.606	90
503.823	97
504.04	103
504.256	70
504.473	93
504.69	81
504.907	90
505.123	99
505.34	92
505.557	106
505.773	98
505.99	106
506.207	71
506.423	92
506.64	88
506.856	75
507.073	98
507.289	91
507.506	109
507.722	109
507.939	110
508.155	102
508.372	98
508.588	94
508.805	97
509.021	108
509.238	101
509.454	90
509.67	98
509.887	103
510.103	117
510.319	190
510.536	676
510.752	2119
510.968	610
511.184	148
511.401	96
511.617	97
511.833	99
512.049	98
512.265	95
512.481	92
512.698	88
512.914	87
513.13	99
513.346	84
513.562	88
513.778	95
513.994	94
514.21	104
514.426	103
514.642	117
514.858	123
515.074	164
515.29	423
515.506	1410
515.721	553
515.937	150
516.153	128
516.369	96
516.585	88
516.801	73
517.016	91
517.232	94
517.448	87
517.664	104
517.879	104
518.095	92
518.311	97
518.527	97
518.742	106
518.958	89
519.173	92
519.389	76
519.605	88
519.82	92
520.036	102
520.251	114
520.467	102
520.682	107
520.898	122
521.113	103
521.329	135
521.544	208
521.76	534
521.975	2281
522.19	1458
522.406	293
522.621	113
522.836	109
523.052	104
523.267	100
523.482	102
523.698	104
523.913	117
524.128	104
524.343	96
524.559	96
524.774	90
524.989	86
525.204	106
525.419	94
525.634	84
525.849	95
526.064	101
526.28	97
526.495	77
526.71	85
526.925	82
527.14	92
527.355	88
527.57	107
527.785	104
527.999	82
528.214	84
528.429	98
528.644	100
528.859	108
529.074	104
529.289	138
529.503	173
529.718	94
529.933	84
530.148	92
530.363	95
530.577	103
530.792	99
531.007	84
531.221	93
531.436	72
531.651	100
531.865	94
532.08	101
532.295	95
532.509	95
532.724	86
532.938	102
533.153	93
533.367	100
533.582	103
533.796	91
534.011	79
534.225	108
534.44	90
534.654	101
534.868	88
535.083	107
535.297	86
535.511	100
535.726	107
535.94	98
536.154	91
536.369	90
536.583	91
536.797	86
537.011	97
537.225	96
537.44	94
537.654	96
537.868	91
538.082	85
538.296	98
538.51	105
538.724	85
538.938	73
539.153	95
539.367	102
539.581	101
539.795	97
540.009	83
540.222	99
540.436	84
540.65	91
540.864	87
541.078	99
541.292	88
541.506	81
541.72	89
541.934	86
542.147	90
542.361	80
542.575	87
542.789	93
543.002	87
543.216	93
543.43	96
543.644	106
543.857	78
544.071	87
544.285	102
544.498	93
544.712	76
544.925	80
545.139	74
545.352	77
545.566	89
545.779	85
545.993	95
546.206	93
546.42	94
546.633	88
546.847	96
547.06	82
547.274	80
547.487	93
547.7	88
547.914	88
548.127	95
548.34	86
548.554	87
548.767	79
548.98	95
549.193	99
549.407	102
549.62	94
549.833	76
550.046	91
550.259	78
550.473	78
550.686	86
550.899	88
551.112	90
551.325	94
551.538	86
551.751	88
551.964	108
552.177	75
552.39	84
552.603	88
552.816	85
553.029	90
553.242	86
553.455	81
553.667	93
553.88	95
554.093	86
554.306	86
554.519	92
554.732	85
554.944	84
555.157	88
555.37	98
555.583	91
555.795	95
556.008	91
556.221	88
556.433	86
556.646	101
556.859	73
557.071	91
557.284	100
557.496	83
557.709	89
557.921	90
558.134	83
558.346	80
558.559	76
558.771	85
558.984	78
559.196	80
559.409	86
559.621	88
559.833	87
560.046	82
560.258	91
560.47	88
560.683	95
560.895	88
561.107	95
561.32	91
561.532	75
561.744	98
561.956	90
562.168	91
562.381	92
562.593	87
562.805	78
563.017	75
563.229	79
563.441	95
563.653	93
563.865	96
564.077	78
564.289	89
564.501	85
564.713	83
564.925	101
565.137	109
565.349	75
565.561	90
565.773	94
565.985	94
566.197	86
566.408	92
566.62	86
566.832	88
567.044	86
567.255	81
567.467	88
567.679	85
567.891	83
568.102	87
568.314	77
568.526	96
568.737	81
568.949	89
569.161	80
569.372	84
569.584	98
569.795	101
570.007	110
570.218	222
570.43	136
570.641	83
570.853	86
571.064	92
571.276	96
571.487	82
571.698	84
571.91	77
572.121	82
572.333	87
572.544	86
572.755	80
572.966	84
573.178	83
573.389	95
573.6	84
573.811	95
574.023	93
574.234	87
574.445	98
574.656	76
574.867	77
575.078	107
575.289	94
575.501	83
575.712	94
575.923	86
576.134	85
576.345	95
576.556	96
576.767	77
576.978	98
577.188	95
577.399	92
577.61	81
577.821	97
578.032	114
578.243	227
578.454	671
578.665	192
578.875	101
579.086	91
579.297	86
579.508	80
579.718	89
579.929	97
580.14	98
580.35	85
580.561	90
580.772	83
580.982	72
581.193	91
581.403	84
581.614	85
581.825	94
582.035	95
582.246	74
582.456	77
582.667	76
582.877	76
583.087	93
583.298	98
583.508	95
583.719	91
583.929	91
584.139	91
584.35	78
584.56	79
