Data from Circ_2011_H10_HRD10591_00097.txt Node
Date: Wed Jan 03 10:08:18 EST 2024
User: Yrep
Spectrometer: HR+D1059
Trigger mode: 1
Integration Time (sec): 1.000000E-1
Scans to average: 1
Electric dark correction enabled: true
Nonlinearity correction enabled: false
Boxcar width: 0
XAxis mode: Wavelengths
Number of Pixels in Spectrum: 2048
>>>>>Begin Spectral Data<<<<<
223.165	-12.38
223.4	-12.38
223.635	-12.38
223.869	-24.38
224.104	-15.38
224.338	-25.38
224.573	-2.38
224.808	-12.38
225.042	-11.38
225.277	-8.38
225.511	3.62
225.746	1.62
225.98	-7.38
226.215	10.62
226.449	20.62
226.683	25.62
226.918	23.62
227.152	33.62
227.387	40.62
227.621	56.62
227.856	41.62
228.09	38.62
228.324	59.62
228.559	61.62
228.793	48.62
229.027	73.62
229.262	58.62
229.496	69.62
229.73	78.62
229.964	78.62
230.199	72.62
230.433	78.62
230.667	70.62
230.901	96.62
231.136	83.62
231.37	78.62
231.604	78.62
231.838	77.62
232.072	67.62
232.306	73.62
232.541	80.62
232.775	94.62
233.009	81.62
233.243	76.62
233.477	75.62
233.711	85.62
233.945	87.62
234.179	78.62
234.413	64.62
234.647	66.62
234.881	85.62
235.115	92.62
235.349	83.62
235.583	75.62
235.817	61.62
236.051	75.62
236.285	78.62
236.519	82.62
236.753	75.62
236.987	85.62
237.221	93.62
237.455	76.62
237.689	91.62
237.922	84.62
238.156	81.62
238.39	61.62
238.624	74.62
238.858	88.62
239.091	76.62
239.325	80.62
239.559	102.62
239.793	79.62
240.027	92.62
240.26	76.62
240.494	76.62
240.728	76.62
240.961	90.62
241.195	83.62
241.429	76.62
241.662	85.62
241.896	90.62
242.13	87.62
242.363	81.62
242.597	76.62
242.83	87.62
243.064	75.62
243.298	81.62
243.531	71.62
243.765	85.62
243.998	64.62
244.232	74.62
244.465	79.62
244.699	57.62
244.932	71.62
245.166	95.62
245.399	88.62
245.633	79.62
245.866	84.62
246.099	71.62
246.333	84.62
246.566	74.62
246.8	81.62
247.033	81.62
247.266	86.62
247.5	87.62
247.733	78.62
247.966	87.62
248.2	78.62
248.433	84.62
248.666	78.62
248.899	78.62
249.133	93.62
249.366	111.62
249.599	93.62
249.832	85.62
250.066	86.62
250.299	80.62
250.532	79.62
250.765	75.62
250.998	74.62
251.231	68.62
251.465	80.62
251.698	67.62
251.931	74.62
252.164	76.62
252.397	95.62
252.63	81.62
252.863	86.62
253.096	85.62
253.329	75.62
253.562	89.62
253.795	91.62
254.028	84.62
254.261	89.62
254.494	80.62
254.727	86.62
254.96	77.62
255.193	75.62
255.426	71.62
255.659	89.62
255.892	80.62
256.124	80.62
256.357	85.62
256.59	72.62
256.823	79.62
257.056	86.62
257.289	81.62
257.521	90.62
257.754	101.62
257.987	76.62
258.22	76.62
258.452	68.62
258.685	75.62
258.918	73.62
259.151	77.62
259.383	84.62
259.616	83.62
259.849	88.62
260.081	79.62
260.314	89.62
260.547	76.62
260.779	87.62
261.012	83.62
261.244	80.62
261.477	95.62
261.71	86.62
261.942	105.62
262.175	106.62
262.407	95.62
262.64	84.62
262.872	95.62
263.105	91.62
263.337	78.62
263.57	76.62
263.802	91.62
264.035	80.62
264.267	92.62
264.499	63.62
264.732	81.62
264.964	87.62
265.197	78.62
265.429	68.62
265.661	88.62
265.894	82.62
266.126	95.62
266.358	77.62
266.591	82.62
266.823	72.62
267.055	83.62
267.287	80.62
267.52	86.62
267.752	90.62
267.984	102.62
268.216	94.62
268.448	94.62
268.681	99.62
268.913	77.62
269.145	83.62
269.377	80.62
269.609	84.62
269.841	88.62
270.073	93.62
270.306	81.62
270.538	79.62
270.77	88.62
271.002	84.62
271.234	80.62
271.466	94.62
271.698	89.62
271.93	85.62
272.162	78.62
272.394	84.62
272.626	79.62
272.858	76.62
273.09	76.62
273.322	97.62
273.553	77.62
273.785	94.62
274.017	84.62
274.249	84.62
274.481	67.62
274.713	89.62
274.945	87.62
275.176	86.62
275.408	85.62
275.64	86.62
275.872	81.62
276.104	86.62
276.335	76.62
276.567	91.62
276.799	96.62
277.031	83.62
277.262	90.62
277.494	80.62
277.726	79.62
277.957	92.62
278.189	101.62
278.421	81.62
278.652	79.62
278.884	91.62
279.115	71.62
279.347	80.62
279.579	80.62
279.81	98.62
280.042	83.62
280.273	89.62
280.505	84.62
280.736	92.62
280.968	93.62
281.199	91.62
281.431	88.62
281.662	74.62
281.894	86.62
282.125	107.62
282.356	110.62
282.588	124.62
282.819	105.62
283.051	88.62
283.282	91.62
283.513	86.62
283.745	84.62
283.976	87.62
284.207	75.62
284.439	85.62
284.67	88.62
284.901	93.62
285.132	96.62
285.364	84.62
285.595	77.62
285.826	78.62
286.057	92.62
286.288	79.62
286.52	76.62
286.751	95.62
286.982	87.62
287.213	90.62
287.444	81.62
287.675	85.62
287.906	90.62
288.138	85.62
288.369	87.62
288.6	107.62
288.831	77.62
289.062	87.62
289.293	99.62
289.524	96.62
289.755	93.62
289.986	86.62
290.217	76.62
290.448	80.62
290.679	96.62
290.91	95.62
291.141	85.62
291.371	81.62
291.602	92.62
291.833	71.62
292.064	97.62
292.295	81.62
292.526	92.62
292.757	87.62
292.987	82.62
293.218	97.62
293.449	89.62
293.68	81.62
293.91	78.62
294.141	83.62
294.372	70.62
294.603	79.62
294.833	90.62
295.064	85.62
295.295	89.62
295.525	97.62
295.756	99.62
295.987	103.62
296.217	120.62
296.448	108.62
296.679	100.62
296.909	78.62
297.14	86.62
297.37	97.62
297.601	84.62
297.831	85.62
298.062	80.62
298.292	90.62
298.523	88.62
298.753	82.62
298.984	89.62
299.214	101.62
299.445	102.62
299.675	80.62
299.905	96.62
300.136	80.62
300.366	87.62
300.597	86.62
300.827	94.62
301.057	88.62
301.288	96.62
301.518	88.62
301.748	84.62
301.979	103.62
302.209	88.62
302.439	84.62
302.669	88.62
302.9	81.62
303.13	101.62
303.36	89.62
303.59	88.62
303.82	109.62
304.051	89.62
304.281	96.62
304.511	80.62
304.741	85.62
304.971	83.62
305.201	81.62
305.431	91.62
305.661	98.62
305.891	81.62
306.121	87.62
306.352	102.62
306.582	97.62
306.812	104.62
307.042	97.62
307.272	93.62
307.502	107.62
307.731	90.62
307.961	103.62
308.191	76.62
308.421	83.62
308.651	105.62
308.881	87.62
309.111	87.62
309.341	79.62
309.571	96.62
309.8	84.62
310.03	87.62
310.26	98.62
310.49	101.62
310.72	106.62
310.949	96.62
311.179	99.62
311.409	95.62
311.639	86.62
311.868	88.62
312.098	100.62
312.328	80.62
312.557	98.62
312.787	93.62
313.017	93.62
313.246	92.62
313.476	87.62
313.706	84.62
313.935	88.62
314.165	94.62
314.394	82.62
314.624	101.62
314.853	84.62
315.083	90.62
315.312	94.62
315.542	86.62
315.771	87.62
316.001	100.62
316.23	96.62
316.46	91.62
316.689	100.62
316.919	95.62
317.148	89.62
317.377	102.62
317.607	94.62
317.836	94.62
318.065	97.62
318.295	100.62
318.524	81.62
318.753	104.62
318.983	98.62
319.212	97.62
319.441	107.62
319.67	91.62
319.9	81.62
320.129	104.62
320.358	96.62
320.587	92.62
320.816	107.62
321.046	94.62
321.275	98.62
321.504	92.62
321.733	85.62
321.962	89.62
322.191	86.62
322.42	102.62
322.649	101.62
322.878	106.62
323.108	125.62
323.337	121.62
323.566	120.62
323.795	144.62
324.024	208.62
324.253	365.62
324.482	795.62
324.71	1627.62
324.939	2153.62
325.168	785.62
325.397	242.62
325.626	151.62
325.855	126.62
326.084	108.62
326.313	121.62
326.542	136.62
326.77	223.62
326.999	455.62
327.228	912.62
327.457	1685.62
327.686	1347.62
327.914	369.62
328.143	209.62
328.372	195.62
328.6	150.62
328.829	120.62
329.058	138.62
329.287	132.62
329.515	119.62
329.744	117.62
329.972	154.62
330.201	203.62
330.43	248.62
330.658	161.62
330.887	141.62
331.115	119.62
331.344	107.62
331.572	102.62
331.801	89.62
332.03	103.62
332.258	106.62
332.486	102.62
332.715	95.62
332.943	89.62
333.172	84.62
333.4	107.62
333.629	111.62
333.857	135.62
334.085	150.62
334.314	198.62
334.542	303.62
334.771	304.62
334.999	136.62
335.227	109.62
335.455	97.62
335.684	101.62
335.912	103.62
336.14	110.62
336.369	101.62
336.597	94.62
336.825	100.62
337.053	98.62
337.281	92.62
337.51	88.62
337.738	93.62
337.966	90.62
338.194	94.62
338.422	120.62
338.65	85.62
338.878	88.62
339.106	87.62
339.334	79.62
339.562	79.62
339.79	92.62
340.018	87.62
340.246	85.62
340.474	98.62
340.702	74.62
340.93	99.62
341.158	102.62
341.386	86.62
341.614	88.62
341.842	80.62
342.07	90.62
342.298	95.62
342.526	78.62
342.754	99.62
342.981	92.62
343.209	89.62
343.437	102.62
343.665	95.62
343.893	86.62
344.12	91.62
344.348	106.62
344.576	103.62
344.804	88.62
345.031	87.62
345.259	97.62
345.487	103.62
345.714	103.62
345.942	102.62
346.17	86.62
346.397	87.62
346.625	96.62
346.853	88.62
347.08	86.62
347.308	94.62
347.535	88.62
347.763	98.62
347.99	94.62
348.218	102.62
348.445	102.62
348.673	100.62
348.9	91.62
349.128	89.62
349.355	94.62
349.583	97.62
349.81	96.62
350.037	100.62
350.265	101.62
350.492	100.62
350.72	93.62
350.947	97.62
351.174	92.62
351.402	94.62
351.629	87.62
351.856	103.62
352.083	96.62
352.311	100.62
352.538	104.62
352.765	99.62
352.992	99.62
353.22	124.62
353.447	100.62
353.674	96.62
353.901	103.62
354.128	95.62
354.355	89.62
354.583	102.62
354.81	83.62
355.037	93.62
355.264	92.62
355.491	109.62
355.718	83.62
355.945	104.62
356.172	95.62
356.399	92.62
356.626	99.62
356.853	94.62
357.08	76.62
357.307	92.62
357.534	102.62
357.761	91.62
357.988	93.62
358.215	86.62
358.441	94.62
358.668	95.62
358.895	103.62
359.122	76.62
359.349	91.62
359.576	83.62
359.802	81.62
360.029	111.62
360.256	115.62
360.483	88.62
360.709	82.62
360.936	105.62
361.163	100.62
361.39	88.62
361.616	79.62
361.843	89.62
362.07	103.62
362.296	102.62
362.523	103.62
362.749	88.62
362.976	81.62
363.203	80.62
363.429	89.62
363.656	93.62
363.882	106.62
364.109	92.62
364.335	96.62
364.562	85.62
364.788	87.62
365.015	102.62
365.241	99.62
365.468	103.62
365.694	96.62
365.92	88.62
366.147	86.62
366.373	97.62
366.599	89.62
366.826	91.62
367.052	91.62
367.278	88.62
367.505	89.62
367.731	93.62
367.957	83.62
368.184	87.62
368.41	88.62
368.636	107.62
368.862	109.62
369.089	95.62
369.315	105.62
369.541	93.62
369.767	99.62
369.993	101.62
370.219	98.62
370.445	89.62
370.672	94.62
370.898	96.62
371.124	87.62
371.35	94.62
371.576	77.62
371.802	83.62
372.028	89.62
372.254	92.62
372.48	93.62
372.706	81.62
372.932	82.62
373.158	96.62
373.384	94.62
373.61	103.62
373.835	94.62
374.061	95.62
374.287	93.62
374.513	101.62
374.739	95.62
374.965	107.62
375.191	93.62
375.416	95.62
375.642	93.62
375.868	96.62
376.094	80.62
376.319	89.62
376.545	101.62
376.771	98.62
376.997	84.62
377.222	97.62
377.448	92.62
377.674	93.62
377.899	86.62
378.125	98.62
378.35	94.62
378.576	92.62
378.802	89.62
379.027	83.62
379.253	93.62
379.478	102.62
379.704	87.62
379.929	89.62
380.155	92.62
380.38	92.62
380.606	92.62
380.831	103.62
381.057	84.62
381.282	100.62
381.507	102.62
381.733	95.62
381.958	89.62
382.184	84.62
382.409	88.62
382.634	92.62
382.86	101.62
383.085	95.62
383.31	97.62
383.535	99.62
383.761	95.62
383.986	83.62
384.211	77.62
384.436	97.62
384.662	104.62
384.887	104.62
385.112	99.62
385.337	100.62
385.562	108.62
385.787	96.62
386.013	100.62
386.238	96.62
386.463	104.62
386.688	97.62
386.913	100.62
387.138	101.62
387.363	103.62
387.588	107.62
387.813	101.62
388.038	95.62
388.263	95.62
388.488	95.62
388.713	102.62
388.938	110.62
389.163	89.62
389.387	90.62
389.612	100.62
389.837	96.62
390.062	111.62
390.287	98.62
390.512	97.62
390.736	88.62
390.961	109.62
391.186	90.62
391.411	97.62
391.636	93.62
391.86	91.62
392.085	90.62
392.31	82.62
392.534	80.62
392.759	95.62
392.984	94.62
393.208	71.62
393.433	100.62
393.658	90.62
393.882	85.62
394.107	80.62
394.331	92.62
394.556	97.62
394.78	91.62
395.005	76.62
395.229	100.62
395.454	89.62
395.678	96.62
395.903	86.62
396.127	87.62
396.352	87.62
396.576	82.62
396.801	88.62
397.025	87.62
397.249	85.62
397.474	74.62
397.698	87.62
397.922	104.62
398.147	100.62
398.371	70.62
398.595	95.62
398.82	96.62
399.044	89.62
399.268	78.62
399.492	99.62
399.717	95.62
399.941	85.62
400.165	99.62
400.389	86.62
400.613	100.62
400.837	85.62
401.062	95.62
401.286	104.62
401.51	88.62
401.734	78.62
401.958	98.62
402.182	107.62
402.406	151.62
402.63	104.62
402.854	93.62
403.078	93.62
403.302	91.62
403.526	81.62
403.75	86.62
403.974	89.62
404.198	80.62
404.422	84.62
404.645	93.62
404.869	85.62
405.093	94.62
405.317	113.62
405.541	100.62
405.765	92.62
405.988	114.62
406.212	153.62
406.436	200.62
406.66	128.62
406.883	99.62
407.107	90.62
407.331	94.62
407.555	96.62
407.778	96.62
408.002	85.62
408.226	84.62
408.449	96.62
408.673	85.62
408.896	96.62
409.12	102.62
409.344	74.62
409.567	87.62
409.791	81.62
410.014	93.62
410.238	94.62
410.461	100.62
410.685	88.62
410.908	101.62
411.132	96.62
411.355	95.62
411.578	104.62
411.802	88.62
412.025	95.62
412.249	97.62
412.472	93.62
412.695	96.62
412.919	97.62
413.142	81.62
413.365	95.62
413.589	79.62
413.812	98.62
414.035	91.62
414.258	82.62
414.482	76.62
414.705	91.62
414.928	91.62
415.151	91.62
415.374	81.62
415.597	86.62
415.821	85.62
416.044	88.62
416.267	85.62
416.49	94.62
416.713	103.62
416.936	89.62
417.159	93.62
417.382	93.62
417.605	93.62
417.828	101.62
418.051	100.62
418.274	97.62
418.497	89.62
418.72	79.62
418.943	89.62
419.166	91.62
419.389	97.62
419.611	96.62
419.834	101.62
420.057	86.62
420.28	94.62
420.503	78.62
420.726	96.62
420.948	89.62
421.171	85.62
421.394	87.62
421.617	92.62
421.839	93.62
422.062	88.62
422.285	107.62
422.507	96.62
422.73	109.62
422.953	100.62
423.175	102.62
423.398	89.62
423.621	86.62
423.843	79.62
424.066	82.62
424.288	88.62
424.511	96.62
424.733	94.62
424.956	96.62
425.178	111.62
425.401	90.62
425.623	103.62
425.846	92.62
426.068	99.62
426.291	99.62
426.513	94.62
426.735	81.62
426.958	96.62
427.18	95.62
427.402	132.62
427.625	161.62
427.847	155.62
428.069	136.62
428.292	92.62
428.514	91.62
428.736	78.62
428.958	87.62
429.181	74.62
429.403	79.62
429.625	88.62
429.847	81.62
430.069	100.62
430.292	84.62
430.514	95.62
430.736	84.62
430.958	90.62
431.18	90.62
431.402	84.62
431.624	93.62
431.846	86.62
432.068	93.62
432.29	89.62
432.512	91.62
432.734	105.62
432.956	95.62
433.178	102.62
433.4	89.62
433.622	94.62
433.844	98.62
434.066	82.62
434.287	79.62
434.509	88.62
434.731	96.62
434.953	87.62
435.175	83.62
435.397	90.62
435.618	111.62
435.84	103.62
436.062	121.62
436.284	98.62
436.505	89.62
436.727	95.62
436.949	106.62
437.17	89.62
437.392	94.62
437.614	91.62
437.835	98.62
438.057	107.62
438.278	96.62
438.5	105.62
438.721	120.62
438.943	90.62
439.165	95.62
439.386	78.62
439.608	95.62
439.829	106.62
440.05	105.62
440.272	144.62
440.493	80.62
440.715	105.62
440.936	97.62
441.158	83.62
441.379	105.62
441.6	96.62
441.822	96.62
442.043	100.62
442.264	93.62
442.486	107.62
442.707	99.62
442.928	99.62
443.149	119.62
443.371	111.62
443.592	115.62
443.813	92.62
444.034	97.62
444.255	96.62
444.476	97.62
444.698	96.62
444.919	101.62
445.14	131.62
445.361	123.62
445.582	97.62
445.803	110.62
446.024	123.62
446.245	128.62
446.466	124.62
446.687	94.62
446.908	95.62
447.129	80.62
447.35	96.62
447.571	91.62
447.792	91.62
448.013	94.62
448.234	107.62
448.455	105.62
448.675	124.62
448.896	121.62
449.117	111.62
449.338	97.62
449.559	140.62
449.779	133.62
450	94.62
450.221	97.62
450.442	81.62
450.662	96.62
450.883	93.62
451.104	109.62
451.324	99.62
451.545	73.62
451.766	76.62
451.986	86.62
452.207	103.62
452.428	108.62
452.648	95.62
452.869	93.62
453.089	109.62
453.31	108.62
453.53	107.62
453.751	84.62
453.971	97.62
454.192	102.62
454.412	105.62
454.633	93.62
454.853	94.62
455.073	91.62
455.294	95.62
455.514	96.62
455.734	106.62
455.955	94.62
456.175	88.62
456.395	85.62
456.616	90.62
456.836	85.62
457.056	87.62
457.276	87.62
457.497	88.62
457.717	78.62
457.937	81.62
458.157	73.62
458.377	97.62
458.598	101.62
458.818	119.62
459.038	143.62
459.258	113.62
459.478	73.62
459.698	81.62
459.918	80.62
460.138	88.62
460.358	88.62
460.578	85.62
460.798	93.62
461.018	91.62
461.238	68.62
461.458	89.62
461.678	87.62
461.898	94.62
462.118	64.62
462.338	83.62
462.558	88.62
462.777	85.62
462.997	93.62
463.217	84.62
463.437	77.62
463.657	76.62
463.876	89.62
464.096	94.62
464.316	98.62
464.536	91.62
464.755	102.62
464.975	102.62
465.195	155.62
465.414	145.62
465.634	93.62
465.854	104.62
466.073	77.62
466.293	71.62
466.512	94.62
466.732	79.62
466.951	92.62
467.171	106.62
467.391	96.62
467.61	101.62
467.829	110.62
468.049	149.62
468.268	164.62
468.488	103.62
468.707	90.62
468.927	93.62
469.146	96.62
469.365	86.62
469.585	91.62
469.804	95.62
470.023	91.62
470.243	89.62
470.462	88.62
470.681	110.62
470.901	87.62
471.12	90.62
471.339	77.62
471.558	103.62
471.777	96.62
471.997	117.62
472.216	219.62
472.435	395.62
472.654	144.62
472.873	92.62
473.092	95.62
473.311	79.62
473.53	94.62
473.749	98.62
473.968	94.62
474.187	87.62
474.406	99.62
474.625	77.62
474.844	94.62
475.063	89.62
475.282	96.62
475.501	91.62
475.72	80.62
475.939	95.62
476.158	95.62
476.377	85.62
476.596	82.62
476.814	80.62
477.033	95.62
477.252	92.62
477.471	100.62
477.69	86.62
477.908	93.62
478.127	75.62
478.346	110.62
478.564	101.62
478.783	89.62
479.002	92.62
479.22	90.62
479.439	99.62
479.658	90.62
479.876	105.62
480.095	95.62
480.313	102.62
480.532	117.62
480.751	115.62
480.969	220.62
481.188	653.62
481.406	424.62
481.624	132.62
481.843	84.62
482.061	89.62
482.28	82.62
482.498	84.62
482.717	80.62
482.935	96.62
483.153	98.62
483.372	99.62
483.59	84.62
483.808	93.62
484.027	98.62
484.245	91.62
484.463	94.62
484.681	94.62
484.9	78.62
485.118	107.62
485.336	93.62
485.554	103.62
485.772	88.62
485.99	97.62
486.209	103.62
486.427	84.62
486.645	102.62
486.863	116.62
487.081	103.62
487.299	100.62
487.517	87.62
487.735	96.62
487.953	85.62
488.171	105.62
488.389	110.62
488.607	92.62
488.825	95.62
489.043	83.62
489.261	94.62
489.479	81.62
489.696	86.62
489.914	76.62
490.132	89.62
490.35	92.62
490.568	91.62
490.786	95.62
491.003	79.62
491.221	90.62
491.439	89.62
491.657	98.62
491.874	88.62
492.092	97.62
492.31	95.62
492.527	76.62
492.745	92.62
492.963	97.62
493.18	94.62
493.398	81.62
493.615	91.62
493.833	84.62
494.05	88.62
494.268	81.62
494.485	82.62
494.703	88.62
494.92	82.62
495.138	95.62
495.355	93.62
495.573	92.62
495.79	83.62
496.008	91.62
496.225	98.62
496.442	85.62
496.66	85.62
496.877	90.62
497.094	88.62
497.312	101.62
497.529	90.62
497.746	80.62
497.963	95.62
498.181	104.62
498.398	108.62
498.615	102.62
498.832	91.62
499.049	88.62
499.267	99.62
499.484	85.62
499.701	93.62
499.918	79.62
500.135	89.62
500.352	94.62
500.569	97.62
500.786	103.62
501.003	89.62
501.22	87.62
501.437	99.62
501.654	81.62
501.871	104.62
502.088	95.62
502.305	82.62
502.522	87.62
502.739	77.62
502.956	95.62
503.172	105.62
503.389	92.62
503.606	94.62
503.823	99.62
504.04	79.62
504.256	91.62
504.473	80.62
504.69	95.62
504.907	93.62
505.123	79.62
505.34	88.62
505.557	91.62
505.773	94.62
505.99	88.62
506.207	94.62
506.423	90.62
506.64	88.62
506.856	72.62
507.073	84.62
507.289	93.62
507.506	105.62
507.722	99.62
507.939	112.62
508.155	92.62
508.372	93.62
508.588	98.62
508.805	98.62
509.021	91.62
509.238	93.62
509.454	87.62
509.67	92.62
509.887	100.62
510.103	112.62
510.319	183.62
510.536	617.62
510.752	1935.62
510.968	572.62
511.184	145.62
511.401	111.62
511.617	87.62
511.833	97.62
512.049	89.62
512.265	92.62
512.481	80.62
512.698	89.62
512.914	79.62
513.13	82.62
513.346	94.62
513.562	77.62
513.778	83.62
513.994	90.62
514.21	95.62
514.426	110.62
514.642	118.62
514.858	115.62
515.074	150.62
515.29	389.62
515.506	1208.62
515.721	473.62
