Data from Circ_2011_H10_HRD10591_00014.txt Node
Date: Wed Jan 03 10:08:01 EST 2024
User: Yrep
Spectrometer: HR+D1059
Trigger mode: 1
Integration Time (sec): 1.000000E-1
Scans to average: 1
Electric dark correction enabled: true
Nonlinearity correction enabled: false
Boxcar width: 0
XAxis mode: Wavelengths
Number of Pixels in Spectrum: 2048
>>>>>Begin Spectral Data<<<<<
223.165	-17.31
223.4	-17.31
223.635	-17.31
223.869	-26.31
224.104	-23.31
224.338	-29.31
224.573	-8.31
224.808	-10.31
225.042	-5.31
225.277	-8.31
225.511	-4.31
225.746	8.69
225.98	2.69
226.215	25.69
226.449	22.69
226.683	23.69
226.918	20.69
227.152	28.69
227.387	22.69
227.621	37.69
227.856	44.69
228.09	50.69
228.324	58.69
228.559	66.69
228.793	47.69
229.027	75.69
229.262	61.69
229.496	75.69
229.73	94.69
229.964	87.69
230.199	84.69
230.433	77.69
230.667	85.69
230.901	79.69
231.136	68.69
231.37	84.69
231.604	75.69
231.838	80.69
232.072	96.69
232.306	77.69
232.541	79.69
232.775	73.69
233.009	54.69
233.243	82.69
233.477	84.69
233.711	86.69
233.945	83.69
234.179	77.69
234.413	56.69
234.647	70.69
234.881	71.69
235.115	91.69
235.349	83.69
235.583	83.69
235.817	71.69
236.051	72.69
236.285	86.69
236.519	80.69
236.753	86.69
236.987	81.69
237.221	76.69
237.455	69.69
237.689	54.69
237.922	83.69
238.156	71.69
238.39	63.69
238.624	72.69
238.858	75.69
239.091	74.69
239.325	75.69
239.559	91.69
239.793	83.69
240.027	91.69
240.26	72.69
240.494	89.69
240.728	89.69
240.961	77.69
241.195	87.69
241.429	68.69
241.662	74.69
241.896	90.69
242.13	72.69
242.363	75.69
242.597	87.69
242.83	64.69
243.064	59.69
243.298	69.69
243.531	76.69
243.765	78.69
243.998	73.69
244.232	87.69
244.465	86.69
244.699	72.69
244.932	68.69
245.166	81.69
245.399	86.69
245.633	87.69
245.866	86.69
246.099	79.69
246.333	86.69
246.566	84.69
246.8	75.69
247.033	95.69
247.266	91.69
247.5	73.69
247.733	76.69
247.966	86.69
248.2	91.69
248.433	93.69
248.666	73.69
248.899	82.69
249.133	99.69
249.366	94.69
249.599	94.69
249.832	83.69
250.066	84.69
250.299	74.69
250.532	70.69
250.765	85.69
250.998	83.69
251.231	101.69
251.465	86.69
251.698	84.69
251.931	85.69
252.164	95.69
252.397	87.69
252.63	90.69
252.863	96.69
253.096	79.69
253.329	98.69
253.562	75.69
253.795	89.69
254.028	105.69
254.261	77.69
254.494	85.69
254.727	86.69
254.96	74.69
255.193	85.69
255.426	81.69
255.659	83.69
255.892	74.69
256.124	88.69
256.357	91.69
256.59	81.69
256.823	80.69
257.056	77.69
257.289	77.69
257.521	77.69
257.754	87.69
257.987	77.69
258.22	79.69
258.452	81.69
258.685	83.69
258.918	72.69
259.151	88.69
259.383	64.69
259.616	67.69
259.849	80.69
260.081	87.69
260.314	102.69
260.547	75.69
260.779	98.69
261.012	76.69
261.244	99.69
261.477	77.69
261.71	95.69
261.942	105.69
262.175	110.69
262.407	79.69
262.64	74.69
262.872	82.69
263.105	87.69
263.337	87.69
263.57	85.69
263.802	85.69
264.035	84.69
264.267	69.69
264.499	82.69
264.732	74.69
264.964	83.69
265.197	77.69
265.429	74.69
265.661	81.69
265.894	77.69
266.126	80.69
266.358	81.69
266.591	83.69
266.823	79.69
267.055	82.69
267.287	77.69
267.52	86.69
267.752	75.69
267.984	86.69
268.216	85.69
268.448	67.69
268.681	72.69
268.913	80.69
269.145	90.69
269.377	79.69
269.609	77.69
269.841	76.69
270.073	91.69
270.306	84.69
270.538	96.69
270.77	75.69
271.002	86.69
271.234	87.69
271.466	88.69
271.698	72.69
271.93	89.69
272.162	91.69
272.394	77.69
272.626	76.69
272.858	91.69
273.09	81.69
273.322	75.69
273.553	89.69
273.785	78.69
274.017	86.69
274.249	82.69
274.481	90.69
274.713	78.69
274.945	77.69
275.176	70.69
275.408	75.69
275.64	84.69
275.872	90.69
276.104	94.69
276.335	99.69
276.567	104.69
276.799	96.69
277.031	88.69
277.262	88.69
277.494	80.69
277.726	85.69
277.957	82.69
278.189	90.69
278.421	80.69
278.652	81.69
278.884	83.69
279.115	84.69
279.347	94.69
279.579	98.69
279.81	81.69
280.042	82.69
280.273	97.69
280.505	91.69
280.736	94.69
280.968	83.69
281.199	85.69
281.431	90.69
281.662	90.69
281.894	96.69
282.125	106.69
282.356	100.69
282.588	124.69
282.819	115.69
283.051	82.69
283.282	87.69
283.513	75.69
283.745	79.69
283.976	87.69
284.207	72.69
284.439	88.69
284.67	79.69
284.901	94.69
285.132	86.69
285.364	78.69
285.595	88.69
285.826	96.69
286.057	82.69
286.288	86.69
286.52	86.69
286.751	74.69
286.982	84.69
287.213	80.69
287.444	89.69
287.675	76.69
287.906	81.69
288.138	88.69
288.369	82.69
288.6	79.69
288.831	98.69
289.062	79.69
289.293	84.69
289.524	95.69
289.755	86.69
289.986	86.69
290.217	86.69
290.448	96.69
290.679	90.69
290.91	80.69
291.141	108.69
291.371	88.69
291.602	72.69
291.833	85.69
292.064	87.69
292.295	83.69
292.526	85.69
292.757	79.69
292.987	84.69
293.218	97.69
293.449	90.69
293.68	90.69
293.91	94.69
294.141	81.69
294.372	87.69
294.603	77.69
294.833	75.69
295.064	96.69
295.295	79.69
295.525	86.69
295.756	94.69
295.987	105.69
296.217	121.69
296.448	121.69
296.679	84.69
296.909	80.69
297.14	85.69
297.37	84.69
297.601	85.69
297.831	79.69
298.062	87.69
298.292	92.69
298.523	97.69
298.753	79.69
298.984	83.69
299.214	94.69
299.445	84.69
299.675	78.69
299.905	102.69
300.136	102.69
300.366	84.69
300.597	84.69
300.827	77.69
301.057	77.69
301.288	99.69
301.518	96.69
301.748	79.69
301.979	110.69
302.209	85.69
302.439	77.69
302.669	89.69
302.9	101.69
303.13	99.69
303.36	92.69
303.59	106.69
303.82	122.69
304.051	80.69
304.281	84.69
304.511	84.69
304.741	105.69
304.971	86.69
305.201	94.69
305.431	100.69
305.661	91.69
305.891	88.69
306.121	100.69
306.352	95.69
306.582	85.69
306.812	105.69
307.042	80.69
307.272	98.69
307.502	80.69
307.731	94.69
307.961	94.69
308.191	93.69
308.421	90.69
308.651	74.69
308.881	101.69
309.111	80.69
309.341	98.69
309.571	101.69
309.8	86.69
310.03	95.69
310.26	111.69
310.49	114.69
310.72	89.69
310.949	92.69
311.179	96.69
311.409	91.69
311.639	81.69
311.868	78.69
312.098	91.69
312.328	87.69
312.557	98.69
312.787	86.69
313.017	92.69
313.246	84.69
313.476	98.69
313.706	96.69
313.935	103.69
314.165	90.69
314.394	85.69
314.624	118.69
314.853	95.69
315.083	94.69
315.312	100.69
315.542	77.69
315.771	79.69
316.001	90.69
316.23	90.69
316.46	103.69
316.689	84.69
316.919	99.69
317.148	88.69
317.377	98.69
317.607	99.69
317.836	80.69
318.065	91.69
318.295	77.69
318.524	84.69
318.753	93.69
318.983	94.69
319.212	92.69
319.441	117.69
319.67	95.69
319.9	89.69
320.129	94.69
320.358	83.69
320.587	91.69
320.816	87.69
321.046	100.69
321.275	94.69
321.504	95.69
321.733	95.69
321.962	105.69
322.191	93.69
322.42	98.69
322.649	107.69
322.878	113.69
323.108	111.69
323.337	143.69
323.566	136.69
323.795	160.69
324.024	200.69
324.253	378.69
324.482	828.69
324.71	1719.69
324.939	2155.69
325.168	826.69
325.397	220.69
325.626	134.69
325.855	135.69
326.084	130.69
326.313	120.69
326.542	150.69
326.77	219.69
326.999	478.69
327.228	971.69
327.457	1700.69
327.686	1350.69
327.914	366.69
328.143	192.69
328.372	151.69
328.6	130.69
328.829	111.69
329.058	130.69
329.287	132.69
329.515	118.69
329.744	108.69
329.972	102.69
330.201	152.69
330.43	166.69
330.658	144.69
330.887	138.69
331.115	112.69
331.344	86.69
331.572	95.69
331.801	87.69
332.03	87.69
332.258	98.69
332.486	95.69
332.715	94.69
332.943	89.69
333.172	97.69
333.4	91.69
333.629	111.69
333.857	108.69
334.085	126.69
334.314	134.69
334.542	180.69
334.771	170.69
334.999	101.69
335.227	99.69
335.455	93.69
335.684	87.69
335.912	95.69
336.14	96.69
336.369	96.69
336.597	99.69
336.825	97.69
337.053	99.69
337.281	90.69
337.51	87.69
337.738	94.69
337.966	102.69
338.194	89.69
338.422	91.69
338.65	77.69
338.878	99.69
339.106	98.69
339.334	107.69
339.562	93.69
339.79	87.69
340.018	93.69
340.246	88.69
340.474	95.69
340.702	89.69
340.93	79.69
341.158	87.69
341.386	85.69
341.614	89.69
341.842	73.69
342.07	88.69
342.298	89.69
342.526	81.69
342.754	75.69
342.981	75.69
343.209	98.69
343.437	78.69
343.665	92.69
343.893	95.69
344.12	84.69
344.348	91.69
344.576	86.69
344.804	97.69
345.031	93.69
345.259	86.69
345.487	88.69
345.714	85.69
345.942	92.69
346.17	87.69
346.397	91.69
346.625	78.69
346.853	80.69
347.08	98.69
347.308	91.69
347.535	78.69
347.763	100.69
347.99	97.69
348.218	108.69
348.445	97.69
348.673	99.69
348.9	104.69
349.128	82.69
349.355	89.69
349.583	88.69
349.81	88.69
350.037	101.69
350.265	92.69
350.492	95.69
350.72	108.69
350.947	102.69
351.174	104.69
351.402	113.69
351.629	98.69
351.856	108.69
352.083	100.69
352.311	92.69
352.538	95.69
352.765	101.69
352.992	134.69
353.22	103.69
353.447	88.69
353.674	96.69
353.901	96.69
354.128	93.69
354.355	79.69
354.583	89.69
354.81	100.69
355.037	90.69
355.264	87.69
355.491	101.69
355.718	101.69
355.945	86.69
356.172	86.69
356.399	79.69
356.626	88.69
356.853	92.69
357.08	102.69
357.307	82.69
357.534	82.69
357.761	80.69
357.988	103.69
358.215	95.69
358.441	89.69
358.668	94.69
358.895	86.69
359.122	93.69
359.349	96.69
359.576	90.69
359.802	93.69
360.029	99.69
360.256	95.69
360.483	87.69
360.709	82.69
360.936	111.69
361.163	99.69
361.39	74.69
361.616	109.69
361.843	71.69
362.07	87.69
362.296	88.69
362.523	102.69
362.749	99.69
362.976	79.69
363.203	89.69
363.429	89.69
363.656	98.69
363.882	70.69
364.109	92.69
364.335	98.69
364.562	72.69
364.788	87.69
365.015	87.69
365.241	93.69
365.468	95.69
365.694	111.69
365.92	97.69
366.147	90.69
366.373	88.69
366.599	92.69
366.826	63.69
367.052	83.69
367.278	90.69
367.505	73.69
367.731	92.69
367.957	95.69
368.184	96.69
368.41	91.69
368.636	112.69
368.862	106.69
369.089	89.69
369.315	79.69
369.541	71.69
369.767	91.69
369.993	95.69
370.219	82.69
370.445	76.69
370.672	87.69
370.898	95.69
371.124	83.69
371.35	85.69
371.576	74.69
371.802	88.69
372.028	86.69
372.254	92.69
372.48	93.69
372.706	92.69
372.932	87.69
373.158	85.69
373.384	84.69
373.61	95.69
373.835	77.69
374.061	88.69
374.287	79.69
374.513	84.69
374.739	80.69
374.965	93.69
375.191	85.69
375.416	84.69
375.642	88.69
375.868	80.69
376.094	91.69
376.319	87.69
376.545	93.69
376.771	86.69
376.997	91.69
377.222	79.69
377.448	95.69
377.674	79.69
377.899	74.69
378.125	86.69
378.35	93.69
378.576	88.69
378.802	93.69
379.027	95.69
379.253	81.69
379.478	83.69
379.704	90.69
379.929	90.69
380.155	87.69
380.38	86.69
380.606	84.69
380.831	91.69
381.057	97.69
381.282	94.69
381.507	86.69
381.733	87.69
381.958	89.69
382.184	83.69
382.409	100.69
382.634	99.69
382.86	93.69
383.085	97.69
383.31	103.69
383.535	89.69
383.761	94.69
383.986	91.69
384.211	102.69
384.436	74.69
384.662	95.69
384.887	107.69
385.112	86.69
385.337	93.69
385.562	101.69
385.787	104.69
386.013	119.69
386.238	87.69
386.463	93.69
386.688	106.69
386.913	84.69
387.138	92.69
387.363	96.69
387.588	88.69
387.813	102.69
388.038	96.69
388.263	97.69
388.488	101.69
388.713	88.69
388.938	97.69
389.163	86.69
389.387	84.69
389.612	86.69
389.837	93.69
390.062	102.69
390.287	85.69
390.512	87.69
390.736	96.69
390.961	84.69
391.186	83.69
391.411	82.69
391.636	94.69
391.86	83.69
392.085	79.69
392.31	86.69
392.534	77.69
392.759	93.69
392.984	90.69
393.208	85.69
393.433	88.69
393.658	87.69
393.882	77.69
394.107	78.69
394.331	83.69
394.556	66.69
394.78	91.69
395.005	83.69
395.229	84.69
395.454	86.69
395.678	78.69
395.903	92.69
396.127	87.69
396.352	79.69
396.576	78.69
396.801	94.69
397.025	75.69
397.249	101.69
397.474	93.69
397.698	76.69
397.922	103.69
398.147	86.69
398.371	98.69
398.595	85.69
398.82	80.69
399.044	95.69
399.268	82.69
399.492	79.69
399.717	88.69
399.941	97.69
400.165	78.69
400.389	99.69
400.613	95.69
400.837	81.69
401.062	79.69
401.286	92.69
401.51	80.69
401.734	83.69
401.958	90.69
402.182	128.69
402.406	138.69
402.63	112.69
402.854	76.69
403.078	105.69
403.302	100.69
403.526	90.69
403.75	74.69
403.974	82.69
404.198	76.69
404.422	78.69
404.645	92.69
404.869	80.69
405.093	90.69
405.317	100.69
405.541	104.69
405.765	106.69
405.988	107.69
406.212	154.69
406.436	220.69
406.66	131.69
406.883	110.69
407.107	86.69
407.331	103.69
407.555	90.69
407.778	95.69
408.002	99.69
408.226	92.69
408.449	83.69
408.673	88.69
408.896	83.69
409.12	87.69
409.344	80.69
409.567	84.69
409.791	86.69
410.014	88.69
410.238	85.69
410.461	82.69
410.685	93.69
410.908	100.69
411.132	92.69
411.355	103.69
411.578	84.69
411.802	90.69
412.025	78.69
412.249	88.69
412.472	97.69
412.695	97.69
412.919	88.69
413.142	93.69
413.365	78.69
413.589	87.69
413.812	82.69
414.035	82.69
414.258	97.69
414.482	100.69
414.705	102.69
414.928	80.69
415.151	94.69
415.374	94.69
415.597	89.69
415.821	82.69
416.044	85.69
416.267	93.69
416.49	91.69
416.713	103.69
416.936	93.69
417.159	88.69
417.382	85.69
417.605	88.69
417.828	89.69
418.051	90.69
418.274	75.69
418.497	86.69
418.72	95.69
418.943	102.69
419.166	86.69
419.389	86.69
419.611	98.69
419.834	85.69
420.057	85.69
420.28	79.69
420.503	72.69
420.726	88.69
420.948	87.69
421.171	82.69
421.394	92.69
421.617	84.69
421.839	88.69
422.062	86.69
422.285	108.69
422.507	85.69
422.73	79.69
422.953	90.69
423.175	88.69
423.398	84.69
423.621	94.69
423.843	89.69
424.066	77.69
424.288	90.69
424.511	87.69
424.733	98.69
424.956	89.69
425.178	94.69
425.401	93.69
425.623	91.69
425.846	83.69
426.068	101.69
426.291	86.69
426.513	79.69
426.735	87.69
426.958	90.69
427.18	101.69
427.402	132.69
427.625	162.69
427.847	138.69
428.069	105.69
428.292	92.69
428.514	94.69
428.736	95.69
428.958	73.69
429.181	86.69
429.403	96.69
429.625	94.69
429.847	92.69
430.069	98.69
430.292	99.69
430.514	100.69
430.736	91.69
430.958	99.69
431.18	85.69
431.402	87.69
431.624	92.69
431.846	85.69
432.068	89.69
432.29	90.69
432.512	99.69
432.734	86.69
432.956	86.69
433.178	97.69
433.4	80.69
433.622	88.69
433.844	95.69
434.066	93.69
434.287	81.69
434.509	72.69
434.731	83.69
434.953	84.69
435.175	82.69
435.397	80.69
435.618	91.69
435.84	104.69
436.062	103.69
436.284	109.69
436.505	87.69
436.727	114.69
436.949	95.69
437.17	97.69
437.392	85.69
437.614	103.69
437.835	115.69
438.057	116.69
438.278	112.69
438.5	97.69
438.721	124.69
438.943	93.69
439.165	76.69
439.386	98.69
439.608	94.69
439.829	103.69
440.05	125.69
440.272	127.69
440.493	86.69
440.715	91.69
440.936	91.69
441.158	93.69
441.379	83.69
441.6	75.69
441.822	79.69
442.043	96.69
442.264	111.69
442.486	111.69
442.707	106.69
442.928	103.69
443.149	138.69
443.371	118.69
443.592	107.69
443.813	113.69
444.034	101.69
444.255	91.69
444.476	82.69
444.698	75.69
444.919	92.69
445.14	119.69
445.361	138.69
445.582	107.69
445.803	117.69
446.024	126.69
446.245	143.69
446.466	104.69
446.687	94.69
446.908	92.69
447.129	89.69
447.35	90.69
447.571	98.69
447.792	87.69
448.013	97.69
448.234	107.69
448.455	89.69
448.675	94.69
448.896	117.69
449.117	99.69
449.338	98.69
449.559	128.69
449.779	122.69
450	90.69
450.221	87.69
450.442	86.69
450.662	87.69
450.883	99.69
451.104	111.69
451.324	95.69
451.545	78.69
451.766	84.69
451.986	77.69
452.207	82.69
452.428	86.69
452.648	99.69
452.869	93.69
453.089	114.69
453.31	115.69
453.53	86.69
453.751	84.69
453.971	83.69
454.192	100.69
454.412	104.69
454.633	88.69
454.853	90.69
455.073	85.69
455.294	83.69
455.514	96.69
455.734	79.69
455.955	75.69
456.175	100.69
456.395	76.69
456.616	99.69
456.836	67.69
457.056	87.69
457.276	83.69
457.497	79.69
457.717	74.69
457.937	86.69
458.157	83.69
458.377	78.69
458.598	120.69
458.818	135.69
459.038	148.69
459.258	111.69
459.478	79.69
459.698	77.69
459.918	88.69
460.138	95.69
460.358	91.69
460.578	76.69
460.798	94.69
461.018	96.69
461.238	85.69
461.458	83.69
461.678	88.69
461.898	84.69
462.118	91.69
462.338	86.69
462.558	92.69
462.777	73.69
462.997	74.69
463.217	77.69
463.437	74.69
463.657	94.69
463.876	83.69
464.096	95.69
464.316	89.69
464.536	94.69
464.755	84.69
464.975	103.69
465.195	173.69
465.414	153.69
465.634	102.69
465.854	93.69
466.073	90.69
466.293	84.69
466.512	83.69
466.732	88.69
466.951	74.69
467.171	91.69
467.391	85.69
467.61	102.69
467.829	103.69
468.049	100.69
468.268	139.69
468.488	97.69
468.707	88.69
468.927	95.69
469.146	87.69
469.365	76.69
469.585	96.69
469.804	103.69
470.023	103.69
470.243	99.69
470.462	102.69
470.681	98.69
470.901	86.69
471.12	96.69
471.339	88.69
471.558	84.69
471.777	87.69
471.997	97.69
472.216	164.69
472.435	226.69
472.654	110.69
472.873	98.69
473.092	91.69
473.311	94.69
473.53	95.69
473.749	92.69
473.968	94.69
474.187	99.69
474.406	86.69
474.625	98.69
474.844	97.69
475.063	80.69
475.282	81.69
475.501	84.69
475.72	90.69
475.939	82.69
476.158	84.69
476.377	80.69
476.596	87.69
476.814	94.69
477.033	92.69
477.252	89.69
477.471	97.69
477.69	86.69
477.908	91.69
478.127	80.69
478.346	93.69
478.564	96.69
478.783	96.69
479.002	87.69
479.22	94.69
479.439	97.69
479.658	92.69
479.876	94.69
480.095	80.69
480.313	87.69
480.532	93.69
480.751	108.69
480.969	154.69
481.188	347.69
481.406	250.69
481.624	109.69
481.843	101.69
482.061	91.69
482.28	77.69
482.498	76.69
482.717	86.69
482.935	95.69
483.153	83.69
483.372	99.69
483.59	93.69
483.808	85.69
484.027	95.69
484.245	97.69
484.463	84.69
484.681	90.69
484.9	102.69
485.118	88.69
485.336	82.69
485.554	86.69
485.772	95.69
485.99	94.69
486.209	80.69
486.427	87.69
486.645	115.69
486.863	114.69
487.081	102.69
487.299	94.69
487.517	83.69
487.735	73.69
487.953	95.69
488.171	91.69
488.389	94.69
488.607	105.69
488.825	93.69
489.043	88.69
489.261	92.69
489.479	94.69
489.696	94.69
489.914	84.69
490.132	74.69
490.35	90.69
490.568	78.69
490.786	92.69
491.003	91.69
491.221	94.69
491.439	93.69
491.657	86.69
491.874	86.69
492.092	95.69
492.31	98.69
492.527	91.69
492.745	100.69
492.963	109.69
493.18	85.69
493.398	97.69
493.615	93.69
493.833	82.69
494.05	85.69
494.268	75.69
494.485	88.69
494.703	100.69
494.92	87.69
495.138	90.69
495.355	94.69
495.573	83.69
495.79	82.69
496.008	105.69
496.225	102.69
496.442	92.69
496.66	88.69
496.877	93.69
497.094	72.69
497.312	79.69
497.529	92.69
497.746	86.69
497.963	92.69
498.181	90.69
498.398	94.69
498.615	99.69
498.832	107.69
499.049	73.69
499.267	99.69
499.484	88.69
499.701	95.69
499.918	82.69
500.135	88.69
500.352	85.69
500.569	90.69
500.786	94.69
501.003	91.69
501.22	83.69
501.437	92.69
501.654	91.69
501.871	109.69
502.088	105.69
502.305	101.69
502.522	68.69
502.739	83.69
502.956	80.69
503.172	93.69
503.389	96.69
503.606	103.69
503.823	112.69
504.04	88.69
504.256	104.69
504.473	85.69
504.69	91.69
504.907	99.69
505.123	86.69
505.34	79.69
505.557	85.69
505.773	95.69
505.99	91.69
506.207	90.69
506.423	86.69
506.64	95.69
506.856	107.69
507.073	92.69
507.289	98.69
507.506	101.69
507.722	109.69
507.939	102.69
508.155	88.69
508.372	89.69
508.588	102.69
508.805	94.69
509.021	75.69
509.238	93.69
509.454	111.69
509.67	114.69
509.887	102.69
510.103	124.69
510.319	206.69
510.536	727.69
510.752	2236.69
510.968	644.69
511.184	154.69
511.401	110.69
511.617	95.69
511.833	93.69
512.049	89.69
512.265	90.69
512.481	86.69
512.698	99.69
512.914	84.69
513.13	96.69
513.346	93.69
513.562	90.69
513.778	92.69
513.994	100.69
514.21	107.69
514.426	121.69
514.642	141.69
514.858	110.69
515.074	159.69
515.29	431.69
515.506	1397.69
515.721	526.69
515.937	148.69
516.153	110.69
516.369	98.69
516.585	88.69
