Data from Circ_2011_H10_HRD10591_00068.txt Node
Date: Wed Jan 03 10:08:12 EST 2024
User: Yrep
Spectrometer: HR+D1059
Trigger mode: 1
Integration Time (sec): 1.000000E-1
Scans to average: 1
Electric dark correction enabled: true
Nonlinearity correction enabled: false
Boxcar width: 0
XAxis mode: Wavelengths
Number of Pixels in Spectrum: 2048
>>>>>Begin Spectral Data<<<<<
223.165	-20.69
223.4	-20.69
223.635	-20.69
223.869	-19.69
224.104	-29.69
224.338	-13.69
224.573	-21.69
224.808	-6.69
225.042	-0.69
225.277	-9.69
225.511	-0.69
225.746	3.31
225.98	9.31
226.215	16.31
226.449	17.31
226.683	7.31
226.918	31.31
227.152	38.31
227.387	42.31
227.621	55.31
227.856	67.31
228.09	47.31
228.324	62.31
228.559	48.31
228.793	40.31
229.027	61.31
229.262	61.31
229.496	80.31
229.73	81.31
229.964	82.31
230.199	73.31
230.433	86.31
230.667	81.31
230.901	74.31
231.136	71.31
231.37	81.31
231.604	72.31
231.838	87.31
232.072	79.31
232.306	81.31
232.541	93.31
232.775	85.31
233.009	88.31
233.243	70.31
233.477	76.31
233.711	73.31
233.945	75.31
234.179	81.31
234.413	83.31
234.647	86.31
234.881	81.31
235.115	89.31
235.349	95.31
235.583	86.31
235.817	69.31
236.051	76.31
236.285	95.31
236.519	70.31
236.753	78.31
236.987	73.31
237.221	88.31
237.455	94.31
237.689	82.31
237.922	69.31
238.156	88.31
238.39	64.31
238.624	79.31
238.858	82.31
239.091	81.31
239.325	81.31
239.559	73.31
239.793	77.31
240.027	78.31
240.26	81.31
240.494	69.31
240.728	95.31
240.961	70.31
241.195	80.31
241.429	84.31
241.662	82.31
241.896	93.31
242.13	81.31
242.363	71.31
242.597	79.31
242.83	75.31
243.064	66.31
243.298	75.31
243.531	90.31
243.765	87.31
243.998	73.31
244.232	78.31
244.465	89.31
244.699	65.31
244.932	89.31
245.166	79.31
245.399	79.31
245.633	73.31
245.866	99.31
246.099	74.31
246.333	86.31
246.566	91.31
246.8	79.31
247.033	72.31
247.266	82.31
247.5	82.31
247.733	74.31
247.966	87.31
248.2	77.31
248.433	83.31
248.666	81.31
248.899	72.31
249.133	88.31
249.366	102.31
249.599	99.31
249.832	78.31
250.066	91.31
250.299	87.31
250.532	80.31
250.765	73.31
250.998	74.31
251.231	65.31
251.465	80.31
251.698	79.31
251.931	76.31
252.164	80.31
252.397	88.31
252.63	81.31
252.863	84.31
253.096	88.31
253.329	70.31
253.562	74.31
253.795	86.31
254.028	79.31
254.261	90.31
254.494	69.31
254.727	88.31
254.96	89.31
255.193	81.31
255.426	79.31
255.659	97.31
255.892	88.31
256.124	83.31
256.357	97.31
256.59	79.31
256.823	95.31
257.056	81.31
257.289	76.31
257.521	94.31
257.754	77.31
257.987	90.31
258.22	86.31
258.452	84.31
258.685	81.31
258.918	75.31
259.151	85.31
259.383	74.31
259.616	83.31
259.849	98.31
260.081	90.31
260.314	79.31
260.547	70.31
260.779	81.31
261.012	73.31
261.244	91.31
261.477	86.31
261.71	89.31
261.942	117.31
262.175	117.31
262.407	73.31
262.64	82.31
262.872	73.31
263.105	86.31
263.337	82.31
263.57	79.31
263.802	84.31
264.035	84.31
264.267	75.31
264.499	79.31
264.732	82.31
264.964	85.31
265.197	93.31
265.429	78.31
265.661	92.31
265.894	81.31
266.126	100.31
266.358	95.31
266.591	84.31
266.823	77.31
267.055	95.31
267.287	85.31
267.52	88.31
267.752	100.31
267.984	85.31
268.216	66.31
268.448	85.31
268.681	77.31
268.913	81.31
269.145	86.31
269.377	80.31
269.609	90.31
269.841	78.31
270.073	89.31
270.306	81.31
270.538	87.31
270.77	83.31
271.002	88.31
271.234	89.31
271.466	84.31
271.698	87.31
271.93	86.31
272.162	96.31
272.394	90.31
272.626	82.31
272.858	77.31
273.09	75.31
273.322	83.31
273.553	80.31
273.785	82.31
274.017	107.31
274.249	91.31
274.481	87.31
274.713	83.31
274.945	83.31
275.176	78.31
275.408	88.31
275.64	78.31
275.872	100.31
276.104	91.31
276.335	93.31
276.567	91.31
276.799	100.31
277.031	90.31
277.262	104.31
277.494	97.31
277.726	80.31
277.957	83.31
278.189	91.31
278.421	88.31
278.652	90.31
278.884	83.31
279.115	99.31
279.347	99.31
279.579	101.31
279.81	96.31
280.042	87.31
280.273	98.31
280.505	111.31
280.736	96.31
280.968	70.31
281.199	93.31
281.431	82.31
281.662	90.31
281.894	97.31
282.125	103.31
282.356	120.31
282.588	123.31
282.819	99.31
283.051	95.31
283.282	86.31
283.513	94.31
283.745	91.31
283.976	80.31
284.207	91.31
284.439	94.31
284.67	101.31
284.901	87.31
285.132	85.31
285.364	92.31
285.595	92.31
285.826	82.31
286.057	90.31
286.288	88.31
286.52	82.31
286.751	75.31
286.982	94.31
287.213	103.31
287.444	85.31
287.675	87.31
287.906	83.31
288.138	89.31
288.369	89.31
288.6	93.31
288.831	79.31
289.062	84.31
289.293	80.31
289.524	81.31
289.755	84.31
289.986	103.31
290.217	81.31
290.448	87.31
290.679	97.31
290.91	91.31
291.141	80.31
291.371	93.31
291.602	77.31
291.833	91.31
292.064	92.31
292.295	82.31
292.526	77.31
292.757	94.31
292.987	104.31
293.218	88.31
293.449	89.31
293.68	81.31
293.91	86.31
294.141	96.31
294.372	90.31
294.603	81.31
294.833	89.31
295.064	90.31
295.295	107.31
295.525	82.31
295.756	94.31
295.987	113.31
296.217	119.31
296.448	95.31
296.679	90.31
296.909	96.31
297.14	86.31
297.37	85.31
297.601	108.31
297.831	91.31
298.062	90.31
298.292	82.31
298.523	86.31
298.753	86.31
298.984	81.31
299.214	89.31
299.445	94.31
299.675	91.31
299.905	93.31
300.136	82.31
300.366	84.31
300.597	88.31
300.827	88.31
301.057	93.31
301.288	95.31
301.518	103.31
301.748	96.31
301.979	93.31
302.209	74.31
302.439	89.31
302.669	91.31
302.9	93.31
303.13	89.31
303.36	105.31
303.59	102.31
303.82	109.31
304.051	91.31
304.281	98.31
304.511	89.31
304.741	85.31
304.971	99.31
305.201	95.31
305.431	69.31
305.661	76.31
305.891	91.31
306.121	95.31
306.352	108.31
306.582	89.31
306.812	92.31
307.042	90.31
307.272	106.31
307.502	105.31
307.731	98.31
307.961	90.31
308.191	85.31
308.421	88.31
308.651	97.31
308.881	83.31
309.111	88.31
309.341	95.31
309.571	105.31
309.8	106.31
310.03	91.31
310.26	89.31
310.49	81.31
310.72	96.31
310.949	90.31
311.179	93.31
311.409	94.31
311.639	82.31
311.868	102.31
312.098	96.31
312.328	108.31
312.557	97.31
312.787	101.31
313.017	105.31
313.246	79.31
313.476	96.31
313.706	92.31
313.935	91.31
314.165	100.31
314.394	105.31
314.624	105.31
314.853	101.31
315.083	100.31
315.312	82.31
315.542	101.31
315.771	104.31
316.001	98.31
316.23	98.31
316.46	71.31
316.689	91.31
316.919	81.31
317.148	102.31
317.377	98.31
317.607	91.31
317.836	88.31
318.065	87.31
318.295	88.31
318.524	93.31
318.753	87.31
318.983	98.31
319.212	101.31
319.441	120.31
319.67	107.31
319.9	94.31
320.129	96.31
320.358	94.31
320.587	88.31
320.816	101.31
321.046	112.31
321.275	106.31
321.504	93.31
321.733	99.31
321.962	95.31
322.191	112.31
322.42	97.31
322.649	99.31
322.878	110.31
323.108	119.31
323.337	130.31
323.566	125.31
323.795	153.31
324.024	211.31
324.253	426.31
324.482	881.31
324.71	1825.31
324.939	2379.31
325.168	869.31
325.397	252.31
325.626	153.31
325.855	140.31
326.084	133.31
326.313	133.31
326.542	169.31
326.77	233.31
326.999	482.31
327.228	1019.31
327.457	1904.31
327.686	1485.31
327.914	417.31
328.143	240.31
328.372	211.31
328.6	143.31
328.829	117.31
329.058	137.31
329.287	127.31
329.515	120.31
329.744	133.31
329.972	168.31
330.201	245.31
330.43	289.31
330.658	175.31
330.887	161.31
331.115	123.31
331.344	105.31
331.572	107.31
331.801	99.31
332.03	106.31
332.258	94.31
332.486	102.31
332.715	87.31
332.943	106.31
333.172	100.31
333.4	87.31
333.629	117.31
333.857	130.31
334.085	160.31
334.314	227.31
334.542	364.31
334.771	337.31
334.999	149.31
335.227	122.31
335.455	89.31
335.684	89.31
335.912	102.31
336.14	101.31
336.369	103.31
336.597	97.31
336.825	100.31
337.053	94.31
337.281	80.31
337.51	89.31
337.738	97.31
337.966	88.31
338.194	95.31
338.422	105.31
338.65	93.31
338.878	86.31
339.106	103.31
339.334	90.31
339.562	97.31
339.79	85.31
340.018	81.31
340.246	86.31
340.474	101.31
340.702	86.31
340.93	101.31
341.158	91.31
341.386	101.31
341.614	98.31
341.842	102.31
342.07	87.31
342.298	99.31
342.526	93.31
342.754	89.31
342.981	98.31
343.209	78.31
343.437	94.31
343.665	93.31
343.893	89.31
344.12	90.31
344.348	94.31
344.576	100.31
344.804	74.31
345.031	104.31
345.259	115.31
345.487	90.31
345.714	94.31
345.942	91.31
346.17	96.31
346.397	99.31
346.625	95.31
346.853	101.31
347.08	102.31
347.308	103.31
347.535	109.31
347.763	111.31
347.99	103.31
348.218	108.31
348.445	105.31
348.673	100.31
348.9	90.31
349.128	101.31
349.355	86.31
349.583	85.31
349.81	94.31
350.037	100.31
350.265	85.31
350.492	91.31
350.72	98.31
350.947	119.31
351.174	108.31
351.402	107.31
351.629	92.31
351.856	95.31
352.083	113.31
352.311	107.31
352.538	114.31
352.765	119.31
352.992	121.31
353.22	118.31
353.447	102.31
353.674	102.31
353.901	112.31
354.128	96.31
354.355	78.31
354.583	104.31
354.81	97.31
355.037	106.31
355.264	93.31
355.491	89.31
355.718	81.31
355.945	90.31
356.172	77.31
356.399	94.31
356.626	98.31
356.853	99.31
357.08	93.31
357.307	88.31
357.534	84.31
357.761	87.31
357.988	88.31
358.215	95.31
358.441	101.31
358.668	81.31
358.895	98.31
359.122	82.31
359.349	83.31
359.576	88.31
359.802	104.31
360.029	120.31
360.256	118.31
360.483	81.31
360.709	88.31
360.936	93.31
361.163	88.31
361.39	97.31
361.616	95.31
361.843	81.31
362.07	93.31
362.296	92.31
362.523	103.31
362.749	101.31
362.976	88.31
363.203	88.31
363.429	96.31
363.656	85.31
363.882	96.31
364.109	89.31
364.335	94.31
364.562	90.31
364.788	96.31
365.015	83.31
365.241	97.31
365.468	112.31
365.694	90.31
365.92	87.31
366.147	99.31
366.373	94.31
366.599	95.31
366.826	100.31
367.052	104.31
367.278	102.31
367.505	98.31
367.731	97.31
367.957	89.31
368.184	87.31
368.41	91.31
368.636	126.31
368.862	104.31
369.089	110.31
369.315	95.31
369.541	122.31
369.767	105.31
369.993	94.31
370.219	98.31
370.445	97.31
370.672	87.31
370.898	81.31
371.124	90.31
371.35	93.31
371.576	81.31
371.802	94.31
372.028	88.31
372.254	101.31
372.48	75.31
372.706	95.31
372.932	103.31
373.158	87.31
373.384	99.31
373.61	102.31
373.835	88.31
374.061	84.31
374.287	94.31
374.513	103.31
374.739	96.31
374.965	87.31
375.191	82.31
375.416	68.31
375.642	80.31
375.868	89.31
376.094	84.31
376.319	80.31
376.545	76.31
376.771	64.31
376.997	89.31
377.222	91.31
377.448	101.31
377.674	95.31
377.899	103.31
378.125	88.31
378.35	104.31
378.576	90.31
378.802	79.31
379.027	101.31
379.253	98.31
379.478	88.31
379.704	94.31
379.929	94.31
380.155	87.31
380.38	99.31
380.606	88.31
380.831	80.31
381.057	96.31
381.282	98.31
381.507	87.31
381.733	98.31
381.958	96.31
382.184	101.31
382.409	91.31
382.634	93.31
382.86	91.31
383.085	98.31
383.31	119.31
383.535	113.31
383.761	101.31
383.986	95.31
384.211	90.31
384.436	99.31
384.662	101.31
384.887	86.31
385.112	105.31
385.337	93.31
385.562	96.31
385.787	118.31
386.013	93.31
386.238	89.31
386.463	100.31
386.688	103.31
386.913	82.31
387.138	103.31
387.363	105.31
387.588	116.31
387.813	89.31
388.038	99.31
388.263	101.31
388.488	106.31
388.713	110.31
388.938	104.31
389.163	84.31
389.387	97.31
389.612	95.31
389.837	82.31
390.062	83.31
390.287	85.31
390.512	89.31
390.736	88.31
390.961	86.31
391.186	93.31
391.411	98.31
391.636	75.31
391.86	97.31
392.085	97.31
392.31	78.31
392.534	88.31
392.759	91.31
392.984	80.31
393.208	93.31
393.433	87.31
393.658	94.31
393.882	88.31
394.107	83.31
394.331	80.31
394.556	95.31
394.78	75.31
395.005	91.31
395.229	94.31
395.454	87.31
395.678	86.31
395.903	87.31
396.127	93.31
396.352	91.31
396.576	87.31
396.801	92.31
397.025	85.31
397.249	89.31
397.474	88.31
397.698	94.31
397.922	88.31
398.147	103.31
398.371	89.31
398.595	87.31
398.82	88.31
399.044	88.31
399.268	94.31
399.492	77.31
399.717	80.31
399.941	92.31
400.165	98.31
400.389	95.31
400.613	93.31
400.837	97.31
401.062	98.31
401.286	86.31
401.51	81.31
401.734	89.31
401.958	104.31
402.182	114.31
402.406	151.31
402.63	112.31
402.854	104.31
403.078	81.31
403.302	103.31
403.526	94.31
403.75	90.31
403.974	96.31
404.198	93.31
404.422	91.31
404.645	92.31
404.869	86.31
405.093	106.31
405.317	106.31
405.541	105.31
405.765	98.31
405.988	113.31
406.212	173.31
406.436	242.31
406.66	154.31
406.883	108.31
407.107	92.31
407.331	106.31
407.555	97.31
407.778	98.31
408.002	90.31
408.226	93.31
408.449	71.31
408.673	96.31
408.896	102.31
409.12	103.31
409.344	88.31
409.567	99.31
409.791	93.31
410.014	92.31
410.238	93.31
410.461	85.31
410.685	95.31
410.908	103.31
411.132	111.31
411.355	95.31
411.578	98.31
411.802	88.31
412.025	99.31
412.249	88.31
412.472	94.31
412.695	114.31
412.919	91.31
413.142	91.31
413.365	80.31
413.589	91.31
413.812	97.31
414.035	99.31
414.258	83.31
414.482	97.31
414.705	86.31
414.928	96.31
415.151	80.31
415.374	101.31
415.597	96.31
415.821	88.31
416.044	92.31
416.267	92.31
416.49	87.31
416.713	85.31
416.936	95.31
417.159	101.31
417.382	94.31
417.605	105.31
417.828	101.31
418.051	91.31
418.274	81.31
418.497	94.31
418.72	98.31
418.943	87.31
419.166	90.31
419.389	72.31
419.611	100.31
419.834	89.31
420.057	85.31
420.28	76.31
420.503	77.31
420.726	82.31
420.948	103.31
421.171	95.31
421.394	96.31
421.617	94.31
421.839	106.31
422.062	90.31
422.285	91.31
422.507	113.31
422.73	119.31
422.953	100.31
423.175	98.31
423.398	95.31
423.621	92.31
423.843	98.31
424.066	96.31
424.288	110.31
424.511	94.31
424.733	94.31
424.956	106.31
425.178	90.31
425.401	107.31
425.623	113.31
425.846	98.31
426.068	90.31
426.291	96.31
426.513	82.31
426.735	94.31
426.958	99.31
427.18	113.31
427.402	163.31
427.625	192.31
427.847	174.31
428.069	145.31
428.292	71.31
428.514	83.31
428.736	94.31
428.958	85.31
429.181	93.31
429.403	84.31
429.625	94.31
429.847	98.31
430.069	105.31
430.292	101.31
430.514	86.31
430.736	88.31
430.958	97.31
431.18	74.31
431.402	86.31
431.624	85.31
431.846	87.31
432.068	80.31
432.29	80.31
432.512	85.31
432.734	95.31
432.956	96.31
433.178	108.31
433.4	104.31
433.622	90.31
433.844	85.31
434.066	96.31
434.287	97.31
434.509	86.31
434.731	83.31
434.953	88.31
435.175	100.31
435.397	87.31
435.618	98.31
435.84	99.31
436.062	133.31
436.284	138.31
436.505	125.31
436.727	113.31
436.949	97.31
437.17	91.31
437.392	99.31
437.614	108.31
437.835	111.31
438.057	123.31
438.278	120.31
438.5	121.31
438.721	142.31
438.943	105.31
439.165	101.31
439.386	93.31
439.608	88.31
439.829	111.31
440.05	129.31
440.272	162.31
440.493	115.31
440.715	101.31
440.936	90.31
441.158	86.31
441.379	93.31
441.6	81.31
441.822	110.31
442.043	112.31
442.264	119.31
442.486	99.31
442.707	94.31
442.928	122.31
443.149	141.31
443.371	135.31
443.592	113.31
443.813	132.31
444.034	129.31
444.255	94.31
444.476	89.31
444.698	88.31
444.919	89.31
445.14	124.31
445.361	131.31
445.582	136.31
445.803	153.31
446.024	153.31
446.245	155.31
446.466	106.31
446.687	81.31
446.908	95.31
447.129	98.31
447.35	86.31
447.571	104.31
447.792	94.31
448.013	89.31
448.234	111.31
448.455	121.31
448.675	122.31
448.896	135.31
449.117	125.31
449.338	109.31
449.559	146.31
449.779	161.31
450	105.31
450.221	89.31
450.442	85.31
450.662	92.31
450.883	113.31
451.104	113.31
451.324	106.31
451.545	78.31
451.766	88.31
451.986	99.31
452.207	102.31
452.428	84.31
452.648	96.31
452.869	102.31
453.089	120.31
453.31	126.31
453.53	97.31
453.751	98.31
453.971	104.31
454.192	102.31
454.412	101.31
454.633	87.31
454.853	78.31
455.073	94.31
455.294	95.31
455.514	102.31
455.734	99.31
455.955	95.31
456.175	89.31
456.395	81.31
456.616	91.31
456.836	88.31
457.056	97.31
457.276	82.31
457.497	71.31
457.717	96.31
457.937	96.31
458.157	97.31
458.377	95.31
458.598	111.31
458.818	154.31
459.038	168.31
459.258	132.31
459.478	82.31
459.698	90.31
459.918	92.31
460.138	84.31
460.358	102.31
460.578	87.31
460.798	97.31
461.018	81.31
461.238	93.31
461.458	88.31
461.678	93.31
461.898	84.31
462.118	87.31
462.338	83.31
462.558	90.31
462.777	87.31
462.997	89.31
463.217	89.31
463.437	94.31
463.657	86.31
463.876	81.31
464.096	106.31
464.316	103.31
464.536	85.31
464.755	91.31
464.975	112.31
465.195	171.31
465.414	159.31
465.634	91.31
465.854	93.31
466.073	111.31
466.293	94.31
466.512	85.31
466.732	95.31
466.951	91.31
467.171	102.31
467.391	94.31
467.61	120.31
467.829	126.31
468.049	153.31
468.268	167.31
468.488	103.31
468.707	86.31
468.927	91.31
469.146	89.31
469.365	93.31
469.585	98.31
469.804	97.31
470.023	93.31
470.243	114.31
470.462	91.31
470.681	94.31
470.901	99.31
471.12	81.31
471.339	83.31
471.558	104.31
471.777	97.31
471.997	124.31
472.216	240.31
472.435	411.31
472.654	167.31
472.873	97.31
473.092	101.31
473.311	89.31
473.53	94.31
473.749	88.31
473.968	96.31
474.187	112.31
474.406	106.31
474.625	93.31
474.844	90.31
475.063	88.31
475.282	91.31
475.501	90.31
475.72	95.31
475.939	77.31
476.158	80.31
476.377	79.31
476.596	104.31
476.814	98.31
477.033	88.31
477.252	101.31
477.471	82.31
477.69	81.31
477.908	106.31
478.127	90.31
478.346	93.31
478.564	93.31
478.783	97.31
479.002	97.31
479.22	91.31
479.439	117.31
479.658	117.31
479.876	102.31
480.095	102.31
480.313	98.31
480.532	97.31
480.751	121.31
480.969	237.31
481.188	685.31
481.406	464.31
481.624	145.31
481.843	106.31
482.061	83.31
482.28	112.31
482.498	93.31
482.717	90.31
482.935	85.31
483.153	85.31
483.372	83.31
483.59	93.31
483.808	90.31
484.027	111.31
484.245	88.31
484.463	93.31
484.681	87.31
484.9	93.31
485.118	94.31
485.336	91.31
485.554	97.31
485.772	86.31
485.99	90.31
486.209	110.31
486.427	90.31
486.645	116.31
486.863	105.31
487.081	103.31
487.299	88.31
487.517	89.31
487.735	82.31
487.953	108.31
488.171	101.31
488.389	101.31
488.607	93.31
488.825	109.31
489.043	100.31
489.261	82.31
489.479	95.31
489.696	95.31
489.914	96.31
490.132	93.31
490.35	78.31
490.568	94.31
490.786	80.31
491.003	89.31
491.221	95.31
491.439	97.31
491.657	89.31
491.874	83.31
492.092	105.31
492.31	102.31
492.527	87.31
492.745	90.31
492.963	103.31
493.18	80.31
493.398	102.31
493.615	91.31
493.833	94.31
494.05	81.31
494.268	86.31
494.485	106.31
494.703	88.31
494.92	84.31
495.138	91.31
495.355	107.31
495.573	102.31
495.79	91.31
496.008	108.31
496.225	93.31
496.442	89.31
496.66	83.31
496.877	98.31
497.094	96.31
497.312	81.31
497.529	93.31
497.746	96.31
497.963	89.31
498.181	102.31
498.398	93.31
498.615	106.31
498.832	106.31
499.049	96.31
499.267	95.31
499.484	93.31
499.701	95.31
499.918	101.31
500.135	97.31
500.352	90.31
500.569	93.31
500.786	88.31
501.003	99.31
501.22	101.31
501.437	88.31
501.654	87.31
501.871	118.31
502.088	96.31
502.305	89.31
502.522	83.31
502.739	90.31
502.956	93.31
503.172	82.31
503.389	106.31
503.606	100.31
503.823	112.31
504.04	95.31
504.256	96.31
504.473	90.31
504.69	81.31
504.907	95.31
505.123	92.31
505.34	81.31
505.557	97.31
505.773	82.31
505.99	108.31
506.207	97.31
506.423	94.31
506.64	95.31
506.856	90.31
507.073	89.31
507.289	85.31
507.506	106.31
507.722	111.31
507.939	110.31
508.155	101.31
508.372	101.31
508.588	98.31
508.805	95.31
509.021	97.31
509.238	102.31
509.454	98.31
509.67	98.31
509.887	98.31
510.103	130.31
510.319	204.31
510.536	679.31
510.752	2189.31
510.968	630.31
511.184	160.31
511.401	110.31
511.617	112.31
511.833	92.31
512.049	102.31
512.265	91.31
512.481	97.31
512.698	83.31
512.914	107.31
513.13	110.31
513.346	85.31
513.562	89.31
513.778	99.31
513.994	94.31
514.21	97.31
514.426	119.31
514.642	145.31
514.858	127.31
