Data from Circ_2011_H10_HRD10591_00060.txt Node
Date: Wed Jan 03 10:08:11 EST 2024
User: Yrep
Spectrometer: HR+D1059
Trigger mode: 1
Integration Time (sec): 1.000000E-1
Scans to average: 1
Electric dark correction enabled: true
Nonlinearity correction enabled: false
Boxcar width: 0
XAxis mode: Wavelengths
Number of Pixels in Spectrum: 2048
>>>>>Begin Spectral Data<<<<<
223.165	-23.56
223.4	-23.56
223.635	-23.56
223.869	-18.56
224.104	-21.56
224.338	-32.56
224.573	-8.56
224.808	-15.56
225.042	-20.56
225.277	-12.56
225.511	11.44
225.746	-0.56
225.98	22.44
226.215	18.44
226.449	16.44
226.683	22.44
226.918	29.44
227.152	33.44
227.387	28.44
227.621	30.44
227.856	35.44
228.09	53.44
228.324	49.44
228.559	59.44
228.793	55.44
229.027	58.44
229.262	61.44
229.496	61.44
229.73	88.44
229.964	76.44
230.199	61.44
230.433	75.44
230.667	66.44
230.901	78.44
231.136	78.44
231.37	73.44
231.604	67.44
231.838	79.44
232.072	79.44
232.306	82.44
232.541	71.44
232.775	93.44
233.009	75.44
233.243	76.44
233.477	75.44
233.711	78.44
233.945	93.44
234.179	93.44
234.413	85.44
234.647	66.44
234.881	76.44
235.115	82.44
235.349	76.44
235.583	68.44
235.817	77.44
236.051	63.44
236.285	64.44
236.519	67.44
236.753	72.44
236.987	85.44
237.221	75.44
237.455	83.44
237.689	79.44
237.922	87.44
238.156	90.44
238.39	78.44
238.624	76.44
238.858	70.44
239.091	78.44
239.325	68.44
239.559	70.44
239.793	97.44
240.027	82.44
240.26	70.44
240.494	78.44
240.728	78.44
240.961	72.44
241.195	66.44
241.429	67.44
241.662	74.44
241.896	79.44
242.13	77.44
242.363	80.44
242.597	87.44
242.83	78.44
243.064	71.44
243.298	77.44
243.531	76.44
243.765	67.44
243.998	89.44
244.232	69.44
244.465	75.44
244.699	78.44
244.932	68.44
245.166	74.44
245.399	65.44
245.633	75.44
245.866	74.44
246.099	74.44
246.333	74.44
246.566	79.44
246.8	78.44
247.033	83.44
247.266	81.44
247.5	69.44
247.733	81.44
247.966	72.44
248.2	82.44
248.433	90.44
248.666	79.44
248.899	77.44
249.133	69.44
249.366	92.44
249.599	97.44
249.832	81.44
250.066	73.44
250.299	74.44
250.532	77.44
250.765	85.44
250.998	74.44
251.231	78.44
251.465	78.44
251.698	85.44
251.931	79.44
252.164	90.44
252.397	74.44
252.63	81.44
252.863	79.44
253.096	74.44
253.329	83.44
253.562	85.44
253.795	57.44
254.028	70.44
254.261	83.44
254.494	81.44
254.727	63.44
254.96	91.44
255.193	68.44
255.426	71.44
255.659	85.44
255.892	83.44
256.124	81.44
256.357	82.44
256.59	81.44
256.823	79.44
257.056	89.44
257.289	81.44
257.521	82.44
257.754	90.44
257.987	72.44
258.22	77.44
258.452	76.44
258.685	74.44
258.918	89.44
259.151	80.44
259.383	76.44
259.616	78.44
259.849	76.44
260.081	79.44
260.314	89.44
260.547	72.44
260.779	94.44
261.012	91.44
261.244	101.44
261.477	84.44
261.71	80.44
261.942	97.44
262.175	111.44
262.407	84.44
262.64	79.44
262.872	83.44
263.105	82.44
263.337	75.44
263.57	87.44
263.802	75.44
264.035	82.44
264.267	76.44
264.499	91.44
264.732	75.44
264.964	71.44
265.197	85.44
265.429	90.44
265.661	83.44
265.894	72.44
266.126	77.44
266.358	88.44
266.591	89.44
266.823	92.44
267.055	75.44
267.287	75.44
267.52	83.44
267.752	82.44
267.984	93.44
268.216	74.44
268.448	83.44
268.681	76.44
268.913	83.44
269.145	80.44
269.377	85.44
269.609	71.44
269.841	85.44
270.073	83.44
270.306	82.44
270.538	105.44
270.77	95.44
271.002	93.44
271.234	86.44
271.466	82.44
271.698	77.44
271.93	84.44
272.162	95.44
272.394	85.44
272.626	86.44
272.858	71.44
273.09	84.44
273.322	89.44
273.553	85.44
273.785	83.44
274.017	89.44
274.249	84.44
274.481	85.44
274.713	82.44
274.945	100.44
275.176	83.44
275.408	87.44
275.64	98.44
275.872	83.44
276.104	79.44
276.335	90.44
276.567	106.44
276.799	115.44
277.031	106.44
277.262	93.44
277.494	97.44
277.726	96.44
277.957	87.44
278.189	95.44
278.421	86.44
278.652	95.44
278.884	101.44
279.115	89.44
279.347	91.44
279.579	85.44
279.81	95.44
280.042	85.44
280.273	100.44
280.505	90.44
280.736	92.44
280.968	80.44
281.199	79.44
281.431	78.44
281.662	89.44
281.894	91.44
282.125	93.44
282.356	103.44
282.588	135.44
282.819	100.44
283.051	97.44
283.282	85.44
283.513	81.44
283.745	79.44
283.976	73.44
284.207	57.44
284.439	73.44
284.67	73.44
284.901	84.44
285.132	78.44
285.364	96.44
285.595	88.44
285.826	85.44
286.057	84.44
286.288	87.44
286.52	81.44
286.751	77.44
286.982	80.44
287.213	95.44
287.444	77.44
287.675	98.44
287.906	83.44
288.138	91.44
288.369	95.44
288.6	91.44
288.831	87.44
289.062	80.44
289.293	94.44
289.524	74.44
289.755	84.44
289.986	79.44
290.217	92.44
290.448	90.44
290.679	93.44
290.91	79.44
291.141	90.44
291.371	78.44
291.602	74.44
291.833	82.44
292.064	84.44
292.295	91.44
292.526	90.44
292.757	86.44
292.987	84.44
293.218	92.44
293.449	78.44
293.68	83.44
293.91	97.44
294.141	91.44
294.372	77.44
294.603	84.44
294.833	91.44
295.064	88.44
295.295	81.44
295.525	88.44
295.756	88.44
295.987	108.44
296.217	134.44
296.448	127.44
296.679	83.44
296.909	87.44
297.14	87.44
297.37	83.44
297.601	82.44
297.831	76.44
298.062	89.44
298.292	82.44
298.523	83.44
298.753	85.44
298.984	89.44
299.214	88.44
299.445	86.44
299.675	102.44
299.905	101.44
300.136	88.44
300.366	91.44
300.597	86.44
300.827	89.44
301.057	106.44
301.288	97.44
301.518	91.44
301.748	93.44
301.979	94.44
302.209	95.44
302.439	94.44
302.669	94.44
302.9	89.44
303.13	85.44
303.36	86.44
303.59	93.44
303.82	100.44
304.051	103.44
304.281	100.44
304.511	101.44
304.741	89.44
304.971	78.44
305.201	86.44
305.431	86.44
305.661	80.44
305.891	87.44
306.121	96.44
306.352	92.44
306.582	93.44
306.812	82.44
307.042	94.44
307.272	90.44
307.502	105.44
307.731	93.44
307.961	95.44
308.191	84.44
308.421	79.44
308.651	77.44
308.881	87.44
309.111	91.44
309.341	92.44
309.571	93.44
309.8	82.44
310.03	93.44
310.26	99.44
310.49	90.44
310.72	81.44
310.949	90.44
311.179	94.44
311.409	93.44
311.639	97.44
311.868	100.44
312.098	87.44
312.328	89.44
312.557	109.44
312.787	104.44
313.017	102.44
313.246	87.44
313.476	84.44
313.706	98.44
313.935	83.44
314.165	107.44
314.394	97.44
314.624	105.44
314.853	96.44
315.083	79.44
315.312	93.44
315.542	92.44
315.771	92.44
316.001	86.44
316.23	100.44
316.46	85.44
316.689	88.44
316.919	100.44
317.148	88.44
317.377	93.44
317.607	93.44
317.836	82.44
318.065	83.44
318.295	85.44
318.524	77.44
318.753	91.44
318.983	97.44
319.212	87.44
319.441	99.44
319.67	108.44
319.9	83.44
320.129	86.44
320.358	91.44
320.587	96.44
320.816	100.44
321.046	96.44
321.275	103.44
321.504	102.44
321.733	110.44
321.962	94.44
322.191	96.44
322.42	116.44
322.649	92.44
322.878	96.44
323.108	111.44
323.337	112.44
323.566	125.44
323.795	149.44
324.024	220.44
324.253	405.44
324.482	868.44
324.71	1766.44
324.939	2359.44
325.168	844.44
325.397	226.44
325.626	141.44
325.855	150.44
326.084	137.44
326.313	129.44
326.542	157.44
326.77	234.44
326.999	487.44
327.228	1001.44
327.457	1814.44
327.686	1467.44
327.914	418.44
328.143	219.44
328.372	181.44
328.6	128.44
328.829	116.44
329.058	121.44
329.287	109.44
329.515	119.44
329.744	119.44
329.972	133.44
330.201	194.44
330.43	225.44
330.658	166.44
330.887	130.44
331.115	123.44
331.344	97.44
331.572	92.44
331.801	103.44
332.03	115.44
332.258	90.44
332.486	89.44
332.715	92.44
332.943	106.44
333.172	73.44
333.4	97.44
333.629	97.44
333.857	105.44
334.085	149.44
334.314	198.44
334.542	269.44
334.771	263.44
334.999	119.44
335.227	99.44
335.455	101.44
335.684	99.44
335.912	99.44
336.14	92.44
336.369	106.44
336.597	97.44
336.825	106.44
337.053	91.44
337.281	87.44
337.51	91.44
337.738	90.44
337.966	86.44
338.194	85.44
338.422	88.44
338.65	90.44
338.878	85.44
339.106	86.44
339.334	91.44
339.562	77.44
339.79	83.44
340.018	100.44
340.246	78.44
340.474	94.44
340.702	86.44
340.93	76.44
341.158	90.44
341.386	94.44
341.614	94.44
341.842	95.44
342.07	93.44
342.298	85.44
342.526	86.44
342.754	77.44
342.981	94.44
343.209	88.44
343.437	92.44
343.665	86.44
343.893	83.44
344.12	82.44
344.348	89.44
344.576	85.44
344.804	76.44
345.031	94.44
345.259	92.44
345.487	91.44
345.714	102.44
345.942	93.44
346.17	104.44
346.397	86.44
346.625	92.44
346.853	91.44
347.08	92.44
347.308	96.44
347.535	79.44
347.763	99.44
347.99	101.44
348.218	120.44
348.445	107.44
348.673	97.44
348.9	102.44
349.128	97.44
349.355	93.44
349.583	90.44
349.81	92.44
350.037	91.44
350.265	108.44
350.492	92.44
350.72	98.44
350.947	113.44
351.174	96.44
351.402	105.44
351.629	110.44
351.856	103.44
352.083	96.44
352.311	105.44
352.538	117.44
352.765	97.44
352.992	114.44
353.22	113.44
353.447	107.44
353.674	93.44
353.901	87.44
354.128	87.44
354.355	94.44
354.583	89.44
354.81	89.44
355.037	110.44
355.264	95.44
355.491	91.44
355.718	86.44
355.945	91.44
356.172	87.44
356.399	97.44
356.626	89.44
356.853	88.44
357.08	98.44
357.307	77.44
357.534	84.44
357.761	102.44
357.988	80.44
358.215	95.44
358.441	86.44
358.668	87.44
358.895	95.44
359.122	92.44
359.349	88.44
359.576	83.44
359.802	89.44
360.029	115.44
360.256	101.44
360.483	100.44
360.709	87.44
360.936	93.44
361.163	101.44
361.39	96.44
361.616	85.44
361.843	81.44
362.07	87.44
362.296	83.44
362.523	82.44
362.749	70.44
362.976	89.44
363.203	91.44
363.429	81.44
363.656	89.44
363.882	87.44
364.109	104.44
364.335	92.44
364.562	84.44
364.788	93.44
365.015	92.44
365.241	87.44
365.468	102.44
365.694	102.44
365.92	93.44
366.147	99.44
366.373	92.44
366.599	70.44
366.826	81.44
367.052	80.44
367.278	85.44
367.505	94.44
367.731	94.44
367.957	85.44
368.184	83.44
368.41	86.44
368.636	97.44
368.862	89.44
369.089	104.44
369.315	84.44
369.541	77.44
369.767	85.44
369.993	87.44
370.219	87.44
370.445	87.44
370.672	89.44
370.898	91.44
371.124	86.44
371.35	92.44
371.576	89.44
371.802	75.44
372.028	92.44
372.254	72.44
372.48	89.44
372.706	84.44
372.932	97.44
373.158	86.44
373.384	90.44
373.61	94.44
373.835	91.44
374.061	93.44
374.287	98.44
374.513	85.44
374.739	83.44
374.965	89.44
375.191	79.44
375.416	97.44
375.642	91.44
375.868	92.44
376.094	91.44
376.319	78.44
376.545	88.44
376.771	80.44
376.997	90.44
377.222	91.44
377.448	98.44
377.674	82.44
377.899	90.44
378.125	72.44
378.35	99.44
378.576	89.44
378.802	91.44
379.027	93.44
379.253	101.44
379.478	92.44
379.704	86.44
379.929	95.44
380.155	80.44
380.38	103.44
380.606	96.44
380.831	99.44
381.057	107.44
381.282	95.44
381.507	78.44
381.733	88.44
381.958	76.44
382.184	97.44
382.409	78.44
382.634	88.44
382.86	90.44
383.085	108.44
383.31	80.44
383.535	82.44
383.761	89.44
383.986	87.44
384.211	96.44
384.436	90.44
384.662	79.44
384.887	88.44
385.112	89.44
385.337	99.44
385.562	98.44
385.787	94.44
386.013	90.44
386.238	107.44
386.463	100.44
386.688	87.44
386.913	93.44
387.138	97.44
387.363	86.44
387.588	102.44
387.813	99.44
388.038	96.44
388.263	108.44
388.488	96.44
388.713	97.44
388.938	92.44
389.163	95.44
389.387	86.44
389.612	91.44
389.837	99.44
390.062	101.44
390.287	88.44
390.512	77.44
390.736	90.44
390.961	77.44
391.186	93.44
391.411	98.44
391.636	86.44
391.86	76.44
392.085	85.44
392.31	87.44
392.534	77.44
392.759	95.44
392.984	86.44
393.208	86.44
393.433	87.44
393.658	76.44
393.882	71.44
394.107	82.44
394.331	80.44
394.556	86.44
394.78	103.44
395.005	81.44
395.229	76.44
395.454	80.44
395.678	86.44
395.903	97.44
396.127	75.44
396.352	83.44
396.576	92.44
396.801	94.44
397.025	80.44
397.249	74.44
397.474	77.44
397.698	82.44
397.922	76.44
398.147	79.44
398.371	77.44
398.595	94.44
398.82	99.44
399.044	87.44
399.268	75.44
399.492	75.44
399.717	80.44
399.941	91.44
400.165	81.44
400.389	92.44
400.613	86.44
400.837	82.44
401.062	75.44
401.286	87.44
401.51	77.44
401.734	84.44
401.958	101.44
402.182	120.44
402.406	151.44
402.63	125.44
402.854	94.44
403.078	101.44
403.302	69.44
403.526	79.44
403.75	82.44
403.974	87.44
404.198	94.44
404.422	94.44
404.645	84.44
404.869	88.44
405.093	106.44
405.317	100.44
405.541	93.44
405.765	100.44
405.988	110.44
406.212	182.44
406.436	208.44
406.66	141.44
406.883	98.44
407.107	84.44
407.331	75.44
407.555	84.44
407.778	88.44
408.002	91.44
408.226	94.44
408.449	85.44
408.673	75.44
408.896	93.44
409.12	87.44
409.344	89.44
409.567	90.44
409.791	89.44
410.014	91.44
410.238	82.44
410.461	78.44
410.685	89.44
410.908	91.44
411.132	89.44
411.355	94.44
411.578	85.44
411.802	81.44
412.025	97.44
412.249	72.44
412.472	92.44
412.695	106.44
412.919	93.44
413.142	92.44
413.365	92.44
413.589	80.44
413.812	91.44
414.035	86.44
414.258	96.44
414.482	92.44
414.705	103.44
414.928	87.44
415.151	96.44
415.374	84.44
415.597	90.44
415.821	87.44
416.044	88.44
416.267	85.44
416.49	92.44
416.713	82.44
416.936	88.44
417.159	84.44
417.382	77.44
417.605	83.44
417.828	106.44
418.051	99.44
418.274	92.44
418.497	84.44
418.72	82.44
418.943	91.44
419.166	78.44
419.389	97.44
419.611	78.44
419.834	83.44
420.057	82.44
420.28	90.44
420.503	85.44
420.726	88.44
420.948	89.44
421.171	89.44
421.394	90.44
421.617	87.44
421.839	78.44
422.062	92.44
422.285	87.44
422.507	99.44
422.73	102.44
422.953	93.44
423.175	78.44
423.398	80.44
423.621	93.44
423.843	78.44
424.066	92.44
424.288	85.44
424.511	84.44
424.733	83.44
424.956	100.44
425.178	100.44
425.401	93.44
425.623	95.44
425.846	78.44
426.068	74.44
426.291	98.44
426.513	86.44
426.735	97.44
426.958	98.44
427.18	100.44
427.402	142.44
427.625	168.44
427.847	133.44
428.069	138.44
428.292	101.44
428.514	93.44
428.736	73.44
428.958	71.44
429.181	85.44
429.403	75.44
429.625	79.44
429.847	86.44
430.069	90.44
430.292	91.44
430.514	92.44
430.736	86.44
430.958	78.44
431.18	73.44
431.402	73.44
431.624	82.44
431.846	74.44
432.068	84.44
432.29	78.44
432.512	92.44
432.734	88.44
432.956	82.44
433.178	118.44
433.4	98.44
433.622	92.44
433.844	86.44
434.066	86.44
434.287	82.44
434.509	97.44
434.731	87.44
434.953	91.44
435.175	79.44
435.397	77.44
435.618	79.44
435.84	92.44
436.062	125.44
436.284	111.44
436.505	109.44
436.727	115.44
436.949	104.44
437.17	81.44
437.392	87.44
437.614	83.44
437.835	95.44
438.057	114.44
438.278	110.44
438.5	99.44
438.721	115.44
438.943	106.44
439.165	84.44
439.386	66.44
439.608	83.44
439.829	107.44
440.05	104.44
440.272	129.44
440.493	102.44
440.715	90.44
440.936	83.44
441.158	67.44
441.379	84.44
441.6	86.44
441.822	82.44
442.043	96.44
442.264	115.44
442.486	87.44
442.707	82.44
442.928	94.44
443.149	129.44
443.371	117.44
443.592	94.44
443.813	118.44
444.034	114.44
444.255	101.44
444.476	84.44
444.698	95.44
444.919	77.44
445.14	123.44
445.361	117.44
445.582	113.44
445.803	134.44
446.024	120.44
446.245	117.44
446.466	137.44
446.687	102.44
446.908	94.44
447.129	93.44
447.35	91.44
447.571	96.44
447.792	82.44
448.013	94.44
448.234	102.44
448.455	89.44
448.675	110.44
448.896	108.44
449.117	99.44
449.338	116.44
449.559	139.44
449.779	133.44
450	86.44
450.221	98.44
450.442	89.44
450.662	78.44
450.883	105.44
451.104	100.44
451.324	72.44
451.545	72.44
451.766	76.44
451.986	82.44
452.207	92.44
452.428	89.44
452.648	95.44
452.869	102.44
453.089	108.44
453.31	114.44
453.53	101.44
453.751	86.44
453.971	102.44
454.192	96.44
454.412	84.44
454.633	93.44
454.853	83.44
455.073	76.44
455.294	84.44
455.514	94.44
455.734	88.44
455.955	87.44
456.175	95.44
456.395	73.44
456.616	79.44
456.836	79.44
457.056	64.44
457.276	86.44
457.497	78.44
457.717	92.44
457.937	88.44
458.157	77.44
458.377	82.44
458.598	118.44
458.818	142.44
459.038	143.44
459.258	114.44
459.478	90.44
459.698	102.44
459.918	95.44
460.138	89.44
460.358	79.44
460.578	86.44
460.798	96.44
461.018	80.44
461.238	71.44
461.458	80.44
461.678	85.44
461.898	89.44
462.118	89.44
462.338	74.44
462.558	76.44
462.777	83.44
462.997	97.44
463.217	90.44
463.437	83.44
463.657	79.44
463.876	99.44
464.096	92.44
464.316	89.44
464.536	79.44
464.755	77.44
464.975	100.44
465.195	152.44
465.414	149.44
465.634	96.44
465.854	86.44
466.073	89.44
466.293	88.44
466.512	77.44
466.732	77.44
466.951	74.44
467.171	110.44
467.391	100.44
467.61	92.44
467.829	115.44
468.049	130.44
468.268	168.44
468.488	87.44
468.707	87.44
468.927	85.44
469.146	93.44
469.365	76.44
469.585	90.44
469.804	81.44
470.023	95.44
470.243	82.44
470.462	100.44
470.681	103.44
470.901	98.44
471.12	94.44
471.339	84.44
471.558	83.44
471.777	85.44
471.997	112.44
472.216	205.44
472.435	345.44
472.654	151.44
472.873	99.44
473.092	85.44
473.311	70.44
473.53	74.44
473.749	77.44
473.968	100.44
474.187	108.44
474.406	107.44
474.625	76.44
474.844	79.44
475.063	90.44
475.282	88.44
475.501	92.44
475.72	92.44
475.939	82.44
476.158	88.44
476.377	78.44
476.596	72.44
476.814	98.44
477.033	102.44
477.252	84.44
477.471	75.44
477.69	95.44
477.908	86.44
478.127	91.44
478.346	75.44
478.564	90.44
478.783	101.44
479.002	83.44
479.22	90.44
479.439	98.44
479.658	108.44
479.876	98.44
480.095	89.44
480.313	97.44
480.532	82.44
480.751	117.44
480.969	191.44
481.188	593.44
481.406	362.44
481.624	125.44
481.843	83.44
482.061	96.44
482.28	85.44
482.498	101.44
482.717	95.44
482.935	99.44
483.153	89.44
483.372	87.44
483.59	73.44
483.808	83.44
484.027	75.44
484.245	82.44
484.463	102.44
484.681	93.44
484.9	90.44
485.118	94.44
485.336	83.44
485.554	96.44
485.772	113.44
485.99	113.44
486.209	106.44
486.427	104.44
486.645	100.44
486.863	121.44
487.081	104.44
487.299	97.44
487.517	90.44
487.735	87.44
487.953	86.44
488.171	89.44
488.389	95.44
488.607	99.44
488.825	90.44
489.043	86.44
489.261	83.44
489.479	107.44
489.696	77.44
489.914	86.44
490.132	90.44
490.35	89.44
490.568	80.44
490.786	89.44
491.003	87.44
491.221	96.44
491.439	72.44
491.657	98.44
491.874	99.44
492.092	83.44
492.31	83.44
492.527	91.44
492.745	78.44
492.963	99.44
493.18	92.44
493.398	82.44
493.615	95.44
493.833	102.44
494.05	91.44
494.268	75.44
494.485	101.44
494.703	85.44
494.92	84.44
495.138	74.44
495.355	86.44
495.573	89.44
495.79	77.44
496.008	88.44
496.225	87.44
496.442	90.44
496.66	90.44
496.877	89.44
497.094	72.44
497.312	71.44
497.529	83.44
497.746	91.44
497.963	93.44
498.181	85.44
498.398	91.44
498.615	95.44
498.832	96.44
499.049	98.44
499.267	100.44
499.484	89.44
499.701	90.44
499.918	85.44
500.135	82.44
500.352	94.44
500.569	89.44
500.786	90.44
501.003	79.44
501.22	85.44
501.437	97.44
501.654	89.44
501.871	94.44
502.088	75.44
502.305	90.44
502.522	94.44
502.739	91.44
502.956	78.44
503.172	89.44
503.389	97.44
503.606	91.44
503.823	94.44
504.04	86.44
504.256	93.44
504.473	82.44
504.69	86.44
504.907	88.44
505.123	94.44
505.34	102.44
505.557	83.44
505.773	75.44
505.99	82.44
506.207	83.44
506.423	92.44
506.64	83.44
506.856	89.44
507.073	74.44
507.289	94.44
507.506	100.44
507.722	94.44
507.939	100.44
508.155	94.44
508.372	85.44
508.588	89.44
508.805	88.44
509.021	94.44
509.238	96.44
509.454	91.44
509.67	98.44
509.887	102.44
510.103	111.44
510.319	201.44
510.536	663.44
510.752	2078.44
510.968	589.44
511.184	148.44
511.401	105.44
511.617	111.44
511.833	94.44
512.049	93.44
512.265	96.44
512.481	90.44
512.698	93.44
512.914	78.44
513.13	93.44
513.346	80.44
513.562	87.44
513.778	95.44
513.994	97.44
514.21	101.44
514.426	119.44
514.642	115.44
514.858	128.44
515.074	164.44
515.29	402.44
515.506	1312.44
515.721	503.44
515.937	150.44
516.153	105.44
516.369	90.44
