Data from Circ_2011_H10_HRD10591_00079.txt Node
Date: Wed Jan 03 10:08:14 EST 2024
User: Yrep
Spectrometer: HR+D1059
Trigger mode: 1
Integration Time (sec): 1.000000E-1
Scans to average: 1
Electric dark correction enabled: true
Nonlinearity correction enabled: false
Boxcar width: 0
XAxis mode: Wavelengths
Number of Pixels in Spectrum: 2048
>>>>>Begin Spectral Data<<<<<
223.165	-19.44
223.4	-19.44
223.635	-19.44
223.869	-20.44
224.104	-30.44
224.338	-25.44
224.573	-23.44
224.808	-0.44
225.042	-1.44
225.277	-1.44
225.511	7.56
225.746	-7.44
225.98	6.56
226.215	22.56
226.449	13.56
226.683	22.56
226.918	35.56
227.152	21.56
227.387	41.56
227.621	35.56
227.856	52.56
228.09	55.56
228.324	45.56
228.559	47.56
228.793	66.56
229.027	59.56
229.262	72.56
229.496	74.56
229.73	95.56
229.964	82.56
230.199	69.56
230.433	70.56
230.667	68.56
230.901	77.56
231.136	78.56
231.37	85.56
231.604	78.56
231.838	76.56
232.072	85.56
232.306	83.56
232.541	84.56
232.775	73.56
233.009	94.56
233.243	88.56
233.477	79.56
233.711	67.56
233.945	76.56
234.179	79.56
234.413	91.56
234.647	75.56
234.881	69.56
235.115	58.56
235.349	78.56
235.583	70.56
235.817	96.56
236.051	93.56
236.285	77.56
236.519	76.56
236.753	81.56
236.987	75.56
237.221	96.56
237.455	102.56
237.689	96.56
237.922	71.56
238.156	69.56
238.39	86.56
238.624	85.56
238.858	75.56
239.091	74.56
239.325	83.56
239.559	83.56
239.793	84.56
240.027	84.56
240.26	79.56
240.494	83.56
240.728	79.56
240.961	81.56
241.195	81.56
241.429	83.56
241.662	80.56
241.896	76.56
242.13	96.56
242.363	100.56
242.597	87.56
242.83	85.56
243.064	77.56
243.298	83.56
243.531	78.56
243.765	88.56
243.998	72.56
244.232	87.56
244.465	76.56
244.699	91.56
244.932	94.56
245.166	70.56
245.399	80.56
245.633	79.56
245.866	85.56
246.099	74.56
246.333	89.56
246.566	65.56
246.8	73.56
247.033	86.56
247.266	76.56
247.5	86.56
247.733	94.56
247.966	62.56
248.2	89.56
248.433	87.56
248.666	80.56
248.899	88.56
249.133	90.56
249.366	106.56
249.599	92.56
249.832	87.56
250.066	83.56
250.299	71.56
250.532	86.56
250.765	86.56
250.998	94.56
251.231	77.56
251.465	72.56
251.698	75.56
251.931	88.56
252.164	79.56
252.397	81.56
252.63	77.56
252.863	84.56
253.096	77.56
253.329	88.56
253.562	83.56
253.795	83.56
254.028	77.56
254.261	83.56
254.494	71.56
254.727	85.56
254.96	82.56
255.193	61.56
255.426	89.56
255.659	76.56
255.892	87.56
256.124	72.56
256.357	75.56
256.59	69.56
256.823	70.56
257.056	88.56
257.289	72.56
257.521	67.56
257.754	73.56
257.987	88.56
258.22	89.56
258.452	78.56
258.685	93.56
258.918	73.56
259.151	87.56
259.383	98.56
259.616	86.56
259.849	79.56
260.081	91.56
260.314	81.56
260.547	65.56
260.779	86.56
261.012	74.56
261.244	84.56
261.477	87.56
261.71	92.56
261.942	113.56
262.175	111.56
262.407	101.56
262.64	79.56
262.872	78.56
263.105	91.56
263.337	99.56
263.57	79.56
263.802	77.56
264.035	71.56
264.267	81.56
264.499	91.56
264.732	77.56
264.964	72.56
265.197	75.56
265.429	92.56
265.661	86.56
265.894	74.56
266.126	71.56
266.358	85.56
266.591	80.56
266.823	87.56
267.055	84.56
267.287	81.56
267.52	84.56
267.752	78.56
267.984	86.56
268.216	73.56
268.448	84.56
268.681	83.56
268.913	76.56
269.145	87.56
269.377	91.56
269.609	87.56
269.841	95.56
270.073	72.56
270.306	96.56
270.538	98.56
270.77	73.56
271.002	86.56
271.234	96.56
271.466	94.56
271.698	92.56
271.93	95.56
272.162	88.56
272.394	98.56
272.626	93.56
272.858	91.56
273.09	74.56
273.322	84.56
273.553	71.56
273.785	74.56
274.017	97.56
274.249	83.56
274.481	87.56
274.713	87.56
274.945	90.56
275.176	79.56
275.408	101.56
275.64	92.56
275.872	88.56
276.104	92.56
276.335	88.56
276.567	103.56
276.799	108.56
277.031	102.56
277.262	101.56
277.494	95.56
277.726	90.56
277.957	97.56
278.189	88.56
278.421	86.56
278.652	89.56
278.884	96.56
279.115	88.56
279.347	84.56
279.579	93.56
279.81	95.56
280.042	88.56
280.273	108.56
280.505	108.56
280.736	98.56
280.968	87.56
281.199	102.56
281.431	91.56
281.662	75.56
281.894	93.56
282.125	107.56
282.356	120.56
282.588	148.56
282.819	109.56
283.051	81.56
283.282	75.56
283.513	71.56
283.745	88.56
283.976	78.56
284.207	90.56
284.439	102.56
284.67	103.56
284.901	87.56
285.132	76.56
285.364	95.56
285.595	97.56
285.826	84.56
286.057	91.56
286.288	103.56
286.52	99.56
286.751	84.56
286.982	89.56
287.213	96.56
287.444	97.56
287.675	94.56
287.906	92.56
288.138	97.56
288.369	87.56
288.6	84.56
288.831	81.56
289.062	105.56
289.293	78.56
289.524	88.56
289.755	85.56
289.986	81.56
290.217	80.56
290.448	86.56
290.679	83.56
290.91	100.56
291.141	84.56
291.371	79.56
291.602	83.56
291.833	78.56
292.064	81.56
292.295	92.56
292.526	96.56
292.757	90.56
292.987	96.56
293.218	77.56
293.449	99.56
293.68	77.56
293.91	91.56
294.141	101.56
294.372	83.56
294.603	80.56
294.833	80.56
295.064	103.56
295.295	88.56
295.525	96.56
295.756	116.56
295.987	114.56
296.217	135.56
296.448	123.56
296.679	84.56
296.909	99.56
297.14	84.56
297.37	79.56
297.601	84.56
297.831	95.56
298.062	95.56
298.292	85.56
298.523	84.56
298.753	93.56
298.984	94.56
299.214	86.56
299.445	96.56
299.675	100.56
299.905	94.56
300.136	82.56
300.366	85.56
300.597	83.56
300.827	89.56
301.057	91.56
301.288	94.56
301.518	89.56
301.748	110.56
301.979	92.56
302.209	93.56
302.439	80.56
302.669	96.56
302.9	90.56
303.13	95.56
303.36	89.56
303.59	91.56
303.82	103.56
304.051	95.56
304.281	87.56
304.511	96.56
304.741	86.56
304.971	88.56
305.201	84.56
305.431	85.56
305.661	89.56
305.891	84.56
306.121	93.56
306.352	91.56
306.582	96.56
306.812	107.56
307.042	87.56
307.272	104.56
307.502	108.56
307.731	109.56
307.961	103.56
308.191	93.56
308.421	80.56
308.651	83.56
308.881	96.56
309.111	100.56
309.341	80.56
309.571	99.56
309.8	83.56
310.03	103.56
310.26	102.56
310.49	110.56
310.72	88.56
310.949	95.56
311.179	94.56
311.409	79.56
311.639	86.56
311.868	86.56
312.098	99.56
312.328	91.56
312.557	118.56
312.787	105.56
313.017	96.56
313.246	90.56
313.476	82.56
313.706	81.56
313.935	87.56
314.165	104.56
314.394	89.56
314.624	100.56
314.853	100.56
315.083	100.56
315.312	84.56
315.542	87.56
315.771	95.56
316.001	84.56
316.23	89.56
316.46	78.56
316.689	100.56
316.919	88.56
317.148	99.56
317.377	76.56
317.607	86.56
317.836	100.56
318.065	102.56
318.295	105.56
318.524	98.56
318.753	107.56
318.983	89.56
319.212	90.56
319.441	118.56
319.67	103.56
319.9	83.56
320.129	94.56
320.358	89.56
320.587	108.56
320.816	112.56
321.046	104.56
321.275	92.56
321.504	94.56
321.733	95.56
321.962	93.56
322.191	110.56
322.42	101.56
322.649	116.56
322.878	115.56
323.108	120.56
323.337	128.56
323.566	148.56
323.795	179.56
324.024	201.56
324.253	419.56
324.482	933.56
324.71	1876.56
324.939	2465.56
325.168	877.56
325.397	256.56
325.626	145.56
325.855	121.56
326.084	115.56
326.313	139.56
326.542	163.56
326.77	233.56
326.999	501.56
327.228	1035.56
327.457	1943.56
327.686	1521.56
327.914	414.56
328.143	228.56
328.372	231.56
328.6	151.56
328.829	132.56
329.058	137.56
329.287	139.56
329.515	129.56
329.744	123.56
329.972	161.56
330.201	249.56
330.43	312.56
330.658	217.56
330.887	177.56
331.115	128.56
331.344	103.56
331.572	99.56
331.801	110.56
332.03	105.56
332.258	110.56
332.486	103.56
332.715	96.56
332.943	96.56
333.172	91.56
333.4	107.56
333.629	99.56
333.857	127.56
334.085	167.56
334.314	245.56
334.542	393.56
334.771	394.56
334.999	167.56
335.227	109.56
335.455	89.56
335.684	87.56
335.912	107.56
336.14	89.56
336.369	88.56
336.597	91.56
336.825	96.56
337.053	96.56
337.281	96.56
337.51	105.56
337.738	116.56
337.966	99.56
338.194	104.56
338.422	90.56
338.65	102.56
338.878	69.56
339.106	88.56
339.334	104.56
339.562	91.56
339.79	93.56
340.018	89.56
340.246	79.56
340.474	96.56
340.702	98.56
340.93	98.56
341.158	91.56
341.386	85.56
341.614	95.56
341.842	102.56
342.07	87.56
342.298	96.56
342.526	83.56
342.754	80.56
342.981	83.56
343.209	101.56
343.437	87.56
343.665	92.56
343.893	95.56
344.12	105.56
344.348	86.56
344.576	92.56
344.804	102.56
345.031	91.56
345.259	98.56
345.487	87.56
345.714	96.56
345.942	101.56
346.17	99.56
346.397	90.56
346.625	95.56
346.853	79.56
347.08	92.56
347.308	104.56
347.535	95.56
347.763	88.56
347.99	92.56
348.218	101.56
348.445	103.56
348.673	96.56
348.9	86.56
349.128	99.56
349.355	102.56
349.583	94.56
349.81	94.56
350.037	88.56
350.265	89.56
350.492	99.56
350.72	95.56
350.947	102.56
351.174	110.56
351.402	101.56
351.629	89.56
351.856	91.56
352.083	112.56
352.311	124.56
352.538	109.56
352.765	91.56
352.992	103.56
353.22	102.56
353.447	92.56
353.674	102.56
353.901	89.56
354.128	89.56
354.355	95.56
354.583	110.56
354.81	108.56
355.037	100.56
355.264	83.56
355.491	98.56
355.718	79.56
355.945	86.56
356.172	104.56
356.399	97.56
356.626	103.56
356.853	91.56
357.08	92.56
357.307	96.56
357.534	78.56
357.761	99.56
357.988	96.56
358.215	83.56
358.441	89.56
358.668	91.56
358.895	102.56
359.122	84.56
359.349	99.56
359.576	89.56
359.802	104.56
360.029	119.56
360.256	111.56
360.483	107.56
360.709	84.56
360.936	96.56
361.163	107.56
361.39	101.56
361.616	96.56
361.843	85.56
362.07	103.56
362.296	85.56
362.523	71.56
362.749	83.56
362.976	91.56
363.203	99.56
363.429	84.56
363.656	95.56
363.882	74.56
364.109	88.56
364.335	91.56
364.562	94.56
364.788	91.56
365.015	102.56
365.241	95.56
365.468	76.56
365.694	99.56
365.92	93.56
366.147	91.56
366.373	86.56
366.599	73.56
366.826	99.56
367.052	96.56
367.278	96.56
367.505	81.56
367.731	99.56
367.957	88.56
368.184	73.56
368.41	101.56
368.636	110.56
368.862	107.56
369.089	97.56
369.315	85.56
369.541	77.56
369.767	88.56
369.993	89.56
370.219	88.56
370.445	74.56
370.672	85.56
370.898	94.56
371.124	85.56
371.35	95.56
371.576	90.56
371.802	95.56
372.028	97.56
372.254	89.56
372.48	87.56
372.706	86.56
372.932	87.56
373.158	103.56
373.384	93.56
373.61	101.56
373.835	91.56
374.061	91.56
374.287	81.56
374.513	95.56
374.739	77.56
374.965	97.56
375.191	85.56
375.416	98.56
375.642	94.56
375.868	88.56
376.094	91.56
376.319	91.56
376.545	74.56
376.771	85.56
376.997	98.56
377.222	86.56
377.448	84.56
377.674	80.56
377.899	89.56
378.125	74.56
378.35	87.56
378.576	95.56
378.802	73.56
379.027	87.56
379.253	95.56
379.478	99.56
379.704	91.56
379.929	84.56
380.155	87.56
380.38	98.56
380.606	94.56
380.831	102.56
381.057	94.56
381.282	100.56
381.507	96.56
381.733	103.56
381.958	83.56
382.184	100.56
382.409	88.56
382.634	93.56
382.86	92.56
383.085	103.56
383.31	91.56
383.535	106.56
383.761	87.56
383.986	87.56
384.211	81.56
384.436	82.56
384.662	100.56
384.887	104.56
385.112	100.56
385.337	90.56
385.562	98.56
385.787	100.56
386.013	106.56
386.238	101.56
386.463	99.56
386.688	103.56
386.913	98.56
387.138	105.56
387.363	90.56
387.588	99.56
387.813	98.56
388.038	91.56
388.263	109.56
388.488	100.56
388.713	93.56
388.938	99.56
389.163	93.56
389.387	87.56
389.612	84.56
389.837	84.56
390.062	82.56
390.287	92.56
390.512	105.56
390.736	96.56
390.961	88.56
391.186	83.56
391.411	92.56
391.636	69.56
391.86	74.56
392.085	76.56
392.31	89.56
392.534	90.56
392.759	90.56
392.984	85.56
393.208	100.56
393.433	94.56
393.658	93.56
393.882	74.56
394.107	89.56
394.331	71.56
394.556	79.56
394.78	87.56
395.005	88.56
395.229	97.56
395.454	80.56
395.678	89.56
395.903	81.56
396.127	88.56
396.352	89.56
396.576	90.56
396.801	91.56
397.025	88.56
397.249	85.56
397.474	82.56
397.698	94.56
397.922	91.56
398.147	88.56
398.371	77.56
398.595	90.56
398.82	78.56
399.044	98.56
399.268	86.56
399.492	87.56
399.717	95.56
399.941	88.56
400.165	106.56
400.389	105.56
400.613	91.56
400.837	81.56
401.062	88.56
401.286	77.56
401.51	81.56
401.734	88.56
401.958	108.56
402.182	136.56
402.406	158.56
402.63	100.56
402.854	97.56
403.078	104.56
403.302	87.56
403.526	99.56
403.75	102.56
403.974	90.56
404.198	80.56
404.422	94.56
404.645	100.56
404.869	93.56
405.093	112.56
405.317	102.56
405.541	117.56
405.765	94.56
405.988	96.56
406.212	163.56
406.436	219.56
406.66	154.56
406.883	111.56
407.107	90.56
407.331	103.56
407.555	109.56
407.778	113.56
408.002	97.56
408.226	89.56
408.449	69.56
408.673	87.56
408.896	90.56
409.12	98.56
409.344	116.56
409.567	94.56
409.791	90.56
410.014	96.56
410.238	108.56
410.461	84.56
410.685	87.56
410.908	83.56
411.132	108.56
411.355	88.56
411.578	95.56
411.802	94.56
412.025	86.56
412.249	85.56
412.472	100.56
412.695	96.56
412.919	83.56
413.142	103.56
413.365	98.56
413.589	101.56
413.812	91.56
414.035	92.56
414.258	90.56
414.482	97.56
414.705	77.56
414.928	81.56
415.151	107.56
415.374	94.56
415.597	81.56
415.821	88.56
416.044	97.56
416.267	84.56
416.49	80.56
416.713	91.56
416.936	72.56
417.159	92.56
417.382	93.56
417.605	75.56
417.828	81.56
418.051	97.56
418.274	84.56
418.497	84.56
418.72	89.56
418.943	89.56
419.166	93.56
419.389	89.56
419.611	93.56
419.834	77.56
420.057	94.56
420.28	81.56
420.503	87.56
420.726	90.56
420.948	83.56
421.171	85.56
421.394	96.56
421.617	85.56
421.839	86.56
422.062	79.56
422.285	91.56
422.507	97.56
422.73	98.56
422.953	92.56
423.175	86.56
423.398	90.56
423.621	88.56
423.843	91.56
424.066	91.56
424.288	101.56
424.511	88.56
424.733	91.56
424.956	122.56
425.178	104.56
425.401	109.56
425.623	105.56
425.846	94.56
426.068	96.56
426.291	91.56
426.513	82.56
426.735	101.56
426.958	93.56
427.18	121.56
427.402	151.56
427.625	184.56
427.847	137.56
428.069	144.56
428.292	91.56
428.514	106.56
428.736	80.56
428.958	93.56
429.181	95.56
429.403	91.56
429.625	85.56
429.847	93.56
430.069	105.56
430.292	94.56
430.514	91.56
430.736	99.56
430.958	81.56
431.18	91.56
431.402	96.56
431.624	89.56
431.846	88.56
432.068	91.56
432.29	80.56
432.512	92.56
432.734	73.56
432.956	101.56
433.178	117.56
433.4	115.56
433.622	98.56
433.844	97.56
434.066	92.56
434.287	81.56
434.509	103.56
434.731	79.56
434.953	79.56
435.175	83.56
435.397	78.56
435.618	72.56
435.84	102.56
436.062	145.56
436.284	133.56
436.505	122.56
436.727	112.56
436.949	89.56
437.17	100.56
437.392	102.56
437.614	92.56
437.835	115.56
438.057	121.56
438.278	119.56
438.5	123.56
438.721	126.56
438.943	105.56
439.165	79.56
439.386	85.56
439.608	84.56
439.829	97.56
440.05	117.56
440.272	155.56
440.493	97.56
440.715	103.56
440.936	72.56
441.158	102.56
441.379	95.56
441.6	83.56
441.822	92.56
442.043	88.56
442.264	120.56
442.486	104.56
442.707	99.56
442.928	127.56
443.149	148.56
443.371	131.56
443.592	112.56
443.813	120.56
444.034	117.56
444.255	92.56
444.476	81.56
444.698	104.56
444.919	90.56
445.14	134.56
445.361	136.56
445.582	112.56
445.803	158.56
446.024	153.56
446.245	149.56
446.466	133.56
446.687	89.56
446.908	91.56
447.129	84.56
447.35	91.56
447.571	115.56
447.792	92.56
448.013	105.56
448.234	104.56
448.455	108.56
448.675	129.56
448.896	133.56
449.117	82.56
449.338	103.56
449.559	149.56
449.779	153.56
450	93.56
450.221	106.56
450.442	86.56
450.662	91.56
450.883	104.56
451.104	111.56
451.324	105.56
451.545	96.56
451.766	86.56
451.986	88.56
452.207	94.56
452.428	80.56
452.648	99.56
452.869	117.56
453.089	114.56
453.31	127.56
453.53	96.56
453.751	100.56
453.971	96.56
454.192	116.56
454.412	97.56
454.633	73.56
454.853	77.56
455.073	84.56
455.294	97.56
455.514	109.56
455.734	101.56
455.955	78.56
456.175	77.56
456.395	81.56
456.616	70.56
456.836	80.56
457.056	79.56
457.276	85.56
457.497	93.56
457.717	77.56
457.937	81.56
458.157	94.56
458.377	88.56
458.598	103.56
458.818	157.56
459.038	185.56
459.258	128.56
459.478	92.56
459.698	86.56
459.918	91.56
460.138	90.56
460.358	96.56
460.578	102.56
460.798	92.56
461.018	97.56
461.238	95.56
461.458	86.56
461.678	94.56
461.898	85.56
462.118	99.56
462.338	92.56
462.558	88.56
462.777	84.56
462.997	85.56
463.217	88.56
463.437	79.56
463.657	94.56
463.876	93.56
464.096	86.56
464.316	113.56
464.536	103.56
464.755	97.56
464.975	109.56
465.195	173.56
465.414	166.56
465.634	102.56
465.854	93.56
466.073	79.56
466.293	81.56
466.512	93.56
466.732	91.56
466.951	89.56
467.171	104.56
467.391	99.56
467.61	101.56
467.829	108.56
468.049	163.56
468.268	211.56
468.488	104.56
468.707	96.56
468.927	88.56
469.146	80.56
469.365	85.56
469.585	93.56
469.804	102.56
470.023	101.56
470.243	78.56
470.462	94.56
470.681	106.56
470.901	89.56
471.12	96.56
471.339	96.56
471.558	91.56
471.777	111.56
471.997	119.56
472.216	277.56
472.435	489.56
472.654	184.56
472.873	104.56
473.092	97.56
473.311	91.56
473.53	77.56
473.749	82.56
473.968	94.56
474.187	122.56
474.406	116.56
474.625	91.56
474.844	87.56
475.063	90.56
475.282	97.56
475.501	103.56
475.72	88.56
475.939	92.56
476.158	83.56
476.377	92.56
476.596	91.56
476.814	100.56
477.033	95.56
477.252	93.56
477.471	82.56
477.69	92.56
477.908	97.56
478.127	85.56
478.346	97.56
478.564	106.56
478.783	86.56
479.002	99.56
479.22	88.56
479.439	93.56
479.658	112.56
479.876	96.56
480.095	104.56
480.313	91.56
480.532	101.56
480.751	120.56
480.969	270.56
481.188	798.56
481.406	516.56
481.624	143.56
481.843	110.56
482.061	95.56
482.28	90.56
482.498	93.56
482.717	95.56
482.935	89.56
483.153	107.56
483.372	92.56
483.59	81.56
483.808	85.56
484.027	91.56
484.245	83.56
484.463	99.56
484.681	96.56
484.9	97.56
485.118	87.56
485.336	112.56
485.554	98.56
485.772	93.56
485.99	112.56
486.209	94.56
486.427	88.56
486.645	104.56
486.863	115.56
487.081	101.56
487.299	102.56
487.517	89.56
487.735	98.56
487.953	96.56
488.171	91.56
488.389	94.56
488.607	94.56
488.825	86.56
489.043	80.56
489.261	97.56
489.479	86.56
489.696	78.56
489.914	91.56
490.132	84.56
490.35	79.56
490.568	89.56
490.786	85.56
491.003	88.56
491.221	103.56
491.439	101.56
491.657	93.56
491.874	96.56
492.092	102.56
492.31	92.56
492.527	88.56
492.745	108.56
492.963	88.56
493.18	94.56
493.398	91.56
493.615	95.56
493.833	104.56
494.05	101.56
494.268	86.56
494.485	97.56
494.703	88.56
494.92	77.56
495.138	85.56
495.355	90.56
495.573	91.56
495.79	96.56
496.008	99.56
496.225	91.56
496.442	93.56
496.66	100.56
496.877	105.56
497.094	96.56
497.312	100.56
497.529	91.56
497.746	92.56
497.963	92.56
498.181	94.56
498.398	90.56
498.615	110.56
498.832	110.56
499.049	98.56
499.267	89.56
499.484	88.56
499.701	90.56
499.918	82.56
500.135	71.56
500.352	85.56
500.569	105.56
500.786	85.56
501.003	103.56
501.22	112.56
501.437	92.56
501.654	97.56
501.871	104.56
502.088	83.56
502.305	87.56
502.522	90.56
502.739	91.56
502.956	86.56
503.172	93.56
503.389	108.56
503.606	99.56
503.823	102.56
504.04	89.56
504.256	93.56
504.473	87.56
504.69	89.56
504.907	100.56
505.123	92.56
505.34	108.56
505.557	94.56
505.773	81.56
505.99	81.56
506.207	86.56
506.423	90.56
506.64	113.56
506.856	106.56
507.073	78.56
507.289	92.56
507.506	109.56
507.722	103.56
507.939	104.56
508.155	77.56
508.372	95.56
508.588	86.56
508.805	109.56
509.021	93.56
509.238	95.56
509.454	100.56
509.67	100.56
509.887	121.56
510.103	130.56
510.319	197.56
510.536	712.56
510.752	2177.56
510.968	617.56
511.184	157.56
511.401	120.56
511.617	94.56
511.833	104.56
512.049	96.56
512.265	100.56
512.481	101.56
512.698	88.56
512.914	97.56
513.13	82.56
513.346	96.56
513.562	88.56
513.778	92.56
513.994	97.56
514.21	100.56
514.426	123.56
514.642	135.56
514.858	135.56
515.074	178.56
