Data from Circ_2011_H10_HRD10591_00022.txt Node
Date: Wed Jan 03 10:08:03 EST 2024
User: Yrep
Spectrometer: HR+D1059
Trigger mode: 1
Integration Time (sec): 1.000000E-1
Scans to average: 1
Electric dark correction enabled: true
Nonlinearity correction enabled: false
Boxcar width: 0
XAxis mode: Wavelengths
Number of Pixels in Spectrum: 2048
>>>>>Begin Spectral Data<<<<<
223.165	-25.31
223.4	-25.31
223.635	-25.31
223.869	-20.31
224.104	-30.31
224.338	-32.31
224.573	-7.31
224.808	-16.31
225.042	-5.31
225.277	0.69
225.511	-0.31
225.746	-2.31
225.98	8.69
226.215	13.69
226.449	-1.31
226.683	18.69
226.918	42.69
227.152	56.69
227.387	30.69
227.621	33.69
227.856	48.69
228.09	40.69
228.324	51.69
228.559	39.69
228.793	54.69
229.027	66.69
229.262	70.69
229.496	65.69
229.73	80.69
229.964	84.69
230.199	57.69
230.433	61.69
230.667	85.69
230.901	65.69
231.136	58.69
231.37	67.69
231.604	68.69
231.838	60.69
232.072	72.69
232.306	72.69
232.541	87.69
232.775	93.69
233.009	82.69
233.243	71.69
233.477	78.69
233.711	97.69
233.945	91.69
234.179	69.69
234.413	79.69
234.647	85.69
234.881	69.69
235.115	82.69
235.349	69.69
235.583	81.69
235.817	84.69
236.051	84.69
236.285	93.69
236.519	63.69
236.753	76.69
236.987	88.69
237.221	73.69
237.455	82.69
237.689	74.69
237.922	68.69
238.156	53.69
238.39	70.69
238.624	72.69
238.858	66.69
239.091	79.69
239.325	76.69
239.559	85.69
239.793	79.69
240.027	78.69
240.26	65.69
240.494	63.69
240.728	69.69
240.961	83.69
241.195	72.69
241.429	74.69
241.662	76.69
241.896	91.69
242.13	65.69
242.363	78.69
242.597	74.69
242.83	76.69
243.064	77.69
243.298	78.69
243.531	70.69
243.765	81.69
243.998	78.69
244.232	76.69
244.465	72.69
244.699	76.69
244.932	85.69
245.166	75.69
245.399	68.69
245.633	80.69
245.866	76.69
246.099	71.69
246.333	65.69
246.566	75.69
246.8	77.69
247.033	76.69
247.266	72.69
247.5	75.69
247.733	84.69
247.966	77.69
248.2	86.69
248.433	73.69
248.666	87.69
248.899	67.69
249.133	78.69
249.366	79.69
249.599	87.69
249.832	78.69
250.066	80.69
250.299	71.69
250.532	83.69
250.765	64.69
250.998	85.69
251.231	56.69
251.465	65.69
251.698	73.69
251.931	65.69
252.164	83.69
252.397	83.69
252.63	70.69
252.863	72.69
253.096	82.69
253.329	81.69
253.562	74.69
253.795	73.69
254.028	88.69
254.261	60.69
254.494	66.69
254.727	75.69
254.96	67.69
255.193	72.69
255.426	93.69
255.659	72.69
255.892	73.69
256.124	85.69
256.357	81.69
256.59	89.69
256.823	82.69
257.056	85.69
257.289	74.69
257.521	83.69
257.754	80.69
257.987	75.69
258.22	80.69
258.452	75.69
258.685	81.69
258.918	87.69
259.151	78.69
259.383	82.69
259.616	68.69
259.849	96.69
260.081	73.69
260.314	84.69
260.547	76.69
260.779	76.69
261.012	82.69
261.244	81.69
261.477	90.69
261.71	87.69
261.942	105.69
262.175	102.69
262.407	80.69
262.64	98.69
262.872	74.69
263.105	81.69
263.337	67.69
263.57	87.69
263.802	62.69
264.035	82.69
264.267	78.69
264.499	67.69
264.732	69.69
264.964	73.69
265.197	87.69
265.429	81.69
265.661	78.69
265.894	88.69
266.126	73.69
266.358	72.69
266.591	90.69
266.823	77.69
267.055	64.69
267.287	77.69
267.52	71.69
267.752	80.69
267.984	83.69
268.216	61.69
268.448	75.69
268.681	94.69
268.913	84.69
269.145	83.69
269.377	81.69
269.609	81.69
269.841	78.69
270.073	87.69
270.306	75.69
270.538	68.69
270.77	84.69
271.002	63.69
271.234	82.69
271.466	80.69
271.698	84.69
271.93	78.69
272.162	86.69
272.394	77.69
272.626	87.69
272.858	78.69
273.09	66.69
273.322	89.69
273.553	86.69
273.785	72.69
274.017	72.69
274.249	74.69
274.481	73.69
274.713	75.69
274.945	83.69
275.176	98.69
275.408	74.69
275.64	84.69
275.872	78.69
276.104	76.69
276.335	82.69
276.567	85.69
276.799	98.69
277.031	87.69
277.262	92.69
277.494	87.69
277.726	84.69
277.957	91.69
278.189	78.69
278.421	76.69
278.652	77.69
278.884	96.69
279.115	74.69
279.347	85.69
279.579	93.69
279.81	90.69
280.042	88.69
280.273	92.69
280.505	83.69
280.736	75.69
280.968	80.69
281.199	86.69
281.431	83.69
281.662	74.69
281.894	85.69
282.125	94.69
282.356	101.69
282.588	127.69
282.819	99.69
283.051	91.69
283.282	82.69
283.513	87.69
283.745	83.69
283.976	73.69
284.207	74.69
284.439	74.69
284.67	75.69
284.901	71.69
285.132	92.69
285.364	88.69
285.595	81.69
285.826	93.69
286.057	85.69
286.288	75.69
286.52	80.69
286.751	89.69
286.982	84.69
287.213	80.69
287.444	80.69
287.675	76.69
287.906	91.69
288.138	92.69
288.369	87.69
288.6	93.69
288.831	88.69
289.062	87.69
289.293	71.69
289.524	78.69
289.755	94.69
289.986	92.69
290.217	73.69
290.448	99.69
290.679	56.69
290.91	91.69
291.141	86.69
291.371	84.69
291.602	81.69
291.833	84.69
292.064	86.69
292.295	81.69
292.526	88.69
292.757	80.69
292.987	75.69
293.218	75.69
293.449	80.69
293.68	90.69
293.91	75.69
294.141	90.69
294.372	69.69
294.603	81.69
294.833	87.69
295.064	79.69
295.295	75.69
295.525	88.69
295.756	90.69
295.987	104.69
296.217	140.69
296.448	117.69
296.679	76.69
296.909	81.69
297.14	86.69
297.37	80.69
297.601	78.69
297.831	82.69
298.062	84.69
298.292	91.69
298.523	85.69
298.753	72.69
298.984	91.69
299.214	78.69
299.445	93.69
299.675	102.69
299.905	93.69
300.136	93.69
300.366	96.69
300.597	80.69
300.827	94.69
301.057	83.69
301.288	91.69
301.518	79.69
301.748	90.69
301.979	91.69
302.209	74.69
302.439	79.69
302.669	75.69
302.9	84.69
303.13	80.69
303.36	96.69
303.59	90.69
303.82	93.69
304.051	100.69
304.281	71.69
304.511	80.69
304.741	81.69
304.971	97.69
305.201	85.69
305.431	93.69
305.661	97.69
305.891	74.69
306.121	93.69
306.352	90.69
306.582	104.69
306.812	86.69
307.042	88.69
307.272	83.69
307.502	90.69
307.731	92.69
307.961	85.69
308.191	98.69
308.421	82.69
308.651	86.69
308.881	85.69
309.111	84.69
309.341	104.69
309.571	99.69
309.8	89.69
310.03	89.69
310.26	87.69
310.49	87.69
310.72	98.69
310.949	95.69
311.179	91.69
311.409	91.69
311.639	94.69
311.868	89.69
312.098	81.69
312.328	90.69
312.557	105.69
312.787	93.69
313.017	87.69
313.246	82.69
313.476	74.69
313.706	96.69
313.935	87.69
314.165	87.69
314.394	95.69
314.624	85.69
314.853	88.69
315.083	86.69
315.312	89.69
315.542	85.69
315.771	97.69
316.001	86.69
316.23	73.69
316.46	84.69
316.689	92.69
316.919	96.69
317.148	91.69
317.377	91.69
317.607	90.69
317.836	86.69
318.065	96.69
318.295	80.69
318.524	90.69
318.753	91.69
318.983	75.69
319.212	96.69
319.441	107.69
319.67	100.69
319.9	87.69
320.129	82.69
320.358	72.69
320.587	105.69
320.816	98.69
321.046	98.69
321.275	94.69
321.504	90.69
321.733	107.69
321.962	93.69
322.191	97.69
322.42	96.69
322.649	97.69
322.878	114.69
323.108	112.69
323.337	130.69
323.566	121.69
323.795	130.69
324.024	181.69
324.253	374.69
324.482	778.69
324.71	1582.69
324.939	2045.69
325.168	776.69
325.397	231.69
325.626	139.69
325.855	130.69
326.084	120.69
326.313	118.69
326.542	124.69
326.77	218.69
326.999	435.69
327.228	916.69
327.457	1627.69
327.686	1300.69
327.914	357.69
328.143	173.69
328.372	162.69
328.6	147.69
328.829	117.69
329.058	113.69
329.287	130.69
329.515	95.69
329.744	105.69
329.972	125.69
330.201	147.69
330.43	174.69
330.658	139.69
330.887	135.69
331.115	120.69
331.344	103.69
331.572	85.69
331.801	96.69
332.03	85.69
332.258	99.69
332.486	93.69
332.715	81.69
332.943	84.69
333.172	84.69
333.4	99.69
333.629	97.69
333.857	94.69
334.085	130.69
334.314	156.69
334.542	205.69
334.771	176.69
334.999	120.69
335.227	84.69
335.455	99.69
335.684	102.69
335.912	93.69
336.14	90.69
336.369	94.69
336.597	96.69
336.825	102.69
337.053	78.69
337.281	85.69
337.51	83.69
337.738	106.69
337.966	90.69
338.194	95.69
338.422	98.69
338.65	87.69
338.878	81.69
339.106	88.69
339.334	95.69
339.562	77.69
339.79	83.69
340.018	84.69
340.246	76.69
340.474	77.69
340.702	92.69
340.93	79.69
341.158	82.69
341.386	90.69
341.614	98.69
341.842	96.69
342.07	79.69
342.298	84.69
342.526	88.69
342.754	84.69
342.981	75.69
343.209	88.69
343.437	94.69
343.665	101.69
343.893	91.69
344.12	85.69
344.348	89.69
344.576	90.69
344.804	97.69
345.031	91.69
345.259	100.69
345.487	90.69
345.714	90.69
345.942	91.69
346.17	95.69
346.397	87.69
346.625	75.69
346.853	95.69
347.08	77.69
347.308	85.69
347.535	92.69
347.763	90.69
347.99	95.69
348.218	92.69
348.445	95.69
348.673	91.69
348.9	96.69
349.128	94.69
349.355	84.69
349.583	91.69
349.81	99.69
350.037	101.69
350.265	97.69
350.492	86.69
350.72	84.69
350.947	102.69
351.174	107.69
351.402	97.69
351.629	103.69
351.856	91.69
352.083	89.69
352.311	99.69
352.538	100.69
352.765	104.69
352.992	92.69
353.22	94.69
353.447	93.69
353.674	97.69
353.901	99.69
354.128	86.69
354.355	90.69
354.583	75.69
354.81	77.69
355.037	89.69
355.264	97.69
355.491	94.69
355.718	91.69
355.945	90.69
356.172	85.69
356.399	105.69
356.626	93.69
356.853	97.69
357.08	74.69
357.307	76.69
357.534	88.69
357.761	94.69
357.988	103.69
358.215	97.69
358.441	82.69
358.668	80.69
358.895	81.69
359.122	92.69
359.349	86.69
359.576	94.69
359.802	97.69
360.029	116.69
360.256	101.69
360.483	83.69
360.709	84.69
360.936	83.69
361.163	89.69
361.39	85.69
361.616	87.69
361.843	72.69
362.07	85.69
362.296	82.69
362.523	97.69
362.749	65.69
362.976	88.69
363.203	91.69
363.429	72.69
363.656	88.69
363.882	80.69
364.109	88.69
364.335	85.69
364.562	90.69
364.788	97.69
365.015	101.69
365.241	84.69
365.468	106.69
365.694	86.69
365.92	88.69
366.147	88.69
366.373	99.69
366.599	93.69
366.826	87.69
367.052	85.69
367.278	82.69
367.505	82.69
367.731	89.69
367.957	97.69
368.184	79.69
368.41	99.69
368.636	119.69
368.862	112.69
369.089	96.69
369.315	91.69
369.541	84.69
369.767	89.69
369.993	96.69
370.219	87.69
370.445	88.69
370.672	99.69
370.898	98.69
371.124	89.69
371.35	78.69
371.576	81.69
371.802	98.69
372.028	87.69
372.254	84.69
372.48	75.69
372.706	97.69
372.932	92.69
373.158	94.69
373.384	101.69
373.61	82.69
373.835	75.69
374.061	78.69
374.287	89.69
374.513	86.69
374.739	97.69
374.965	89.69
375.191	94.69
375.416	82.69
375.642	76.69
375.868	85.69
376.094	103.69
376.319	92.69
376.545	78.69
376.771	85.69
376.997	95.69
377.222	87.69
377.448	101.69
377.674	85.69
377.899	89.69
378.125	77.69
378.35	92.69
378.576	88.69
378.802	91.69
379.027	92.69
379.253	92.69
379.478	82.69
379.704	86.69
379.929	86.69
380.155	92.69
380.38	94.69
380.606	83.69
380.831	81.69
381.057	96.69
381.282	87.69
381.507	85.69
381.733	95.69
381.958	96.69
382.184	86.69
382.409	87.69
382.634	111.69
382.86	85.69
383.085	86.69
383.31	100.69
383.535	105.69
383.761	94.69
383.986	91.69
384.211	94.69
384.436	97.69
384.662	74.69
384.887	92.69
385.112	103.69
385.337	99.69
385.562	84.69
385.787	94.69
386.013	104.69
386.238	99.69
386.463	92.69
386.688	98.69
386.913	90.69
387.138	90.69
387.363	89.69
387.588	104.69
387.813	101.69
388.038	93.69
388.263	77.69
388.488	78.69
388.713	83.69
388.938	91.69
389.163	97.69
389.387	93.69
389.612	87.69
389.837	72.69
390.062	72.69
390.287	94.69
390.512	88.69
390.736	89.69
390.961	89.69
391.186	90.69
391.411	95.69
391.636	92.69
391.86	86.69
392.085	85.69
392.31	74.69
392.534	84.69
392.759	84.69
392.984	76.69
393.208	87.69
393.433	82.69
393.658	81.69
393.882	78.69
394.107	81.69
394.331	76.69
394.556	84.69
394.78	72.69
395.005	77.69
395.229	96.69
395.454	75.69
395.678	70.69
395.903	90.69
396.127	75.69
396.352	85.69
396.576	73.69
396.801	81.69
397.025	97.69
397.249	82.69
397.474	81.69
397.698	86.69
397.922	76.69
398.147	82.69
398.371	79.69
398.595	84.69
398.82	83.69
399.044	96.69
399.268	93.69
399.492	84.69
399.717	82.69
399.941	89.69
400.165	96.69
400.389	90.69
400.613	75.69
400.837	82.69
401.062	93.69
401.286	91.69
401.51	89.69
401.734	86.69
401.958	92.69
402.182	116.69
402.406	144.69
402.63	113.69
402.854	98.69
403.078	84.69
403.302	91.69
403.526	80.69
403.75	91.69
403.974	87.69
404.198	89.69
404.422	91.69
404.645	91.69
404.869	91.69
405.093	102.69
405.317	92.69
405.541	106.69
405.765	90.69
405.988	120.69
406.212	162.69
406.436	200.69
406.66	131.69
406.883	97.69
407.107	87.69
407.331	103.69
407.555	82.69
407.778	78.69
408.002	87.69
408.226	73.69
408.449	82.69
408.673	87.69
408.896	85.69
409.12	86.69
409.344	95.69
409.567	82.69
409.791	85.69
410.014	85.69
410.238	88.69
410.461	92.69
410.685	90.69
410.908	89.69
411.132	102.69
411.355	95.69
411.578	84.69
411.802	77.69
412.025	89.69
412.249	88.69
412.472	95.69
412.695	92.69
412.919	83.69
413.142	75.69
413.365	77.69
413.589	92.69
413.812	93.69
414.035	68.69
414.258	94.69
414.482	77.69
414.705	77.69
414.928	104.69
415.151	91.69
415.374	93.69
415.597	85.69
415.821	78.69
416.044	78.69
416.267	88.69
416.49	92.69
416.713	76.69
416.936	81.69
417.159	77.69
417.382	79.69
417.605	92.69
417.828	78.69
418.051	96.69
418.274	77.69
418.497	76.69
418.72	78.69
418.943	80.69
419.166	79.69
419.389	97.69
419.611	96.69
419.834	73.69
420.057	67.69
420.28	95.69
420.503	90.69
420.726	78.69
420.948	74.69
421.171	95.69
421.394	97.69
421.617	80.69
421.839	85.69
422.062	86.69
422.285	91.69
422.507	100.69
422.73	84.69
422.953	94.69
423.175	73.69
423.398	88.69
423.621	76.69
423.843	79.69
424.066	81.69
424.288	76.69
424.511	77.69
424.733	97.69
424.956	93.69
425.178	92.69
425.401	87.69
425.623	96.69
425.846	77.69
426.068	85.69
426.291	90.69
426.513	80.69
426.735	75.69
426.958	90.69
427.18	87.69
427.402	124.69
427.625	156.69
427.847	127.69
428.069	107.69
428.292	97.69
428.514	84.69
428.736	92.69
428.958	89.69
429.181	93.69
429.403	76.69
429.625	84.69
429.847	83.69
430.069	91.69
430.292	114.69
430.514	76.69
430.736	74.69
430.958	81.69
431.18	92.69
431.402	70.69
431.624	81.69
431.846	83.69
432.068	81.69
432.29	80.69
432.512	85.69
432.734	78.69
432.956	84.69
433.178	87.69
433.4	92.69
433.622	75.69
433.844	74.69
434.066	72.69
434.287	84.69
434.509	84.69
434.731	73.69
434.953	93.69
435.175	79.69
435.397	89.69
435.618	92.69
435.84	93.69
436.062	115.69
436.284	107.69
436.505	104.69
436.727	92.69
436.949	89.69
437.17	91.69
437.392	92.69
437.614	101.69
437.835	116.69
438.057	101.69
438.278	91.69
438.5	112.69
438.721	121.69
438.943	98.69
439.165	94.69
439.386	83.69
439.608	88.69
439.829	92.69
440.05	117.69
440.272	132.69
440.493	102.69
440.715	86.69
440.936	88.69
441.158	86.69
441.379	70.69
441.6	89.69
441.822	101.69
442.043	104.69
442.264	96.69
442.486	96.69
442.707	84.69
442.928	101.69
443.149	122.69
443.371	110.69
443.592	99.69
443.813	91.69
444.034	98.69
444.255	74.69
444.476	86.69
444.698	89.69
444.919	88.69
445.14	117.69
445.361	108.69
445.582	110.69
445.803	122.69
446.024	122.69
446.245	125.69
446.466	94.69
446.687	79.69
446.908	80.69
447.129	71.69
447.35	81.69
447.571	81.69
447.792	89.69
448.013	95.69
448.234	112.69
448.455	96.69
448.675	93.69
448.896	114.69
449.117	97.69
449.338	85.69
449.559	123.69
449.779	124.69
450	100.69
450.221	89.69
450.442	100.69
450.662	107.69
450.883	96.69
451.104	98.69
451.324	86.69
451.545	92.69
451.766	82.69
451.986	72.69
452.207	86.69
452.428	87.69
452.648	90.69
452.869	95.69
453.089	104.69
453.31	99.69
453.53	89.69
453.751	91.69
453.971	85.69
454.192	116.69
454.412	75.69
454.633	70.69
454.853	78.69
455.073	84.69
455.294	82.69
455.514	85.69
455.734	78.69
455.955	85.69
456.175	92.69
456.395	86.69
456.616	78.69
456.836	89.69
457.056	90.69
457.276	85.69
457.497	70.69
457.717	96.69
457.937	87.69
458.157	87.69
458.377	80.69
458.598	86.69
458.818	125.69
459.038	149.69
459.258	102.69
459.478	92.69
459.698	75.69
459.918	85.69
460.138	81.69
460.358	91.69
460.578	73.69
460.798	82.69
461.018	70.69
461.238	82.69
461.458	75.69
461.678	73.69
461.898	85.69
462.118	75.69
462.338	86.69
462.558	81.69
462.777	81.69
462.997	86.69
463.217	81.69
463.437	90.69
463.657	87.69
463.876	104.69
464.096	88.69
464.316	77.69
464.536	84.69
464.755	78.69
464.975	113.69
465.195	158.69
465.414	140.69
465.634	96.69
465.854	92.69
466.073	88.69
466.293	89.69
466.512	79.69
466.732	87.69
466.951	86.69
467.171	88.69
467.391	85.69
467.61	92.69
467.829	94.69
468.049	128.69
468.268	132.69
468.488	82.69
468.707	70.69
468.927	82.69
469.146	67.69
469.365	94.69
469.585	89.69
469.804	85.69
470.023	89.69
470.243	89.69
470.462	91.69
470.681	102.69
470.901	99.69
471.12	87.69
471.339	86.69
471.558	77.69
471.777	85.69
471.997	92.69
472.216	162.69
472.435	240.69
472.654	128.69
472.873	82.69
473.092	93.69
473.311	88.69
473.53	71.69
473.749	90.69
473.968	84.69
474.187	85.69
474.406	72.69
474.625	81.69
474.844	88.69
475.063	77.69
475.282	80.69
475.501	66.69
475.72	88.69
475.939	96.69
476.158	84.69
476.377	83.69
476.596	88.69
476.814	99.69
477.033	83.69
477.252	83.69
477.471	82.69
477.69	94.69
477.908	86.69
478.127	82.69
478.346	84.69
478.564	71.69
478.783	78.69
479.002	89.69
479.22	105.69
479.439	97.69
479.658	114.69
479.876	86.69
480.095	89.69
480.313	88.69
480.532	110.69
480.751	100.69
480.969	158.69
481.188	393.69
481.406	262.69
481.624	105.69
481.843	96.69
482.061	92.69
482.28	90.69
482.498	76.69
482.717	96.69
482.935	91.69
483.153	87.69
483.372	93.69
483.59	99.69
483.808	83.69
484.027	92.69
484.245	98.69
484.463	73.69
484.681	78.69
484.9	84.69
485.118	85.69
485.336	88.69
485.554	77.69
485.772	90.69
485.99	93.69
486.209	91.69
486.427	101.69
486.645	98.69
486.863	103.69
487.081	99.69
487.299	102.69
487.517	89.69
487.735	84.69
487.953	92.69
488.171	95.69
488.389	87.69
488.607	94.69
488.825	92.69
489.043	99.69
489.261	91.69
489.479	85.69
489.696	98.69
489.914	92.69
490.132	88.69
490.35	79.69
490.568	83.69
490.786	86.69
491.003	87.69
491.221	86.69
491.439	98.69
491.657	91.69
491.874	84.69
492.092	84.69
492.31	76.69
492.527	78.69
492.745	94.69
492.963	82.69
493.18	93.69
493.398	91.69
493.615	84.69
493.833	79.69
494.05	81.69
494.268	77.69
494.485	73.69
494.703	78.69
494.92	85.69
495.138	81.69
495.355	83.69
495.573	93.69
495.79	74.69
496.008	81.69
496.225	91.69
496.442	88.69
496.66	102.69
496.877	75.69
497.094	85.69
497.312	88.69
497.529	97.69
497.746	91.69
497.963	88.69
498.181	81.69
498.398	97.69
498.615	100.69
498.832	96.69
499.049	96.69
499.267	85.69
499.484	85.69
499.701	84.69
499.918	92.69
500.135	85.69
500.352	94.69
500.569	97.69
500.786	84.69
501.003	82.69
501.22	73.69
501.437	82.69
501.654	96.69
501.871	98.69
502.088	93.69
502.305	87.69
502.522	83.69
502.739	93.69
502.956	88.69
503.172	98.69
503.389	91.69
503.606	100.69
503.823	93.69
504.04	90.69
504.256	78.69
504.473	82.69
504.69	80.69
504.907	89.69
505.123	90.69
505.34	95.69
505.557	97.69
505.773	80.69
505.99	81.69
506.207	79.69
506.423	88.69
506.64	104.69
506.856	72.69
507.073	94.69
507.289	90.69
507.506	89.69
507.722	84.69
507.939	92.69
508.155	81.69
508.372	86.69
508.588	81.69
508.805	83.69
509.021	74.69
509.238	82.69
509.454	103.69
509.67	85.69
509.887	115.69
510.103	130.69
510.319	192.69
510.536	680.69
510.752	2152.69
510.968	610.69
511.184	153.69
511.401	122.69
511.617	96.69
511.833	82.69
512.049	90.69
512.265	90.69
512.481	74.69
512.698	83.69
512.914	87.69
513.13	88.69
513.346	90.69
513.562	93.69
513.778	85.69
513.994	90.69
514.21	92.69
514.426	108.69
514.642	132.69
514.858	116.69
515.074	152.69
515.29	420.69
515.506	1326.69
515.721	518.69
515.937	144.69
516.153	100.69
516.369	97.69
516.585	97.69
516.801	92.69
517.016	77.69
517.232	78.69
517.448	88.69
