Data from Circ_2011_H10_HRD10591_00064.txt Node
Date: Wed Jan 03 10:08:11 EST 2024
User: Yrep
Spectrometer: HR+D1059
Trigger mode: 1
Integration Time (sec): 1.000000E-1
Scans to average: 1
Electric dark correction enabled: true
Nonlinearity correction enabled: false
Boxcar width: 0
XAxis mode: Wavelengths
Number of Pixels in Spectrum: 2048
>>>>>Begin Spectral Data<<<<<
223.165	-17.69
223.4	-17.69
223.635	-17.69
223.869	-7.69
224.104	-23.69
224.338	-21.69
224.573	-15.69
224.808	-19.69
225.042	-25.69
225.277	9.31
225.511	-3.69
225.746	10.31
225.98	13.31
226.215	16.31
226.449	9.31
226.683	14.31
226.918	34.31
227.152	28.31
227.387	37.31
227.621	34.31
227.856	43.31
228.09	50.31
228.324	55.31
228.559	54.31
228.793	63.31
229.027	64.31
229.262	69.31
229.496	70.31
229.73	91.31
229.964	95.31
230.199	72.31
230.433	74.31
230.667	74.31
230.901	85.31
231.136	79.31
231.37	80.31
231.604	77.31
231.838	87.31
232.072	81.31
232.306	86.31
232.541	81.31
232.775	77.31
233.009	81.31
233.243	86.31
233.477	98.31
233.711	80.31
233.945	72.31
234.179	79.31
234.413	79.31
234.647	82.31
234.881	77.31
235.115	64.31
235.349	77.31
235.583	84.31
235.817	81.31
236.051	71.31
236.285	75.31
236.519	78.31
236.753	74.31
236.987	82.31
237.221	82.31
237.455	73.31
237.689	87.31
237.922	77.31
238.156	83.31
238.39	87.31
238.624	81.31
238.858	79.31
239.091	77.31
239.325	83.31
239.559	92.31
239.793	75.31
240.027	72.31
240.26	75.31
240.494	85.31
240.728	70.31
240.961	84.31
241.195	91.31
241.429	64.31
241.662	84.31
241.896	64.31
242.13	90.31
242.363	74.31
242.597	89.31
242.83	83.31
243.064	75.31
243.298	92.31
243.531	76.31
243.765	82.31
243.998	80.31
244.232	99.31
244.465	90.31
244.699	99.31
244.932	93.31
245.166	89.31
245.399	82.31
245.633	77.31
245.866	82.31
246.099	71.31
246.333	76.31
246.566	72.31
246.8	85.31
247.033	88.31
247.266	97.31
247.5	72.31
247.733	69.31
247.966	74.31
248.2	80.31
248.433	74.31
248.666	81.31
248.899	81.31
249.133	87.31
249.366	100.31
249.599	103.31
249.832	87.31
250.066	103.31
250.299	90.31
250.532	104.31
250.765	74.31
250.998	75.31
251.231	86.31
251.465	76.31
251.698	82.31
251.931	75.31
252.164	82.31
252.397	85.31
252.63	86.31
252.863	63.31
253.096	64.31
253.329	71.31
253.562	94.31
253.795	88.31
254.028	77.31
254.261	80.31
254.494	86.31
254.727	83.31
254.96	83.31
255.193	67.31
255.426	71.31
255.659	71.31
255.892	103.31
256.124	76.31
256.357	90.31
256.59	73.31
256.823	89.31
257.056	85.31
257.289	90.31
257.521	75.31
257.754	85.31
257.987	86.31
258.22	87.31
258.452	95.31
258.685	76.31
258.918	73.31
259.151	79.31
259.383	82.31
259.616	87.31
259.849	98.31
260.081	88.31
260.314	81.31
260.547	77.31
260.779	84.31
261.012	84.31
261.244	80.31
261.477	92.31
261.71	104.31
261.942	114.31
262.175	119.31
262.407	97.31
262.64	82.31
262.872	84.31
263.105	88.31
263.337	90.31
263.57	87.31
263.802	85.31
264.035	76.31
264.267	73.31
264.499	86.31
264.732	85.31
264.964	92.31
265.197	69.31
265.429	78.31
265.661	86.31
265.894	80.31
266.126	98.31
266.358	94.31
266.591	88.31
266.823	94.31
267.055	88.31
267.287	78.31
267.52	108.31
267.752	86.31
267.984	81.31
268.216	80.31
268.448	86.31
268.681	97.31
268.913	86.31
269.145	87.31
269.377	92.31
269.609	85.31
269.841	81.31
270.073	77.31
270.306	92.31
270.538	91.31
270.77	88.31
271.002	89.31
271.234	74.31
271.466	82.31
271.698	79.31
271.93	88.31
272.162	85.31
272.394	84.31
272.626	81.31
272.858	90.31
273.09	87.31
273.322	83.31
273.553	102.31
273.785	86.31
274.017	81.31
274.249	72.31
274.481	91.31
274.713	89.31
274.945	102.31
275.176	81.31
275.408	94.31
275.64	82.31
275.872	80.31
276.104	80.31
276.335	94.31
276.567	90.31
276.799	104.31
277.031	104.31
277.262	106.31
277.494	109.31
277.726	109.31
277.957	81.31
278.189	88.31
278.421	79.31
278.652	85.31
278.884	88.31
279.115	87.31
279.347	88.31
279.579	91.31
279.81	93.31
280.042	97.31
280.273	112.31
280.505	120.31
280.736	90.31
280.968	86.31
281.199	96.31
281.431	73.31
281.662	102.31
281.894	88.31
282.125	101.31
282.356	124.31
282.588	140.31
282.819	122.31
283.051	94.31
283.282	76.31
283.513	97.31
283.745	94.31
283.976	87.31
284.207	84.31
284.439	89.31
284.67	96.31
284.901	92.31
285.132	68.31
285.364	87.31
285.595	72.31
285.826	81.31
286.057	85.31
286.288	85.31
286.52	97.31
286.751	83.31
286.982	97.31
287.213	80.31
287.444	99.31
287.675	93.31
287.906	88.31
288.138	79.31
288.369	105.31
288.6	108.31
288.831	91.31
289.062	94.31
289.293	92.31
289.524	97.31
289.755	101.31
289.986	75.31
290.217	82.31
290.448	98.31
290.679	91.31
290.91	88.31
291.141	85.31
291.371	91.31
291.602	92.31
291.833	98.31
292.064	88.31
292.295	89.31
292.526	92.31
292.757	95.31
292.987	82.31
293.218	95.31
293.449	100.31
293.68	90.31
293.91	88.31
294.141	98.31
294.372	84.31
294.603	86.31
294.833	88.31
295.064	74.31
295.295	96.31
295.525	103.31
295.756	121.31
295.987	130.31
296.217	135.31
296.448	119.31
296.679	98.31
296.909	88.31
297.14	95.31
297.37	103.31
297.601	97.31
297.831	87.31
298.062	89.31
298.292	90.31
298.523	97.31
298.753	92.31
298.984	93.31
299.214	83.31
299.445	93.31
299.675	91.31
299.905	103.31
300.136	95.31
300.366	98.31
300.597	83.31
300.827	89.31
301.057	99.31
301.288	113.31
301.518	105.31
301.748	82.31
301.979	107.31
302.209	82.31
302.439	80.31
302.669	81.31
302.9	100.31
303.13	93.31
303.36	105.31
303.59	108.31
303.82	127.31
304.051	92.31
304.281	91.31
304.511	93.31
304.741	95.31
304.971	87.31
305.201	92.31
305.431	86.31
305.661	94.31
305.891	97.31
306.121	98.31
306.352	109.31
306.582	101.31
306.812	96.31
307.042	96.31
307.272	77.31
307.502	93.31
307.731	98.31
307.961	92.31
308.191	88.31
308.421	90.31
308.651	88.31
308.881	96.31
309.111	97.31
309.341	113.31
309.571	111.31
309.8	94.31
310.03	103.31
310.26	102.31
310.49	95.31
310.72	76.31
310.949	104.31
311.179	94.31
311.409	90.31
311.639	95.31
311.868	100.31
312.098	94.31
312.328	110.31
312.557	124.31
312.787	124.31
313.017	113.31
313.246	102.31
313.476	94.31
313.706	111.31
313.935	107.31
314.165	96.31
314.394	110.31
314.624	94.31
314.853	90.31
315.083	75.31
315.312	89.31
315.542	96.31
315.771	93.31
316.001	87.31
316.23	85.31
316.46	88.31
316.689	84.31
316.919	98.31
317.148	92.31
317.377	116.31
317.607	107.31
317.836	89.31
318.065	96.31
318.295	103.31
318.524	86.31
318.753	99.31
318.983	102.31
319.212	104.31
319.441	109.31
319.67	92.31
319.9	93.31
320.129	90.31
320.358	101.31
320.587	108.31
320.816	107.31
321.046	103.31
321.275	97.31
321.504	90.31
321.733	107.31
321.962	91.31
322.191	97.31
322.42	99.31
322.649	135.31
322.878	108.31
323.108	113.31
323.337	128.31
323.566	150.31
323.795	166.31
324.024	211.31
324.253	431.31
324.482	940.31
324.71	1969.31
324.939	2649.31
325.168	937.31
325.397	260.31
325.626	168.31
325.855	139.31
326.084	146.31
326.313	152.31
326.542	160.31
326.77	236.31
326.999	542.31
327.228	1104.31
327.457	2028.31
327.686	1658.31
327.914	442.31
328.143	246.31
328.372	202.31
328.6	139.31
328.829	121.31
329.058	130.31
329.287	135.31
329.515	128.31
329.744	133.31
329.972	152.31
330.201	225.31
330.43	316.31
330.658	206.31
330.887	150.31
331.115	136.31
331.344	106.31
331.572	95.31
331.801	95.31
332.03	111.31
332.258	94.31
332.486	103.31
332.715	103.31
332.943	93.31
333.172	93.31
333.4	108.31
333.629	117.31
333.857	132.31
334.085	155.31
334.314	234.31
334.542	349.31
334.771	350.31
334.999	156.31
335.227	112.31
335.455	93.31
335.684	107.31
335.912	107.31
336.14	105.31
336.369	104.31
336.597	99.31
336.825	92.31
337.053	92.31
337.281	96.31
337.51	93.31
337.738	101.31
337.966	101.31
338.194	109.31
338.422	104.31
338.65	82.31
338.878	97.31
339.106	80.31
339.334	84.31
339.562	104.31
339.79	96.31
340.018	89.31
340.246	83.31
340.474	97.31
340.702	87.31
340.93	88.31
341.158	89.31
341.386	99.31
341.614	93.31
341.842	105.31
342.07	93.31
342.298	80.31
342.526	89.31
342.754	88.31
342.981	108.31
343.209	98.31
343.437	92.31
343.665	99.31
343.893	83.31
344.12	100.31
344.348	84.31
344.576	94.31
344.804	90.31
345.031	101.31
345.259	101.31
345.487	108.31
345.714	104.31
345.942	89.31
346.17	100.31
346.397	95.31
346.625	86.31
346.853	79.31
347.08	95.31
347.308	91.31
347.535	108.31
347.763	100.31
347.99	84.31
348.218	95.31
348.445	114.31
348.673	109.31
348.9	100.31
349.128	91.31
349.355	95.31
349.583	94.31
349.81	89.31
350.037	96.31
350.265	93.31
350.492	102.31
350.72	104.31
350.947	108.31
351.174	119.31
351.402	109.31
351.629	89.31
351.856	116.31
352.083	97.31
352.311	110.31
352.538	113.31
352.765	107.31
352.992	94.31
353.22	117.31
353.447	102.31
353.674	104.31
353.901	104.31
354.128	88.31
354.355	85.31
354.583	96.31
354.81	92.31
355.037	106.31
355.264	96.31
355.491	98.31
355.718	85.31
355.945	91.31
356.172	86.31
356.399	90.31
356.626	97.31
356.853	94.31
357.08	93.31
357.307	87.31
357.534	87.31
357.761	102.31
357.988	108.31
358.215	81.31
358.441	103.31
358.668	101.31
358.895	90.31
359.122	78.31
359.349	99.31
359.576	83.31
359.802	104.31
360.029	109.31
360.256	115.31
360.483	102.31
360.709	99.31
360.936	106.31
361.163	98.31
361.39	96.31
361.616	93.31
361.843	85.31
362.07	82.31
362.296	90.31
362.523	91.31
362.749	93.31
362.976	80.31
363.203	81.31
363.429	94.31
363.656	94.31
363.882	83.31
364.109	98.31
364.335	105.31
364.562	91.31
364.788	101.31
365.015	93.31
365.241	104.31
365.468	110.31
365.694	108.31
365.92	101.31
366.147	95.31
366.373	84.31
366.599	98.31
366.826	98.31
367.052	96.31
367.278	106.31
367.505	97.31
367.731	104.31
367.957	78.31
368.184	96.31
368.41	103.31
368.636	109.31
368.862	114.31
369.089	105.31
369.315	106.31
369.541	100.31
369.767	89.31
369.993	95.31
370.219	91.31
370.445	89.31
370.672	97.31
370.898	102.31
371.124	90.31
371.35	98.31
371.576	90.31
371.802	98.31
372.028	85.31
372.254	78.31
372.48	69.31
372.706	82.31
372.932	77.31
373.158	78.31
373.384	96.31
373.61	86.31
373.835	83.31
374.061	80.31
374.287	99.31
374.513	76.31
374.739	92.31
374.965	89.31
375.191	89.31
375.416	81.31
375.642	85.31
375.868	92.31
376.094	90.31
376.319	89.31
376.545	96.31
376.771	94.31
376.997	96.31
377.222	84.31
377.448	98.31
377.674	87.31
377.899	94.31
378.125	100.31
378.35	89.31
378.576	85.31
378.802	86.31
379.027	97.31
379.253	90.31
379.478	94.31
379.704	78.31
379.929	106.31
380.155	84.31
380.38	93.31
380.606	103.31
380.831	102.31
381.057	98.31
381.282	85.31
381.507	100.31
381.733	96.31
381.958	97.31
382.184	82.31
382.409	97.31
382.634	100.31
382.86	92.31
383.085	91.31
383.31	93.31
383.535	94.31
383.761	96.31
383.986	107.31
384.211	89.31
384.436	102.31
384.662	109.31
384.887	97.31
385.112	112.31
385.337	87.31
385.562	109.31
385.787	97.31
386.013	92.31
386.238	105.31
386.463	90.31
386.688	105.31
386.913	97.31
387.138	109.31
387.363	98.31
387.588	97.31
387.813	99.31
388.038	115.31
388.263	103.31
388.488	116.31
388.713	96.31
388.938	95.31
389.163	71.31
389.387	96.31
389.612	92.31
389.837	98.31
390.062	87.31
390.287	90.31
390.512	78.31
390.736	85.31
390.961	102.31
391.186	104.31
391.411	103.31
391.636	87.31
391.86	82.31
392.085	91.31
392.31	90.31
392.534	99.31
392.759	81.31
392.984	90.31
393.208	87.31
393.433	82.31
393.658	85.31
393.882	95.31
394.107	97.31
394.331	83.31
394.556	96.31
394.78	98.31
395.005	99.31
395.229	88.31
395.454	87.31
395.678	91.31
395.903	100.31
396.127	86.31
396.352	97.31
396.576	84.31
396.801	77.31
397.025	77.31
397.249	80.31
397.474	90.31
397.698	107.31
397.922	96.31
398.147	88.31
398.371	94.31
398.595	79.31
398.82	82.31
399.044	77.31
399.268	96.31
399.492	96.31
399.717	92.31
399.941	88.31
400.165	95.31
400.389	89.31
400.613	82.31
400.837	78.31
401.062	87.31
401.286	89.31
401.51	82.31
401.734	96.31
401.958	101.31
402.182	126.31
402.406	164.31
402.63	120.31
402.854	106.31
403.078	98.31
403.302	90.31
403.526	90.31
403.75	93.31
403.974	81.31
404.198	91.31
404.422	79.31
404.645	86.31
404.869	88.31
405.093	96.31
405.317	103.31
405.541	118.31
405.765	91.31
405.988	111.31
406.212	166.31
406.436	232.31
406.66	136.31
406.883	103.31
407.107	108.31
407.331	109.31
407.555	99.31
407.778	93.31
408.002	94.31
408.226	86.31
408.449	79.31
408.673	97.31
408.896	98.31
409.12	98.31
409.344	92.31
409.567	90.31
409.791	91.31
410.014	79.31
410.238	92.31
410.461	98.31
410.685	102.31
410.908	98.31
411.132	104.31
411.355	112.31
411.578	107.31
411.802	85.31
412.025	93.31
412.249	94.31
412.472	95.31
412.695	109.31
412.919	93.31
413.142	85.31
413.365	88.31
413.589	92.31
413.812	88.31
414.035	101.31
414.258	92.31
414.482	93.31
414.705	95.31
414.928	75.31
415.151	103.31
415.374	105.31
415.597	92.31
415.821	94.31
416.044	77.31
416.267	96.31
416.49	97.31
416.713	74.31
416.936	85.31
417.159	105.31
417.382	88.31
417.605	93.31
417.828	95.31
418.051	93.31
418.274	73.31
418.497	90.31
418.72	86.31
418.943	87.31
419.166	80.31
419.389	90.31
419.611	89.31
419.834	104.31
420.057	86.31
420.28	95.31
420.503	88.31
420.726	104.31
420.948	76.31
421.171	76.31
421.394	96.31
421.617	103.31
421.839	86.31
422.062	80.31
422.285	93.31
422.507	93.31
422.73	108.31
422.953	100.31
423.175	98.31
423.398	89.31
423.621	95.31
423.843	88.31
424.066	83.31
424.288	100.31
424.511	77.31
424.733	103.31
424.956	116.31
425.178	100.31
425.401	107.31
425.623	112.31
425.846	101.31
426.068	86.31
426.291	95.31
426.513	92.31
426.735	102.31
426.958	106.31
427.18	109.31
427.402	145.31
427.625	200.31
427.847	161.31
428.069	144.31
428.292	103.31
428.514	111.31
428.736	84.31
428.958	90.31
429.181	93.31
429.403	89.31
429.625	94.31
429.847	92.31
430.069	110.31
430.292	110.31
430.514	92.31
430.736	82.31
430.958	87.31
431.18	72.31
431.402	79.31
431.624	103.31
431.846	84.31
432.068	95.31
432.29	103.31
432.512	87.31
432.734	78.31
432.956	96.31
433.178	97.31
433.4	88.31
433.622	101.31
433.844	104.31
434.066	84.31
434.287	97.31
434.509	94.31
434.731	97.31
434.953	86.31
435.175	99.31
435.397	102.31
435.618	97.31
435.84	125.31
436.062	136.31
436.284	117.31
436.505	113.31
436.727	104.31
436.949	104.31
437.17	103.31
437.392	96.31
437.614	91.31
437.835	111.31
438.057	124.31
438.278	128.31
438.5	115.31
438.721	126.31
438.943	121.31
439.165	103.31
439.386	100.31
439.608	94.31
439.829	107.31
440.05	131.31
440.272	185.31
440.493	101.31
440.715	88.31
440.936	82.31
441.158	91.31
441.379	77.31
441.6	95.31
441.822	100.31
442.043	104.31
442.264	116.31
442.486	86.31
442.707	95.31
442.928	93.31
443.149	141.31
443.371	152.31
443.592	122.31
443.813	127.31
444.034	110.31
444.255	89.31
444.476	73.31
444.698	100.31
444.919	102.31
445.14	124.31
445.361	132.31
445.582	141.31
445.803	144.31
446.024	146.31
446.245	146.31
446.466	112.31
446.687	103.31
446.908	94.31
447.129	88.31
447.35	94.31
447.571	100.31
447.792	111.31
448.013	98.31
448.234	112.31
448.455	98.31
448.675	136.31
448.896	138.31
449.117	117.31
449.338	94.31
449.559	131.31
449.779	146.31
450	107.31
450.221	92.31
450.442	104.31
450.662	93.31
450.883	113.31
451.104	118.31
451.324	85.31
451.545	95.31
451.766	81.31
451.986	76.31
452.207	82.31
452.428	78.31
452.648	82.31
452.869	123.31
453.089	120.31
453.31	112.31
453.53	101.31
453.751	108.31
453.971	106.31
454.192	116.31
454.412	100.31
454.633	102.31
454.853	87.31
455.073	82.31
455.294	94.31
455.514	119.31
455.734	89.31
455.955	97.31
456.175	85.31
456.395	80.31
456.616	80.31
456.836	92.31
457.056	88.31
457.276	86.31
457.497	80.31
457.717	85.31
457.937	101.31
458.157	99.31
458.377	97.31
458.598	105.31
458.818	160.31
459.038	175.31
459.258	134.31
459.478	87.31
459.698	88.31
459.918	82.31
460.138	90.31
460.358	101.31
460.578	90.31
460.798	86.31
461.018	95.31
461.238	77.31
461.458	92.31
461.678	88.31
461.898	88.31
462.118	91.31
462.338	85.31
462.558	87.31
462.777	89.31
462.997	84.31
463.217	92.31
463.437	104.31
463.657	90.31
463.876	95.31
464.096	91.31
464.316	81.31
464.536	97.31
464.755	102.31
464.975	107.31
465.195	177.31
465.414	157.31
465.634	108.31
465.854	100.31
466.073	82.31
466.293	88.31
466.512	93.31
466.732	90.31
466.951	97.31
467.171	92.31
467.391	106.31
467.61	122.31
467.829	108.31
468.049	153.31
468.268	203.31
468.488	109.31
468.707	102.31
468.927	89.31
469.146	87.31
469.365	79.31
469.585	78.31
469.804	95.31
470.023	100.31
470.243	88.31
470.462	104.31
470.681	102.31
470.901	88.31
471.12	90.31
471.339	93.31
471.558	95.31
471.777	97.31
471.997	123.31
472.216	236.31
472.435	460.31
472.654	167.31
472.873	95.31
473.092	108.31
473.311	80.31
473.53	79.31
473.749	97.31
473.968	99.31
474.187	116.31
474.406	101.31
474.625	93.31
474.844	82.31
475.063	92.31
475.282	95.31
475.501	89.31
475.72	99.31
475.939	94.31
476.158	97.31
476.377	88.31
476.596	93.31
476.814	102.31
477.033	120.31
477.252	90.31
477.471	105.31
477.69	87.31
477.908	93.31
478.127	91.31
478.346	91.31
478.564	92.31
478.783	90.31
479.002	100.31
479.22	90.31
479.439	108.31
479.658	108.31
479.876	109.31
480.095	97.31
480.313	93.31
480.532	102.31
480.751	123.31
480.969	246.31
481.188	728.31
481.406	498.31
481.624	138.31
481.843	92.31
482.061	92.31
482.28	99.31
482.498	87.31
482.717	82.31
482.935	86.31
483.153	97.31
483.372	93.31
483.59	98.31
483.808	93.31
484.027	93.31
484.245	86.31
484.463	100.31
484.681	93.31
484.9	100.31
485.118	101.31
485.336	93.31
485.554	104.31
485.772	104.31
485.99	98.31
486.209	107.31
486.427	107.31
486.645	117.31
486.863	120.31
487.081	116.31
487.299	105.31
487.517	105.31
487.735	90.31
487.953	101.31
488.171	79.31
488.389	77.31
488.607	84.31
488.825	100.31
489.043	94.31
489.261	85.31
489.479	102.31
489.696	82.31
489.914	87.31
490.132	87.31
490.35	88.31
490.568	98.31
490.786	78.31
491.003	81.31
491.221	87.31
491.439	106.31
491.657	91.31
491.874	85.31
492.092	89.31
492.31	95.31
492.527	92.31
492.745	82.31
492.963	103.31
493.18	105.31
493.398	95.31
493.615	94.31
493.833	90.31
494.05	84.31
494.268	104.31
494.485	96.31
494.703	96.31
494.92	103.31
495.138	95.31
495.355	94.31
495.573	90.31
495.79	102.31
496.008	82.31
496.225	82.31
496.442	90.31
496.66	111.31
496.877	89.31
497.094	93.31
497.312	89.31
497.529	88.31
497.746	99.31
497.963	96.31
498.181	88.31
498.398	88.31
498.615	110.31
498.832	93.31
499.049	82.31
499.267	101.31
499.484	85.31
499.701	95.31
499.918	100.31
500.135	93.31
500.352	90.31
500.569	103.31
500.786	95.31
501.003	85.31
501.22	87.31
501.437	91.31
501.654	87.31
501.871	106.31
502.088	92.31
502.305	90.31
502.522	82.31
502.739	84.31
502.956	79.31
503.172	85.31
503.389	106.31
503.606	102.31
503.823	122.31
504.04	86.31
504.256	86.31
504.473	75.31
504.69	90.31
504.907	89.31
505.123	93.31
505.34	88.31
505.557	81.31
505.773	91.31
505.99	105.31
506.207	107.31
506.423	82.31
506.64	98.31
506.856	108.31
507.073	91.31
507.289	96.31
507.506	108.31
507.722	110.31
507.939	119.31
508.155	96.31
508.372	91.31
508.588	108.31
508.805	82.31
509.021	98.31
509.238	116.31
509.454	92.31
509.67	96.31
509.887	105.31
510.103	136.31
510.319	211.31
510.536	721.31
510.752	2358.31
510.968	661.31
511.184	164.31
511.401	116.31
511.617	104.31
511.833	102.31
512.049	88.31
512.265	85.31
512.481	99.31
512.698	104.31
512.914	104.31
513.13	104.31
513.346	92.31
513.562	103.31
513.778	111.31
513.994	109.31
514.21	101.31
