Data from Circ_2011_H10_HRD10591_00037.txt Node
Date: Wed Jan 03 10:08:06 EST 2024
User: Yrep
Spectrometer: HR+D1059
Trigger mode: 1
Integration Time (sec): 1.000000E-1
Scans to average: 1
Electric dark correction enabled: true
Nonlinearity correction enabled: false
Boxcar width: 0
XAxis mode: Wavelengths
Number of Pixels in Spectrum: 2048
>>>>>Begin Spectral Data<<<<<
223.165	-18.75
223.4	-18.75
223.635	-18.75
223.869	-14.75
224.104	-20.75
224.338	-11.75
224.573	-26.75
224.808	-11.75
225.042	-21.75
225.277	-16.75
225.511	1.25
225.746	13.25
225.98	10.25
226.215	26.25
226.449	6.25
226.683	29.25
226.918	32.25
227.152	24.25
227.387	34.25
227.621	29.25
227.856	44.25
228.09	59.25
228.324	66.25
228.559	58.25
228.793	51.25
229.027	63.25
229.262	67.25
229.496	75.25
229.73	86.25
229.964	97.25
230.199	75.25
230.433	59.25
230.667	69.25
230.901	75.25
231.136	72.25
231.37	74.25
231.604	79.25
231.838	82.25
232.072	75.25
232.306	77.25
232.541	79.25
232.775	73.25
233.009	74.25
233.243	73.25
233.477	84.25
233.711	81.25
233.945	83.25
234.179	84.25
234.413	81.25
234.647	85.25
234.881	76.25
235.115	70.25
235.349	68.25
235.583	78.25
235.817	67.25
236.051	72.25
236.285	72.25
236.519	72.25
236.753	79.25
236.987	70.25
237.221	80.25
237.455	80.25
237.689	90.25
237.922	75.25
238.156	72.25
238.39	76.25
238.624	77.25
238.858	90.25
239.091	76.25
239.325	63.25
239.559	83.25
239.793	88.25
240.027	79.25
240.26	77.25
240.494	71.25
240.728	66.25
240.961	79.25
241.195	74.25
241.429	71.25
241.662	64.25
241.896	73.25
242.13	85.25
242.363	63.25
242.597	77.25
242.83	70.25
243.064	92.25
243.298	81.25
243.531	75.25
243.765	74.25
243.998	87.25
244.232	81.25
244.465	81.25
244.699	88.25
244.932	84.25
245.166	79.25
245.399	81.25
245.633	57.25
245.866	66.25
246.099	74.25
246.333	68.25
246.566	83.25
246.8	85.25
247.033	81.25
247.266	65.25
247.5	83.25
247.733	78.25
247.966	81.25
248.2	67.25
248.433	73.25
248.666	75.25
248.899	82.25
249.133	105.25
249.366	96.25
249.599	116.25
249.832	78.25
250.066	86.25
250.299	86.25
250.532	91.25
250.765	81.25
250.998	78.25
251.231	78.25
251.465	79.25
251.698	75.25
251.931	84.25
252.164	85.25
252.397	79.25
252.63	87.25
252.863	79.25
253.096	73.25
253.329	86.25
253.562	80.25
253.795	79.25
254.028	85.25
254.261	78.25
254.494	80.25
254.727	90.25
254.96	81.25
255.193	65.25
255.426	77.25
255.659	79.25
255.892	79.25
256.124	81.25
256.357	89.25
256.59	85.25
256.823	76.25
257.056	94.25
257.289	73.25
257.521	67.25
257.754	69.25
257.987	80.25
258.22	77.25
258.452	70.25
258.685	77.25
258.918	86.25
259.151	72.25
259.383	74.25
259.616	74.25
259.849	81.25
260.081	97.25
260.314	84.25
260.547	95.25
260.779	88.25
261.012	74.25
261.244	90.25
261.477	85.25
261.71	121.25
261.942	151.25
262.175	143.25
262.407	118.25
262.64	82.25
262.872	79.25
263.105	81.25
263.337	71.25
263.57	76.25
263.802	90.25
264.035	92.25
264.267	84.25
264.499	82.25
264.732	87.25
264.964	89.25
265.197	75.25
265.429	90.25
265.661	87.25
265.894	86.25
266.126	82.25
266.358	79.25
266.591	75.25
266.823	82.25
267.055	89.25
267.287	84.25
267.52	84.25
267.752	66.25
267.984	80.25
268.216	78.25
268.448	85.25
268.681	77.25
268.913	84.25
269.145	83.25
269.377	72.25
269.609	81.25
269.841	82.25
270.073	80.25
270.306	76.25
270.538	77.25
270.77	74.25
271.002	75.25
271.234	84.25
271.466	84.25
271.698	69.25
271.93	75.25
272.162	82.25
272.394	96.25
272.626	96.25
272.858	89.25
273.09	91.25
273.322	74.25
273.553	84.25
273.785	88.25
274.017	79.25
274.249	87.25
274.481	96.25
274.713	97.25
274.945	73.25
275.176	72.25
275.408	83.25
275.64	88.25
275.872	94.25
276.104	86.25
276.335	92.25
276.567	97.25
276.799	135.25
277.031	113.25
277.262	113.25
277.494	94.25
277.726	80.25
277.957	94.25
278.189	78.25
278.421	85.25
278.652	88.25
278.884	93.25
279.115	86.25
279.347	82.25
279.579	79.25
279.81	88.25
280.042	99.25
280.273	116.25
280.505	97.25
280.736	83.25
280.968	90.25
281.199	88.25
281.431	83.25
281.662	79.25
281.894	99.25
282.125	103.25
282.356	128.25
282.588	183.25
282.819	147.25
283.051	83.25
283.282	96.25
283.513	88.25
283.745	83.25
283.976	89.25
284.207	91.25
284.439	95.25
284.67	99.25
284.901	92.25
285.132	81.25
285.364	92.25
285.595	80.25
285.826	97.25
286.057	85.25
286.288	84.25
286.52	77.25
286.751	91.25
286.982	79.25
287.213	87.25
287.444	90.25
287.675	88.25
287.906	96.25
288.138	99.25
288.369	96.25
288.6	102.25
288.831	92.25
289.062	92.25
289.293	91.25
289.524	83.25
289.755	78.25
289.986	89.25
290.217	99.25
290.448	78.25
290.679	91.25
290.91	73.25
291.141	91.25
291.371	88.25
291.602	82.25
291.833	89.25
292.064	89.25
292.295	92.25
292.526	97.25
292.757	97.25
292.987	77.25
293.218	81.25
293.449	104.25
293.68	92.25
293.91	106.25
294.141	96.25
294.372	84.25
294.603	101.25
294.833	84.25
295.064	92.25
295.295	84.25
295.525	94.25
295.756	105.25
295.987	136.25
296.217	177.25
296.448	160.25
296.679	104.25
296.909	103.25
297.14	85.25
297.37	80.25
297.601	91.25
297.831	96.25
298.062	88.25
298.292	92.25
298.523	94.25
298.753	98.25
298.984	86.25
299.214	85.25
299.445	99.25
299.675	99.25
299.905	92.25
300.136	91.25
300.366	85.25
300.597	94.25
300.827	94.25
301.057	107.25
301.288	115.25
301.518	102.25
301.748	91.25
301.979	110.25
302.209	108.25
302.439	90.25
302.669	87.25
302.9	88.25
303.13	90.25
303.36	97.25
303.59	112.25
303.82	127.25
304.051	104.25
304.281	97.25
304.511	106.25
304.741	94.25
304.971	93.25
305.201	92.25
305.431	75.25
305.661	82.25
305.891	77.25
306.121	91.25
306.352	103.25
306.582	116.25
306.812	112.25
307.042	101.25
307.272	110.25
307.502	116.25
307.731	108.25
307.961	92.25
308.191	105.25
308.421	92.25
308.651	103.25
308.881	101.25
309.111	100.25
309.341	98.25
309.571	112.25
309.8	112.25
310.03	101.25
310.26	118.25
310.49	107.25
310.72	119.25
310.949	98.25
311.179	124.25
311.409	95.25
311.639	114.25
311.868	94.25
312.098	94.25
312.328	102.25
312.557	133.25
312.787	119.25
313.017	115.25
313.246	100.25
313.476	92.25
313.706	102.25
313.935	101.25
314.165	115.25
314.394	119.25
314.624	107.25
314.853	83.25
315.083	87.25
315.312	94.25
315.542	87.25
315.771	85.25
316.001	97.25
316.23	98.25
316.46	97.25
316.689	98.25
316.919	96.25
317.148	87.25
317.377	102.25
317.607	108.25
317.836	119.25
318.065	95.25
318.295	85.25
318.524	80.25
318.753	110.25
318.983	93.25
319.212	105.25
319.441	121.25
319.67	120.25
319.9	92.25
320.129	101.25
320.358	84.25
320.587	96.25
320.816	121.25
321.046	112.25
321.275	90.25
321.504	99.25
321.733	102.25
321.962	101.25
322.191	105.25
322.42	115.25
322.649	122.25
322.878	129.25
323.108	138.25
323.337	152.25
323.566	163.25
323.795	205.25
324.024	289.25
324.253	633.25
324.482	1379.25
324.71	2843.25
324.939	3839.25
325.168	1362.25
325.397	379.25
325.626	197.25
325.855	173.25
326.084	153.25
326.313	168.25
326.542	200.25
326.77	321.25
326.999	685.25
327.228	1480.25
327.457	2770.25
327.686	2254.25
327.914	584.25
328.143	328.25
328.372	273.25
328.6	186.25
328.829	158.25
329.058	167.25
329.287	187.25
329.515	142.25
329.744	144.25
329.972	179.25
330.201	250.25
330.43	325.25
330.658	243.25
330.887	205.25
331.115	166.25
331.344	131.25
331.572	105.25
331.801	129.25
332.03	110.25
332.258	108.25
332.486	108.25
332.715	99.25
332.943	100.25
333.172	102.25
333.4	108.25
333.629	137.25
333.857	151.25
334.085	171.25
334.314	259.25
334.542	398.25
334.771	379.25
334.999	156.25
335.227	104.25
335.455	104.25
335.684	103.25
335.912	88.25
336.14	89.25
336.369	94.25
336.597	115.25
336.825	102.25
337.053	101.25
337.281	97.25
337.51	81.25
337.738	94.25
337.966	98.25
338.194	103.25
338.422	107.25
338.65	105.25
338.878	103.25
339.106	104.25
339.334	100.25
339.562	98.25
339.79	102.25
340.018	97.25
340.246	99.25
340.474	102.25
340.702	91.25
340.93	97.25
341.158	94.25
341.386	104.25
341.614	105.25
341.842	105.25
342.07	102.25
342.298	95.25
342.526	78.25
342.754	77.25
342.981	92.25
343.209	108.25
343.437	92.25
343.665	78.25
343.893	82.25
344.12	83.25
344.348	93.25
344.576	94.25
344.804	92.25
345.031	113.25
345.259	105.25
345.487	112.25
345.714	102.25
345.942	96.25
346.17	95.25
346.397	105.25
346.625	88.25
346.853	99.25
347.08	83.25
347.308	100.25
347.535	102.25
347.763	114.25
347.99	106.25
348.218	108.25
348.445	138.25
348.673	98.25
348.9	99.25
349.128	95.25
349.355	91.25
349.583	87.25
349.81	103.25
350.037	94.25
350.265	93.25
350.492	102.25
350.72	98.25
350.947	113.25
351.174	119.25
351.402	130.25
351.629	112.25
351.856	117.25
352.083	117.25
352.311	121.25
352.538	146.25
352.765	110.25
352.992	129.25
353.22	123.25
353.447	122.25
353.674	106.25
353.901	87.25
354.128	95.25
354.355	111.25
354.583	99.25
354.81	95.25
355.037	104.25
355.264	85.25
355.491	89.25
355.718	109.25
355.945	99.25
356.172	103.25
356.399	100.25
356.626	89.25
356.853	89.25
357.08	92.25
357.307	89.25
357.534	75.25
357.761	95.25
357.988	100.25
358.215	95.25
358.441	74.25
358.668	80.25
358.895	97.25
359.122	106.25
359.349	99.25
359.576	96.25
359.802	112.25
360.029	146.25
360.256	119.25
360.483	100.25
360.709	94.25
360.936	113.25
361.163	101.25
361.39	100.25
361.616	98.25
361.843	103.25
362.07	98.25
362.296	112.25
362.523	109.25
362.749	101.25
362.976	96.25
363.203	104.25
363.429	98.25
363.656	97.25
363.882	79.25
364.109	78.25
364.335	95.25
364.562	84.25
364.788	87.25
365.015	101.25
365.241	95.25
365.468	107.25
365.694	118.25
365.92	97.25
366.147	93.25
366.373	94.25
366.599	107.25
366.826	91.25
367.052	97.25
367.278	102.25
367.505	91.25
367.731	103.25
367.957	109.25
368.184	79.25
368.41	112.25
368.636	119.25
368.862	153.25
369.089	132.25
369.315	115.25
369.541	95.25
369.767	86.25
369.993	80.25
370.219	98.25
370.445	78.25
370.672	84.25
370.898	85.25
371.124	89.25
371.35	78.25
371.576	92.25
371.802	88.25
372.028	82.25
372.254	100.25
372.48	87.25
372.706	91.25
372.932	82.25
373.158	88.25
373.384	97.25
373.61	94.25
373.835	84.25
374.061	88.25
374.287	79.25
374.513	93.25
374.739	94.25
374.965	95.25
375.191	92.25
375.416	89.25
375.642	86.25
375.868	97.25
376.094	109.25
376.319	94.25
376.545	90.25
376.771	96.25
376.997	81.25
377.222	100.25
377.448	81.25
377.674	94.25
377.899	94.25
378.125	85.25
378.35	81.25
378.576	100.25
378.802	110.25
379.027	84.25
379.253	85.25
379.478	93.25
379.704	104.25
379.929	95.25
380.155	104.25
380.38	92.25
380.606	80.25
380.831	92.25
381.057	88.25
381.282	90.25
381.507	87.25
381.733	103.25
381.958	79.25
382.184	89.25
382.409	94.25
382.634	110.25
382.86	96.25
383.085	101.25
383.31	71.25
383.535	86.25
383.761	93.25
383.986	106.25
384.211	92.25
384.436	105.25
384.662	102.25
384.887	89.25
385.112	103.25
385.337	104.25
385.562	109.25
385.787	101.25
386.013	105.25
386.238	132.25
386.463	114.25
386.688	109.25
386.913	89.25
387.138	108.25
387.363	100.25
387.588	112.25
387.813	89.25
388.038	98.25
388.263	108.25
388.488	101.25
388.713	101.25
388.938	88.25
389.163	92.25
389.387	89.25
389.612	100.25
389.837	87.25
390.062	87.25
390.287	94.25
390.512	76.25
390.736	96.25
390.961	71.25
391.186	103.25
391.411	105.25
391.636	92.25
391.86	83.25
392.085	86.25
392.31	78.25
392.534	89.25
392.759	79.25
392.984	76.25
393.208	76.25
393.433	91.25
393.658	76.25
393.882	81.25
394.107	82.25
394.331	85.25
394.556	103.25
394.78	88.25
395.005	100.25
395.229	92.25
395.454	88.25
395.678	80.25
395.903	87.25
396.127	87.25
396.352	91.25
396.576	88.25
396.801	91.25
397.025	87.25
397.249	74.25
397.474	84.25
397.698	108.25
397.922	95.25
398.147	85.25
398.371	93.25
398.595	76.25
398.82	85.25
399.044	85.25
399.268	83.25
399.492	85.25
399.717	78.25
399.941	83.25
400.165	90.25
400.389	86.25
400.613	99.25
400.837	101.25
401.062	96.25
401.286	92.25
401.51	103.25
401.734	109.25
401.958	116.25
402.182	157.25
402.406	225.25
402.63	153.25
402.854	115.25
403.078	90.25
403.302	90.25
403.526	93.25
403.75	81.25
403.974	85.25
404.198	92.25
404.422	95.25
404.645	87.25
404.869	103.25
405.093	111.25
405.317	134.25
405.541	105.25
405.765	113.25
405.988	144.25
406.212	243.25
406.436	334.25
406.66	203.25
406.883	120.25
407.107	119.25
407.331	106.25
407.555	112.25
407.778	109.25
408.002	99.25
408.226	105.25
408.449	87.25
408.673	87.25
408.896	95.25
409.12	98.25
409.344	92.25
409.567	90.25
409.791	98.25
410.014	98.25
410.238	90.25
410.461	95.25
410.685	95.25
410.908	104.25
411.132	96.25
411.355	102.25
411.578	101.25
411.802	81.25
412.025	80.25
412.249	92.25
412.472	96.25
412.695	102.25
412.919	107.25
413.142	93.25
413.365	94.25
413.589	85.25
413.812	78.25
414.035	87.25
414.258	71.25
414.482	88.25
414.705	88.25
414.928	105.25
415.151	93.25
415.374	97.25
415.597	94.25
415.821	88.25
416.044	104.25
416.267	94.25
416.49	91.25
416.713	85.25
416.936	85.25
417.159	101.25
417.382	92.25
417.605	101.25
417.828	92.25
418.051	103.25
418.274	88.25
418.497	88.25
418.72	91.25
418.943	94.25
419.166	87.25
419.389	80.25
419.611	80.25
419.834	94.25
420.057	99.25
420.28	94.25
420.503	99.25
420.726	93.25
420.948	86.25
421.171	90.25
421.394	90.25
421.617	88.25
421.839	85.25
422.062	96.25
422.285	81.25
422.507	93.25
422.73	99.25
422.953	100.25
423.175	95.25
423.398	95.25
423.621	101.25
423.843	95.25
424.066	76.25
424.288	89.25
424.511	107.25
424.733	111.25
424.956	110.25
425.178	108.25
425.401	99.25
425.623	104.25
425.846	102.25
426.068	100.25
426.291	93.25
426.513	102.25
426.735	91.25
426.958	99.25
427.18	108.25
427.402	164.25
427.625	249.25
427.847	192.25
428.069	143.25
428.292	104.25
428.514	106.25
428.736	86.25
428.958	92.25
429.181	90.25
429.403	83.25
429.625	89.25
429.847	91.25
430.069	110.25
430.292	96.25
430.514	81.25
430.736	84.25
430.958	99.25
431.18	87.25
431.402	93.25
431.624	84.25
431.846	93.25
432.068	99.25
432.29	85.25
432.512	88.25
432.734	98.25
432.956	87.25
433.178	103.25
433.4	97.25
433.622	92.25
433.844	92.25
434.066	91.25
434.287	105.25
434.509	86.25
434.731	84.25
434.953	88.25
435.175	100.25
435.397	84.25
435.618	99.25
435.84	108.25
436.062	134.25
436.284	120.25
436.505	109.25
436.727	113.25
436.949	108.25
437.17	93.25
437.392	93.25
437.614	84.25
437.835	130.25
438.057	147.25
438.278	126.25
438.5	120.25
438.721	130.25
438.943	111.25
439.165	75.25
439.386	95.25
439.608	117.25
439.829	110.25
440.05	157.25
440.272	180.25
440.493	102.25
440.715	88.25
440.936	78.25
441.158	82.25
441.379	94.25
441.6	103.25
441.822	108.25
442.043	111.25
442.264	99.25
442.486	92.25
442.707	92.25
442.928	113.25
443.149	156.25
443.371	166.25
443.592	136.25
443.813	112.25
444.034	98.25
444.255	89.25
444.476	100.25
444.698	108.25
444.919	84.25
445.14	145.25
445.361	145.25
445.582	136.25
445.803	169.25
446.024	167.25
446.245	181.25
446.466	115.25
446.687	107.25
446.908	95.25
447.129	89.25
447.35	105.25
447.571	104.25
447.792	92.25
448.013	120.25
448.234	109.25
448.455	112.25
448.675	135.25
448.896	123.25
449.117	113.25
449.338	120.25
449.559	134.25
449.779	153.25
450	119.25
450.221	80.25
450.442	94.25
450.662	112.25
450.883	120.25
451.104	141.25
451.324	113.25
451.545	99.25
451.766	96.25
451.986	90.25
452.207	89.25
452.428	105.25
452.648	96.25
452.869	127.25
453.089	128.25
453.31	156.25
453.53	102.25
453.751	97.25
453.971	111.25
454.192	143.25
454.412	95.25
454.633	95.25
454.853	89.25
455.073	98.25
455.294	88.25
455.514	105.25
455.734	87.25
455.955	68.25
456.175	76.25
456.395	70.25
456.616	85.25
456.836	79.25
457.056	77.25
457.276	81.25
457.497	85.25
457.717	97.25
457.937	90.25
458.157	89.25
458.377	81.25
458.598	143.25
458.818	221.25
459.038	251.25
459.258	141.25
459.478	104.25
459.698	86.25
459.918	84.25
460.138	90.25
460.358	92.25
460.578	99.25
460.798	91.25
461.018	94.25
461.238	100.25
461.458	72.25
461.678	76.25
461.898	87.25
462.118	92.25
462.338	100.25
462.558	96.25
462.777	73.25
462.997	77.25
463.217	108.25
463.437	91.25
463.657	85.25
463.876	88.25
464.096	97.25
464.316	97.25
464.536	95.25
464.755	98.25
464.975	140.25
465.195	237.25
465.414	248.25
465.634	107.25
465.854	70.25
466.073	85.25
466.293	100.25
466.512	89.25
466.732	84.25
466.951	93.25
467.171	108.25
467.391	95.25
467.61	134.25
467.829	137.25
468.049	167.25
468.268	198.25
468.488	111.25
468.707	97.25
468.927	95.25
469.146	83.25
469.365	79.25
469.585	95.25
469.804	109.25
470.023	109.25
470.243	95.25
470.462	137.25
470.681	146.25
470.901	110.25
471.12	80.25
471.339	88.25
471.558	82.25
471.777	107.25
471.997	139.25
472.216	287.25
472.435	515.25
472.654	175.25
472.873	100.25
473.092	71.25
473.311	80.25
473.53	83.25
473.749	86.25
473.968	101.25
474.187	124.25
474.406	92.25
474.625	102.25
474.844	88.25
475.063	82.25
475.282	83.25
475.501	86.25
475.72	92.25
475.939	103.25
476.158	83.25
476.377	87.25
476.596	87.25
476.814	102.25
477.033	89.25
477.252	102.25
477.471	84.25
477.69	88.25
477.908	83.25
478.127	95.25
478.346	83.25
478.564	98.25
478.783	92.25
479.002	88.25
479.22	111.25
479.439	111.25
479.658	126.25
479.876	107.25
480.095	91.25
480.313	100.25
480.532	117.25
480.751	140.25
480.969	273.25
481.188	880.25
481.406	553.25
481.624	133.25
481.843	110.25
482.061	89.25
482.28	81.25
482.498	96.25
482.717	99.25
482.935	86.25
483.153	88.25
483.372	87.25
483.59	87.25
483.808	101.25
484.027	86.25
484.245	73.25
484.463	93.25
484.681	93.25
484.9	100.25
485.118	95.25
485.336	101.25
485.554	92.25
485.772	98.25
485.99	97.25
486.209	99.25
486.427	112.25
486.645	108.25
486.863	121.25
487.081	87.25
487.299	96.25
487.517	97.25
487.735	98.25
487.953	87.25
488.171	98.25
488.389	98.25
488.607	102.25
488.825	87.25
489.043	94.25
489.261	107.25
489.479	91.25
489.696	83.25
489.914	83.25
490.132	94.25
490.35	100.25
490.568	82.25
490.786	80.25
491.003	86.25
491.221	96.25
491.439	82.25
491.657	87.25
491.874	94.25
492.092	97.25
492.31	85.25
492.527	76.25
492.745	91.25
492.963	95.25
493.18	91.25
493.398	94.25
493.615	85.25
493.833	99.25
494.05	84.25
494.268	101.25
494.485	93.25
494.703	104.25
494.92	100.25
495.138	90.25
495.355	94.25
495.573	82.25
495.79	81.25
496.008	80.25
496.225	92.25
496.442	85.25
496.66	85.25
496.877	91.25
497.094	86.25
497.312	91.25
497.529	81.25
497.746	91.25
497.963	95.25
498.181	92.25
498.398	98.25
498.615	115.25
498.832	111.25
499.049	84.25
499.267	99.25
499.484	79.25
499.701	92.25
499.918	87.25
500.135	105.25
500.352	90.25
500.569	82.25
500.786	88.25
501.003	95.25
501.22	88.25
501.437	103.25
501.654	101.25
501.871	135.25
502.088	108.25
502.305	97.25
502.522	81.25
502.739	100.25
502.956	87.25
503.172	90.25
503.389	95.25
503.606	120.25
503.823	96.25
504.04	99.25
504.256	89.25
504.473	80.25
504.69	94.25
504.907	95.25
505.123	94.25
505.34	94.25
505.557	104.25
505.773	95.25
505.99	104.25
506.207	95.25
506.423	98.25
506.64	99.25
506.856	96.25
507.073	98.25
507.289	109.25
507.506	110.25
507.722	129.25
507.939	147.25
508.155	115.25
508.372	80.25
508.588	100.25
508.805	94.25
509.021	109.25
509.238	106.25
509.454	101.25
509.67	109.25
509.887	116.25
510.103	140.25
510.319	271.25
510.536	1122.25
510.752	3939.25
510.968	1083.25
511.184	207.25
511.401	126.25
511.617	108.25
511.833	97.25
512.049	77.25
512.265	75.25
512.481	96.25
512.698	105.25
512.914	109.25
513.13	100.25
513.346	98.25
513.562	96.25
