Data from Circ_2011_H10_HRD10591_00072.txt Node
Date: Wed Jan 03 10:08:13 EST 2024
User: Yrep
Spectrometer: HR+D1059
Trigger mode: 1
Integration Time (sec): 1.000000E-1
Scans to average: 1
Electric dark correction enabled: true
Nonlinearity correction enabled: false
Boxcar width: 0
XAxis mode: Wavelengths
Number of Pixels in Spectrum: 2048
>>>>>Begin Spectral Data<<<<<
223.165	-7.56
223.4	-7.56
223.635	-7.56
223.869	-24.56
224.104	-21.56
224.338	-23.56
224.573	-15.56
224.808	-23.56
225.042	-5.56
225.277	0.44
225.511	7.44
225.746	6.44
225.98	-4.56
226.215	5.44
226.449	26.44
226.683	21.44
226.918	20.44
227.152	38.44
227.387	28.44
227.621	30.44
227.856	38.44
228.09	55.44
228.324	64.44
228.559	57.44
228.793	73.44
229.027	68.44
229.262	75.44
229.496	86.44
229.73	75.44
229.964	82.44
230.199	70.44
230.433	80.44
230.667	89.44
230.901	84.44
231.136	69.44
231.37	85.44
231.604	72.44
231.838	75.44
232.072	70.44
232.306	77.44
232.541	75.44
232.775	88.44
233.009	82.44
233.243	84.44
233.477	81.44
233.711	81.44
233.945	79.44
234.179	69.44
234.413	89.44
234.647	70.44
234.881	87.44
235.115	77.44
235.349	74.44
235.583	91.44
235.817	78.44
236.051	79.44
236.285	79.44
236.519	63.44
236.753	65.44
236.987	89.44
237.221	86.44
237.455	85.44
237.689	79.44
237.922	74.44
238.156	79.44
238.39	77.44
238.624	72.44
238.858	70.44
239.091	74.44
239.325	77.44
239.559	84.44
239.793	87.44
240.027	75.44
240.26	79.44
240.494	69.44
240.728	76.44
240.961	75.44
241.195	72.44
241.429	89.44
241.662	79.44
241.896	78.44
242.13	74.44
242.363	81.44
242.597	66.44
242.83	84.44
243.064	76.44
243.298	73.44
243.531	76.44
243.765	97.44
243.998	79.44
244.232	83.44
244.465	80.44
244.699	70.44
244.932	89.44
245.166	80.44
245.399	82.44
245.633	85.44
245.866	80.44
246.099	66.44
246.333	66.44
246.566	84.44
246.8	85.44
247.033	73.44
247.266	80.44
247.5	79.44
247.733	70.44
247.966	82.44
248.2	74.44
248.433	83.44
248.666	84.44
248.899	82.44
249.133	88.44
249.366	99.44
249.599	87.44
249.832	80.44
250.066	77.44
250.299	71.44
250.532	86.44
250.765	90.44
250.998	98.44
251.231	95.44
251.465	92.44
251.698	82.44
251.931	74.44
252.164	70.44
252.397	77.44
252.63	78.44
252.863	62.44
253.096	80.44
253.329	85.44
253.562	87.44
253.795	91.44
254.028	62.44
254.261	83.44
254.494	77.44
254.727	72.44
254.96	90.44
255.193	71.44
255.426	82.44
255.659	88.44
255.892	79.44
256.124	81.44
256.357	80.44
256.59	75.44
256.823	87.44
257.056	77.44
257.289	88.44
257.521	88.44
257.754	81.44
257.987	74.44
258.22	77.44
258.452	77.44
258.685	82.44
258.918	80.44
259.151	95.44
259.383	87.44
259.616	91.44
259.849	75.44
260.081	95.44
260.314	84.44
260.547	84.44
260.779	76.44
261.012	88.44
261.244	95.44
261.477	85.44
261.71	77.44
261.942	111.44
262.175	108.44
262.407	81.44
262.64	82.44
262.872	85.44
263.105	81.44
263.337	78.44
263.57	89.44
263.802	88.44
264.035	74.44
264.267	77.44
264.499	67.44
264.732	79.44
264.964	82.44
265.197	80.44
265.429	79.44
265.661	88.44
265.894	87.44
266.126	81.44
266.358	85.44
266.591	79.44
266.823	73.44
267.055	94.44
267.287	95.44
267.52	82.44
267.752	97.44
267.984	76.44
268.216	84.44
268.448	82.44
268.681	83.44
268.913	95.44
269.145	77.44
269.377	92.44
269.609	89.44
269.841	86.44
270.073	77.44
270.306	76.44
270.538	90.44
270.77	86.44
271.002	71.44
271.234	94.44
271.466	92.44
271.698	80.44
271.93	75.44
272.162	89.44
272.394	87.44
272.626	84.44
272.858	88.44
273.09	75.44
273.322	89.44
273.553	88.44
273.785	101.44
274.017	88.44
274.249	81.44
274.481	92.44
274.713	73.44
274.945	79.44
275.176	73.44
275.408	92.44
275.64	93.44
275.872	92.44
276.104	80.44
276.335	91.44
276.567	88.44
276.799	108.44
277.031	100.44
277.262	95.44
277.494	88.44
277.726	94.44
277.957	77.44
278.189	75.44
278.421	91.44
278.652	87.44
278.884	87.44
279.115	76.44
279.347	100.44
279.579	80.44
279.81	91.44
280.042	104.44
280.273	102.44
280.505	110.44
280.736	93.44
280.968	87.44
281.199	73.44
281.431	95.44
281.662	81.44
281.894	89.44
282.125	102.44
282.356	96.44
282.588	137.44
282.819	116.44
283.051	86.44
283.282	85.44
283.513	81.44
283.745	89.44
283.976	94.44
284.207	88.44
284.439	84.44
284.67	87.44
284.901	81.44
285.132	87.44
285.364	86.44
285.595	86.44
285.826	87.44
286.057	89.44
286.288	75.44
286.52	74.44
286.751	77.44
286.982	89.44
287.213	92.44
287.444	81.44
287.675	107.44
287.906	78.44
288.138	93.44
288.369	90.44
288.6	101.44
288.831	88.44
289.062	83.44
289.293	75.44
289.524	106.44
289.755	88.44
289.986	82.44
290.217	67.44
290.448	94.44
290.679	82.44
290.91	95.44
291.141	86.44
291.371	78.44
291.602	80.44
291.833	79.44
292.064	80.44
292.295	93.44
292.526	88.44
292.757	91.44
292.987	84.44
293.218	80.44
293.449	92.44
293.68	95.44
293.91	97.44
294.141	77.44
294.372	75.44
294.603	86.44
294.833	92.44
295.064	76.44
295.295	68.44
295.525	86.44
295.756	110.44
295.987	113.44
296.217	126.44
296.448	107.44
296.679	98.44
296.909	91.44
297.14	97.44
297.37	91.44
297.601	96.44
297.831	93.44
298.062	89.44
298.292	109.44
298.523	93.44
298.753	83.44
298.984	90.44
299.214	90.44
299.445	93.44
299.675	102.44
299.905	98.44
300.136	82.44
300.366	80.44
300.597	85.44
300.827	95.44
301.057	95.44
301.288	109.44
301.518	96.44
301.748	88.44
301.979	93.44
302.209	88.44
302.439	86.44
302.669	104.44
302.9	92.44
303.13	95.44
303.36	102.44
303.59	89.44
303.82	104.44
304.051	89.44
304.281	89.44
304.511	88.44
304.741	83.44
304.971	80.44
305.201	85.44
305.431	89.44
305.661	87.44
305.891	81.44
306.121	88.44
306.352	93.44
306.582	106.44
306.812	102.44
307.042	99.44
307.272	94.44
307.502	110.44
307.731	104.44
307.961	104.44
308.191	93.44
308.421	82.44
308.651	84.44
308.881	97.44
309.111	91.44
309.341	97.44
309.571	93.44
309.8	102.44
310.03	92.44
310.26	101.44
310.49	95.44
310.72	106.44
310.949	97.44
311.179	87.44
311.409	95.44
311.639	97.44
311.868	100.44
312.098	94.44
312.328	94.44
312.557	88.44
312.787	97.44
313.017	85.44
313.246	107.44
313.476	98.44
313.706	82.44
313.935	99.44
314.165	86.44
314.394	95.44
314.624	108.44
314.853	113.44
315.083	80.44
315.312	77.44
315.542	90.44
315.771	94.44
316.001	98.44
316.23	80.44
316.46	92.44
316.689	97.44
316.919	88.44
317.148	91.44
317.377	111.44
317.607	105.44
317.836	95.44
318.065	95.44
318.295	82.44
318.524	91.44
318.753	87.44
318.983	89.44
319.212	85.44
319.441	106.44
319.67	108.44
319.9	89.44
320.129	97.44
320.358	103.44
320.587	89.44
320.816	102.44
321.046	92.44
321.275	96.44
321.504	93.44
321.733	101.44
321.962	93.44
322.191	98.44
322.42	105.44
322.649	111.44
322.878	113.44
323.108	123.44
323.337	129.44
323.566	128.44
323.795	166.44
324.024	207.44
324.253	367.44
324.482	825.44
324.71	1706.44
324.939	2298.44
325.168	822.44
325.397	252.44
325.626	146.44
325.855	110.44
326.084	133.44
326.313	140.44
326.542	157.44
326.77	237.44
326.999	490.44
327.228	954.44
327.457	1736.44
327.686	1397.44
327.914	377.44
328.143	228.44
328.372	199.44
328.6	150.44
328.829	123.44
329.058	124.44
329.287	131.44
329.515	105.44
329.744	108.44
329.972	136.44
330.201	214.44
330.43	244.44
330.658	172.44
330.887	141.44
331.115	125.44
331.344	104.44
331.572	110.44
331.801	103.44
332.03	101.44
332.258	90.44
332.486	97.44
332.715	92.44
332.943	96.44
333.172	95.44
333.4	104.44
333.629	105.44
333.857	122.44
334.085	141.44
334.314	198.44
334.542	304.44
334.771	308.44
334.999	144.44
335.227	105.44
335.455	93.44
335.684	101.44
335.912	89.44
336.14	95.44
336.369	98.44
336.597	103.44
336.825	99.44
337.053	86.44
337.281	96.44
337.51	99.44
337.738	90.44
337.966	81.44
338.194	102.44
338.422	100.44
338.65	93.44
338.878	98.44
339.106	98.44
339.334	92.44
339.562	101.44
339.79	102.44
340.018	94.44
340.246	101.44
340.474	87.44
340.702	86.44
340.93	94.44
341.158	90.44
341.386	82.44
341.614	101.44
341.842	102.44
342.07	85.44
342.298	95.44
342.526	81.44
342.754	91.44
342.981	88.44
343.209	89.44
343.437	100.44
343.665	81.44
343.893	95.44
344.12	97.44
344.348	82.44
344.576	81.44
344.804	101.44
345.031	88.44
345.259	97.44
345.487	97.44
345.714	96.44
345.942	96.44
346.17	86.44
346.397	85.44
346.625	85.44
346.853	114.44
347.08	95.44
347.308	98.44
347.535	89.44
347.763	93.44
347.99	85.44
348.218	105.44
348.445	100.44
348.673	109.44
348.9	100.44
349.128	91.44
349.355	80.44
349.583	94.44
349.81	97.44
350.037	105.44
350.265	91.44
350.492	88.44
350.72	93.44
350.947	105.44
351.174	103.44
351.402	121.44
351.629	107.44
351.856	103.44
352.083	95.44
352.311	99.44
352.538	110.44
352.765	110.44
352.992	98.44
353.22	124.44
353.447	101.44
353.674	80.44
353.901	104.44
354.128	101.44
354.355	96.44
354.583	88.44
354.81	101.44
355.037	95.44
355.264	83.44
355.491	86.44
355.718	101.44
355.945	99.44
356.172	96.44
356.399	70.44
356.626	86.44
356.853	90.44
357.08	105.44
357.307	104.44
357.534	92.44
357.761	93.44
357.988	80.44
358.215	85.44
358.441	78.44
358.668	77.44
358.895	91.44
359.122	82.44
359.349	76.44
359.576	87.44
359.802	92.44
360.029	102.44
360.256	107.44
360.483	97.44
360.709	89.44
360.936	111.44
361.163	100.44
361.39	99.44
361.616	86.44
361.843	84.44
362.07	90.44
362.296	85.44
362.523	90.44
362.749	91.44
362.976	87.44
363.203	80.44
363.429	102.44
363.656	119.44
363.882	86.44
364.109	92.44
364.335	104.44
364.562	89.44
364.788	83.44
365.015	98.44
365.241	87.44
365.468	96.44
365.694	112.44
365.92	97.44
366.147	97.44
366.373	91.44
366.599	95.44
366.826	101.44
367.052	82.44
367.278	85.44
367.505	96.44
367.731	88.44
367.957	101.44
368.184	92.44
368.41	111.44
368.636	119.44
368.862	125.44
369.089	97.44
369.315	92.44
369.541	88.44
369.767	82.44
369.993	88.44
370.219	100.44
370.445	81.44
370.672	83.44
370.898	88.44
371.124	80.44
371.35	110.44
371.576	82.44
371.802	85.44
372.028	90.44
372.254	81.44
372.48	100.44
372.706	91.44
372.932	91.44
373.158	83.44
373.384	93.44
373.61	96.44
373.835	80.44
374.061	93.44
374.287	95.44
374.513	94.44
374.739	87.44
374.965	89.44
375.191	88.44
375.416	102.44
375.642	100.44
375.868	91.44
376.094	99.44
376.319	98.44
376.545	84.44
376.771	89.44
376.997	72.44
377.222	82.44
377.448	96.44
377.674	102.44
377.899	85.44
378.125	92.44
378.35	89.44
378.576	76.44
378.802	90.44
379.027	93.44
379.253	87.44
379.478	94.44
379.704	93.44
379.929	89.44
380.155	97.44
380.38	87.44
380.606	90.44
380.831	82.44
381.057	92.44
381.282	93.44
381.507	95.44
381.733	82.44
381.958	94.44
382.184	99.44
382.409	87.44
382.634	97.44
382.86	93.44
383.085	105.44
383.31	98.44
383.535	108.44
383.761	102.44
383.986	89.44
384.211	98.44
384.436	106.44
384.662	98.44
384.887	81.44
385.112	86.44
385.337	87.44
385.562	97.44
385.787	99.44
386.013	102.44
386.238	93.44
386.463	104.44
386.688	120.44
386.913	110.44
387.138	100.44
387.363	97.44
387.588	100.44
387.813	95.44
388.038	108.44
388.263	94.44
388.488	117.44
388.713	106.44
388.938	104.44
389.163	89.44
389.387	94.44
389.612	95.44
389.837	96.44
390.062	92.44
390.287	86.44
390.512	93.44
390.736	89.44
390.961	81.44
391.186	105.44
391.411	102.44
391.636	91.44
391.86	80.44
392.085	90.44
392.31	86.44
392.534	78.44
392.759	88.44
392.984	87.44
393.208	90.44
393.433	81.44
393.658	70.44
393.882	78.44
394.107	86.44
394.331	90.44
394.556	86.44
394.78	98.44
395.005	95.44
395.229	77.44
395.454	94.44
395.678	95.44
395.903	74.44
396.127	84.44
396.352	89.44
396.576	92.44
396.801	90.44
397.025	92.44
397.249	90.44
397.474	88.44
397.698	92.44
397.922	95.44
398.147	87.44
398.371	78.44
398.595	93.44
398.82	85.44
399.044	85.44
399.268	87.44
399.492	76.44
399.717	85.44
399.941	90.44
400.165	108.44
400.389	91.44
400.613	88.44
400.837	101.44
401.062	96.44
401.286	87.44
401.51	80.44
401.734	85.44
401.958	95.44
402.182	123.44
402.406	171.44
402.63	128.44
402.854	79.44
403.078	75.44
403.302	82.44
403.526	93.44
403.75	88.44
403.974	76.44
404.198	89.44
404.422	90.44
404.645	91.44
404.869	78.44
405.093	92.44
405.317	120.44
405.541	121.44
405.765	102.44
405.988	119.44
406.212	180.44
406.436	222.44
406.66	141.44
406.883	109.44
407.107	99.44
407.331	91.44
407.555	106.44
407.778	95.44
408.002	89.44
408.226	109.44
408.449	99.44
408.673	86.44
408.896	85.44
409.12	93.44
409.344	87.44
409.567	83.44
409.791	96.44
410.014	98.44
410.238	93.44
410.461	97.44
410.685	95.44
410.908	95.44
411.132	106.44
411.355	100.44
411.578	97.44
411.802	88.44
412.025	102.44
412.249	100.44
412.472	95.44
412.695	99.44
412.919	90.44
413.142	79.44
413.365	85.44
413.589	82.44
413.812	84.44
414.035	90.44
414.258	85.44
414.482	88.44
414.705	92.44
414.928	106.44
415.151	99.44
415.374	92.44
415.597	95.44
415.821	85.44
416.044	92.44
416.267	107.44
416.49	90.44
416.713	80.44
416.936	83.44
417.159	86.44
417.382	85.44
417.605	92.44
417.828	105.44
418.051	84.44
418.274	95.44
418.497	86.44
418.72	100.44
418.943	98.44
419.166	88.44
419.389	98.44
419.611	94.44
419.834	85.44
420.057	88.44
420.28	88.44
420.503	82.44
420.726	97.44
420.948	90.44
421.171	90.44
421.394	78.44
421.617	84.44
421.839	93.44
422.062	88.44
422.285	100.44
422.507	78.44
422.73	108.44
422.953	78.44
423.175	100.44
423.398	94.44
423.621	107.44
423.843	105.44
424.066	95.44
424.288	103.44
424.511	89.44
424.733	87.44
424.956	107.44
425.178	90.44
425.401	100.44
425.623	84.44
425.846	98.44
426.068	97.44
426.291	84.44
426.513	87.44
426.735	89.44
426.958	103.44
427.18	104.44
427.402	137.44
427.625	176.44
427.847	164.44
428.069	114.44
428.292	87.44
428.514	102.44
428.736	80.44
428.958	84.44
429.181	79.44
429.403	81.44
429.625	98.44
429.847	97.44
430.069	102.44
430.292	103.44
430.514	78.44
430.736	77.44
430.958	85.44
431.18	91.44
431.402	90.44
431.624	84.44
431.846	86.44
432.068	90.44
432.29	97.44
432.512	82.44
432.734	87.44
432.956	96.44
433.178	106.44
433.4	87.44
433.622	74.44
433.844	94.44
434.066	94.44
434.287	93.44
434.509	98.44
434.731	94.44
434.953	76.44
435.175	77.44
435.397	107.44
435.618	89.44
435.84	107.44
436.062	114.44
436.284	98.44
436.505	98.44
436.727	94.44
436.949	102.44
437.17	87.44
437.392	96.44
437.614	104.44
437.835	102.44
438.057	129.44
438.278	121.44
438.5	107.44
438.721	138.44
438.943	100.44
439.165	90.44
439.386	100.44
439.608	98.44
439.829	120.44
440.05	118.44
440.272	136.44
440.493	106.44
440.715	97.44
440.936	95.44
441.158	104.44
441.379	98.44
441.6	100.44
441.822	90.44
442.043	94.44
442.264	107.44
442.486	112.44
442.707	103.44
442.928	111.44
443.149	114.44
443.371	129.44
443.592	102.44
443.813	111.44
444.034	103.44
444.255	94.44
444.476	79.44
444.698	74.44
444.919	85.44
445.14	132.44
445.361	132.44
445.582	117.44
445.803	134.44
446.024	123.44
446.245	132.44
446.466	108.44
446.687	98.44
446.908	96.44
447.129	97.44
447.35	83.44
447.571	88.44
447.792	92.44
448.013	85.44
448.234	114.44
448.455	105.44
448.675	120.44
448.896	113.44
449.117	103.44
449.338	91.44
449.559	129.44
449.779	132.44
450	97.44
450.221	78.44
450.442	80.44
450.662	100.44
450.883	111.44
451.104	108.44
451.324	89.44
451.545	101.44
451.766	95.44
451.986	87.44
452.207	100.44
452.428	87.44
452.648	101.44
452.869	118.44
453.089	105.44
453.31	116.44
453.53	97.44
453.751	96.44
453.971	111.44
454.192	105.44
454.412	84.44
454.633	82.44
454.853	81.44
455.073	79.44
455.294	85.44
455.514	98.44
455.734	92.44
455.955	86.44
456.175	94.44
456.395	77.44
456.616	89.44
456.836	81.44
457.056	85.44
457.276	81.44
457.497	101.44
457.717	95.44
457.937	100.44
458.157	86.44
458.377	100.44
458.598	106.44
458.818	134.44
459.038	159.44
459.258	114.44
459.478	92.44
459.698	87.44
459.918	84.44
460.138	90.44
460.358	64.44
460.578	74.44
460.798	79.44
461.018	91.44
461.238	88.44
461.458	88.44
461.678	86.44
461.898	96.44
462.118	87.44
462.338	95.44
462.558	98.44
462.777	87.44
462.997	88.44
463.217	90.44
463.437	85.44
463.657	93.44
463.876	82.44
464.096	102.44
464.316	88.44
464.536	98.44
464.755	84.44
464.975	108.44
465.195	142.44
465.414	155.44
465.634	92.44
465.854	83.44
466.073	80.44
466.293	84.44
466.512	80.44
466.732	108.44
466.951	87.44
467.171	101.44
467.391	109.44
467.61	95.44
467.829	116.44
468.049	145.44
468.268	180.44
468.488	107.44
468.707	91.44
468.927	88.44
469.146	96.44
469.365	91.44
469.585	87.44
469.804	105.44
470.023	95.44
470.243	105.44
470.462	94.44
470.681	106.44
470.901	101.44
471.12	89.44
471.339	94.44
471.558	92.44
471.777	93.44
471.997	122.44
472.216	254.44
472.435	413.44
472.654	165.44
472.873	108.44
473.092	83.44
473.311	80.44
473.53	78.44
473.749	94.44
473.968	105.44
474.187	105.44
474.406	107.44
474.625	101.44
474.844	90.44
475.063	79.44
475.282	89.44
475.501	92.44
475.72	88.44
475.939	87.44
476.158	80.44
476.377	80.44
476.596	109.44
476.814	93.44
477.033	113.44
477.252	108.44
477.471	92.44
477.69	91.44
477.908	91.44
478.127	106.44
478.346	100.44
478.564	97.44
478.783	86.44
479.002	82.44
479.22	97.44
479.439	100.44
479.658	73.44
479.876	97.44
480.095	97.44
480.313	92.44
480.532	111.44
480.751	124.44
480.969	217.44
481.188	659.44
481.406	447.44
481.624	123.44
481.843	105.44
482.061	92.44
482.28	80.44
482.498	86.44
482.717	89.44
482.935	98.44
483.153	98.44
483.372	85.44
483.59	85.44
483.808	75.44
484.027	91.44
484.245	86.44
484.463	82.44
484.681	87.44
484.9	92.44
485.118	94.44
485.336	99.44
485.554	84.44
485.772	106.44
485.99	101.44
486.209	116.44
486.427	102.44
486.645	111.44
486.863	111.44
487.081	109.44
487.299	98.44
487.517	98.44
487.735	89.44
487.953	83.44
488.171	105.44
488.389	98.44
488.607	104.44
488.825	107.44
489.043	85.44
489.261	98.44
489.479	87.44
489.696	85.44
489.914	98.44
490.132	95.44
490.35	86.44
490.568	105.44
490.786	74.44
491.003	91.44
491.221	93.44
491.439	90.44
491.657	100.44
491.874	88.44
492.092	103.44
492.31	79.44
492.527	92.44
492.745	95.44
492.963	87.44
493.18	86.44
493.398	105.44
493.615	90.44
493.833	107.44
494.05	97.44
494.268	80.44
494.485	93.44
494.703	81.44
494.92	79.44
495.138	92.44
495.355	95.44
495.573	81.44
495.79	91.44
496.008	93.44
496.225	83.44
496.442	76.44
496.66	98.44
496.877	80.44
497.094	93.44
497.312	104.44
497.529	89.44
497.746	97.44
497.963	103.44
498.181	87.44
498.398	87.44
498.615	108.44
498.832	103.44
499.049	101.44
499.267	97.44
499.484	88.44
499.701	82.44
499.918	98.44
500.135	103.44
500.352	92.44
500.569	87.44
500.786	82.44
501.003	79.44
501.22	103.44
501.437	90.44
501.654	118.44
501.871	102.44
502.088	91.44
502.305	103.44
502.522	98.44
502.739	95.44
502.956	91.44
503.172	101.44
503.389	87.44
503.606	98.44
503.823	100.44
504.04	94.44
504.256	89.44
504.473	113.44
504.69	93.44
504.907	92.44
505.123	97.44
505.34	90.44
505.557	88.44
505.773	89.44
505.99	96.44
506.207	98.44
506.423	90.44
506.64	102.44
506.856	104.44
507.073	90.44
507.289	93.44
507.506	94.44
507.722	110.44
507.939	116.44
508.155	102.44
508.372	82.44
508.588	83.44
508.805	91.44
509.021	96.44
509.238	98.44
509.454	106.44
509.67	101.44
509.887	96.44
510.103	124.44
510.319	204.44
510.536	696.44
510.752	2232.44
510.968	648.44
511.184	165.44
511.401	111.44
511.617	104.44
511.833	95.44
512.049	104.44
512.265	86.44
512.481	96.44
512.698	79.44
512.914	92.44
513.13	98.44
513.346	89.44
513.562	90.44
513.778	105.44
513.994	111.44
514.21	94.44
514.426	112.44
514.642	139.44
514.858	115.44
515.074	147.44
