Data from Circ_2011_H10_HRD10591_00073.txt Node
Date: Wed Jan 03 10:08:13 EST 2024
User: Yrep
Spectrometer: HR+D1059
Trigger mode: 1
Integration Time (sec): 1.000000E-1
Scans to average: 1
Electric dark correction enabled: true
Nonlinearity correction enabled: false
Boxcar width: 0
XAxis mode: Wavelengths
Number of Pixels in Spectrum: 2048
>>>>>Begin Spectral Data<<<<<
223.165	-20.44
223.4	-20.44
223.635	-20.44
223.869	-14.44
224.104	-17.44
224.338	-22.44
224.573	-17.44
224.808	-10.44
225.042	-5.44
225.277	-3.44
225.511	-1.44
225.746	10.56
225.98	6.56
226.215	0.56
226.449	13.56
226.683	21.56
226.918	29.56
227.152	30.56
227.387	27.56
227.621	39.56
227.856	45.56
228.09	44.56
228.324	39.56
228.559	50.56
228.793	70.56
229.027	64.56
229.262	68.56
229.496	49.56
229.73	75.56
229.964	86.56
230.199	66.56
230.433	68.56
230.667	76.56
230.901	67.56
231.136	84.56
231.37	70.56
231.604	78.56
231.838	90.56
232.072	81.56
232.306	74.56
232.541	75.56
232.775	81.56
233.009	85.56
233.243	71.56
233.477	70.56
233.711	82.56
233.945	68.56
234.179	80.56
234.413	86.56
234.647	67.56
234.881	84.56
235.115	82.56
235.349	66.56
235.583	71.56
235.817	78.56
236.051	82.56
236.285	76.56
236.519	71.56
236.753	90.56
236.987	80.56
237.221	94.56
237.455	88.56
237.689	82.56
237.922	86.56
238.156	80.56
238.39	67.56
238.624	74.56
238.858	74.56
239.091	70.56
239.325	72.56
239.559	78.56
239.793	85.56
240.027	89.56
240.26	74.56
240.494	74.56
240.728	62.56
240.961	69.56
241.195	68.56
241.429	70.56
241.662	77.56
241.896	76.56
242.13	79.56
242.363	81.56
242.597	73.56
242.83	74.56
243.064	66.56
243.298	66.56
243.531	84.56
243.765	73.56
243.998	76.56
244.232	76.56
244.465	81.56
244.699	78.56
244.932	78.56
245.166	83.56
245.399	80.56
245.633	80.56
245.866	85.56
246.099	73.56
246.333	78.56
246.566	66.56
246.8	73.56
247.033	85.56
247.266	67.56
247.5	73.56
247.733	70.56
247.966	67.56
248.2	66.56
248.433	85.56
248.666	89.56
248.899	71.56
249.133	76.56
249.366	92.56
249.599	91.56
249.832	76.56
250.066	88.56
250.299	77.56
250.532	79.56
250.765	56.56
250.998	73.56
251.231	68.56
251.465	85.56
251.698	64.56
251.931	76.56
252.164	62.56
252.397	73.56
252.63	95.56
252.863	79.56
253.096	76.56
253.329	74.56
253.562	86.56
253.795	74.56
254.028	95.56
254.261	80.56
254.494	81.56
254.727	82.56
254.96	86.56
255.193	77.56
255.426	82.56
255.659	62.56
255.892	77.56
256.124	78.56
256.357	72.56
256.59	89.56
256.823	83.56
257.056	89.56
257.289	93.56
257.521	87.56
257.754	67.56
257.987	72.56
258.22	86.56
258.452	78.56
258.685	75.56
258.918	80.56
259.151	78.56
259.383	78.56
259.616	70.56
259.849	83.56
260.081	85.56
260.314	85.56
260.547	76.56
260.779	78.56
261.012	80.56
261.244	79.56
261.477	91.56
261.71	96.56
261.942	112.56
262.175	112.56
262.407	100.56
262.64	85.56
262.872	81.56
263.105	73.56
263.337	82.56
263.57	86.56
263.802	83.56
264.035	87.56
264.267	84.56
264.499	81.56
264.732	62.56
264.964	71.56
265.197	70.56
265.429	72.56
265.661	87.56
265.894	72.56
266.126	97.56
266.358	78.56
266.591	74.56
266.823	73.56
267.055	81.56
267.287	73.56
267.52	99.56
267.752	83.56
267.984	70.56
268.216	77.56
268.448	82.56
268.681	76.56
268.913	81.56
269.145	84.56
269.377	82.56
269.609	83.56
269.841	86.56
270.073	83.56
270.306	72.56
270.538	78.56
270.77	86.56
271.002	58.56
271.234	80.56
271.466	82.56
271.698	82.56
271.93	81.56
272.162	88.56
272.394	92.56
272.626	87.56
272.858	88.56
273.09	80.56
273.322	70.56
273.553	82.56
273.785	86.56
274.017	86.56
274.249	68.56
274.481	91.56
274.713	83.56
274.945	68.56
275.176	80.56
275.408	79.56
275.64	106.56
275.872	92.56
276.104	78.56
276.335	93.56
276.567	99.56
276.799	120.56
277.031	109.56
277.262	100.56
277.494	82.56
277.726	83.56
277.957	72.56
278.189	86.56
278.421	80.56
278.652	77.56
278.884	86.56
279.115	83.56
279.347	73.56
279.579	92.56
279.81	86.56
280.042	88.56
280.273	104.56
280.505	90.56
280.736	99.56
280.968	85.56
281.199	85.56
281.431	90.56
281.662	83.56
281.894	76.56
282.125	82.56
282.356	117.56
282.588	130.56
282.819	106.56
283.051	98.56
283.282	73.56
283.513	96.56
283.745	90.56
283.976	91.56
284.207	90.56
284.439	86.56
284.67	67.56
284.901	70.56
285.132	80.56
285.364	76.56
285.595	77.56
285.826	76.56
286.057	79.56
286.288	88.56
286.52	81.56
286.751	79.56
286.982	99.56
287.213	91.56
287.444	92.56
287.675	81.56
287.906	107.56
288.138	88.56
288.369	97.56
288.6	92.56
288.831	73.56
289.062	89.56
289.293	69.56
289.524	79.56
289.755	79.56
289.986	78.56
290.217	80.56
290.448	84.56
290.679	101.56
290.91	86.56
291.141	88.56
291.371	77.56
291.602	88.56
291.833	82.56
292.064	91.56
292.295	92.56
292.526	84.56
292.757	84.56
292.987	90.56
293.218	90.56
293.449	93.56
293.68	100.56
293.91	80.56
294.141	88.56
294.372	90.56
294.603	74.56
294.833	90.56
295.064	96.56
295.295	84.56
295.525	76.56
295.756	102.56
295.987	100.56
296.217	143.56
296.448	128.56
296.679	100.56
296.909	92.56
297.14	79.56
297.37	91.56
297.601	83.56
297.831	83.56
298.062	91.56
298.292	87.56
298.523	104.56
298.753	88.56
298.984	80.56
299.214	80.56
299.445	93.56
299.675	90.56
299.905	84.56
300.136	103.56
300.366	95.56
300.597	82.56
300.827	87.56
301.057	100.56
301.288	103.56
301.518	107.56
301.748	84.56
301.979	114.56
302.209	97.56
302.439	90.56
302.669	84.56
302.9	70.56
303.13	94.56
303.36	86.56
303.59	97.56
303.82	103.56
304.051	91.56
304.281	91.56
304.511	78.56
304.741	72.56
304.971	77.56
305.201	106.56
305.431	92.56
305.661	84.56
305.891	86.56
306.121	94.56
306.352	85.56
306.582	101.56
306.812	98.56
307.042	104.56
307.272	90.56
307.502	98.56
307.731	107.56
307.961	81.56
308.191	81.56
308.421	85.56
308.651	81.56
308.881	105.56
309.111	88.56
309.341	84.56
309.571	101.56
309.8	94.56
310.03	89.56
310.26	95.56
310.49	91.56
310.72	97.56
310.949	100.56
311.179	98.56
311.409	102.56
311.639	84.56
311.868	83.56
312.098	106.56
312.328	96.56
312.557	95.56
312.787	99.56
313.017	108.56
313.246	104.56
313.476	96.56
313.706	102.56
313.935	94.56
314.165	90.56
314.394	90.56
314.624	89.56
314.853	86.56
315.083	87.56
315.312	99.56
315.542	89.56
315.771	99.56
316.001	93.56
316.23	91.56
316.46	79.56
316.689	97.56
316.919	93.56
317.148	98.56
317.377	93.56
317.607	96.56
317.836	97.56
318.065	85.56
318.295	89.56
318.524	77.56
318.753	93.56
318.983	96.56
319.212	86.56
319.441	96.56
319.67	114.56
319.9	93.56
320.129	85.56
320.358	93.56
320.587	89.56
320.816	90.56
321.046	93.56
321.275	102.56
321.504	76.56
321.733	96.56
321.962	101.56
322.191	93.56
322.42	104.56
322.649	115.56
322.878	120.56
323.108	138.56
323.337	132.56
323.566	143.56
323.795	156.56
324.024	209.56
324.253	432.56
324.482	977.56
324.71	1993.56
324.939	2640.56
325.168	956.56
325.397	269.56
325.626	147.56
325.855	130.56
326.084	144.56
326.313	126.56
326.542	144.56
326.77	254.56
326.999	513.56
327.228	1076.56
327.457	2034.56
327.686	1611.56
327.914	428.56
328.143	232.56
328.372	199.56
328.6	156.56
328.829	122.56
329.058	142.56
329.287	139.56
329.515	122.56
329.744	124.56
329.972	149.56
330.201	237.56
330.43	306.56
330.658	196.56
330.887	158.56
331.115	129.56
331.344	93.56
331.572	100.56
331.801	104.56
332.03	108.56
332.258	96.56
332.486	105.56
332.715	117.56
332.943	91.56
333.172	101.56
333.4	96.56
333.629	113.56
333.857	130.56
334.085	150.56
334.314	222.56
334.542	364.56
334.771	360.56
334.999	149.56
335.227	113.56
335.455	84.56
335.684	90.56
335.912	93.56
336.14	88.56
336.369	88.56
336.597	100.56
336.825	96.56
337.053	102.56
337.281	90.56
337.51	88.56
337.738	77.56
337.966	91.56
338.194	81.56
338.422	89.56
338.65	92.56
338.878	89.56
339.106	86.56
339.334	101.56
339.562	94.56
339.79	86.56
340.018	73.56
340.246	77.56
340.474	86.56
340.702	84.56
340.93	85.56
341.158	90.56
341.386	101.56
341.614	100.56
341.842	92.56
342.07	101.56
342.298	88.56
342.526	85.56
342.754	75.56
342.981	84.56
343.209	80.56
343.437	91.56
343.665	76.56
343.893	78.56
344.12	94.56
344.348	92.56
344.576	92.56
344.804	85.56
345.031	88.56
345.259	95.56
345.487	101.56
345.714	81.56
345.942	91.56
346.17	96.56
346.397	85.56
346.625	78.56
346.853	81.56
347.08	92.56
347.308	89.56
347.535	105.56
347.763	94.56
347.99	92.56
348.218	89.56
348.445	86.56
348.673	104.56
348.9	93.56
349.128	88.56
349.355	92.56
349.583	83.56
349.81	101.56
350.037	100.56
350.265	85.56
350.492	95.56
350.72	93.56
350.947	84.56
351.174	105.56
351.402	97.56
351.629	94.56
351.856	102.56
352.083	104.56
352.311	87.56
352.538	108.56
352.765	120.56
352.992	124.56
353.22	99.56
353.447	90.56
353.674	90.56
353.901	96.56
354.128	97.56
354.355	83.56
354.583	91.56
354.81	94.56
355.037	90.56
355.264	90.56
355.491	100.56
355.718	85.56
355.945	106.56
356.172	76.56
356.399	75.56
356.626	93.56
356.853	95.56
357.08	85.56
357.307	84.56
357.534	90.56
357.761	85.56
357.988	80.56
358.215	96.56
358.441	97.56
358.668	76.56
358.895	90.56
359.122	83.56
359.349	86.56
359.576	89.56
359.802	102.56
360.029	105.56
360.256	118.56
360.483	100.56
360.709	87.56
360.936	97.56
361.163	100.56
361.39	79.56
361.616	101.56
361.843	77.56
362.07	90.56
362.296	97.56
362.523	102.56
362.749	85.56
362.976	88.56
363.203	78.56
363.429	82.56
363.656	77.56
363.882	90.56
364.109	81.56
364.335	95.56
364.562	95.56
364.788	89.56
365.015	93.56
365.241	104.56
365.468	92.56
365.694	96.56
365.92	95.56
366.147	83.56
366.373	77.56
366.599	75.56
366.826	82.56
367.052	75.56
367.278	84.56
367.505	88.56
367.731	98.56
367.957	80.56
368.184	87.56
368.41	110.56
368.636	110.56
368.862	115.56
369.089	98.56
369.315	89.56
369.541	87.56
369.767	80.56
369.993	89.56
370.219	80.56
370.445	84.56
370.672	76.56
370.898	75.56
371.124	83.56
371.35	81.56
371.576	91.56
371.802	76.56
372.028	77.56
372.254	87.56
372.48	81.56
372.706	84.56
372.932	87.56
373.158	66.56
373.384	80.56
373.61	86.56
373.835	80.56
374.061	74.56
374.287	102.56
374.513	87.56
374.739	92.56
374.965	78.56
375.191	84.56
375.416	88.56
375.642	84.56
375.868	77.56
376.094	87.56
376.319	78.56
376.545	85.56
376.771	91.56
376.997	80.56
377.222	85.56
377.448	74.56
377.674	103.56
377.899	78.56
378.125	85.56
378.35	94.56
378.576	87.56
378.802	85.56
379.027	85.56
379.253	93.56
379.478	113.56
379.704	84.56
379.929	78.56
380.155	75.56
380.38	107.56
380.606	85.56
380.831	88.56
381.057	97.56
381.282	100.56
381.507	85.56
381.733	93.56
381.958	85.56
382.184	80.56
382.409	78.56
382.634	84.56
382.86	81.56
383.085	97.56
383.31	85.56
383.535	93.56
383.761	92.56
383.986	101.56
384.211	88.56
384.436	95.56
384.662	89.56
384.887	96.56
385.112	90.56
385.337	92.56
385.562	100.56
385.787	91.56
386.013	99.56
386.238	102.56
386.463	98.56
386.688	106.56
386.913	93.56
387.138	100.56
387.363	92.56
387.588	92.56
387.813	90.56
388.038	84.56
388.263	99.56
388.488	97.56
388.713	90.56
388.938	79.56
389.163	73.56
389.387	96.56
389.612	90.56
389.837	87.56
390.062	91.56
390.287	84.56
390.512	79.56
390.736	75.56
390.961	76.56
391.186	79.56
391.411	86.56
391.636	72.56
391.86	89.56
392.085	69.56
392.31	76.56
392.534	77.56
392.759	77.56
392.984	81.56
393.208	72.56
393.433	88.56
393.658	76.56
393.882	66.56
394.107	90.56
394.331	78.56
394.556	91.56
394.78	87.56
395.005	90.56
395.229	81.56
395.454	83.56
395.678	91.56
395.903	89.56
396.127	84.56
396.352	85.56
396.576	77.56
396.801	84.56
397.025	92.56
397.249	78.56
397.474	72.56
397.698	77.56
397.922	75.56
398.147	77.56
398.371	82.56
398.595	75.56
398.82	89.56
399.044	78.56
399.268	84.56
399.492	80.56
399.717	78.56
399.941	83.56
400.165	88.56
400.389	83.56
400.613	92.56
400.837	75.56
401.062	84.56
401.286	92.56
401.51	94.56
401.734	93.56
401.958	100.56
402.182	127.56
402.406	159.56
402.63	128.56
402.854	91.56
403.078	75.56
403.302	83.56
403.526	86.56
403.75	95.56
403.974	87.56
404.198	76.56
404.422	76.56
404.645	104.56
404.869	81.56
405.093	103.56
405.317	110.56
405.541	103.56
405.765	100.56
405.988	113.56
406.212	172.56
406.436	220.56
406.66	158.56
406.883	104.56
407.107	82.56
407.331	92.56
407.555	95.56
407.778	112.56
408.002	84.56
408.226	96.56
408.449	84.56
408.673	89.56
408.896	100.56
409.12	96.56
409.344	87.56
409.567	85.56
409.791	85.56
410.014	93.56
410.238	85.56
410.461	97.56
410.685	78.56
410.908	104.56
411.132	97.56
411.355	90.56
411.578	95.56
411.802	79.56
412.025	81.56
412.249	85.56
412.472	93.56
412.695	93.56
412.919	116.56
413.142	90.56
413.365	73.56
413.589	94.56
413.812	79.56
414.035	78.56
414.258	83.56
414.482	89.56
414.705	97.56
414.928	84.56
415.151	85.56
415.374	74.56
415.597	77.56
415.821	83.56
416.044	79.56
416.267	88.56
416.49	94.56
416.713	86.56
416.936	99.56
417.159	93.56
417.382	67.56
417.605	65.56
417.828	105.56
418.051	91.56
418.274	96.56
418.497	84.56
418.72	90.56
418.943	84.56
419.166	84.56
419.389	93.56
419.611	77.56
419.834	72.56
420.057	80.56
420.28	77.56
420.503	76.56
420.726	83.56
420.948	82.56
421.171	97.56
421.394	87.56
421.617	89.56
421.839	88.56
422.062	92.56
422.285	81.56
422.507	107.56
422.73	95.56
422.953	80.56
423.175	81.56
423.398	93.56
423.621	86.56
423.843	82.56
424.066	83.56
424.288	81.56
424.511	89.56
424.733	105.56
424.956	103.56
425.178	95.56
425.401	101.56
425.623	100.56
425.846	115.56
426.068	97.56
426.291	96.56
426.513	84.56
426.735	84.56
426.958	73.56
427.18	112.56
427.402	135.56
427.625	176.56
427.847	148.56
428.069	141.56
428.292	86.56
428.514	76.56
428.736	87.56
428.958	77.56
429.181	90.56
429.403	86.56
429.625	90.56
429.847	99.56
430.069	107.56
430.292	92.56
430.514	85.56
430.736	84.56
430.958	85.56
431.18	75.56
431.402	74.56
431.624	88.56
431.846	83.56
432.068	90.56
432.29	76.56
432.512	82.56
432.734	103.56
432.956	86.56
433.178	95.56
433.4	89.56
433.622	107.56
433.844	95.56
434.066	82.56
434.287	89.56
434.509	80.56
434.731	83.56
434.953	83.56
435.175	85.56
435.397	102.56
435.618	108.56
435.84	128.56
436.062	135.56
436.284	133.56
436.505	100.56
436.727	108.56
436.949	95.56
437.17	88.56
437.392	94.56
437.614	104.56
437.835	120.56
438.057	122.56
438.278	128.56
438.5	107.56
438.721	116.56
438.943	95.56
439.165	83.56
439.386	82.56
439.608	86.56
439.829	94.56
440.05	113.56
440.272	158.56
440.493	105.56
440.715	79.56
440.936	70.56
441.158	90.56
441.379	86.56
441.6	92.56
441.822	90.56
442.043	83.56
442.264	99.56
442.486	105.56
442.707	117.56
442.928	99.56
443.149	138.56
443.371	121.56
443.592	97.56
443.813	125.56
444.034	119.56
444.255	88.56
444.476	92.56
444.698	86.56
444.919	88.56
445.14	136.56
445.361	136.56
445.582	107.56
445.803	142.56
446.024	144.56
446.245	141.56
446.466	123.56
446.687	88.56
446.908	93.56
447.129	97.56
447.35	87.56
447.571	77.56
447.792	89.56
448.013	98.56
448.234	104.56
448.455	108.56
448.675	117.56
448.896	121.56
449.117	96.56
449.338	107.56
449.559	124.56
449.779	137.56
450	90.56
450.221	80.56
450.442	98.56
450.662	104.56
450.883	114.56
451.104	120.56
451.324	102.56
451.545	82.56
451.766	79.56
451.986	82.56
452.207	99.56
452.428	84.56
452.648	96.56
452.869	101.56
453.089	125.56
453.31	114.56
453.53	91.56
453.751	93.56
453.971	102.56
454.192	107.56
454.412	100.56
454.633	90.56
454.853	78.56
455.073	90.56
455.294	75.56
455.514	95.56
455.734	87.56
455.955	86.56
456.175	89.56
456.395	72.56
456.616	89.56
456.836	99.56
457.056	67.56
457.276	85.56
457.497	86.56
457.717	77.56
457.937	84.56
458.157	88.56
458.377	86.56
458.598	106.56
458.818	167.56
459.038	165.56
459.258	117.56
459.478	97.56
459.698	101.56
459.918	81.56
460.138	99.56
460.358	88.56
460.578	85.56
460.798	85.56
461.018	89.56
461.238	81.56
461.458	75.56
461.678	76.56
461.898	81.56
462.118	75.56
462.338	85.56
462.558	76.56
462.777	74.56
462.997	65.56
463.217	92.56
463.437	78.56
463.657	74.56
463.876	82.56
464.096	92.56
464.316	86.56
464.536	94.56
464.755	100.56
464.975	95.56
465.195	170.56
465.414	182.56
465.634	103.56
465.854	78.56
466.073	82.56
466.293	86.56
466.512	77.56
466.732	76.56
466.951	84.56
467.171	86.56
467.391	96.56
467.61	101.56
467.829	105.56
468.049	141.56
468.268	204.56
468.488	106.56
468.707	84.56
468.927	85.56
469.146	69.56
469.365	81.56
469.585	87.56
469.804	112.56
470.023	106.56
470.243	94.56
470.462	82.56
470.681	109.56
470.901	79.56
471.12	82.56
471.339	82.56
471.558	90.56
471.777	94.56
471.997	119.56
472.216	247.56
472.435	459.56
472.654	171.56
472.873	109.56
473.092	89.56
473.311	78.56
473.53	90.56
473.749	96.56
473.968	91.56
474.187	124.56
474.406	92.56
474.625	98.56
474.844	94.56
475.063	91.56
475.282	84.56
475.501	82.56
475.72	86.56
475.939	92.56
476.158	90.56
476.377	74.56
476.596	82.56
476.814	99.56
477.033	94.56
477.252	73.56
477.471	87.56
477.69	91.56
477.908	76.56
478.127	97.56
478.346	81.56
478.564	93.56
478.783	102.56
479.002	90.56
479.22	92.56
479.439	93.56
479.658	113.56
479.876	93.56
480.095	106.56
480.313	101.56
480.532	106.56
480.751	117.56
480.969	253.56
481.188	782.56
481.406	505.56
481.624	135.56
481.843	90.56
482.061	77.56
482.28	84.56
482.498	82.56
482.717	97.56
482.935	81.56
483.153	101.56
483.372	76.56
483.59	79.56
483.808	84.56
484.027	79.56
484.245	83.56
484.463	86.56
484.681	105.56
484.9	86.56
485.118	88.56
485.336	72.56
485.554	90.56
485.772	104.56
485.99	105.56
486.209	87.56
486.427	91.56
486.645	79.56
486.863	124.56
487.081	96.56
487.299	94.56
487.517	108.56
487.735	77.56
487.953	99.56
488.171	76.56
488.389	88.56
488.607	94.56
488.825	98.56
489.043	74.56
489.261	79.56
489.479	86.56
489.696	82.56
489.914	88.56
490.132	89.56
490.35	92.56
490.568	93.56
490.786	90.56
491.003	86.56
491.221	73.56
491.439	85.56
491.657	98.56
491.874	94.56
492.092	89.56
492.31	91.56
492.527	94.56
492.745	86.56
492.963	84.56
493.18	87.56
493.398	92.56
493.615	89.56
493.833	99.56
494.05	84.56
494.268	82.56
494.485	73.56
494.703	71.56
494.92	86.56
495.138	86.56
495.355	86.56
495.573	91.56
495.79	85.56
496.008	95.56
496.225	93.56
496.442	70.56
496.66	106.56
496.877	88.56
497.094	93.56
497.312	88.56
497.529	88.56
497.746	83.56
497.963	89.56
498.181	85.56
498.398	88.56
498.615	104.56
498.832	88.56
499.049	88.56
499.267	77.56
499.484	97.56
499.701	90.56
499.918	86.56
500.135	74.56
500.352	92.56
500.569	89.56
500.786	93.56
501.003	81.56
501.22	71.56
501.437	99.56
501.654	93.56
501.871	97.56
502.088	93.56
502.305	74.56
502.522	77.56
502.739	88.56
502.956	100.56
503.172	81.56
503.389	102.56
503.606	109.56
503.823	100.56
504.04	80.56
504.256	106.56
504.473	93.56
504.69	90.56
504.907	89.56
505.123	93.56
505.34	80.56
505.557	99.56
505.773	80.56
505.99	88.56
506.207	97.56
506.423	92.56
506.64	92.56
506.856	104.56
507.073	89.56
507.289	103.56
507.506	100.56
507.722	93.56
507.939	115.56
508.155	97.56
508.372	90.56
508.588	77.56
508.805	92.56
509.021	101.56
509.238	96.56
509.454	104.56
509.67	111.56
509.887	116.56
510.103	138.56
510.319	209.56
510.536	728.56
510.752	2340.56
510.968	675.56
511.184	142.56
511.401	97.56
511.617	89.56
511.833	99.56
512.049	107.56
512.265	89.56
512.481	92.56
512.698	92.56
512.914	84.56
513.13	78.56
513.346	102.56
513.562	86.56
513.778	89.56
513.994	89.56
514.21	100.56
514.426	110.56
514.642	143.56
514.858	130.56
515.074	170.56
515.29	470.56
515.506	1637.56
515.721	617.56
515.937	160.56
