Data from Circ_2011_H10_HRD10591_00001.txt Node
Date: Wed Jan 03 10:07:59 EST 2024
User: Yrep
Spectrometer: HR+D1059
Trigger mode: 1
Integration Time (sec): 1.000000E-1
Scans to average: 1
Electric dark correction enabled: true
Nonlinearity correction enabled: false
Boxcar width: 0
XAxis mode: Wavelengths
Number of Pixels in Spectrum: 2048
>>>>>Begin Spectral Data<<<<<
223.165	-34.44
223.4	-34.44
223.635	-34.44
223.869	-7.44
224.104	-36.44
224.338	-27.44
224.573	-4.44
224.808	-12.44
225.042	-3.44
225.277	-9.44
225.511	3.56
225.746	12.56
225.98	16.56
226.215	6.56
226.449	10.56
226.683	27.56
226.918	33.56
227.152	24.56
227.387	29.56
227.621	36.56
227.856	30.56
228.09	44.56
228.324	45.56
228.559	58.56
228.793	77.56
229.027	56.56
229.262	70.56
229.496	89.56
229.73	93.56
229.964	71.56
230.199	85.56
230.433	77.56
230.667	77.56
230.901	81.56
231.136	80.56
231.37	85.56
231.604	93.56
231.838	75.56
232.072	81.56
232.306	86.56
232.541	77.56
232.775	79.56
233.009	94.56
233.243	78.56
233.477	76.56
233.711	76.56
233.945	78.56
234.179	75.56
234.413	87.56
234.647	61.56
234.881	75.56
235.115	75.56
235.349	73.56
235.583	75.56
235.817	76.56
236.051	96.56
236.285	80.56
236.519	86.56
236.753	79.56
236.987	79.56
237.221	75.56
237.455	80.56
237.689	85.56
237.922	77.56
238.156	86.56
238.39	75.56
238.624	83.56
238.858	64.56
239.091	68.56
239.325	76.56
239.559	68.56
239.793	79.56
240.027	81.56
240.26	77.56
240.494	82.56
240.728	73.56
240.961	66.56
241.195	79.56
241.429	77.56
241.662	88.56
241.896	70.56
242.13	75.56
242.363	69.56
242.597	61.56
242.83	65.56
243.064	71.56
243.298	68.56
243.531	70.56
243.765	86.56
243.998	88.56
244.232	70.56
244.465	88.56
244.699	70.56
244.932	82.56
245.166	73.56
245.399	79.56
245.633	77.56
245.866	79.56
246.099	88.56
246.333	81.56
246.566	75.56
246.8	66.56
247.033	73.56
247.266	56.56
247.5	71.56
247.733	87.56
247.966	81.56
248.2	76.56
248.433	70.56
248.666	86.56
248.899	85.56
249.133	86.56
249.366	93.56
249.599	97.56
249.832	81.56
250.066	74.56
250.299	75.56
250.532	74.56
250.765	86.56
250.998	79.56
251.231	73.56
251.465	62.56
251.698	82.56
251.931	78.56
252.164	79.56
252.397	69.56
252.63	76.56
252.863	77.56
253.096	77.56
253.329	77.56
253.562	89.56
253.795	74.56
254.028	74.56
254.261	77.56
254.494	89.56
254.727	80.56
254.96	90.56
255.193	75.56
255.426	70.56
255.659	82.56
255.892	78.56
256.124	74.56
256.357	86.56
256.59	88.56
256.823	79.56
257.056	95.56
257.289	72.56
257.521	79.56
257.754	71.56
257.987	85.56
258.22	71.56
258.452	68.56
258.685	76.56
258.918	95.56
259.151	81.56
259.383	83.56
259.616	87.56
259.849	97.56
260.081	75.56
260.314	78.56
260.547	75.56
260.779	71.56
261.012	76.56
261.244	94.56
261.477	87.56
261.71	100.56
261.942	114.56
262.175	117.56
262.407	101.56
262.64	78.56
262.872	83.56
263.105	74.56
263.337	76.56
263.57	83.56
263.802	91.56
264.035	82.56
264.267	81.56
264.499	83.56
264.732	84.56
264.964	80.56
265.197	92.56
265.429	78.56
265.661	81.56
265.894	80.56
266.126	74.56
266.358	79.56
266.591	75.56
266.823	85.56
267.055	78.56
267.287	80.56
267.52	82.56
267.752	95.56
267.984	86.56
268.216	70.56
268.448	76.56
268.681	77.56
268.913	83.56
269.145	93.56
269.377	83.56
269.609	73.56
269.841	70.56
270.073	86.56
270.306	84.56
270.538	80.56
270.77	88.56
271.002	79.56
271.234	95.56
271.466	77.56
271.698	79.56
271.93	80.56
272.162	85.56
272.394	99.56
272.626	80.56
272.858	81.56
273.09	74.56
273.322	81.56
273.553	76.56
273.785	75.56
274.017	82.56
274.249	90.56
274.481	83.56
274.713	83.56
274.945	78.56
275.176	87.56
275.408	86.56
275.64	76.56
275.872	86.56
276.104	77.56
276.335	74.56
276.567	114.56
276.799	107.56
277.031	100.56
277.262	92.56
277.494	95.56
277.726	88.56
277.957	92.56
278.189	83.56
278.421	90.56
278.652	74.56
278.884	79.56
279.115	98.56
279.347	78.56
279.579	82.56
279.81	83.56
280.042	78.56
280.273	89.56
280.505	92.56
280.736	76.56
280.968	88.56
281.199	77.56
281.431	83.56
281.662	95.56
281.894	85.56
282.125	103.56
282.356	119.56
282.588	144.56
282.819	121.56
283.051	84.56
283.282	96.56
283.513	94.56
283.745	84.56
283.976	82.56
284.207	92.56
284.439	87.56
284.67	94.56
284.901	95.56
285.132	83.56
285.364	92.56
285.595	84.56
285.826	110.56
286.057	87.56
286.288	83.56
286.52	92.56
286.751	79.56
286.982	90.56
287.213	87.56
287.444	89.56
287.675	99.56
287.906	87.56
288.138	103.56
288.369	94.56
288.6	97.56
288.831	87.56
289.062	84.56
289.293	92.56
289.524	71.56
289.755	93.56
289.986	71.56
290.217	91.56
290.448	91.56
290.679	95.56
290.91	94.56
291.141	92.56
291.371	86.56
291.602	90.56
291.833	94.56
292.064	85.56
292.295	97.56
292.526	97.56
292.757	84.56
292.987	99.56
293.218	80.56
293.449	83.56
293.68	84.56
293.91	70.56
294.141	90.56
294.372	82.56
294.603	82.56
294.833	79.56
295.064	90.56
295.295	77.56
295.525	91.56
295.756	115.56
295.987	114.56
296.217	143.56
296.448	118.56
296.679	92.56
296.909	97.56
297.14	92.56
297.37	88.56
297.601	102.56
297.831	94.56
298.062	93.56
298.292	77.56
298.523	62.56
298.753	88.56
298.984	90.56
299.214	85.56
299.445	95.56
299.675	93.56
299.905	89.56
300.136	84.56
300.366	84.56
300.597	89.56
300.827	94.56
301.057	115.56
301.288	102.56
301.518	93.56
301.748	74.56
301.979	102.56
302.209	96.56
302.439	95.56
302.669	91.56
302.9	98.56
303.13	84.56
303.36	108.56
303.59	108.56
303.82	107.56
304.051	102.56
304.281	80.56
304.511	94.56
304.741	100.56
304.971	87.56
305.201	78.56
305.431	93.56
305.661	89.56
305.891	94.56
306.121	87.56
306.352	106.56
306.582	117.56
306.812	99.56
307.042	83.56
307.272	112.56
307.502	115.56
307.731	103.56
307.961	81.56
308.191	86.56
308.421	86.56
308.651	78.56
308.881	88.56
309.111	85.56
309.341	101.56
309.571	98.56
309.8	98.56
310.03	100.56
310.26	93.56
310.49	94.56
310.72	114.56
310.949	95.56
311.179	97.56
311.409	107.56
311.639	94.56
311.868	101.56
312.098	98.56
312.328	98.56
312.557	99.56
312.787	109.56
313.017	101.56
313.246	88.56
313.476	91.56
313.706	87.56
313.935	92.56
314.165	78.56
314.394	99.56
314.624	94.56
314.853	94.56
315.083	87.56
315.312	86.56
315.542	82.56
315.771	89.56
316.001	95.56
316.23	85.56
316.46	89.56
316.689	98.56
316.919	88.56
317.148	96.56
317.377	108.56
317.607	94.56
317.836	107.56
318.065	85.56
318.295	74.56
318.524	79.56
318.753	91.56
318.983	97.56
319.212	96.56
319.441	115.56
319.67	99.56
319.9	88.56
320.129	98.56
320.358	92.56
320.587	108.56
320.816	108.56
321.046	107.56
321.275	109.56
321.504	101.56
321.733	108.56
321.962	91.56
322.191	102.56
322.42	109.56
322.649	94.56
322.878	116.56
323.108	120.56
323.337	118.56
323.566	136.56
323.795	179.56
324.024	230.56
324.253	464.56
324.482	1029.56
324.71	2069.56
324.939	2799.56
325.168	1019.56
325.397	286.56
325.626	153.56
325.855	140.56
326.084	136.56
326.313	138.56
326.542	171.56
326.77	262.56
326.999	575.56
327.228	1157.56
327.457	2088.56
327.686	1655.56
327.914	441.56
328.143	225.56
328.372	172.56
328.6	136.56
328.829	124.56
329.058	137.56
329.287	124.56
329.515	118.56
329.744	101.56
329.972	116.56
330.201	158.56
330.43	171.56
330.658	158.56
330.887	145.56
331.115	138.56
331.344	117.56
331.572	97.56
331.801	111.56
332.03	100.56
332.258	106.56
332.486	91.56
332.715	90.56
332.943	94.56
333.172	88.56
333.4	95.56
333.629	122.56
333.857	114.56
334.085	101.56
334.314	143.56
334.542	191.56
334.771	194.56
334.999	110.56
335.227	104.56
335.455	95.56
335.684	94.56
335.912	94.56
336.14	97.56
336.369	91.56
336.597	93.56
336.825	103.56
337.053	86.56
337.281	92.56
337.51	101.56
337.738	94.56
337.966	89.56
338.194	103.56
338.422	80.56
338.65	102.56
338.878	86.56
339.106	84.56
339.334	83.56
339.562	93.56
339.79	105.56
340.018	87.56
340.246	100.56
340.474	74.56
340.702	94.56
340.93	103.56
341.158	107.56
341.386	102.56
341.614	106.56
341.842	104.56
342.07	92.56
342.298	85.56
342.526	102.56
342.754	86.56
342.981	80.56
343.209	84.56
343.437	99.56
343.665	107.56
343.893	93.56
344.12	100.56
344.348	97.56
344.576	93.56
344.804	85.56
345.031	87.56
345.259	96.56
345.487	96.56
345.714	101.56
345.942	113.56
346.17	85.56
346.397	94.56
346.625	86.56
346.853	101.56
347.08	91.56
347.308	89.56
347.535	91.56
347.763	95.56
347.99	111.56
348.218	93.56
348.445	107.56
348.673	89.56
348.9	99.56
349.128	95.56
349.355	91.56
349.583	87.56
349.81	84.56
350.037	94.56
350.265	100.56
350.492	98.56
350.72	100.56
350.947	110.56
351.174	111.56
351.402	102.56
351.629	98.56
351.856	97.56
352.083	92.56
352.311	92.56
352.538	106.56
352.765	89.56
352.992	126.56
353.22	103.56
353.447	92.56
353.674	97.56
353.901	104.56
354.128	96.56
354.355	94.56
354.583	90.56
354.81	90.56
355.037	84.56
355.264	87.56
355.491	82.56
355.718	83.56
355.945	94.56
356.172	92.56
356.399	83.56
356.626	105.56
356.853	96.56
357.08	103.56
357.307	84.56
357.534	70.56
357.761	92.56
357.988	91.56
358.215	84.56
358.441	89.56
358.668	98.56
358.895	85.56
359.122	96.56
359.349	88.56
359.576	77.56
359.802	93.56
360.029	107.56
360.256	103.56
360.483	103.56
360.709	93.56
360.936	84.56
361.163	101.56
361.39	84.56
361.616	92.56
361.843	98.56
362.07	95.56
362.296	111.56
362.523	92.56
362.749	93.56
362.976	81.56
363.203	91.56
363.429	92.56
363.656	95.56
363.882	86.56
364.109	90.56
364.335	83.56
364.562	88.56
364.788	83.56
365.015	83.56
365.241	108.56
365.468	103.56
365.694	112.56
365.92	99.56
366.147	86.56
366.373	88.56
366.599	89.56
366.826	79.56
367.052	80.56
367.278	83.56
367.505	75.56
367.731	99.56
367.957	80.56
368.184	94.56
368.41	100.56
368.636	102.56
368.862	128.56
369.089	107.56
369.315	103.56
369.541	89.56
369.767	94.56
369.993	83.56
370.219	86.56
370.445	88.56
370.672	98.56
370.898	75.56
371.124	82.56
371.35	78.56
371.576	89.56
371.802	79.56
372.028	98.56
372.254	87.56
372.48	85.56
372.706	93.56
372.932	76.56
373.158	77.56
373.384	70.56
373.61	85.56
373.835	90.56
374.061	85.56
374.287	82.56
374.513	88.56
374.739	86.56
374.965	108.56
375.191	83.56
375.416	79.56
375.642	78.56
375.868	92.56
376.094	99.56
376.319	92.56
376.545	90.56
376.771	82.56
376.997	85.56
377.222	102.56
377.448	91.56
377.674	84.56
377.899	97.56
378.125	89.56
378.35	76.56
378.576	82.56
378.802	96.56
379.027	81.56
379.253	79.56
379.478	87.56
379.704	84.56
379.929	89.56
380.155	91.56
380.38	100.56
380.606	91.56
380.831	97.56
381.057	87.56
381.282	87.56
381.507	89.56
381.733	90.56
381.958	91.56
382.184	68.56
382.409	81.56
382.634	104.56
382.86	82.56
383.085	95.56
383.31	105.56
383.535	80.56
383.761	103.56
383.986	101.56
384.211	101.56
384.436	105.56
384.662	93.56
384.887	100.56
385.112	102.56
385.337	99.56
385.562	84.56
385.787	106.56
386.013	100.56
386.238	100.56
386.463	99.56
386.688	103.56
386.913	88.56
387.138	94.56
387.363	91.56
387.588	100.56
387.813	100.56
388.038	109.56
388.263	110.56
388.488	107.56
388.713	89.56
388.938	95.56
389.163	115.56
389.387	98.56
389.612	86.56
389.837	88.56
390.062	88.56
390.287	86.56
390.512	77.56
390.736	87.56
390.961	97.56
391.186	99.56
391.411	95.56
391.636	90.56
391.86	89.56
392.085	81.56
392.31	82.56
392.534	81.56
392.759	72.56
392.984	101.56
393.208	95.56
393.433	94.56
393.658	86.56
393.882	88.56
394.107	91.56
394.331	80.56
394.556	78.56
394.78	94.56
395.005	85.56
395.229	91.56
395.454	85.56
395.678	96.56
395.903	90.56
396.127	89.56
396.352	86.56
396.576	72.56
396.801	98.56
397.025	94.56
397.249	87.56
397.474	89.56
397.698	86.56
397.922	85.56
398.147	92.56
398.371	85.56
398.595	89.56
398.82	103.56
399.044	90.56
399.268	90.56
399.492	82.56
399.717	89.56
399.941	87.56
400.165	95.56
400.389	79.56
400.613	87.56
400.837	88.56
401.062	90.56
401.286	88.56
401.51	95.56
401.734	88.56
401.958	110.56
402.182	122.56
402.406	168.56
402.63	108.56
402.854	97.56
403.078	96.56
403.302	73.56
403.526	94.56
403.75	83.56
403.974	81.56
404.198	93.56
404.422	97.56
404.645	84.56
404.869	98.56
405.093	91.56
405.317	99.56
405.541	100.56
405.765	108.56
405.988	109.56
406.212	187.56
406.436	229.56
406.66	150.56
406.883	107.56
407.107	109.56
407.331	101.56
407.555	123.56
407.778	85.56
408.002	94.56
408.226	86.56
408.449	99.56
408.673	78.56
408.896	95.56
409.12	87.56
409.344	87.56
409.567	92.56
409.791	98.56
410.014	92.56
410.238	93.56
410.461	90.56
410.685	91.56
410.908	102.56
411.132	98.56
411.355	99.56
411.578	92.56
411.802	96.56
412.025	84.56
412.249	98.56
412.472	93.56
412.695	97.56
412.919	88.56
413.142	75.56
413.365	81.56
413.589	86.56
413.812	89.56
414.035	94.56
414.258	73.56
414.482	77.56
414.705	89.56
414.928	98.56
415.151	97.56
415.374	92.56
415.597	84.56
415.821	96.56
416.044	80.56
416.267	78.56
416.49	88.56
416.713	89.56
416.936	84.56
417.159	79.56
417.382	90.56
417.605	93.56
417.828	83.56
418.051	86.56
418.274	89.56
418.497	75.56
418.72	79.56
418.943	93.56
419.166	84.56
419.389	83.56
419.611	91.56
419.834	75.56
420.057	92.56
420.28	87.56
420.503	85.56
420.726	96.56
420.948	84.56
421.171	91.56
421.394	100.56
421.617	101.56
421.839	79.56
422.062	86.56
422.285	96.56
422.507	75.56
422.73	94.56
422.953	94.56
423.175	85.56
423.398	84.56
423.621	95.56
423.843	85.56
424.066	89.56
424.288	86.56
424.511	88.56
424.733	102.56
424.956	110.56
425.178	102.56
425.401	100.56
425.623	110.56
425.846	86.56
426.068	107.56
426.291	99.56
426.513	85.56
426.735	76.56
426.958	99.56
427.18	115.56
427.402	145.56
427.625	180.56
427.847	154.56
428.069	132.56
428.292	102.56
428.514	88.56
428.736	89.56
428.958	87.56
429.181	88.56
429.403	91.56
429.625	103.56
429.847	92.56
430.069	114.56
430.292	100.56
430.514	84.56
430.736	84.56
430.958	106.56
431.18	70.56
431.402	92.56
431.624	99.56
431.846	76.56
432.068	88.56
432.29	93.56
432.512	100.56
432.734	90.56
432.956	86.56
433.178	106.56
433.4	99.56
433.622	77.56
433.844	91.56
434.066	89.56
434.287	93.56
434.509	99.56
434.731	89.56
434.953	85.56
435.175	73.56
435.397	79.56
435.618	97.56
435.84	107.56
436.062	135.56
436.284	125.56
436.505	111.56
436.727	95.56
436.949	97.56
437.17	84.56
437.392	107.56
437.614	92.56
437.835	111.56
438.057	125.56
438.278	111.56
438.5	98.56
438.721	131.56
438.943	103.56
439.165	78.56
439.386	85.56
439.608	89.56
439.829	98.56
440.05	123.56
440.272	144.56
440.493	116.56
440.715	95.56
440.936	85.56
441.158	96.56
441.379	91.56
441.6	96.56
441.822	95.56
442.043	99.56
442.264	110.56
442.486	101.56
442.707	110.56
442.928	104.56
443.149	138.56
443.371	138.56
443.592	99.56
443.813	131.56
444.034	127.56
444.255	98.56
444.476	84.56
444.698	99.56
444.919	91.56
445.14	132.56
445.361	127.56
445.582	120.56
445.803	151.56
446.024	141.56
446.245	142.56
446.466	115.56
446.687	94.56
446.908	87.56
447.129	85.56
447.35	86.56
447.571	100.56
447.792	95.56
448.013	110.56
448.234	105.56
448.455	102.56
448.675	130.56
448.896	130.56
449.117	98.56
449.338	101.56
449.559	124.56
449.779	116.56
450	102.56
450.221	65.56
450.442	85.56
450.662	103.56
450.883	122.56
451.104	106.56
451.324	96.56
451.545	104.56
451.766	91.56
451.986	81.56
452.207	92.56
452.428	82.56
452.648	106.56
452.869	117.56
453.089	113.56
453.31	133.56
453.53	74.56
453.751	85.56
453.971	100.56
454.192	113.56
454.412	100.56
454.633	85.56
454.853	79.56
455.073	88.56
455.294	95.56
455.514	115.56
455.734	76.56
455.955	79.56
456.175	83.56
456.395	84.56
456.616	87.56
456.836	98.56
457.056	101.56
457.276	87.56
457.497	72.56
457.717	88.56
457.937	94.56
458.157	83.56
458.377	80.56
458.598	113.56
458.818	149.56
459.038	173.56
459.258	100.56
459.478	94.56
459.698	86.56
459.918	81.56
460.138	87.56
460.358	86.56
460.578	84.56
460.798	91.56
461.018	92.56
461.238	99.56
461.458	86.56
461.678	80.56
461.898	91.56
462.118	87.56
462.338	94.56
462.558	80.56
462.777	76.56
462.997	92.56
463.217	90.56
463.437	87.56
463.657	92.56
463.876	80.56
464.096	93.56
464.316	99.56
464.536	88.56
464.755	98.56
464.975	118.56
465.195	160.56
465.414	179.56
465.634	108.56
465.854	94.56
466.073	89.56
466.293	90.56
466.512	75.56
466.732	84.56
466.951	90.56
467.171	86.56
467.391	93.56
467.61	111.56
467.829	112.56
468.049	116.56
468.268	124.56
468.488	87.56
468.707	79.56
468.927	77.56
469.146	85.56
469.365	84.56
469.585	86.56
469.804	98.56
470.023	97.56
470.243	93.56
470.462	99.56
470.681	116.56
470.901	92.56
471.12	96.56
471.339	85.56
471.558	80.56
471.777	94.56
471.997	94.56
472.216	153.56
472.435	239.56
472.654	117.56
472.873	90.56
473.092	94.56
473.311	82.56
473.53	94.56
473.749	80.56
473.968	92.56
474.187	111.56
474.406	78.56
474.625	87.56
474.844	87.56
475.063	90.56
475.282	85.56
475.501	79.56
475.72	99.56
475.939	87.56
476.158	84.56
476.377	95.56
476.596	98.56
476.814	91.56
477.033	103.56
477.252	92.56
477.471	83.56
477.69	99.56
477.908	89.56
478.127	67.56
478.346	82.56
478.564	86.56
478.783	94.56
479.002	97.56
479.22	89.56
479.439	101.56
479.658	108.56
479.876	94.56
480.095	95.56
480.313	98.56
480.532	89.56
480.751	102.56
480.969	149.56
481.188	359.56
481.406	250.56
481.624	106.56
481.843	92.56
482.061	82.56
482.28	90.56
482.498	85.56
482.717	89.56
482.935	88.56
483.153	95.56
483.372	94.56
483.59	76.56
483.808	87.56
484.027	108.56
484.245	84.56
484.463	84.56
484.681	83.56
484.9	90.56
485.118	84.56
485.336	95.56
485.554	99.56
485.772	86.56
485.99	109.56
486.209	106.56
486.427	114.56
486.645	111.56
486.863	125.56
487.081	99.56
487.299	101.56
487.517	92.56
487.735	106.56
487.953	90.56
488.171	77.56
488.389	90.56
488.607	100.56
488.825	93.56
489.043	86.56
489.261	83.56
489.479	84.56
489.696	101.56
489.914	96.56
490.132	80.56
490.35	93.56
490.568	110.56
490.786	96.56
491.003	94.56
491.221	99.56
491.439	79.56
491.657	93.56
491.874	91.56
492.092	95.56
492.31	103.56
492.527	100.56
492.745	99.56
492.963	76.56
493.18	86.56
493.398	92.56
493.615	92.56
493.833	99.56
494.05	84.56
494.268	84.56
494.485	87.56
494.703	80.56
494.92	83.56
495.138	81.56
495.355	94.56
495.573	79.56
495.79	87.56
496.008	92.56
496.225	70.56
496.442	99.56
496.66	101.56
496.877	75.56
497.094	91.56
497.312	88.56
497.529	91.56
497.746	95.56
497.963	85.56
498.181	98.56
498.398	102.56
498.615	106.56
498.832	101.56
499.049	91.56
499.267	84.56
499.484	93.56
499.701	87.56
499.918	85.56
500.135	90.56
500.352	89.56
500.569	101.56
500.786	87.56
501.003	90.56
501.22	97.56
501.437	85.56
501.654	102.56
501.871	114.56
502.088	90.56
502.305	79.56
502.522	88.56
502.739	94.56
502.956	88.56
503.172	91.56
503.389	90.56
503.606	94.56
503.823	102.56
504.04	89.56
504.256	79.56
504.473	88.56
504.69	84.56
504.907	91.56
505.123	90.56
505.34	99.56
505.557	102.56
505.773	89.56
505.99	84.56
506.207	84.56
506.423	102.56
506.64	87.56
506.856	83.56
507.073	85.56
507.289	103.56
507.506	99.56
507.722	119.56
507.939	111.56
508.155	86.56
508.372	104.56
508.588	82.56
508.805	94.56
509.021	93.56
509.238	125.56
509.454	92.56
509.67	89.56
509.887	109.56
510.103	131.56
510.319	216.56
510.536	820.56
510.752	2616.56
510.968	729.56
511.184	159.56
511.401	106.56
511.617	95.56
511.833	85.56
512.049	105.56
512.265	92.56
512.481	92.56
512.698	111.56
512.914	86.56
513.13	88.56
513.346	90.56
513.562	93.56
513.778	85.56
513.994	99.56
514.21	112.56
514.426	129.56
514.642	143.56
514.858	132.56
515.074	180.56
515.29	477.56
515.506	1701.56
