Data from Circ_2011_H10_HRD10591_00005.txt Node
Date: Wed Jan 03 10:08:00 EST 2024
User: Yrep
Spectrometer: HR+D1059
Trigger mode: 1
Integration Time (sec): 1.000000E-1
Scans to average: 1
Electric dark correction enabled: true
Nonlinearity correction enabled: false
Boxcar width: 0
XAxis mode: Wavelengths
Number of Pixels in Spectrum: 2048
>>>>>Begin Spectral Data<<<<<
223.165	-8.81
223.4	-8.81
223.635	-8.81
223.869	-25.81
224.104	-22.81
224.338	-4.81
224.573	-11.81
224.808	-11.81
225.042	-8.81
225.277	-11.81
225.511	4.19
225.746	0.19
225.98	13.19
226.215	-1.81
226.449	20.19
226.683	16.19
226.918	27.19
227.152	27.19
227.387	43.19
227.621	30.19
227.856	26.19
228.09	45.19
228.324	53.19
228.559	53.19
228.793	56.19
229.027	52.19
229.262	59.19
229.496	79.19
229.73	70.19
229.964	91.19
230.199	74.19
230.433	79.19
230.667	78.19
230.901	74.19
231.136	77.19
231.37	88.19
231.604	81.19
231.838	89.19
232.072	74.19
232.306	74.19
232.541	76.19
232.775	85.19
233.009	86.19
233.243	86.19
233.477	86.19
233.711	83.19
233.945	71.19
234.179	63.19
234.413	72.19
234.647	80.19
234.881	79.19
235.115	72.19
235.349	83.19
235.583	68.19
235.817	66.19
236.051	84.19
236.285	77.19
236.519	82.19
236.753	72.19
236.987	70.19
237.221	94.19
237.455	79.19
237.689	85.19
237.922	76.19
238.156	83.19
238.39	83.19
238.624	76.19
238.858	77.19
239.091	76.19
239.325	70.19
239.559	81.19
239.793	71.19
240.027	85.19
240.26	64.19
240.494	76.19
240.728	71.19
240.961	75.19
241.195	69.19
241.429	66.19
241.662	71.19
241.896	70.19
242.13	84.19
242.363	85.19
242.597	66.19
242.83	77.19
243.064	83.19
243.298	84.19
243.531	82.19
243.765	74.19
243.998	72.19
244.232	68.19
244.465	87.19
244.699	83.19
244.932	71.19
245.166	63.19
245.399	90.19
245.633	79.19
245.866	92.19
246.099	76.19
246.333	78.19
246.566	83.19
246.8	80.19
247.033	73.19
247.266	78.19
247.5	87.19
247.733	76.19
247.966	78.19
248.2	73.19
248.433	75.19
248.666	69.19
248.899	79.19
249.133	79.19
249.366	80.19
249.599	101.19
249.832	73.19
250.066	76.19
250.299	81.19
250.532	80.19
250.765	76.19
250.998	68.19
251.231	78.19
251.465	74.19
251.698	69.19
251.931	73.19
252.164	73.19
252.397	82.19
252.63	77.19
252.863	71.19
253.096	79.19
253.329	71.19
253.562	88.19
253.795	74.19
254.028	77.19
254.261	77.19
254.494	67.19
254.727	91.19
254.96	69.19
255.193	64.19
255.426	68.19
255.659	79.19
255.892	91.19
256.124	89.19
256.357	86.19
256.59	75.19
256.823	74.19
257.056	71.19
257.289	79.19
257.521	85.19
257.754	76.19
257.987	76.19
258.22	90.19
258.452	79.19
258.685	70.19
258.918	88.19
259.151	81.19
259.383	74.19
259.616	79.19
259.849	88.19
260.081	81.19
260.314	71.19
260.547	76.19
260.779	70.19
261.012	84.19
261.244	88.19
261.477	87.19
261.71	87.19
261.942	109.19
262.175	111.19
262.407	79.19
262.64	78.19
262.872	81.19
263.105	90.19
263.337	80.19
263.57	75.19
263.802	74.19
264.035	77.19
264.267	84.19
264.499	68.19
264.732	85.19
264.964	82.19
265.197	78.19
265.429	87.19
265.661	78.19
265.894	68.19
266.126	80.19
266.358	75.19
266.591	76.19
266.823	76.19
267.055	80.19
267.287	76.19
267.52	84.19
267.752	77.19
267.984	83.19
268.216	83.19
268.448	78.19
268.681	76.19
268.913	88.19
269.145	86.19
269.377	100.19
269.609	99.19
269.841	71.19
270.073	82.19
270.306	81.19
270.538	84.19
270.77	85.19
271.002	77.19
271.234	79.19
271.466	83.19
271.698	81.19
271.93	87.19
272.162	98.19
272.394	94.19
272.626	90.19
272.858	72.19
273.09	83.19
273.322	90.19
273.553	72.19
273.785	85.19
274.017	91.19
274.249	77.19
274.481	80.19
274.713	91.19
274.945	98.19
275.176	76.19
275.408	90.19
275.64	79.19
275.872	87.19
276.104	77.19
276.335	92.19
276.567	94.19
276.799	103.19
277.031	106.19
277.262	94.19
277.494	100.19
277.726	85.19
277.957	76.19
278.189	80.19
278.421	90.19
278.652	77.19
278.884	82.19
279.115	78.19
279.347	82.19
279.579	88.19
279.81	86.19
280.042	88.19
280.273	93.19
280.505	103.19
280.736	88.19
280.968	94.19
281.199	90.19
281.431	79.19
281.662	86.19
281.894	84.19
282.125	100.19
282.356	110.19
282.588	124.19
282.819	117.19
283.051	83.19
283.282	79.19
283.513	94.19
283.745	92.19
283.976	88.19
284.207	83.19
284.439	84.19
284.67	87.19
284.901	78.19
285.132	80.19
285.364	88.19
285.595	85.19
285.826	92.19
286.057	91.19
286.288	87.19
286.52	79.19
286.751	84.19
286.982	94.19
287.213	84.19
287.444	81.19
287.675	99.19
287.906	79.19
288.138	88.19
288.369	85.19
288.6	74.19
288.831	83.19
289.062	87.19
289.293	80.19
289.524	82.19
289.755	84.19
289.986	94.19
290.217	76.19
290.448	88.19
290.679	95.19
290.91	93.19
291.141	81.19
291.371	75.19
291.602	84.19
291.833	68.19
292.064	89.19
292.295	91.19
292.526	93.19
292.757	90.19
292.987	95.19
293.218	104.19
293.449	80.19
293.68	79.19
293.91	76.19
294.141	76.19
294.372	88.19
294.603	84.19
294.833	90.19
295.064	83.19
295.295	79.19
295.525	90.19
295.756	86.19
295.987	118.19
296.217	129.19
296.448	116.19
296.679	104.19
296.909	79.19
297.14	89.19
297.37	94.19
297.601	87.19
297.831	61.19
298.062	79.19
298.292	86.19
298.523	89.19
298.753	90.19
298.984	89.19
299.214	78.19
299.445	86.19
299.675	95.19
299.905	100.19
300.136	107.19
300.366	98.19
300.597	91.19
300.827	94.19
301.057	94.19
301.288	95.19
301.518	92.19
301.748	88.19
301.979	101.19
302.209	76.19
302.439	83.19
302.669	87.19
302.9	79.19
303.13	93.19
303.36	94.19
303.59	106.19
303.82	103.19
304.051	87.19
304.281	86.19
304.511	96.19
304.741	90.19
304.971	84.19
305.201	88.19
305.431	87.19
305.661	86.19
305.891	86.19
306.121	96.19
306.352	100.19
306.582	90.19
306.812	100.19
307.042	108.19
307.272	94.19
307.502	92.19
307.731	95.19
307.961	90.19
308.191	80.19
308.421	87.19
308.651	104.19
308.881	98.19
309.111	82.19
309.341	89.19
309.571	88.19
309.8	89.19
310.03	89.19
310.26	109.19
310.49	94.19
310.72	104.19
310.949	102.19
311.179	101.19
311.409	80.19
311.639	73.19
311.868	97.19
312.098	95.19
312.328	78.19
312.557	103.19
312.787	102.19
313.017	98.19
313.246	90.19
313.476	78.19
313.706	102.19
313.935	95.19
314.165	119.19
314.394	114.19
314.624	97.19
314.853	94.19
315.083	93.19
315.312	103.19
315.542	83.19
315.771	93.19
316.001	100.19
316.23	81.19
316.46	93.19
316.689	76.19
316.919	95.19
317.148	90.19
317.377	98.19
317.607	71.19
317.836	79.19
318.065	81.19
318.295	88.19
318.524	89.19
318.753	88.19
318.983	101.19
319.212	90.19
319.441	100.19
319.67	99.19
319.9	95.19
320.129	85.19
320.358	95.19
320.587	91.19
320.816	102.19
321.046	93.19
321.275	93.19
321.504	85.19
321.733	90.19
321.962	96.19
322.191	106.19
322.42	101.19
322.649	108.19
322.878	103.19
323.108	101.19
323.337	113.19
323.566	129.19
323.795	159.19
324.024	219.19
324.253	435.19
324.482	902.19
324.71	1783.19
324.939	2316.19
325.168	847.19
325.397	246.19
325.626	145.19
325.855	133.19
326.084	142.19
326.313	144.19
326.542	168.19
326.77	249.19
326.999	485.19
327.228	1047.19
327.457	1836.19
327.686	1447.19
327.914	390.19
328.143	205.19
328.372	158.19
328.6	132.19
328.829	119.19
329.058	131.19
329.287	123.19
329.515	108.19
329.744	107.19
329.972	131.19
330.201	134.19
330.43	164.19
330.658	159.19
330.887	142.19
331.115	132.19
331.344	93.19
331.572	100.19
331.801	108.19
332.03	104.19
332.258	94.19
332.486	93.19
332.715	98.19
332.943	81.19
333.172	100.19
333.4	97.19
333.629	92.19
333.857	120.19
334.085	120.19
334.314	137.19
334.542	182.19
334.771	162.19
334.999	107.19
335.227	96.19
335.455	98.19
335.684	100.19
335.912	93.19
336.14	95.19
336.369	110.19
336.597	104.19
336.825	87.19
337.053	92.19
337.281	87.19
337.51	94.19
337.738	97.19
337.966	99.19
338.194	86.19
338.422	96.19
338.65	75.19
338.878	89.19
339.106	87.19
339.334	91.19
339.562	71.19
339.79	93.19
340.018	80.19
340.246	90.19
340.474	101.19
340.702	89.19
340.93	81.19
341.158	101.19
341.386	87.19
341.614	77.19
341.842	71.19
342.07	92.19
342.298	96.19
342.526	94.19
342.754	95.19
342.981	98.19
343.209	95.19
343.437	97.19
343.665	80.19
343.893	82.19
344.12	91.19
344.348	94.19
344.576	98.19
344.804	66.19
345.031	94.19
345.259	82.19
345.487	88.19
345.714	102.19
345.942	87.19
346.17	93.19
346.397	103.19
346.625	86.19
346.853	100.19
347.08	85.19
347.308	96.19
347.535	93.19
347.763	100.19
347.99	107.19
348.218	100.19
348.445	101.19
348.673	92.19
348.9	101.19
349.128	96.19
349.355	102.19
349.583	87.19
349.81	83.19
350.037	90.19
350.265	96.19
350.492	86.19
350.72	96.19
350.947	93.19
351.174	119.19
351.402	107.19
351.629	104.19
351.856	97.19
352.083	98.19
352.311	107.19
352.538	95.19
352.765	106.19
352.992	102.19
353.22	102.19
353.447	102.19
353.674	98.19
353.901	107.19
354.128	100.19
354.355	108.19
354.583	90.19
354.81	89.19
355.037	98.19
355.264	99.19
355.491	96.19
355.718	101.19
355.945	96.19
356.172	92.19
356.399	105.19
356.626	96.19
356.853	77.19
357.08	80.19
357.307	96.19
357.534	76.19
357.761	83.19
357.988	82.19
358.215	91.19
358.441	79.19
358.668	84.19
358.895	98.19
359.122	69.19
359.349	88.19
359.576	84.19
359.802	84.19
360.029	108.19
360.256	109.19
360.483	100.19
360.709	89.19
360.936	97.19
361.163	108.19
361.39	87.19
361.616	102.19
361.843	91.19
362.07	99.19
362.296	95.19
362.523	83.19
362.749	85.19
362.976	93.19
363.203	95.19
363.429	81.19
363.656	96.19
363.882	84.19
364.109	86.19
364.335	89.19
364.562	83.19
364.788	95.19
365.015	89.19
365.241	119.19
365.468	110.19
365.694	87.19
365.92	108.19
366.147	91.19
366.373	94.19
366.599	84.19
366.826	95.19
367.052	96.19
367.278	94.19
367.505	85.19
367.731	87.19
367.957	76.19
368.184	103.19
368.41	98.19
368.636	110.19
368.862	119.19
369.089	101.19
369.315	104.19
369.541	79.19
369.767	97.19
369.993	99.19
370.219	104.19
370.445	90.19
370.672	68.19
370.898	93.19
371.124	85.19
371.35	66.19
371.576	91.19
371.802	95.19
372.028	89.19
372.254	84.19
372.48	89.19
372.706	90.19
372.932	88.19
373.158	95.19
373.384	100.19
373.61	88.19
373.835	76.19
374.061	89.19
374.287	88.19
374.513	95.19
374.739	93.19
374.965	93.19
375.191	79.19
375.416	88.19
375.642	87.19
375.868	94.19
376.094	97.19
376.319	86.19
376.545	101.19
376.771	80.19
376.997	71.19
377.222	83.19
377.448	93.19
377.674	87.19
377.899	89.19
378.125	80.19
378.35	101.19
378.576	95.19
378.802	89.19
379.027	90.19
379.253	80.19
379.478	91.19
379.704	90.19
379.929	82.19
380.155	88.19
380.38	93.19
380.606	87.19
380.831	89.19
381.057	90.19
381.282	100.19
381.507	85.19
381.733	93.19
381.958	86.19
382.184	94.19
382.409	100.19
382.634	98.19
382.86	96.19
383.085	96.19
383.31	92.19
383.535	95.19
383.761	99.19
383.986	88.19
384.211	92.19
384.436	98.19
384.662	100.19
384.887	89.19
385.112	99.19
385.337	96.19
385.562	97.19
385.787	100.19
386.013	96.19
386.238	117.19
386.463	104.19
386.688	100.19
386.913	92.19
387.138	100.19
387.363	101.19
387.588	86.19
387.813	96.19
388.038	101.19
388.263	104.19
388.488	98.19
388.713	83.19
388.938	108.19
389.163	111.19
389.387	100.19
389.612	99.19
389.837	87.19
390.062	89.19
390.287	81.19
390.512	92.19
390.736	105.19
390.961	81.19
391.186	91.19
391.411	93.19
391.636	86.19
391.86	76.19
392.085	86.19
392.31	92.19
392.534	85.19
392.759	93.19
392.984	76.19
393.208	88.19
393.433	90.19
393.658	84.19
393.882	84.19
394.107	81.19
394.331	72.19
394.556	101.19
394.78	92.19
395.005	90.19
395.229	84.19
395.454	90.19
395.678	87.19
395.903	90.19
396.127	92.19
396.352	84.19
396.576	75.19
396.801	92.19
397.025	88.19
397.249	81.19
397.474	76.19
397.698	84.19
397.922	77.19
398.147	94.19
398.371	91.19
398.595	88.19
398.82	72.19
399.044	98.19
399.268	89.19
399.492	89.19
399.717	97.19
399.941	89.19
400.165	88.19
400.389	75.19
400.613	95.19
400.837	102.19
401.062	101.19
401.286	87.19
401.51	79.19
401.734	89.19
401.958	97.19
402.182	130.19
402.406	159.19
402.63	134.19
402.854	105.19
403.078	94.19
403.302	87.19
403.526	76.19
403.75	78.19
403.974	86.19
404.198	82.19
404.422	89.19
404.645	104.19
404.869	118.19
405.093	102.19
405.317	103.19
405.541	106.19
405.765	93.19
405.988	104.19
406.212	166.19
406.436	239.19
406.66	144.19
406.883	101.19
407.107	79.19
407.331	103.19
407.555	96.19
407.778	89.19
408.002	79.19
408.226	88.19
408.449	90.19
408.673	102.19
408.896	88.19
409.12	88.19
409.344	88.19
409.567	89.19
409.791	94.19
410.014	81.19
410.238	100.19
410.461	79.19
410.685	94.19
410.908	94.19
411.132	109.19
411.355	100.19
411.578	87.19
411.802	96.19
412.025	83.19
412.249	90.19
412.472	97.19
412.695	106.19
412.919	85.19
413.142	87.19
413.365	80.19
413.589	98.19
413.812	104.19
414.035	101.19
414.258	95.19
414.482	88.19
414.705	101.19
414.928	75.19
415.151	103.19
415.374	94.19
415.597	84.19
415.821	76.19
416.044	94.19
416.267	87.19
416.49	79.19
416.713	86.19
416.936	76.19
417.159	98.19
417.382	103.19
417.605	101.19
417.828	84.19
418.051	90.19
418.274	101.19
418.497	83.19
418.72	87.19
418.943	100.19
419.166	73.19
419.389	84.19
419.611	84.19
419.834	89.19
420.057	85.19
420.28	74.19
420.503	90.19
420.726	76.19
420.948	82.19
421.171	85.19
421.394	91.19
421.617	69.19
421.839	89.19
422.062	97.19
422.285	90.19
422.507	89.19
422.73	92.19
422.953	107.19
423.175	102.19
423.398	90.19
423.621	94.19
423.843	69.19
424.066	92.19
424.288	88.19
424.511	90.19
424.733	94.19
424.956	100.19
425.178	88.19
425.401	102.19
425.623	104.19
425.846	84.19
426.068	84.19
426.291	91.19
426.513	78.19
426.735	87.19
426.958	95.19
427.18	104.19
427.402	145.19
427.625	156.19
427.847	164.19
428.069	118.19
428.292	80.19
428.514	89.19
428.736	86.19
428.958	78.19
429.181	88.19
429.403	101.19
429.625	88.19
429.847	95.19
430.069	97.19
430.292	95.19
430.514	82.19
430.736	91.19
430.958	83.19
431.18	83.19
431.402	103.19
431.624	93.19
431.846	91.19
432.068	94.19
432.29	96.19
432.512	91.19
432.734	88.19
432.956	73.19
433.178	97.19
433.4	96.19
433.622	95.19
433.844	88.19
434.066	83.19
434.287	83.19
434.509	81.19
434.731	86.19
434.953	73.19
435.175	76.19
435.397	90.19
435.618	93.19
435.84	106.19
436.062	135.19
436.284	110.19
436.505	110.19
436.727	100.19
436.949	88.19
437.17	95.19
437.392	94.19
437.614	85.19
437.835	112.19
438.057	110.19
438.278	107.19
438.5	93.19
438.721	107.19
438.943	102.19
439.165	88.19
439.386	110.19
439.608	80.19
439.829	101.19
440.05	122.19
440.272	128.19
440.493	95.19
440.715	88.19
440.936	90.19
441.158	91.19
441.379	88.19
441.6	105.19
441.822	94.19
442.043	99.19
442.264	109.19
442.486	106.19
442.707	101.19
442.928	108.19
443.149	134.19
443.371	139.19
443.592	99.19
443.813	111.19
444.034	100.19
444.255	109.19
444.476	84.19
444.698	87.19
444.919	90.19
445.14	113.19
445.361	132.19
445.582	129.19
445.803	142.19
446.024	115.19
446.245	132.19
446.466	104.19
446.687	92.19
446.908	84.19
447.129	95.19
447.35	99.19
447.571	91.19
447.792	69.19
448.013	86.19
448.234	93.19
448.455	109.19
448.675	124.19
448.896	133.19
449.117	84.19
449.338	94.19
449.559	123.19
449.779	126.19
450	104.19
450.221	92.19
450.442	93.19
450.662	84.19
450.883	95.19
451.104	102.19
451.324	84.19
451.545	86.19
451.766	93.19
451.986	85.19
452.207	98.19
452.428	93.19
452.648	96.19
452.869	113.19
453.089	100.19
453.31	104.19
453.53	102.19
453.751	88.19
453.971	100.19
454.192	127.19
454.412	87.19
454.633	77.19
454.853	86.19
455.073	89.19
455.294	80.19
455.514	105.19
455.734	79.19
455.955	78.19
456.175	77.19
456.395	88.19
456.616	77.19
456.836	81.19
457.056	82.19
457.276	79.19
457.497	72.19
457.717	76.19
457.937	90.19
458.157	100.19
458.377	79.19
458.598	104.19
458.818	154.19
459.038	136.19
459.258	121.19
459.478	105.19
459.698	85.19
459.918	80.19
460.138	84.19
460.358	83.19
460.578	96.19
460.798	87.19
461.018	93.19
461.238	79.19
461.458	84.19
461.678	77.19
461.898	81.19
462.118	83.19
462.338	67.19
462.558	83.19
462.777	85.19
462.997	92.19
463.217	82.19
463.437	76.19
463.657	95.19
463.876	84.19
464.096	87.19
464.316	94.19
464.536	84.19
464.755	79.19
464.975	101.19
465.195	156.19
465.414	157.19
465.634	101.19
465.854	93.19
466.073	80.19
466.293	87.19
466.512	72.19
466.732	86.19
466.951	87.19
467.171	86.19
467.391	84.19
467.61	94.19
467.829	96.19
468.049	103.19
468.268	113.19
468.488	98.19
468.707	81.19
468.927	92.19
469.146	83.19
469.365	86.19
469.585	88.19
469.804	90.19
470.023	88.19
470.243	89.19
470.462	97.19
470.681	102.19
470.901	91.19
471.12	90.19
471.339	93.19
471.558	77.19
471.777	85.19
471.997	94.19
472.216	152.19
472.435	226.19
472.654	107.19
472.873	103.19
473.092	92.19
473.311	68.19
473.53	91.19
473.749	105.19
473.968	94.19
474.187	122.19
474.406	93.19
474.625	83.19
474.844	89.19
475.063	87.19
475.282	79.19
475.501	85.19
475.72	89.19
475.939	86.19
476.158	75.19
476.377	78.19
476.596	71.19
476.814	105.19
477.033	94.19
477.252	84.19
477.471	83.19
477.69	89.19
477.908	94.19
478.127	81.19
478.346	87.19
478.564	86.19
478.783	91.19
479.002	96.19
479.22	100.19
479.439	105.19
479.658	101.19
479.876	102.19
480.095	75.19
480.313	94.19
480.532	83.19
480.751	101.19
480.969	147.19
481.188	317.19
481.406	213.19
481.624	105.19
481.843	88.19
482.061	92.19
482.28	62.19
482.498	98.19
482.717	86.19
482.935	76.19
483.153	78.19
483.372	86.19
483.59	85.19
483.808	104.19
484.027	99.19
484.245	89.19
484.463	100.19
484.681	81.19
484.9	98.19
485.118	95.19
485.336	84.19
485.554	83.19
485.772	102.19
485.99	121.19
486.209	100.19
486.427	91.19
486.645	115.19
486.863	101.19
487.081	103.19
487.299	96.19
487.517	104.19
487.735	96.19
487.953	90.19
488.171	99.19
488.389	96.19
488.607	96.19
488.825	95.19
489.043	77.19
489.261	96.19
489.479	86.19
489.696	91.19
489.914	103.19
490.132	98.19
490.35	92.19
490.568	93.19
490.786	86.19
491.003	79.19
491.221	87.19
491.439	86.19
491.657	94.19
491.874	100.19
492.092	89.19
492.31	90.19
492.527	91.19
492.745	104.19
492.963	83.19
493.18	87.19
493.398	79.19
493.615	75.19
493.833	107.19
494.05	98.19
494.268	81.19
494.485	102.19
494.703	92.19
494.92	88.19
495.138	98.19
495.355	88.19
495.573	86.19
495.79	86.19
496.008	96.19
496.225	89.19
496.442	83.19
496.66	79.19
496.877	88.19
497.094	82.19
497.312	107.19
497.529	83.19
497.746	88.19
497.963	87.19
498.181	95.19
498.398	101.19
498.615	111.19
498.832	110.19
499.049	85.19
499.267	90.19
499.484	98.19
499.701	90.19
499.918	84.19
500.135	98.19
500.352	82.19
500.569	88.19
500.786	100.19
501.003	100.19
501.22	70.19
501.437	82.19
501.654	92.19
501.871	111.19
502.088	100.19
502.305	74.19
502.522	98.19
502.739	83.19
502.956	91.19
503.172	81.19
503.389	92.19
503.606	97.19
503.823	89.19
504.04	94.19
504.256	95.19
504.473	104.19
504.69	106.19
504.907	93.19
505.123	87.19
505.34	89.19
505.557	92.19
505.773	98.19
505.99	92.19
506.207	94.19
506.423	86.19
506.64	87.19
506.856	82.19
507.073	85.19
507.289	100.19
507.506	84.19
507.722	117.19
507.939	107.19
508.155	94.19
508.372	96.19
508.588	92.19
508.805	88.19
509.021	105.19
509.238	92.19
509.454	89.19
509.67	93.19
509.887	105.19
510.103	128.19
510.319	209.19
510.536	727.19
510.752	2283.19
510.968	644.19
511.184	151.19
511.401	117.19
511.617	85.19
511.833	80.19
512.049	91.19
512.265	88.19
512.481	99.19
512.698	84.19
512.914	78.19
513.13	99.19
513.346	87.19
513.562	95.19
513.778	107.19
513.994	120.19
514.21	99.19
514.426	119.19
514.642	133.19
514.858	126.19
515.074	167.19
515.29	445.19
515.506	1440.19
515.721	536.19
