Data from Circ_2011_H10_HRD10591_00024.txt Node
Date: Wed Jan 03 10:08:03 EST 2024
User: Yrep
Spectrometer: HR+D1059
Trigger mode: 1
Integration Time (sec): 1.000000E-1
Scans to average: 1
Electric dark correction enabled: true
Nonlinearity correction enabled: false
Boxcar width: 0
XAxis mode: Wavelengths
Number of Pixels in Spectrum: 2048
>>>>>Begin Spectral Data<<<<<
223.165	-16.88
223.4	-16.88
223.635	-16.88
223.869	-17.88
224.104	-16.88
224.338	-12.88
224.573	-25.88
224.808	-23.88
225.042	-0.88
225.277	-1.88
225.511	4.12
225.746	30.12
225.98	-10.88
226.215	12.12
226.449	19.12
226.683	14.12
226.918	19.12
227.152	29.12
227.387	23.12
227.621	42.12
227.856	54.12
228.09	41.12
228.324	51.12
228.559	55.12
228.793	65.12
229.027	52.12
229.262	71.12
229.496	77.12
229.73	77.12
229.964	71.12
230.199	72.12
230.433	70.12
230.667	75.12
230.901	82.12
231.136	79.12
231.37	95.12
231.604	79.12
231.838	86.12
232.072	85.12
232.306	78.12
232.541	82.12
232.775	76.12
233.009	76.12
233.243	71.12
233.477	89.12
233.711	81.12
233.945	81.12
234.179	83.12
234.413	81.12
234.647	85.12
234.881	72.12
235.115	61.12
235.349	79.12
235.583	87.12
235.817	78.12
236.051	57.12
236.285	69.12
236.519	80.12
236.753	63.12
236.987	88.12
237.221	74.12
237.455	72.12
237.689	65.12
237.922	97.12
238.156	82.12
238.39	76.12
238.624	68.12
238.858	73.12
239.091	59.12
239.325	79.12
239.559	65.12
239.793	75.12
240.027	85.12
240.26	94.12
240.494	61.12
240.728	75.12
240.961	69.12
241.195	70.12
241.429	71.12
241.662	68.12
241.896	67.12
242.13	91.12
242.363	87.12
242.597	72.12
242.83	85.12
243.064	71.12
243.298	73.12
243.531	77.12
243.765	72.12
243.998	93.12
244.232	73.12
244.465	74.12
244.699	81.12
244.932	91.12
245.166	69.12
245.399	73.12
245.633	85.12
245.866	83.12
246.099	61.12
246.333	77.12
246.566	81.12
246.8	82.12
247.033	72.12
247.266	83.12
247.5	82.12
247.733	62.12
247.966	71.12
248.2	75.12
248.433	82.12
248.666	68.12
248.899	66.12
249.133	78.12
249.366	86.12
249.599	104.12
249.832	81.12
250.066	77.12
250.299	68.12
250.532	72.12
250.765	77.12
250.998	79.12
251.231	62.12
251.465	76.12
251.698	85.12
251.931	83.12
252.164	96.12
252.397	79.12
252.63	84.12
252.863	76.12
253.096	66.12
253.329	87.12
253.562	77.12
253.795	83.12
254.028	67.12
254.261	88.12
254.494	71.12
254.727	62.12
254.96	81.12
255.193	69.12
255.426	77.12
255.659	86.12
255.892	81.12
256.124	76.12
256.357	78.12
256.59	83.12
256.823	71.12
257.056	78.12
257.289	79.12
257.521	76.12
257.754	76.12
257.987	61.12
258.22	77.12
258.452	83.12
258.685	66.12
258.918	69.12
259.151	87.12
259.383	79.12
259.616	81.12
259.849	74.12
260.081	83.12
260.314	66.12
260.547	86.12
260.779	81.12
261.012	78.12
261.244	97.12
261.477	87.12
261.71	87.12
261.942	102.12
262.175	122.12
262.407	89.12
262.64	86.12
262.872	89.12
263.105	71.12
263.337	78.12
263.57	90.12
263.802	82.12
264.035	84.12
264.267	85.12
264.499	82.12
264.732	86.12
264.964	84.12
265.197	82.12
265.429	74.12
265.661	78.12
265.894	88.12
266.126	87.12
266.358	70.12
266.591	85.12
266.823	84.12
267.055	73.12
267.287	89.12
267.52	78.12
267.752	75.12
267.984	77.12
268.216	88.12
268.448	90.12
268.681	81.12
268.913	86.12
269.145	75.12
269.377	86.12
269.609	74.12
269.841	77.12
270.073	93.12
270.306	85.12
270.538	87.12
270.77	84.12
271.002	82.12
271.234	75.12
271.466	94.12
271.698	75.12
271.93	76.12
272.162	95.12
272.394	95.12
272.626	72.12
272.858	85.12
273.09	73.12
273.322	85.12
273.553	88.12
273.785	78.12
274.017	89.12
274.249	79.12
274.481	69.12
274.713	71.12
274.945	93.12
275.176	71.12
275.408	89.12
275.64	88.12
275.872	90.12
276.104	82.12
276.335	85.12
276.567	86.12
276.799	102.12
277.031	103.12
277.262	99.12
277.494	83.12
277.726	66.12
277.957	80.12
278.189	73.12
278.421	86.12
278.652	88.12
278.884	87.12
279.115	86.12
279.347	88.12
279.579	91.12
279.81	72.12
280.042	81.12
280.273	82.12
280.505	83.12
280.736	84.12
280.968	89.12
281.199	89.12
281.431	86.12
281.662	79.12
281.894	84.12
282.125	97.12
282.356	109.12
282.588	127.12
282.819	103.12
283.051	91.12
283.282	95.12
283.513	88.12
283.745	95.12
283.976	88.12
284.207	83.12
284.439	90.12
284.67	77.12
284.901	83.12
285.132	88.12
285.364	78.12
285.595	81.12
285.826	80.12
286.057	88.12
286.288	74.12
286.52	84.12
286.751	67.12
286.982	70.12
287.213	89.12
287.444	84.12
287.675	82.12
287.906	92.12
288.138	90.12
288.369	96.12
288.6	86.12
288.831	75.12
289.062	99.12
289.293	91.12
289.524	84.12
289.755	76.12
289.986	75.12
290.217	89.12
290.448	79.12
290.679	97.12
290.91	87.12
291.141	87.12
291.371	91.12
291.602	101.12
291.833	91.12
292.064	77.12
292.295	98.12
292.526	82.12
292.757	109.12
292.987	76.12
293.218	81.12
293.449	89.12
293.68	82.12
293.91	84.12
294.141	89.12
294.372	80.12
294.603	89.12
294.833	66.12
295.064	83.12
295.295	80.12
295.525	108.12
295.756	105.12
295.987	134.12
296.217	134.12
296.448	104.12
296.679	81.12
296.909	80.12
297.14	85.12
297.37	90.12
297.601	80.12
297.831	85.12
298.062	106.12
298.292	84.12
298.523	82.12
298.753	82.12
298.984	81.12
299.214	91.12
299.445	101.12
299.675	99.12
299.905	96.12
300.136	96.12
300.366	84.12
300.597	90.12
300.827	85.12
301.057	93.12
301.288	102.12
301.518	97.12
301.748	86.12
301.979	101.12
302.209	100.12
302.439	88.12
302.669	96.12
302.9	86.12
303.13	88.12
303.36	75.12
303.59	93.12
303.82	105.12
304.051	105.12
304.281	102.12
304.511	77.12
304.741	91.12
304.971	77.12
305.201	93.12
305.431	83.12
305.661	83.12
305.891	87.12
306.121	87.12
306.352	95.12
306.582	104.12
306.812	110.12
307.042	94.12
307.272	84.12
307.502	86.12
307.731	103.12
307.961	94.12
308.191	92.12
308.421	77.12
308.651	77.12
308.881	85.12
309.111	78.12
309.341	80.12
309.571	93.12
309.8	90.12
310.03	85.12
310.26	93.12
310.49	99.12
310.72	87.12
310.949	97.12
311.179	98.12
311.409	90.12
311.639	92.12
311.868	107.12
312.098	82.12
312.328	92.12
312.557	95.12
312.787	101.12
313.017	100.12
313.246	97.12
313.476	95.12
313.706	73.12
313.935	89.12
314.165	98.12
314.394	110.12
314.624	103.12
314.853	98.12
315.083	95.12
315.312	84.12
315.542	91.12
315.771	90.12
316.001	88.12
316.23	78.12
316.46	85.12
316.689	94.12
316.919	86.12
317.148	89.12
317.377	76.12
317.607	89.12
317.836	102.12
318.065	86.12
318.295	90.12
318.524	82.12
318.753	76.12
318.983	86.12
319.212	105.12
319.441	103.12
319.67	98.12
319.9	79.12
320.129	71.12
320.358	78.12
320.587	95.12
320.816	102.12
321.046	112.12
321.275	95.12
321.504	81.12
321.733	87.12
321.962	92.12
322.191	86.12
322.42	92.12
322.649	107.12
322.878	97.12
323.108	119.12
323.337	110.12
323.566	122.12
323.795	155.12
324.024	198.12
324.253	381.12
324.482	793.12
324.71	1579.12
324.939	2071.12
325.168	771.12
325.397	211.12
325.626	141.12
325.855	116.12
326.084	119.12
326.313	121.12
326.542	149.12
326.77	213.12
326.999	444.12
327.228	935.12
327.457	1619.12
327.686	1310.12
327.914	343.12
328.143	196.12
328.372	174.12
328.6	129.12
328.829	113.12
329.058	107.12
329.287	125.12
329.515	107.12
329.744	109.12
329.972	134.12
330.201	151.12
330.43	185.12
330.658	133.12
330.887	138.12
331.115	121.12
331.344	93.12
331.572	94.12
331.801	103.12
332.03	117.12
332.258	95.12
332.486	78.12
332.715	92.12
332.943	75.12
333.172	96.12
333.4	97.12
333.629	101.12
333.857	113.12
334.085	124.12
334.314	137.12
334.542	195.12
334.771	175.12
334.999	124.12
335.227	97.12
335.455	86.12
335.684	97.12
335.912	87.12
336.14	86.12
336.369	96.12
336.597	86.12
336.825	90.12
337.053	89.12
337.281	85.12
337.51	82.12
337.738	98.12
337.966	109.12
338.194	89.12
338.422	97.12
338.65	91.12
338.878	93.12
339.106	74.12
339.334	84.12
339.562	90.12
339.79	74.12
340.018	97.12
340.246	93.12
340.474	90.12
340.702	90.12
340.93	79.12
341.158	96.12
341.386	102.12
341.614	93.12
341.842	85.12
342.07	86.12
342.298	113.12
342.526	85.12
342.754	85.12
342.981	86.12
343.209	83.12
343.437	97.12
343.665	87.12
343.893	84.12
344.12	98.12
344.348	84.12
344.576	73.12
344.804	84.12
345.031	104.12
345.259	91.12
345.487	94.12
345.714	102.12
345.942	82.12
346.17	100.12
346.397	95.12
346.625	84.12
346.853	99.12
347.08	78.12
347.308	99.12
347.535	92.12
347.763	86.12
347.99	94.12
348.218	95.12
348.445	91.12
348.673	98.12
348.9	93.12
349.128	93.12
349.355	85.12
349.583	85.12
349.81	87.12
350.037	95.12
350.265	99.12
350.492	97.12
350.72	106.12
350.947	93.12
351.174	101.12
351.402	104.12
351.629	93.12
351.856	91.12
352.083	91.12
352.311	108.12
352.538	92.12
352.765	102.12
352.992	106.12
353.22	92.12
353.447	94.12
353.674	100.12
353.901	76.12
354.128	103.12
354.355	98.12
354.583	92.12
354.81	93.12
355.037	86.12
355.264	78.12
355.491	82.12
355.718	88.12
355.945	77.12
356.172	78.12
356.399	114.12
356.626	102.12
356.853	107.12
357.08	89.12
357.307	90.12
357.534	83.12
357.761	97.12
357.988	90.12
358.215	89.12
358.441	93.12
358.668	106.12
358.895	87.12
359.122	87.12
359.349	79.12
359.576	90.12
359.802	100.12
360.029	109.12
360.256	116.12
360.483	89.12
360.709	68.12
360.936	89.12
361.163	96.12
361.39	98.12
361.616	98.12
361.843	86.12
362.07	82.12
362.296	85.12
362.523	95.12
362.749	88.12
362.976	86.12
363.203	89.12
363.429	79.12
363.656	79.12
363.882	99.12
364.109	89.12
364.335	90.12
364.562	82.12
364.788	84.12
365.015	88.12
365.241	92.12
365.468	96.12
365.694	98.12
365.92	81.12
366.147	76.12
366.373	72.12
366.599	91.12
366.826	86.12
367.052	80.12
367.278	88.12
367.505	84.12
367.731	94.12
367.957	98.12
368.184	94.12
368.41	86.12
368.636	110.12
368.862	108.12
369.089	93.12
369.315	85.12
369.541	97.12
369.767	101.12
369.993	92.12
370.219	88.12
370.445	77.12
370.672	83.12
370.898	95.12
371.124	85.12
371.35	82.12
371.576	94.12
371.802	78.12
372.028	91.12
372.254	77.12
372.48	77.12
372.706	83.12
372.932	88.12
373.158	96.12
373.384	92.12
373.61	96.12
373.835	90.12
374.061	82.12
374.287	97.12
374.513	83.12
374.739	68.12
374.965	79.12
375.191	83.12
375.416	86.12
375.642	90.12
375.868	87.12
376.094	88.12
376.319	89.12
376.545	79.12
376.771	87.12
376.997	86.12
377.222	82.12
377.448	88.12
377.674	81.12
377.899	93.12
378.125	98.12
378.35	96.12
378.576	83.12
378.802	79.12
379.027	88.12
379.253	96.12
379.478	79.12
379.704	90.12
379.929	85.12
380.155	95.12
380.38	89.12
380.606	76.12
380.831	89.12
381.057	104.12
381.282	90.12
381.507	107.12
381.733	91.12
381.958	90.12
382.184	83.12
382.409	82.12
382.634	102.12
382.86	76.12
383.085	88.12
383.31	101.12
383.535	96.12
383.761	81.12
383.986	89.12
384.211	81.12
384.436	82.12
384.662	68.12
384.887	94.12
385.112	102.12
385.337	94.12
385.562	107.12
385.787	94.12
386.013	118.12
386.238	95.12
386.463	104.12
386.688	81.12
386.913	106.12
387.138	94.12
387.363	91.12
387.588	91.12
387.813	84.12
388.038	114.12
388.263	90.12
388.488	99.12
388.713	98.12
388.938	87.12
389.163	95.12
389.387	96.12
389.612	92.12
389.837	75.12
390.062	80.12
390.287	86.12
390.512	92.12
390.736	97.12
390.961	77.12
391.186	94.12
391.411	82.12
391.636	82.12
391.86	83.12
392.085	91.12
392.31	88.12
392.534	91.12
392.759	84.12
392.984	89.12
393.208	83.12
393.433	80.12
393.658	93.12
393.882	86.12
394.107	90.12
394.331	86.12
394.556	84.12
394.78	84.12
395.005	80.12
395.229	74.12
395.454	94.12
395.678	92.12
395.903	76.12
396.127	91.12
396.352	79.12
396.576	85.12
396.801	86.12
397.025	85.12
397.249	84.12
397.474	93.12
397.698	79.12
397.922	85.12
398.147	93.12
398.371	72.12
398.595	85.12
398.82	89.12
399.044	83.12
399.268	95.12
399.492	90.12
399.717	90.12
399.941	85.12
400.165	98.12
400.389	83.12
400.613	82.12
400.837	104.12
401.062	93.12
401.286	93.12
401.51	87.12
401.734	85.12
401.958	98.12
402.182	119.12
402.406	148.12
402.63	107.12
402.854	77.12
403.078	84.12
403.302	70.12
403.526	73.12
403.75	85.12
403.974	82.12
404.198	94.12
404.422	91.12
404.645	83.12
404.869	108.12
405.093	87.12
405.317	116.12
405.541	93.12
405.765	98.12
405.988	118.12
406.212	149.12
406.436	196.12
406.66	149.12
406.883	87.12
407.107	87.12
407.331	87.12
407.555	102.12
407.778	85.12
408.002	79.12
408.226	81.12
408.449	95.12
408.673	105.12
408.896	101.12
409.12	87.12
409.344	83.12
409.567	82.12
409.791	79.12
410.014	100.12
410.238	81.12
410.461	88.12
410.685	86.12
410.908	83.12
411.132	98.12
411.355	100.12
411.578	78.12
411.802	77.12
412.025	91.12
412.249	82.12
412.472	105.12
412.695	101.12
412.919	100.12
413.142	81.12
413.365	82.12
413.589	103.12
413.812	99.12
414.035	96.12
414.258	79.12
414.482	85.12
414.705	101.12
414.928	91.12
415.151	83.12
415.374	90.12
415.597	82.12
415.821	85.12
416.044	85.12
416.267	79.12
416.49	85.12
416.713	95.12
416.936	83.12
417.159	95.12
417.382	86.12
417.605	68.12
417.828	78.12
418.051	77.12
418.274	93.12
418.497	93.12
418.72	77.12
418.943	93.12
419.166	92.12
419.389	81.12
419.611	87.12
419.834	91.12
420.057	83.12
420.28	82.12
420.503	86.12
420.726	96.12
420.948	89.12
421.171	91.12
421.394	82.12
421.617	79.12
421.839	83.12
422.062	86.12
422.285	86.12
422.507	110.12
422.73	94.12
422.953	84.12
423.175	92.12
423.398	78.12
423.621	75.12
423.843	105.12
424.066	71.12
424.288	87.12
424.511	87.12
424.733	89.12
424.956	104.12
425.178	97.12
425.401	101.12
425.623	74.12
425.846	85.12
426.068	98.12
426.291	77.12
426.513	97.12
426.735	92.12
426.958	97.12
427.18	104.12
427.402	125.12
427.625	155.12
427.847	130.12
428.069	116.12
428.292	98.12
428.514	69.12
428.736	65.12
428.958	81.12
429.181	75.12
429.403	88.12
429.625	82.12
429.847	81.12
430.069	98.12
430.292	92.12
430.514	78.12
430.736	84.12
430.958	93.12
431.18	85.12
431.402	89.12
431.624	70.12
431.846	72.12
432.068	86.12
432.29	94.12
432.512	74.12
432.734	91.12
432.956	82.12
433.178	87.12
433.4	93.12
433.622	83.12
433.844	84.12
434.066	81.12
434.287	90.12
434.509	89.12
434.731	87.12
434.953	84.12
435.175	79.12
435.397	78.12
435.618	82.12
435.84	93.12
436.062	111.12
436.284	109.12
436.505	101.12
436.727	109.12
436.949	103.12
437.17	94.12
437.392	91.12
437.614	93.12
437.835	87.12
438.057	125.12
438.278	113.12
438.5	101.12
438.721	107.12
438.943	97.12
439.165	99.12
439.386	93.12
439.608	106.12
439.829	101.12
440.05	103.12
440.272	122.12
440.493	92.12
440.715	85.12
440.936	91.12
441.158	86.12
441.379	100.12
441.6	98.12
441.822	79.12
442.043	92.12
442.264	104.12
442.486	84.12
442.707	92.12
442.928	105.12
443.149	120.12
443.371	109.12
443.592	104.12
443.813	106.12
444.034	93.12
444.255	88.12
444.476	76.12
444.698	84.12
444.919	91.12
445.14	138.12
445.361	114.12
445.582	103.12
445.803	130.12
446.024	125.12
446.245	124.12
446.466	103.12
446.687	94.12
446.908	89.12
447.129	81.12
447.35	92.12
447.571	94.12
447.792	79.12
448.013	121.12
448.234	116.12
448.455	114.12
448.675	102.12
448.896	127.12
449.117	96.12
449.338	98.12
449.559	110.12
449.779	123.12
450	75.12
450.221	90.12
450.442	97.12
450.662	85.12
450.883	108.12
451.104	105.12
451.324	105.12
451.545	98.12
451.766	74.12
451.986	81.12
452.207	90.12
452.428	87.12
452.648	82.12
452.869	93.12
453.089	106.12
453.31	100.12
453.53	89.12
453.751	90.12
453.971	97.12
454.192	113.12
454.412	102.12
454.633	83.12
454.853	81.12
455.073	73.12
455.294	94.12
455.514	96.12
455.734	83.12
455.955	92.12
456.175	93.12
456.395	79.12
456.616	85.12
456.836	84.12
457.056	92.12
457.276	85.12
457.497	84.12
457.717	87.12
457.937	87.12
458.157	92.12
458.377	81.12
458.598	101.12
458.818	146.12
459.038	157.12
459.258	107.12
459.478	80.12
459.698	80.12
459.918	90.12
460.138	89.12
460.358	89.12
460.578	91.12
460.798	76.12
461.018	69.12
461.238	87.12
461.458	89.12
461.678	75.12
461.898	91.12
462.118	80.12
462.338	79.12
462.558	76.12
462.777	98.12
462.997	87.12
463.217	94.12
463.437	76.12
463.657	75.12
463.876	70.12
464.096	92.12
464.316	94.12
464.536	84.12
464.755	94.12
464.975	92.12
465.195	142.12
465.414	157.12
465.634	110.12
465.854	92.12
466.073	77.12
466.293	79.12
466.512	74.12
466.732	95.12
466.951	73.12
467.171	98.12
467.391	98.12
467.61	97.12
467.829	109.12
468.049	118.12
468.268	131.12
468.488	73.12
468.707	100.12
468.927	75.12
469.146	84.12
469.365	90.12
469.585	95.12
469.804	100.12
470.023	91.12
470.243	85.12
470.462	89.12
470.681	106.12
470.901	85.12
471.12	86.12
471.339	95.12
471.558	99.12
471.777	78.12
471.997	94.12
472.216	165.12
472.435	243.12
472.654	133.12
472.873	94.12
473.092	91.12
473.311	80.12
473.53	86.12
473.749	85.12
473.968	95.12
474.187	100.12
474.406	83.12
474.625	90.12
474.844	93.12
475.063	75.12
475.282	76.12
475.501	91.12
475.72	76.12
475.939	88.12
476.158	87.12
476.377	72.12
476.596	86.12
476.814	97.12
477.033	90.12
477.252	75.12
477.471	83.12
477.69	90.12
477.908	86.12
478.127	83.12
478.346	88.12
478.564	88.12
478.783	100.12
479.002	103.12
479.22	90.12
479.439	101.12
479.658	98.12
479.876	79.12
480.095	91.12
480.313	85.12
480.532	94.12
480.751	104.12
480.969	181.12
481.188	383.12
481.406	240.12
481.624	110.12
481.843	85.12
482.061	86.12
482.28	80.12
482.498	94.12
482.717	91.12
482.935	84.12
483.153	84.12
483.372	71.12
483.59	80.12
483.808	72.12
484.027	84.12
484.245	93.12
484.463	87.12
484.681	82.12
484.9	76.12
485.118	88.12
485.336	85.12
485.554	84.12
485.772	97.12
485.99	86.12
486.209	98.12
486.427	101.12
486.645	96.12
486.863	108.12
487.081	94.12
487.299	98.12
487.517	89.12
487.735	85.12
487.953	90.12
488.171	91.12
488.389	90.12
488.607	82.12
488.825	86.12
489.043	91.12
489.261	95.12
489.479	95.12
489.696	83.12
489.914	96.12
490.132	92.12
490.35	84.12
490.568	75.12
490.786	96.12
491.003	91.12
491.221	91.12
491.439	93.12
491.657	91.12
491.874	91.12
492.092	84.12
492.31	86.12
492.527	83.12
492.745	82.12
492.963	93.12
493.18	98.12
493.398	90.12
493.615	93.12
493.833	83.12
494.05	84.12
494.268	74.12
494.485	95.12
494.703	87.12
494.92	76.12
495.138	89.12
495.355	92.12
495.573	86.12
495.79	89.12
496.008	78.12
496.225	88.12
496.442	78.12
496.66	93.12
496.877	82.12
497.094	91.12
497.312	83.12
497.529	93.12
497.746	75.12
497.963	82.12
498.181	83.12
498.398	85.12
498.615	115.12
498.832	92.12
499.049	88.12
499.267	82.12
499.484	87.12
499.701	91.12
499.918	89.12
500.135	96.12
500.352	96.12
500.569	82.12
500.786	91.12
501.003	88.12
501.22	97.12
501.437	88.12
501.654	95.12
501.871	103.12
502.088	86.12
502.305	86.12
502.522	86.12
502.739	85.12
502.956	90.12
503.172	84.12
503.389	82.12
503.606	98.12
503.823	102.12
504.04	84.12
504.256	83.12
504.473	78.12
504.69	100.12
504.907	105.12
505.123	96.12
505.34	97.12
505.557	85.12
505.773	95.12
505.99	74.12
506.207	89.12
506.423	90.12
506.64	83.12
506.856	95.12
507.073	91.12
507.289	98.12
507.506	96.12
507.722	102.12
507.939	97.12
508.155	99.12
508.372	79.12
508.588	90.12
508.805	93.12
509.021	87.12
509.238	95.12
509.454	85.12
509.67	93.12
509.887	105.12
510.103	122.12
510.319	209.12
510.536	683.12
510.752	2218.12
510.968	607.12
511.184	141.12
511.401	102.12
511.617	105.12
511.833	97.12
512.049	89.12
512.265	98.12
512.481	90.12
512.698	92.12
512.914	101.12
513.13	83.12
513.346	106.12
513.562	115.12
513.778	79.12
513.994	102.12
514.21	97.12
514.426	111.12
514.642	112.12
514.858	102.12
515.074	171.12
515.29	423.12
515.506	1333.12
515.721	501.12
515.937	137.12
516.153	107.12
516.369	101.12
516.585	101.12
