Data from Circ_2011_H10_HRD10591_00013.txt Node
Date: Wed Jan 03 10:08:01 EST 2024
User: Yrep
Spectrometer: HR+D1059
Trigger mode: 1
Integration Time (sec): 1.000000E-1
Scans to average: 1
Electric dark correction enabled: true
Nonlinearity correction enabled: false
Boxcar width: 0
XAxis mode: Wavelengths
Number of Pixels in Spectrum: 2048
>>>>>Begin Spectral Data<<<<<
223.165	-11.94
223.4	-11.94
223.635	-11.94
223.869	-25.94
224.104	-14.94
224.338	-26.94
224.573	8.06
224.808	-9.94
225.042	-6.94
225.277	-10.94
225.511	2.06
225.746	10.06
225.98	-0.94
226.215	15.06
226.449	7.06
226.683	21.06
226.918	17.06
227.152	28.06
227.387	21.06
227.621	46.06
227.856	58.06
228.09	50.06
228.324	61.06
228.559	65.06
228.793	59.06
229.027	54.06
229.262	60.06
229.496	69.06
229.73	78.06
229.964	83.06
230.199	80.06
230.433	78.06
230.667	81.06
230.901	85.06
231.136	68.06
231.37	78.06
231.604	78.06
231.838	70.06
232.072	89.06
232.306	80.06
232.541	86.06
232.775	88.06
233.009	81.06
233.243	73.06
233.477	76.06
233.711	77.06
233.945	83.06
234.179	81.06
234.413	82.06
234.647	88.06
234.881	82.06
235.115	80.06
235.349	76.06
235.583	75.06
235.817	82.06
236.051	83.06
236.285	96.06
236.519	94.06
236.753	94.06
236.987	72.06
237.221	73.06
237.455	72.06
237.689	78.06
237.922	86.06
238.156	76.06
238.39	61.06
238.624	80.06
238.858	72.06
239.091	88.06
239.325	70.06
239.559	86.06
239.793	80.06
240.027	83.06
240.26	78.06
240.494	79.06
240.728	81.06
240.961	59.06
241.195	72.06
241.429	73.06
241.662	79.06
241.896	68.06
242.13	78.06
242.363	78.06
242.597	69.06
242.83	79.06
243.064	85.06
243.298	77.06
243.531	70.06
243.765	78.06
243.998	67.06
244.232	91.06
244.465	87.06
244.699	74.06
244.932	70.06
245.166	86.06
245.399	93.06
245.633	67.06
245.866	86.06
246.099	72.06
246.333	82.06
246.566	69.06
246.8	72.06
247.033	85.06
247.266	71.06
247.5	81.06
247.733	90.06
247.966	91.06
248.2	70.06
248.433	91.06
248.666	84.06
248.899	77.06
249.133	80.06
249.366	98.06
249.599	104.06
249.832	89.06
250.066	91.06
250.299	95.06
250.532	92.06
250.765	79.06
250.998	77.06
251.231	63.06
251.465	89.06
251.698	72.06
251.931	83.06
252.164	72.06
252.397	91.06
252.63	81.06
252.863	80.06
253.096	85.06
253.329	77.06
253.562	88.06
253.795	85.06
254.028	74.06
254.261	74.06
254.494	95.06
254.727	89.06
254.96	85.06
255.193	81.06
255.426	82.06
255.659	75.06
255.892	80.06
256.124	80.06
256.357	81.06
256.59	82.06
256.823	73.06
257.056	76.06
257.289	82.06
257.521	77.06
257.754	84.06
257.987	87.06
258.22	89.06
258.452	72.06
258.685	81.06
258.918	82.06
259.151	79.06
259.383	68.06
259.616	80.06
259.849	87.06
260.081	90.06
260.314	82.06
260.547	68.06
260.779	98.06
261.012	87.06
261.244	76.06
261.477	87.06
261.71	90.06
261.942	104.06
262.175	116.06
262.407	85.06
262.64	98.06
262.872	104.06
263.105	90.06
263.337	74.06
263.57	93.06
263.802	88.06
264.035	82.06
264.267	86.06
264.499	87.06
264.732	75.06
264.964	86.06
265.197	85.06
265.429	97.06
265.661	81.06
265.894	86.06
266.126	79.06
266.358	86.06
266.591	97.06
266.823	91.06
267.055	87.06
267.287	80.06
267.52	85.06
267.752	83.06
267.984	97.06
268.216	91.06
268.448	82.06
268.681	70.06
268.913	84.06
269.145	81.06
269.377	81.06
269.609	88.06
269.841	83.06
270.073	94.06
270.306	84.06
270.538	80.06
270.77	94.06
271.002	84.06
271.234	88.06
271.466	82.06
271.698	87.06
271.93	84.06
272.162	82.06
272.394	92.06
272.626	84.06
272.858	81.06
273.09	84.06
273.322	85.06
273.553	74.06
273.785	75.06
274.017	95.06
274.249	80.06
274.481	94.06
274.713	83.06
274.945	81.06
275.176	96.06
275.408	103.06
275.64	88.06
275.872	81.06
276.104	96.06
276.335	107.06
276.567	92.06
276.799	101.06
277.031	92.06
277.262	87.06
277.494	86.06
277.726	80.06
277.957	99.06
278.189	92.06
278.421	79.06
278.652	86.06
278.884	80.06
279.115	87.06
279.347	89.06
279.579	87.06
279.81	91.06
280.042	87.06
280.273	112.06
280.505	99.06
280.736	86.06
280.968	98.06
281.199	87.06
281.431	98.06
281.662	86.06
281.894	87.06
282.125	103.06
282.356	116.06
282.588	139.06
282.819	112.06
283.051	104.06
283.282	93.06
283.513	97.06
283.745	86.06
283.976	93.06
284.207	83.06
284.439	103.06
284.67	88.06
284.901	86.06
285.132	89.06
285.364	81.06
285.595	101.06
285.826	93.06
286.057	90.06
286.288	67.06
286.52	88.06
286.751	96.06
286.982	81.06
287.213	101.06
287.444	91.06
287.675	79.06
287.906	99.06
288.138	83.06
288.369	87.06
288.6	100.06
288.831	80.06
289.062	82.06
289.293	90.06
289.524	76.06
289.755	93.06
289.986	94.06
290.217	102.06
290.448	85.06
290.679	90.06
290.91	93.06
291.141	97.06
291.371	86.06
291.602	86.06
291.833	88.06
292.064	87.06
292.295	92.06
292.526	98.06
292.757	89.06
292.987	86.06
293.218	96.06
293.449	83.06
293.68	91.06
293.91	106.06
294.141	94.06
294.372	86.06
294.603	103.06
294.833	91.06
295.064	81.06
295.295	83.06
295.525	85.06
295.756	106.06
295.987	105.06
296.217	135.06
296.448	112.06
296.679	105.06
296.909	82.06
297.14	94.06
297.37	94.06
297.601	89.06
297.831	90.06
298.062	100.06
298.292	90.06
298.523	78.06
298.753	80.06
298.984	79.06
299.214	95.06
299.445	106.06
299.675	99.06
299.905	108.06
300.136	102.06
300.366	90.06
300.597	95.06
300.827	95.06
301.057	106.06
301.288	116.06
301.518	91.06
301.748	91.06
301.979	122.06
302.209	94.06
302.439	81.06
302.669	73.06
302.9	82.06
303.13	97.06
303.36	83.06
303.59	86.06
303.82	96.06
304.051	94.06
304.281	84.06
304.511	85.06
304.741	76.06
304.971	95.06
305.201	95.06
305.431	82.06
305.661	95.06
305.891	100.06
306.121	92.06
306.352	94.06
306.582	108.06
306.812	84.06
307.042	91.06
307.272	100.06
307.502	95.06
307.731	85.06
307.961	105.06
308.191	98.06
308.421	89.06
308.651	90.06
308.881	93.06
309.111	103.06
309.341	104.06
309.571	93.06
309.8	85.06
310.03	98.06
310.26	91.06
310.49	94.06
310.72	99.06
310.949	91.06
311.179	82.06
311.409	90.06
311.639	88.06
311.868	99.06
312.098	96.06
312.328	86.06
312.557	98.06
312.787	101.06
313.017	105.06
313.246	91.06
313.476	105.06
313.706	95.06
313.935	89.06
314.165	113.06
314.394	95.06
314.624	114.06
314.853	82.06
315.083	77.06
315.312	92.06
315.542	94.06
315.771	104.06
316.001	86.06
316.23	93.06
316.46	86.06
316.689	99.06
316.919	88.06
317.148	101.06
317.377	106.06
317.607	107.06
317.836	94.06
318.065	99.06
318.295	86.06
318.524	99.06
318.753	93.06
318.983	82.06
319.212	88.06
319.441	121.06
319.67	106.06
319.9	97.06
320.129	93.06
320.358	93.06
320.587	108.06
320.816	103.06
321.046	116.06
321.275	83.06
321.504	89.06
321.733	91.06
321.962	96.06
322.191	102.06
322.42	102.06
322.649	113.06
322.878	106.06
323.108	129.06
323.337	117.06
323.566	123.06
323.795	144.06
324.024	213.06
324.253	388.06
324.482	834.06
324.71	1733.06
324.939	2278.06
325.168	824.06
325.397	245.06
325.626	156.06
325.855	121.06
326.084	128.06
326.313	141.06
326.542	152.06
326.77	216.06
326.999	485.06
327.228	968.06
327.457	1787.06
327.686	1405.06
327.914	400.06
328.143	213.06
328.372	174.06
328.6	130.06
328.829	118.06
329.058	136.06
329.287	122.06
329.515	105.06
329.744	97.06
329.972	123.06
330.201	140.06
330.43	166.06
330.658	137.06
330.887	146.06
331.115	116.06
331.344	114.06
331.572	97.06
331.801	103.06
332.03	105.06
332.258	89.06
332.486	98.06
332.715	98.06
332.943	103.06
333.172	90.06
333.4	102.06
333.629	109.06
333.857	133.06
334.085	138.06
334.314	158.06
334.542	211.06
334.771	181.06
334.999	121.06
335.227	92.06
335.455	96.06
335.684	107.06
335.912	97.06
336.14	117.06
336.369	106.06
336.597	96.06
336.825	91.06
337.053	90.06
337.281	100.06
337.51	96.06
337.738	88.06
337.966	91.06
338.194	106.06
338.422	98.06
338.65	108.06
338.878	83.06
339.106	86.06
339.334	79.06
339.562	87.06
339.79	88.06
340.018	88.06
340.246	100.06
340.474	103.06
340.702	88.06
340.93	105.06
341.158	95.06
341.386	100.06
341.614	93.06
341.842	90.06
342.07	96.06
342.298	82.06
342.526	88.06
342.754	99.06
342.981	106.06
343.209	93.06
343.437	82.06
343.665	89.06
343.893	86.06
344.12	81.06
344.348	81.06
344.576	97.06
344.804	93.06
345.031	99.06
345.259	102.06
345.487	96.06
345.714	97.06
345.942	84.06
346.17	80.06
346.397	87.06
346.625	81.06
346.853	87.06
347.08	103.06
347.308	95.06
347.535	93.06
347.763	86.06
347.99	102.06
348.218	96.06
348.445	120.06
348.673	102.06
348.9	103.06
349.128	101.06
349.355	101.06
349.583	92.06
349.81	88.06
350.037	95.06
350.265	92.06
350.492	97.06
350.72	109.06
350.947	116.06
351.174	111.06
351.402	113.06
351.629	109.06
351.856	98.06
352.083	105.06
352.311	95.06
352.538	106.06
352.765	101.06
352.992	118.06
353.22	132.06
353.447	108.06
353.674	100.06
353.901	109.06
354.128	103.06
354.355	88.06
354.583	90.06
354.81	92.06
355.037	101.06
355.264	100.06
355.491	93.06
355.718	86.06
355.945	104.06
356.172	98.06
356.399	88.06
356.626	92.06
356.853	99.06
357.08	96.06
357.307	100.06
357.534	108.06
357.761	92.06
357.988	96.06
358.215	113.06
358.441	100.06
358.668	100.06
358.895	88.06
359.122	90.06
359.349	100.06
359.576	94.06
359.802	92.06
360.029	98.06
360.256	108.06
360.483	92.06
360.709	90.06
360.936	96.06
361.163	96.06
361.39	100.06
361.616	100.06
361.843	79.06
362.07	80.06
362.296	89.06
362.523	87.06
362.749	102.06
362.976	84.06
363.203	93.06
363.429	90.06
363.656	86.06
363.882	88.06
364.109	82.06
364.335	90.06
364.562	84.06
364.788	95.06
365.015	94.06
365.241	91.06
365.468	109.06
365.694	108.06
365.92	96.06
366.147	88.06
366.373	91.06
366.599	111.06
366.826	89.06
367.052	88.06
367.278	80.06
367.505	85.06
367.731	87.06
367.957	102.06
368.184	108.06
368.41	98.06
368.636	117.06
368.862	125.06
369.089	116.06
369.315	87.06
369.541	110.06
369.767	81.06
369.993	98.06
370.219	96.06
370.445	85.06
370.672	103.06
370.898	88.06
371.124	80.06
371.35	79.06
371.576	92.06
371.802	79.06
372.028	91.06
372.254	95.06
372.48	104.06
372.706	73.06
372.932	78.06
373.158	93.06
373.384	101.06
373.61	90.06
373.835	98.06
374.061	106.06
374.287	92.06
374.513	94.06
374.739	91.06
374.965	96.06
375.191	87.06
375.416	89.06
375.642	94.06
375.868	89.06
376.094	94.06
376.319	102.06
376.545	92.06
376.771	83.06
376.997	83.06
377.222	89.06
377.448	91.06
377.674	85.06
377.899	86.06
378.125	86.06
378.35	91.06
378.576	89.06
378.802	93.06
379.027	88.06
379.253	104.06
379.478	82.06
379.704	86.06
379.929	95.06
380.155	101.06
380.38	90.06
380.606	86.06
380.831	104.06
381.057	89.06
381.282	104.06
381.507	99.06
381.733	91.06
381.958	97.06
382.184	93.06
382.409	94.06
382.634	104.06
382.86	107.06
383.085	104.06
383.31	90.06
383.535	101.06
383.761	107.06
383.986	107.06
384.211	103.06
384.436	102.06
384.662	104.06
384.887	94.06
385.112	93.06
385.337	104.06
385.562	125.06
385.787	90.06
386.013	112.06
386.238	104.06
386.463	111.06
386.688	100.06
386.913	96.06
387.138	105.06
387.363	81.06
387.588	106.06
387.813	84.06
388.038	101.06
388.263	102.06
388.488	95.06
388.713	91.06
388.938	90.06
389.163	105.06
389.387	117.06
389.612	94.06
389.837	85.06
390.062	91.06
390.287	95.06
390.512	91.06
390.736	86.06
390.961	105.06
391.186	96.06
391.411	88.06
391.636	101.06
391.86	93.06
392.085	81.06
392.31	89.06
392.534	81.06
392.759	83.06
392.984	92.06
393.208	90.06
393.433	97.06
393.658	94.06
393.882	73.06
394.107	86.06
394.331	83.06
394.556	80.06
394.78	79.06
395.005	89.06
395.229	79.06
395.454	90.06
395.678	92.06
395.903	76.06
396.127	100.06
396.352	89.06
396.576	92.06
396.801	88.06
397.025	95.06
397.249	97.06
397.474	76.06
397.698	82.06
397.922	96.06
398.147	85.06
398.371	69.06
398.595	77.06
398.82	88.06
399.044	85.06
399.268	82.06
399.492	72.06
399.717	90.06
399.941	81.06
400.165	93.06
400.389	96.06
400.613	93.06
400.837	79.06
401.062	84.06
401.286	83.06
401.51	112.06
401.734	97.06
401.958	93.06
402.182	118.06
402.406	166.06
402.63	107.06
402.854	92.06
403.078	83.06
403.302	94.06
403.526	84.06
403.75	80.06
403.974	90.06
404.198	94.06
404.422	69.06
404.645	90.06
404.869	88.06
405.093	96.06
405.317	98.06
405.541	102.06
405.765	81.06
405.988	105.06
406.212	176.06
406.436	224.06
406.66	143.06
406.883	106.06
407.107	96.06
407.331	101.06
407.555	100.06
407.778	91.06
408.002	81.06
408.226	82.06
408.449	80.06
408.673	80.06
408.896	78.06
409.12	102.06
409.344	91.06
409.567	92.06
409.791	87.06
410.014	95.06
410.238	97.06
410.461	83.06
410.685	96.06
410.908	102.06
411.132	119.06
411.355	88.06
411.578	91.06
411.802	77.06
412.025	88.06
412.249	90.06
412.472	102.06
412.695	99.06
412.919	85.06
413.142	85.06
413.365	92.06
413.589	93.06
413.812	103.06
414.035	94.06
414.258	97.06
414.482	87.06
414.705	94.06
414.928	98.06
415.151	100.06
415.374	107.06
415.597	110.06
415.821	82.06
416.044	77.06
416.267	97.06
416.49	108.06
416.713	88.06
416.936	82.06
417.159	87.06
417.382	89.06
417.605	101.06
417.828	94.06
418.051	87.06
418.274	88.06
418.497	79.06
418.72	84.06
418.943	88.06
419.166	79.06
419.389	92.06
419.611	88.06
419.834	86.06
420.057	89.06
420.28	93.06
420.503	100.06
420.726	89.06
420.948	75.06
421.171	107.06
421.394	95.06
421.617	89.06
421.839	76.06
422.062	101.06
422.285	88.06
422.507	95.06
422.73	106.06
422.953	91.06
423.175	84.06
423.398	80.06
423.621	101.06
423.843	90.06
424.066	87.06
424.288	105.06
424.511	93.06
424.733	101.06
424.956	113.06
425.178	105.06
425.401	82.06
425.623	99.06
425.846	86.06
426.068	94.06
426.291	82.06
426.513	94.06
426.735	93.06
426.958	91.06
427.18	97.06
427.402	134.06
427.625	167.06
427.847	138.06
428.069	122.06
428.292	95.06
428.514	94.06
428.736	82.06
428.958	86.06
429.181	88.06
429.403	82.06
429.625	79.06
429.847	97.06
430.069	91.06
430.292	93.06
430.514	87.06
430.736	90.06
430.958	90.06
431.18	82.06
431.402	95.06
431.624	106.06
431.846	100.06
432.068	79.06
432.29	80.06
432.512	97.06
432.734	97.06
432.956	89.06
433.178	95.06
433.4	89.06
433.622	94.06
433.844	92.06
434.066	97.06
434.287	88.06
434.509	76.06
434.731	86.06
434.953	96.06
435.175	77.06
435.397	96.06
435.618	85.06
435.84	94.06
436.062	132.06
436.284	113.06
436.505	101.06
436.727	101.06
436.949	94.06
437.17	86.06
437.392	78.06
437.614	81.06
437.835	95.06
438.057	114.06
438.278	126.06
438.5	114.06
438.721	116.06
438.943	93.06
439.165	91.06
439.386	86.06
439.608	91.06
439.829	98.06
440.05	109.06
440.272	116.06
440.493	108.06
440.715	86.06
440.936	91.06
441.158	83.06
441.379	92.06
441.6	90.06
441.822	98.06
442.043	92.06
442.264	95.06
442.486	95.06
442.707	97.06
442.928	89.06
443.149	132.06
443.371	144.06
443.592	109.06
443.813	102.06
444.034	111.06
444.255	102.06
444.476	81.06
444.698	84.06
444.919	84.06
445.14	138.06
445.361	121.06
445.582	118.06
445.803	134.06
446.024	123.06
446.245	139.06
446.466	112.06
446.687	82.06
446.908	87.06
447.129	88.06
447.35	88.06
447.571	102.06
447.792	91.06
448.013	91.06
448.234	94.06
448.455	99.06
448.675	120.06
448.896	132.06
449.117	97.06
449.338	105.06
449.559	130.06
449.779	125.06
450	82.06
450.221	85.06
450.442	106.06
450.662	97.06
450.883	116.06
451.104	98.06
451.324	95.06
451.545	99.06
451.766	82.06
451.986	90.06
452.207	90.06
452.428	92.06
452.648	93.06
452.869	104.06
453.089	107.06
453.31	112.06
453.53	102.06
453.751	99.06
453.971	98.06
454.192	106.06
454.412	85.06
454.633	98.06
454.853	82.06
455.073	77.06
455.294	76.06
455.514	97.06
455.734	95.06
455.955	86.06
456.175	79.06
456.395	96.06
456.616	94.06
456.836	88.06
457.056	102.06
457.276	86.06
457.497	96.06
457.717	82.06
457.937	90.06
458.157	86.06
458.377	87.06
458.598	103.06
458.818	143.06
459.038	143.06
459.258	96.06
459.478	83.06
459.698	74.06
459.918	84.06
460.138	93.06
460.358	84.06
460.578	95.06
460.798	98.06
461.018	95.06
461.238	94.06
461.458	100.06
461.678	85.06
461.898	97.06
462.118	98.06
462.338	90.06
462.558	100.06
462.777	93.06
462.997	99.06
463.217	83.06
463.437	81.06
463.657	96.06
463.876	82.06
464.096	74.06
464.316	78.06
464.536	82.06
464.755	93.06
464.975	108.06
465.195	146.06
465.414	155.06
465.634	101.06
465.854	84.06
466.073	77.06
466.293	92.06
466.512	76.06
466.732	81.06
466.951	70.06
467.171	83.06
467.391	83.06
467.61	99.06
467.829	94.06
468.049	121.06
468.268	132.06
468.488	88.06
468.707	69.06
468.927	84.06
469.146	83.06
469.365	81.06
469.585	96.06
469.804	96.06
470.023	94.06
470.243	86.06
470.462	93.06
470.681	103.06
470.901	100.06
471.12	89.06
471.339	78.06
471.558	88.06
471.777	94.06
471.997	100.06
472.216	166.06
472.435	228.06
472.654	113.06
472.873	89.06
473.092	82.06
473.311	88.06
473.53	89.06
473.749	92.06
473.968	104.06
474.187	96.06
474.406	95.06
474.625	96.06
474.844	94.06
475.063	85.06
475.282	84.06
475.501	83.06
475.72	88.06
475.939	92.06
476.158	87.06
476.377	94.06
476.596	92.06
476.814	82.06
477.033	101.06
477.252	104.06
477.471	86.06
477.69	93.06
477.908	80.06
478.127	97.06
478.346	74.06
478.564	92.06
478.783	89.06
479.002	96.06
479.22	94.06
479.439	98.06
479.658	112.06
479.876	98.06
480.095	85.06
480.313	88.06
480.532	88.06
480.751	107.06
480.969	162.06
481.188	361.06
481.406	256.06
481.624	127.06
481.843	97.06
482.061	92.06
482.28	96.06
482.498	92.06
482.717	91.06
482.935	82.06
483.153	88.06
483.372	98.06
483.59	90.06
483.808	95.06
484.027	100.06
484.245	97.06
484.463	86.06
484.681	93.06
484.9	81.06
485.118	87.06
485.336	88.06
485.554	93.06
485.772	89.06
485.99	97.06
486.209	91.06
486.427	94.06
486.645	103.06
486.863	103.06
487.081	108.06
487.299	107.06
487.517	80.06
487.735	95.06
487.953	103.06
488.171	107.06
488.389	107.06
488.607	108.06
488.825	92.06
489.043	101.06
489.261	86.06
489.479	92.06
489.696	76.06
489.914	85.06
490.132	89.06
490.35	73.06
490.568	90.06
490.786	93.06
491.003	95.06
491.221	93.06
491.439	65.06
491.657	101.06
491.874	92.06
492.092	88.06
492.31	86.06
492.527	103.06
492.745	83.06
492.963	99.06
493.18	87.06
493.398	99.06
493.615	88.06
493.833	110.06
494.05	86.06
494.268	88.06
494.485	107.06
494.703	97.06
494.92	92.06
495.138	95.06
495.355	90.06
495.573	90.06
495.79	99.06
496.008	96.06
496.225	85.06
496.442	85.06
496.66	79.06
496.877	92.06
497.094	98.06
497.312	102.06
497.529	95.06
497.746	96.06
497.963	89.06
498.181	81.06
498.398	101.06
498.615	111.06
498.832	100.06
499.049	97.06
499.267	96.06
499.484	80.06
499.701	90.06
499.918	90.06
500.135	84.06
500.352	89.06
500.569	91.06
500.786	78.06
501.003	92.06
501.22	104.06
501.437	73.06
501.654	109.06
501.871	100.06
502.088	96.06
502.305	92.06
502.522	86.06
502.739	93.06
502.956	102.06
503.172	90.06
503.389	92.06
503.606	104.06
503.823	101.06
504.04	98.06
504.256	79.06
504.473	78.06
504.69	89.06
504.907	110.06
505.123	94.06
505.34	96.06
505.557	109.06
505.773	103.06
505.99	86.06
506.207	90.06
506.423	95.06
506.64	83.06
506.856	90.06
507.073	100.06
507.289	90.06
507.506	87.06
507.722	105.06
507.939	113.06
508.155	93.06
508.372	81.06
508.588	88.06
508.805	88.06
509.021	91.06
509.238	98.06
509.454	106.06
509.67	77.06
509.887	105.06
510.103	111.06
510.319	192.06
510.536	721.06
510.752	2226.06
510.968	636.06
511.184	153.06
511.401	122.06
511.617	98.06
511.833	107.06
512.049	101.06
512.265	92.06
512.481	92.06
512.698	88.06
512.914	87.06
513.13	104.06
513.346	95.06
513.562	89.06
513.778	85.06
513.994	93.06
514.21	96.06
514.426	101.06
514.642	133.06
514.858	114.06
515.074	169.06
515.29	407.06
