Data from Circ_2011_H10_HRD10591_00045.txt Node
Date: Wed Jan 03 10:08:08 EST 2024
User: Yrep
Spectrometer: HR+D1059
Trigger mode: 1
Integration Time (sec): 1.000000E-1
Scans to average: 1
Electric dark correction enabled: true
Nonlinearity correction enabled: false
Boxcar width: 0
XAxis mode: Wavelengths
Number of Pixels in Spectrum: 2048
>>>>>Begin Spectral Data<<<<<
223.165	-1.88
223.4	-1.88
223.635	-1.88
223.869	-21.88
224.104	-22.88
224.338	-17.88
224.573	-8.88
224.808	-7.88
225.042	-8.88
225.277	-7.88
225.511	-12.88
225.746	-2.88
225.98	0.12
226.215	16.12
226.449	8.12
226.683	20.12
226.918	22.12
227.152	47.12
227.387	40.12
227.621	44.12
227.856	35.12
228.09	27.12
228.324	30.12
228.559	57.12
228.793	54.12
229.027	65.12
229.262	67.12
229.496	63.12
229.73	72.12
229.964	81.12
230.199	68.12
230.433	72.12
230.667	59.12
230.901	74.12
231.136	92.12
231.37	83.12
231.604	71.12
231.838	92.12
232.072	89.12
232.306	81.12
232.541	82.12
232.775	71.12
233.009	86.12
233.243	75.12
233.477	78.12
233.711	80.12
233.945	76.12
234.179	76.12
234.413	61.12
234.647	76.12
234.881	70.12
235.115	67.12
235.349	85.12
235.583	91.12
235.817	72.12
236.051	77.12
236.285	78.12
236.519	81.12
236.753	66.12
236.987	87.12
237.221	84.12
237.455	75.12
237.689	76.12
237.922	89.12
238.156	72.12
238.39	78.12
238.624	58.12
238.858	76.12
239.091	75.12
239.325	74.12
239.559	81.12
239.793	87.12
240.027	62.12
240.26	68.12
240.494	68.12
240.728	83.12
240.961	73.12
241.195	81.12
241.429	78.12
241.662	71.12
241.896	63.12
242.13	73.12
242.363	80.12
242.597	87.12
242.83	78.12
243.064	71.12
243.298	77.12
243.531	64.12
243.765	77.12
243.998	80.12
244.232	71.12
244.465	85.12
244.699	84.12
244.932	77.12
245.166	76.12
245.399	70.12
245.633	88.12
245.866	77.12
246.099	70.12
246.333	82.12
246.566	68.12
246.8	68.12
247.033	83.12
247.266	79.12
247.5	78.12
247.733	80.12
247.966	76.12
248.2	77.12
248.433	82.12
248.666	84.12
248.899	91.12
249.133	84.12
249.366	94.12
249.599	94.12
249.832	80.12
250.066	78.12
250.299	74.12
250.532	74.12
250.765	73.12
250.998	81.12
251.231	79.12
251.465	69.12
251.698	78.12
251.931	78.12
252.164	73.12
252.397	63.12
252.63	80.12
252.863	65.12
253.096	78.12
253.329	76.12
253.562	82.12
253.795	95.12
254.028	78.12
254.261	74.12
254.494	75.12
254.727	88.12
254.96	90.12
255.193	75.12
255.426	79.12
255.659	79.12
255.892	79.12
256.124	81.12
256.357	96.12
256.59	75.12
256.823	91.12
257.056	84.12
257.289	86.12
257.521	79.12
257.754	87.12
257.987	76.12
258.22	93.12
258.452	84.12
258.685	73.12
258.918	95.12
259.151	67.12
259.383	81.12
259.616	72.12
259.849	91.12
260.081	95.12
260.314	70.12
260.547	72.12
260.779	95.12
261.012	85.12
261.244	79.12
261.477	96.12
261.71	95.12
261.942	110.12
262.175	111.12
262.407	80.12
262.64	89.12
262.872	90.12
263.105	93.12
263.337	83.12
263.57	91.12
263.802	80.12
264.035	80.12
264.267	78.12
264.499	78.12
264.732	90.12
264.964	90.12
265.197	90.12
265.429	81.12
265.661	84.12
265.894	84.12
266.126	93.12
266.358	109.12
266.591	88.12
266.823	81.12
267.055	101.12
267.287	82.12
267.52	79.12
267.752	85.12
267.984	83.12
268.216	86.12
268.448	78.12
268.681	78.12
268.913	86.12
269.145	108.12
269.377	77.12
269.609	77.12
269.841	88.12
270.073	78.12
270.306	75.12
270.538	83.12
270.77	73.12
271.002	76.12
271.234	84.12
271.466	84.12
271.698	64.12
271.93	91.12
272.162	83.12
272.394	83.12
272.626	85.12
272.858	80.12
273.09	88.12
273.322	98.12
273.553	81.12
273.785	65.12
274.017	75.12
274.249	95.12
274.481	89.12
274.713	80.12
274.945	86.12
275.176	88.12
275.408	82.12
275.64	92.12
275.872	94.12
276.104	89.12
276.335	82.12
276.567	84.12
276.799	118.12
277.031	102.12
277.262	100.12
277.494	90.12
277.726	81.12
277.957	87.12
278.189	69.12
278.421	93.12
278.652	96.12
278.884	83.12
279.115	88.12
279.347	87.12
279.579	93.12
279.81	83.12
280.042	84.12
280.273	108.12
280.505	100.12
280.736	80.12
280.968	87.12
281.199	100.12
281.431	83.12
281.662	99.12
281.894	101.12
282.125	89.12
282.356	117.12
282.588	123.12
282.819	101.12
283.051	71.12
283.282	80.12
283.513	88.12
283.745	93.12
283.976	92.12
284.207	82.12
284.439	87.12
284.67	94.12
284.901	95.12
285.132	87.12
285.364	85.12
285.595	93.12
285.826	79.12
286.057	87.12
286.288	80.12
286.52	93.12
286.751	87.12
286.982	93.12
287.213	87.12
287.444	90.12
287.675	92.12
287.906	84.12
288.138	80.12
288.369	85.12
288.6	94.12
288.831	76.12
289.062	90.12
289.293	88.12
289.524	81.12
289.755	84.12
289.986	87.12
290.217	94.12
290.448	79.12
290.679	69.12
290.91	94.12
291.141	97.12
291.371	92.12
291.602	96.12
291.833	88.12
292.064	82.12
292.295	77.12
292.526	99.12
292.757	94.12
292.987	83.12
293.218	81.12
293.449	86.12
293.68	86.12
293.91	84.12
294.141	82.12
294.372	84.12
294.603	94.12
294.833	90.12
295.064	92.12
295.295	94.12
295.525	95.12
295.756	90.12
295.987	110.12
296.217	137.12
296.448	113.12
296.679	110.12
296.909	83.12
297.14	88.12
297.37	89.12
297.601	83.12
297.831	91.12
298.062	85.12
298.292	80.12
298.523	88.12
298.753	75.12
298.984	98.12
299.214	80.12
299.445	104.12
299.675	90.12
299.905	102.12
300.136	103.12
300.366	88.12
300.597	87.12
300.827	109.12
301.057	96.12
301.288	91.12
301.518	90.12
301.748	71.12
301.979	105.12
302.209	100.12
302.439	100.12
302.669	93.12
302.9	85.12
303.13	83.12
303.36	101.12
303.59	108.12
303.82	111.12
304.051	86.12
304.281	92.12
304.511	95.12
304.741	82.12
304.971	95.12
305.201	97.12
305.431	98.12
305.661	99.12
305.891	74.12
306.121	79.12
306.352	91.12
306.582	99.12
306.812	98.12
307.042	97.12
307.272	104.12
307.502	107.12
307.731	90.12
307.961	103.12
308.191	104.12
308.421	82.12
308.651	91.12
308.881	103.12
309.111	83.12
309.341	83.12
309.571	92.12
309.8	92.12
310.03	93.12
310.26	99.12
310.49	95.12
310.72	105.12
310.949	107.12
311.179	95.12
311.409	81.12
311.639	90.12
311.868	105.12
312.098	102.12
312.328	107.12
312.557	94.12
312.787	96.12
313.017	90.12
313.246	93.12
313.476	96.12
313.706	97.12
313.935	93.12
314.165	99.12
314.394	99.12
314.624	97.12
314.853	90.12
315.083	93.12
315.312	84.12
315.542	94.12
315.771	89.12
316.001	99.12
316.23	89.12
316.46	92.12
316.689	78.12
316.919	96.12
317.148	88.12
317.377	105.12
317.607	109.12
317.836	96.12
318.065	85.12
318.295	81.12
318.524	103.12
318.753	108.12
318.983	99.12
319.212	104.12
319.441	109.12
319.67	120.12
319.9	90.12
320.129	97.12
320.358	104.12
320.587	93.12
320.816	103.12
321.046	101.12
321.275	89.12
321.504	93.12
321.733	93.12
321.962	96.12
322.191	100.12
322.42	103.12
322.649	98.12
322.878	112.12
323.108	118.12
323.337	125.12
323.566	139.12
323.795	160.12
324.024	205.12
324.253	407.12
324.482	865.12
324.71	1798.12
324.939	2370.12
325.168	863.12
325.397	248.12
325.626	157.12
325.855	132.12
326.084	120.12
326.313	156.12
326.542	166.12
326.77	243.12
326.999	501.12
327.228	1023.12
327.457	1799.12
327.686	1443.12
327.914	400.12
328.143	227.12
328.372	187.12
328.6	148.12
328.829	141.12
329.058	138.12
329.287	130.12
329.515	118.12
329.744	101.12
329.972	133.12
330.201	172.12
330.43	241.12
330.658	164.12
330.887	159.12
331.115	124.12
331.344	103.12
331.572	87.12
331.801	100.12
332.03	104.12
332.258	98.12
332.486	91.12
332.715	81.12
332.943	101.12
333.172	104.12
333.4	96.12
333.629	106.12
333.857	125.12
334.085	142.12
334.314	176.12
334.542	278.12
334.771	261.12
334.999	134.12
335.227	94.12
335.455	83.12
335.684	95.12
335.912	86.12
336.14	82.12
336.369	100.12
336.597	96.12
336.825	103.12
337.053	100.12
337.281	91.12
337.51	101.12
337.738	108.12
337.966	98.12
338.194	83.12
338.422	92.12
338.65	88.12
338.878	92.12
339.106	83.12
339.334	88.12
339.562	86.12
339.79	97.12
340.018	91.12
340.246	89.12
340.474	91.12
340.702	85.12
340.93	93.12
341.158	99.12
341.386	78.12
341.614	96.12
341.842	94.12
342.07	113.12
342.298	94.12
342.526	93.12
342.754	98.12
342.981	82.12
343.209	77.12
343.437	99.12
343.665	101.12
343.893	91.12
344.12	80.12
344.348	88.12
344.576	86.12
344.804	103.12
345.031	90.12
345.259	89.12
345.487	79.12
345.714	97.12
345.942	92.12
346.17	87.12
346.397	82.12
346.625	96.12
346.853	103.12
347.08	89.12
347.308	88.12
347.535	105.12
347.763	105.12
347.99	94.12
348.218	99.12
348.445	104.12
348.673	118.12
348.9	88.12
349.128	80.12
349.355	88.12
349.583	91.12
349.81	93.12
350.037	103.12
350.265	87.12
350.492	101.12
350.72	99.12
350.947	109.12
351.174	107.12
351.402	100.12
351.629	99.12
351.856	118.12
352.083	108.12
352.311	99.12
352.538	117.12
352.765	106.12
352.992	113.12
353.22	105.12
353.447	79.12
353.674	102.12
353.901	94.12
354.128	99.12
354.355	100.12
354.583	95.12
354.81	94.12
355.037	91.12
355.264	86.12
355.491	107.12
355.718	102.12
355.945	100.12
356.172	99.12
356.399	77.12
356.626	97.12
356.853	100.12
357.08	91.12
357.307	94.12
357.534	91.12
357.761	91.12
357.988	99.12
358.215	101.12
358.441	89.12
358.668	101.12
358.895	80.12
359.122	81.12
359.349	95.12
359.576	102.12
359.802	101.12
360.029	116.12
360.256	111.12
360.483	93.12
360.709	107.12
360.936	80.12
361.163	90.12
361.39	104.12
361.616	91.12
361.843	102.12
362.07	95.12
362.296	93.12
362.523	96.12
362.749	91.12
362.976	90.12
363.203	93.12
363.429	89.12
363.656	94.12
363.882	108.12
364.109	107.12
364.335	95.12
364.562	92.12
364.788	85.12
365.015	93.12
365.241	95.12
365.468	121.12
365.694	107.12
365.92	90.12
366.147	85.12
366.373	87.12
366.599	85.12
366.826	90.12
367.052	87.12
367.278	95.12
367.505	101.12
367.731	104.12
367.957	95.12
368.184	107.12
368.41	100.12
368.636	111.12
368.862	109.12
369.089	99.12
369.315	85.12
369.541	101.12
369.767	104.12
369.993	95.12
370.219	97.12
370.445	81.12
370.672	84.12
370.898	82.12
371.124	98.12
371.35	94.12
371.576	74.12
371.802	77.12
372.028	73.12
372.254	84.12
372.48	75.12
372.706	91.12
372.932	87.12
373.158	99.12
373.384	92.12
373.61	85.12
373.835	86.12
374.061	90.12
374.287	82.12
374.513	94.12
374.739	85.12
374.965	89.12
375.191	91.12
375.416	88.12
375.642	97.12
375.868	72.12
376.094	92.12
376.319	101.12
376.545	78.12
376.771	100.12
376.997	76.12
377.222	89.12
377.448	76.12
377.674	95.12
377.899	98.12
378.125	83.12
378.35	91.12
378.576	87.12
378.802	84.12
379.027	95.12
379.253	93.12
379.478	80.12
379.704	92.12
379.929	86.12
380.155	96.12
380.38	98.12
380.606	91.12
380.831	100.12
381.057	103.12
381.282	88.12
381.507	112.12
381.733	99.12
381.958	75.12
382.184	90.12
382.409	94.12
382.634	90.12
382.86	84.12
383.085	96.12
383.31	95.12
383.535	109.12
383.761	101.12
383.986	98.12
384.211	91.12
384.436	92.12
384.662	99.12
384.887	90.12
385.112	107.12
385.337	99.12
385.562	105.12
385.787	105.12
386.013	117.12
386.238	109.12
386.463	106.12
386.688	99.12
386.913	95.12
387.138	91.12
387.363	101.12
387.588	106.12
387.813	99.12
388.038	100.12
388.263	100.12
388.488	92.12
388.713	90.12
388.938	97.12
389.163	92.12
389.387	104.12
389.612	88.12
389.837	102.12
390.062	100.12
390.287	103.12
390.512	94.12
390.736	103.12
390.961	84.12
391.186	81.12
391.411	97.12
391.636	78.12
391.86	88.12
392.085	83.12
392.31	85.12
392.534	92.12
392.759	89.12
392.984	92.12
393.208	93.12
393.433	95.12
393.658	83.12
393.882	72.12
394.107	86.12
394.331	73.12
394.556	89.12
394.78	75.12
395.005	81.12
395.229	77.12
395.454	89.12
395.678	94.12
395.903	86.12
396.127	96.12
396.352	80.12
396.576	82.12
396.801	78.12
397.025	81.12
397.249	90.12
397.474	87.12
397.698	84.12
397.922	85.12
398.147	88.12
398.371	79.12
398.595	91.12
398.82	85.12
399.044	84.12
399.268	84.12
399.492	78.12
399.717	88.12
399.941	91.12
400.165	92.12
400.389	99.12
400.613	76.12
400.837	92.12
401.062	95.12
401.286	94.12
401.51	102.12
401.734	77.12
401.958	107.12
402.182	131.12
402.406	150.12
402.63	109.12
402.854	95.12
403.078	99.12
403.302	90.12
403.526	75.12
403.75	81.12
403.974	94.12
404.198	95.12
404.422	97.12
404.645	87.12
404.869	92.12
405.093	105.12
405.317	117.12
405.541	89.12
405.765	92.12
405.988	116.12
406.212	170.12
406.436	216.12
406.66	144.12
406.883	116.12
407.107	74.12
407.331	85.12
407.555	95.12
407.778	91.12
408.002	108.12
408.226	91.12
408.449	85.12
408.673	87.12
408.896	93.12
409.12	99.12
409.344	93.12
409.567	93.12
409.791	83.12
410.014	97.12
410.238	96.12
410.461	91.12
410.685	93.12
410.908	101.12
411.132	103.12
411.355	88.12
411.578	97.12
411.802	97.12
412.025	93.12
412.249	93.12
412.472	101.12
412.695	109.12
412.919	93.12
413.142	73.12
413.365	92.12
413.589	81.12
413.812	86.12
414.035	85.12
414.258	79.12
414.482	78.12
414.705	81.12
414.928	92.12
415.151	92.12
415.374	102.12
415.597	85.12
415.821	88.12
416.044	86.12
416.267	100.12
416.49	72.12
416.713	87.12
416.936	95.12
417.159	86.12
417.382	86.12
417.605	91.12
417.828	77.12
418.051	99.12
418.274	86.12
418.497	95.12
418.72	90.12
418.943	97.12
419.166	82.12
419.389	86.12
419.611	88.12
419.834	100.12
420.057	92.12
420.28	79.12
420.503	93.12
420.726	93.12
420.948	88.12
421.171	85.12
421.394	92.12
421.617	87.12
421.839	88.12
422.062	87.12
422.285	87.12
422.507	84.12
422.73	102.12
422.953	81.12
423.175	85.12
423.398	83.12
423.621	91.12
423.843	93.12
424.066	86.12
424.288	81.12
424.511	96.12
424.733	101.12
424.956	108.12
425.178	102.12
425.401	101.12
425.623	97.12
425.846	103.12
426.068	103.12
426.291	100.12
426.513	109.12
426.735	74.12
426.958	98.12
427.18	106.12
427.402	142.12
427.625	151.12
427.847	144.12
428.069	128.12
428.292	89.12
428.514	80.12
428.736	92.12
428.958	87.12
429.181	83.12
429.403	81.12
429.625	77.12
429.847	88.12
430.069	100.12
430.292	89.12
430.514	85.12
430.736	81.12
430.958	99.12
431.18	71.12
431.402	86.12
431.624	89.12
431.846	98.12
432.068	75.12
432.29	75.12
432.512	94.12
432.734	82.12
432.956	91.12
433.178	101.12
433.4	99.12
433.622	75.12
433.844	95.12
434.066	80.12
434.287	93.12
434.509	80.12
434.731	96.12
434.953	87.12
435.175	80.12
435.397	96.12
435.618	88.12
435.84	103.12
436.062	131.12
436.284	116.12
436.505	100.12
436.727	88.12
436.949	104.12
437.17	77.12
437.392	93.12
437.614	90.12
437.835	108.12
438.057	104.12
438.278	110.12
438.5	90.12
438.721	116.12
438.943	111.12
439.165	87.12
439.386	86.12
439.608	86.12
439.829	100.12
440.05	122.12
440.272	140.12
440.493	101.12
440.715	85.12
440.936	102.12
441.158	91.12
441.379	84.12
441.6	95.12
441.822	100.12
442.043	99.12
442.264	108.12
442.486	110.12
442.707	92.12
442.928	98.12
443.149	120.12
443.371	119.12
443.592	95.12
443.813	127.12
444.034	99.12
444.255	87.12
444.476	92.12
444.698	89.12
444.919	103.12
445.14	126.12
445.361	123.12
445.582	116.12
445.803	129.12
446.024	147.12
446.245	144.12
446.466	109.12
446.687	87.12
446.908	85.12
447.129	75.12
447.35	95.12
447.571	96.12
447.792	95.12
448.013	95.12
448.234	125.12
448.455	106.12
448.675	118.12
448.896	131.12
449.117	103.12
449.338	100.12
449.559	124.12
449.779	139.12
450	83.12
450.221	87.12
450.442	87.12
450.662	102.12
450.883	104.12
451.104	101.12
451.324	97.12
451.545	79.12
451.766	90.12
451.986	86.12
452.207	84.12
452.428	73.12
452.648	101.12
452.869	125.12
453.089	124.12
453.31	112.12
453.53	98.12
453.751	92.12
453.971	99.12
454.192	115.12
454.412	88.12
454.633	93.12
454.853	82.12
455.073	76.12
455.294	81.12
455.514	95.12
455.734	100.12
455.955	97.12
456.175	94.12
456.395	79.12
456.616	87.12
456.836	81.12
457.056	95.12
457.276	85.12
457.497	78.12
457.717	87.12
457.937	85.12
458.157	92.12
458.377	104.12
458.598	99.12
458.818	154.12
459.038	152.12
459.258	117.12
459.478	93.12
459.698	75.12
459.918	87.12
460.138	90.12
460.358	86.12
460.578	89.12
460.798	95.12
461.018	79.12
461.238	75.12
461.458	77.12
461.678	98.12
461.898	84.12
462.118	92.12
462.338	76.12
462.558	87.12
462.777	81.12
462.997	83.12
463.217	81.12
463.437	84.12
463.657	87.12
463.876	95.12
464.096	84.12
464.316	104.12
464.536	77.12
464.755	87.12
464.975	107.12
465.195	155.12
465.414	157.12
465.634	100.12
465.854	91.12
466.073	83.12
466.293	92.12
466.512	96.12
466.732	89.12
466.951	92.12
467.171	102.12
467.391	88.12
467.61	97.12
467.829	96.12
468.049	132.12
468.268	179.12
468.488	112.12
468.707	87.12
468.927	74.12
469.146	81.12
469.365	92.12
469.585	70.12
469.804	93.12
470.023	93.12
470.243	78.12
470.462	113.12
470.681	101.12
470.901	92.12
471.12	96.12
471.339	100.12
471.558	88.12
471.777	102.12
471.997	109.12
472.216	208.12
472.435	350.12
472.654	127.12
472.873	80.12
473.092	94.12
473.311	87.12
473.53	84.12
473.749	69.12
473.968	81.12
474.187	90.12
474.406	107.12
474.625	89.12
474.844	83.12
475.063	82.12
475.282	95.12
475.501	72.12
475.72	81.12
475.939	88.12
476.158	87.12
476.377	90.12
476.596	89.12
476.814	82.12
477.033	95.12
477.252	78.12
477.471	83.12
477.69	78.12
477.908	96.12
478.127	80.12
478.346	100.12
478.564	94.12
478.783	89.12
479.002	89.12
479.22	92.12
479.439	93.12
479.658	95.12
479.876	91.12
480.095	90.12
480.313	103.12
480.532	108.12
480.751	114.12
480.969	200.12
481.188	572.12
481.406	380.12
481.624	130.12
481.843	102.12
482.061	84.12
482.28	91.12
482.498	89.12
482.717	92.12
482.935	84.12
483.153	84.12
483.372	91.12
483.59	80.12
483.808	95.12
484.027	92.12
484.245	91.12
484.463	89.12
484.681	96.12
484.9	85.12
485.118	98.12
485.336	88.12
485.554	96.12
485.772	95.12
485.99	108.12
486.209	93.12
486.427	92.12
486.645	116.12
486.863	106.12
487.081	104.12
487.299	117.12
487.517	94.12
487.735	77.12
487.953	76.12
488.171	97.12
488.389	88.12
488.607	108.12
488.825	89.12
489.043	92.12
489.261	100.12
489.479	73.12
489.696	91.12
489.914	87.12
490.132	96.12
490.35	85.12
490.568	75.12
490.786	83.12
491.003	89.12
491.221	93.12
491.439	98.12
491.657	100.12
491.874	103.12
492.092	96.12
492.31	88.12
492.527	93.12
492.745	87.12
492.963	87.12
493.18	85.12
493.398	90.12
493.615	97.12
493.833	102.12
494.05	92.12
494.268	86.12
494.485	97.12
494.703	80.12
494.92	87.12
495.138	97.12
495.355	95.12
495.573	90.12
495.79	78.12
496.008	83.12
496.225	95.12
496.442	96.12
496.66	89.12
496.877	83.12
497.094	90.12
497.312	91.12
497.529	83.12
497.746	93.12
497.963	97.12
498.181	93.12
498.398	88.12
498.615	87.12
498.832	110.12
499.049	103.12
499.267	78.12
499.484	87.12
499.701	72.12
499.918	87.12
500.135	81.12
500.352	93.12
500.569	93.12
500.786	95.12
501.003	77.12
501.22	77.12
501.437	87.12
501.654	90.12
501.871	109.12
502.088	89.12
502.305	86.12
502.522	87.12
502.739	95.12
502.956	89.12
503.172	88.12
503.389	97.12
503.606	80.12
503.823	78.12
504.04	89.12
504.256	91.12
504.473	77.12
504.69	83.12
504.907	92.12
505.123	83.12
505.34	88.12
505.557	88.12
505.773	99.12
505.99	78.12
506.207	85.12
506.423	94.12
506.64	82.12
506.856	104.12
507.073	100.12
507.289	106.12
507.506	80.12
507.722	105.12
507.939	106.12
508.155	92.12
508.372	84.12
508.588	87.12
508.805	94.12
509.021	90.12
509.238	98.12
509.454	105.12
509.67	101.12
509.887	104.12
510.103	108.12
510.319	206.12
510.536	707.12
510.752	2291.12
510.968	643.12
511.184	141.12
511.401	104.12
511.617	91.12
511.833	98.12
512.049	89.12
512.265	97.12
512.481	84.12
512.698	93.12
512.914	88.12
513.13	89.12
513.346	99.12
513.562	92.12
513.778	80.12
513.994	106.12
514.21	108.12
514.426	111.12
514.642	131.12
514.858	110.12
515.074	167.12
515.29	447.12
515.506	1419.12
