Data from Circ_2011_H10_HRD10591_00027.txt Node
Date: Wed Jan 03 10:08:04 EST 2024
User: Yrep
Spectrometer: HR+D1059
Trigger mode: 1
Integration Time (sec): 1.000000E-1
Scans to average: 1
Electric dark correction enabled: true
Nonlinearity correction enabled: false
Boxcar width: 0
XAxis mode: Wavelengths
Number of Pixels in Spectrum: 2048
>>>>>Begin Spectral Data<<<<<
223.165	-24
223.4	-24
223.635	-24
223.869	-9
224.104	-17
224.338	-16
224.573	-20
224.808	-2
225.042	-8
225.277	0
225.511	-15
225.746	6
225.98	5
226.215	14
226.449	18
226.683	33
226.918	12
227.152	23
227.387	31
227.621	47
227.856	46
228.09	67
228.324	53
228.559	68
228.793	61
229.027	76
229.262	63
229.496	73
229.73	89
229.964	81
230.199	72
230.433	82
230.667	94
230.901	63
231.136	86
231.37	87
231.604	82
231.838	79
232.072	76
232.306	82
232.541	72
232.775	73
233.009	88
233.243	91
233.477	80
233.711	84
233.945	91
234.179	78
234.413	88
234.647	81
234.881	82
235.115	86
235.349	79
235.583	81
235.817	75
236.051	87
236.285	68
236.519	71
236.753	86
236.987	78
237.221	71
237.455	85
237.689	72
237.922	73
238.156	78
238.39	74
238.624	81
238.858	86
239.091	80
239.325	74
239.559	82
239.793	82
240.027	84
240.26	76
240.494	83
240.728	70
240.961	93
241.195	75
241.429	76
241.662	81
241.896	73
242.13	89
242.363	87
242.597	77
242.83	74
243.064	82
243.298	79
243.531	75
243.765	92
243.998	87
244.232	78
244.465	78
244.699	86
244.932	90
245.166	86
245.399	80
245.633	80
245.866	81
246.099	80
246.333	76
246.566	84
246.8	79
247.033	66
247.266	89
247.5	87
247.733	62
247.966	79
248.2	81
248.433	72
248.666	71
248.899	80
249.133	94
249.366	98
249.599	93
249.832	81
250.066	82
250.299	83
250.532	87
250.765	78
250.998	85
251.231	77
251.465	71
251.698	82
251.931	87
252.164	82
252.397	85
252.63	88
252.863	92
253.096	74
253.329	75
253.562	82
253.795	80
254.028	75
254.261	81
254.494	83
254.727	78
254.96	70
255.193	95
255.426	89
255.659	82
255.892	87
256.124	101
256.357	92
256.59	94
256.823	87
257.056	84
257.289	74
257.521	82
257.754	87
257.987	91
258.22	90
258.452	93
258.685	90
258.918	81
259.151	77
259.383	70
259.616	80
259.849	97
260.081	74
260.314	83
260.547	92
260.779	78
261.012	77
261.244	82
261.477	86
261.71	84
261.942	95
262.175	122
262.407	80
262.64	72
262.872	88
263.105	94
263.337	82
263.57	83
263.802	95
264.035	69
264.267	92
264.499	73
264.732	90
264.964	78
265.197	92
265.429	87
265.661	93
265.894	82
266.126	84
266.358	97
266.591	83
266.823	92
267.055	87
267.287	87
267.52	103
267.752	95
267.984	82
268.216	92
268.448	90
268.681	79
268.913	100
269.145	85
269.377	97
269.609	87
269.841	90
270.073	97
270.306	81
270.538	90
270.77	99
271.002	75
271.234	88
271.466	86
271.698	77
271.93	85
272.162	76
272.394	84
272.626	98
272.858	74
273.09	87
273.322	84
273.553	86
273.785	93
274.017	76
274.249	69
274.481	86
274.713	84
274.945	95
275.176	94
275.408	99
275.64	73
275.872	85
276.104	111
276.335	87
276.567	96
276.799	108
277.031	100
277.262	92
277.494	97
277.726	100
277.957	81
278.189	82
278.421	90
278.652	88
278.884	81
279.115	79
279.347	88
279.579	93
279.81	90
280.042	101
280.273	106
280.505	84
280.736	87
280.968	86
281.199	93
281.431	75
281.662	99
281.894	86
282.125	104
282.356	113
282.588	135
282.819	105
283.051	89
283.282	76
283.513	96
283.745	76
283.976	90
284.207	91
284.439	90
284.67	86
284.901	94
285.132	89
285.364	81
285.595	92
285.826	86
286.057	96
286.288	100
286.52	95
286.751	94
286.982	95
287.213	81
287.444	86
287.675	89
287.906	85
288.138	93
288.369	90
288.6	95
288.831	72
289.062	93
289.293	80
289.524	92
289.755	91
289.986	88
290.217	87
290.448	82
290.679	75
290.91	93
291.141	79
291.371	73
291.602	95
291.833	87
292.064	82
292.295	89
292.526	90
292.757	78
292.987	82
293.218	94
293.449	97
293.68	90
293.91	86
294.141	80
294.372	79
294.603	97
294.833	95
295.064	102
295.295	89
295.525	87
295.756	97
295.987	109
296.217	146
296.448	134
296.679	92
296.909	89
297.14	84
297.37	76
297.601	81
297.831	103
298.062	88
298.292	83
298.523	95
298.753	89
298.984	82
299.214	90
299.445	97
299.675	96
299.905	88
300.136	83
300.366	88
300.597	97
300.827	85
301.057	103
301.288	110
301.518	89
301.748	94
301.979	108
302.209	92
302.439	81
302.669	91
302.9	77
303.13	82
303.36	88
303.59	101
303.82	95
304.051	94
304.281	96
304.511	93
304.741	96
304.971	97
305.201	87
305.431	99
305.661	85
305.891	80
306.121	82
306.352	108
306.582	104
306.812	104
307.042	73
307.272	105
307.502	82
307.731	88
307.961	101
308.191	87
308.421	101
308.651	108
308.881	109
309.111	81
309.341	92
309.571	94
309.8	101
310.03	94
310.26	103
310.49	86
310.72	103
310.949	102
311.179	84
311.409	90
311.639	94
311.868	107
312.098	93
312.328	90
312.557	96
312.787	83
313.017	101
313.246	98
313.476	103
313.706	88
313.935	93
314.165	93
314.394	98
314.624	114
314.853	100
315.083	92
315.312	105
315.542	88
315.771	90
316.001	88
316.23	94
316.46	99
316.689	100
316.919	89
317.148	97
317.377	97
317.607	97
317.836	104
318.065	113
318.295	83
318.524	90
318.753	87
318.983	97
319.212	95
319.441	93
319.67	95
319.9	90
320.129	91
320.358	92
320.587	107
320.816	106
321.046	95
321.275	88
321.504	100
321.733	95
321.962	98
322.191	107
322.42	105
322.649	113
322.878	119
323.108	118
323.337	117
323.566	135
323.795	151
324.024	207
324.253	389
324.482	852
324.71	1760
324.939	2348
325.168	828
325.397	253
325.626	161
325.855	126
326.084	137
326.313	139
326.542	162
326.77	233
326.999	483
327.228	983
327.457	1785
327.686	1406
327.914	389
328.143	210
328.372	188
328.6	148
328.829	136
329.058	134
329.287	123
329.515	112
329.744	104
329.972	133
330.201	183
330.43	209
330.658	160
330.887	153
331.115	135
331.344	105
331.572	95
331.801	110
332.03	111
332.258	101
332.486	92
332.715	93
332.943	98
333.172	97
333.4	100
333.629	106
333.857	108
334.085	138
334.314	181
334.542	270
334.771	254
334.999	151
335.227	109
335.455	103
335.684	109
335.912	98
336.14	83
336.369	103
336.597	91
336.825	106
337.053	85
337.281	93
337.51	88
337.738	112
337.966	83
338.194	111
338.422	96
338.65	83
338.878	103
339.106	102
339.334	92
339.562	92
339.79	98
340.018	92
340.246	101
340.474	91
340.702	84
340.93	102
341.158	82
341.386	86
341.614	107
341.842	101
342.07	98
342.298	89
342.526	100
342.754	95
342.981	91
343.209	89
343.437	101
343.665	78
343.893	95
344.12	91
344.348	95
344.576	97
344.804	90
345.031	90
345.259	109
345.487	89
345.714	93
345.942	90
346.17	102
346.397	96
346.625	90
346.853	100
347.08	86
347.308	85
347.535	114
347.763	82
347.99	105
348.218	93
348.445	92
348.673	98
348.9	89
349.128	96
349.355	106
349.583	95
349.81	96
350.037	98
350.265	87
350.492	98
350.72	81
350.947	108
351.174	104
351.402	104
351.629	94
351.856	108
352.083	94
352.311	95
352.538	100
352.765	101
352.992	114
353.22	103
353.447	101
353.674	108
353.901	95
354.128	89
354.355	95
354.583	101
354.81	96
355.037	97
355.264	90
355.491	100
355.718	92
355.945	99
356.172	83
356.399	104
356.626	87
356.853	92
357.08	107
357.307	87
357.534	93
357.761	88
357.988	94
358.215	105
358.441	90
358.668	100
358.895	100
359.122	87
359.349	93
359.576	105
359.802	121
360.029	116
360.256	100
360.483	94
360.709	92
360.936	99
361.163	94
361.39	96
361.616	104
361.843	94
362.07	107
362.296	89
362.523	80
362.749	89
362.976	87
363.203	90
363.429	85
363.656	102
363.882	108
364.109	94
364.335	98
364.562	94
364.788	94
365.015	95
365.241	93
365.468	105
365.694	99
365.92	85
366.147	85
366.373	111
366.599	95
366.826	78
367.052	88
367.278	100
367.505	93
367.731	94
367.957	92
368.184	99
368.41	108
368.636	114
368.862	118
369.089	111
369.315	100
369.541	96
369.767	81
369.993	95
370.219	94
370.445	86
370.672	93
370.898	102
371.124	91
371.35	77
371.576	89
371.802	87
372.028	93
372.254	92
372.48	101
372.706	103
372.932	96
373.158	89
373.384	93
373.61	96
373.835	91
374.061	98
374.287	98
374.513	81
374.739	92
374.965	78
375.191	82
375.416	92
375.642	90
375.868	101
376.094	85
376.319	88
376.545	89
376.771	95
376.997	93
377.222	88
377.448	107
377.674	90
377.899	86
378.125	96
378.35	89
378.576	90
378.802	105
379.027	97
379.253	105
379.478	85
379.704	100
379.929	86
380.155	87
380.38	92
380.606	97
380.831	93
381.057	98
381.282	80
381.507	85
381.733	80
381.958	101
382.184	87
382.409	91
382.634	99
382.86	101
383.085	105
383.31	92
383.535	110
383.761	103
383.986	98
384.211	100
384.436	115
384.662	99
384.887	88
385.112	87
385.337	104
385.562	102
385.787	103
386.013	113
386.238	101
386.463	99
386.688	95
386.913	96
387.138	88
387.363	96
387.588	97
387.813	92
388.038	100
388.263	95
388.488	103
388.713	93
388.938	79
389.163	98
389.387	94
389.612	100
389.837	103
390.062	88
390.287	76
390.512	100
390.736	90
390.961	78
391.186	105
391.411	102
391.636	87
391.86	81
392.085	92
392.31	91
392.534	88
392.759	94
392.984	90
393.208	85
393.433	89
393.658	91
393.882	90
394.107	95
394.331	92
394.556	86
394.78	101
395.005	92
395.229	90
395.454	92
395.678	97
395.903	88
396.127	95
396.352	78
396.576	85
396.801	90
397.025	75
397.249	81
397.474	87
397.698	86
397.922	94
398.147	96
398.371	99
398.595	80
398.82	87
399.044	96
399.268	82
399.492	87
399.717	88
399.941	100
400.165	96
400.389	96
400.613	87
400.837	84
401.062	98
401.286	88
401.51	84
401.734	96
401.958	85
402.182	126
402.406	143
402.63	116
402.854	91
403.078	77
403.302	81
403.526	98
403.75	95
403.974	85
404.198	88
404.422	80
404.645	77
404.869	81
405.093	101
405.317	97
405.541	110
405.765	106
405.988	122
406.212	162
406.436	217
406.66	145
406.883	104
407.107	87
407.331	101
407.555	97
407.778	105
408.002	94
408.226	90
408.449	85
408.673	94
408.896	100
409.12	102
409.344	96
409.567	103
409.791	98
410.014	78
410.238	79
410.461	90
410.685	86
410.908	102
411.132	93
411.355	110
411.578	93
411.802	93
412.025	103
412.249	93
412.472	95
412.695	110
412.919	92
413.142	87
413.365	93
413.589	93
413.812	88
414.035	88
414.258	82
414.482	97
414.705	97
414.928	81
415.151	91
415.374	101
415.597	85
415.821	90
416.044	95
416.267	95
416.49	74
416.713	79
416.936	85
417.159	84
417.382	98
417.605	87
417.828	88
418.051	88
418.274	87
418.497	78
418.72	84
418.943	84
419.166	98
419.389	110
419.611	97
419.834	77
420.057	92
420.28	86
420.503	89
420.726	81
420.948	95
421.171	100
421.394	92
421.617	93
421.839	91
422.062	86
422.285	77
422.507	97
422.73	96
422.953	88
423.175	81
423.398	81
423.621	84
423.843	96
424.066	72
424.288	79
424.511	99
424.733	97
424.956	103
425.178	99
425.401	95
425.623	100
425.846	90
426.068	94
426.291	103
426.513	93
426.735	88
426.958	97
427.18	111
427.402	139
427.625	177
427.847	143
428.069	138
428.292	110
428.514	89
428.736	90
428.958	91
429.181	85
429.403	76
429.625	83
429.847	82
430.069	107
430.292	90
430.514	90
430.736	72
430.958	84
431.18	71
431.402	77
431.624	89
431.846	95
432.068	81
432.29	85
432.512	100
432.734	102
432.956	82
433.178	93
433.4	108
433.622	78
433.844	89
434.066	86
434.287	91
434.509	80
434.731	102
434.953	98
435.175	97
435.397	103
435.618	85
435.84	107
436.062	142
436.284	107
436.505	97
436.727	92
436.949	100
437.17	90
437.392	96
437.614	85
437.835	100
438.057	117
438.278	105
438.5	110
438.721	109
438.943	96
439.165	81
439.386	78
439.608	97
439.829	95
440.05	126
440.272	161
440.493	106
440.715	101
440.936	88
441.158	90
441.379	92
441.6	101
441.822	97
442.043	97
442.264	107
442.486	111
442.707	99
442.928	102
443.149	133
443.371	121
443.592	113
443.813	129
444.034	109
444.255	99
444.476	85
444.698	75
444.919	70
445.14	132
445.361	114
445.582	120
445.803	144
446.024	142
446.245	133
446.466	117
446.687	88
446.908	92
447.129	93
447.35	78
447.571	100
447.792	97
448.013	96
448.234	100
448.455	100
448.675	117
448.896	125
449.117	85
449.338	93
449.559	138
449.779	145
450	98
450.221	100
450.442	86
450.662	100
450.883	106
451.104	95
451.324	92
451.545	78
451.766	82
451.986	79
452.207	82
452.428	88
452.648	105
452.869	110
453.089	119
453.31	119
453.53	96
453.751	98
453.971	104
454.192	87
454.412	96
454.633	101
454.853	84
455.073	87
455.294	91
455.514	99
455.734	88
455.955	106
456.175	82
456.395	88
456.616	94
456.836	79
457.056	76
457.276	84
457.497	87
457.717	95
457.937	79
458.157	90
458.377	88
458.598	102
458.818	142
459.038	160
459.258	122
459.478	90
459.698	77
459.918	89
460.138	96
460.358	98
460.578	87
460.798	80
461.018	105
461.238	92
461.458	78
461.678	87
461.898	89
462.118	90
462.338	82
462.558	64
462.777	75
462.997	95
463.217	93
463.437	76
463.657	87
463.876	90
464.096	93
464.316	85
464.536	89
464.755	102
464.975	102
465.195	163
465.414	164
465.634	96
465.854	82
466.073	95
466.293	87
466.512	94
466.732	94
466.951	94
467.171	104
467.391	86
467.61	109
467.829	108
468.049	139
468.268	137
468.488	103
468.707	84
468.927	75
469.146	84
469.365	77
469.585	82
469.804	96
470.023	93
470.243	92
470.462	92
470.681	84
470.901	82
471.12	89
471.339	93
471.558	95
471.777	95
471.997	97
472.216	184
472.435	301
472.654	134
472.873	93
473.092	84
473.311	85
473.53	99
473.749	86
473.968	109
474.187	98
474.406	91
474.625	92
474.844	74
475.063	93
475.282	82
475.501	89
475.72	81
475.939	89
476.158	104
476.377	85
476.596	100
476.814	105
477.033	90
477.252	88
477.471	97
477.69	101
477.908	103
478.127	96
478.346	80
478.564	79
478.783	92
479.002	88
479.22	108
479.439	97
479.658	97
479.876	86
480.095	92
480.313	73
480.532	87
480.751	109
480.969	194
481.188	508
481.406	323
481.624	116
481.843	101
482.061	93
482.28	96
482.498	85
482.717	87
482.935	88
483.153	97
483.372	89
483.59	86
483.808	91
484.027	92
484.245	87
484.463	89
484.681	104
484.9	94
485.118	86
485.336	107
485.554	101
485.772	91
485.99	93
486.209	106
486.427	108
486.645	97
486.863	103
487.081	107
487.299	104
487.517	95
487.735	99
487.953	95
488.171	87
488.389	81
488.607	96
488.825	94
489.043	85
489.261	94
489.479	81
489.696	84
489.914	86
490.132	86
490.35	86
490.568	81
490.786	88
491.003	93
491.221	95
491.439	97
491.657	74
491.874	86
492.092	93
492.31	100
492.527	97
492.745	93
492.963	81
493.18	90
493.398	87
493.615	96
493.833	96
494.05	89
494.268	99
494.485	95
494.703	95
494.92	87
495.138	95
495.355	85
495.573	98
495.79	87
496.008	88
496.225	86
496.442	87
496.66	89
496.877	84
497.094	86
497.312	92
497.529	89
497.746	89
497.963	87
498.181	95
498.398	89
498.615	95
498.832	110
499.049	88
499.267	91
499.484	97
499.701	93
499.918	91
500.135	90
500.352	93
500.569	84
500.786	87
501.003	74
501.22	103
501.437	86
501.654	86
501.871	102
502.088	84
502.305	91
502.522	88
502.739	90
502.956	85
503.172	86
503.389	105
503.606	113
503.823	96
504.04	101
504.256	93
504.473	76
504.69	106
504.907	97
505.123	86
505.34	101
505.557	90
505.773	98
505.99	110
506.207	82
506.423	98
506.64	111
506.856	99
507.073	94
507.289	93
507.506	97
507.722	109
507.939	110
508.155	95
508.372	92
508.588	95
508.805	78
509.021	97
509.238	90
509.454	74
509.67	98
509.887	110
510.103	128
510.319	184
510.536	710
510.752	2214
510.968	640
511.184	159
511.401	105
511.617	106
511.833	100
512.049	80
512.265	92
512.481	94
512.698	100
512.914	89
513.13	97
513.346	99
513.562	90
513.778	88
513.994	101
514.21	95
514.426	123
514.642	134
514.858	129
515.074	155
515.29	439
515.506	1430
515.721	552
515.937	161
516.153	104
516.369	97
516.585	100
516.801	88
517.016	86
517.232	90
517.448	90
517.664	95
517.879	106
518.095	88
518.311	99
518.527	101
518.742	80
518.958	80
519.173	102
519.389	96
519.605	83
519.82	90
520.036	98
520.251	138
520.467	110
520.682	108
520.898	113
521.113	118
521.329	137
521.544	193
521.76	547
521.975	2312
522.19	1444
522.406	341
522.621	136
522.836	95
523.052	96
523.267	88
523.482	85
523.698	99
523.913	128
524.128	103
524.343	104
524.559	100
524.774	84
524.989	94
525.204	112
525.419	98
525.634	99
525.849	94
526.064	84
526.28	92
526.495	88
526.71	85
526.925	87
527.14	92
527.355	96
527.57	85
527.785	90
527.999	101
528.214	106
528.429	86
528.644	87
528.859	65
529.074	83
529.289	123
529.503	186
529.718	100
529.933	78
530.148	84
530.363	94
530.577	84
530.792	90
531.007	97
531.221	85
531.436	85
531.651	95
531.865	105
532.08	110
532.295	92
532.509	85
532.724	106
532.938	91
533.153	98
533.367	96
533.582	93
533.796	102
534.011	95
534.225	92
534.44	90
534.654	88
534.868	89
535.083	103
535.297	106
535.511	108
535.726	102
535.94	97
536.154	92
536.369	93
536.583	102
536.797	91
537.011	90
537.225	80
537.44	86
537.654	97
537.868	95
538.082	88
538.296	94
538.51	90
538.724	83
538.938	96
539.153	97
539.367	94
539.581	97
539.795	88
540.009	100
540.222	93
540.436	105
540.65	81
540.864	85
541.078	94
541.292	94
541.506	98
541.72	83
541.934	89
542.147	81
542.361	85
542.575	102
542.789	84
543.002	89
543.216	108
543.43	89
543.644	97
543.857	87
544.071	97
544.285	102
544.498	82
544.712	94
544.925	97
545.139	84
545.352	92
545.566	88
545.779	93
545.993	70
546.206	78
546.42	82
546.633	80
546.847	83
547.06	92
547.274	86
547.487	84
547.7	79
547.914	76
548.127	93
548.34	97
548.554	90
548.767	88
548.98	92
549.193	85
549.407	92
549.62	97
549.833	91
550.046	74
550.259	87
550.473	93
550.686	94
550.899	87
551.112	79
551.325	105
551.538	82
551.751	85
551.964	82
552.177	100
552.39	72
552.603	90
552.816	98
553.029	90
553.242	99
553.455	102
553.667	112
553.88	101
554.093	104
554.306	91
554.519	95
554.732	105
554.944	87
555.157	93
555.37	88
555.583	97
555.795	90
556.008	103
556.221	89
556.433	97
556.646	78
556.859	102
557.071	91
557.284	94
557.496	86
557.709	81
557.921	86
558.134	90
558.346	95
558.559	85
558.771	93
558.984	81
559.196	90
559.409	92
559.621	90
559.833	92
560.046	94
560.258	95
560.47	106
560.683	91
560.895	83
561.107	83
561.32	96
561.532	89
561.744	85
561.956	94
562.168	87
562.381	100
562.593	85
562.805	89
563.017	96
563.229	89
563.441	97
563.653	79
563.865	87
564.077	80
564.289	83
564.501	81
564.713	96
564.925	85
565.137	102
565.349	101
565.561	75
565.773	95
565.985	83
566.197	84
566.408	71
566.62	95
566.832	77
567.044	79
567.255	100
567.467	86
567.679	95
567.891	93
568.102	103
568.314	87
568.526	95
568.737	97
568.949	100
569.161	94
569.372	88
569.584	79
569.795	82
570.007	105
570.218	238
570.43	120
570.641	82
570.853	88
571.064	98
571.276	92
571.487	88
571.698	80
571.91	94
572.121	70
572.333	95
572.544	85
572.755	97
572.966	82
573.178	81
573.389	94
573.6	95
573.811	86
574.023	80
574.234	102
574.445	97
574.656	85
574.867	77
575.078	89
575.289	75
575.501	78
575.712	94
575.923	72
576.134	96
576.345	72
576.556	89
576.767	80
576.978	86
577.188	97
577.399	88
577.61	99
577.821	97
578.032	121
578.243	246
578.454	681
578.665	221
578.875	97
579.086	93
579.297	91
579.508	98
579.718	85
579.929	90
580.14	88
580.35	93
580.561	92
580.772	90
580.982	95
581.193	78
581.403	88
581.614	82
581.825	89
582.035	84
582.246	84
582.456	91
582.667	81
582.877	85
583.087	95
583.298	88
583.508	84
583.719	78
