Data from Circ_2011_H10_HRD10591_00070.txt Node
Date: Wed Jan 03 10:08:13 EST 2024
User: Yrep
Spectrometer: HR+D1059
Trigger mode: 1
Integration Time (sec): 1.000000E-1
Scans to average: 1
Electric dark correction enabled: true
Nonlinearity correction enabled: false
Boxcar width: 0
XAxis mode: Wavelengths
Number of Pixels in Spectrum: 2048
>>>>>Begin Spectral Data<<<<<
223.165	-18.44
223.4	-18.44
223.635	-18.44
223.869	-31.44
224.104	-18.44
224.338	-11.44
224.573	-5.44
224.808	-2.44
225.042	-10.44
225.277	-1.44
225.511	-5.44
225.746	5.56
225.98	12.56
226.215	13.56
226.449	23.56
226.683	9.56
226.918	25.56
227.152	14.56
227.387	35.56
227.621	35.56
227.856	47.56
228.09	51.56
228.324	44.56
228.559	37.56
228.793	41.56
229.027	54.56
229.262	52.56
229.496	70.56
229.73	79.56
229.964	78.56
230.199	77.56
230.433	82.56
230.667	74.56
230.901	71.56
231.136	80.56
231.37	73.56
231.604	87.56
231.838	78.56
232.072	91.56
232.306	70.56
232.541	78.56
232.775	75.56
233.009	81.56
233.243	65.56
233.477	79.56
233.711	81.56
233.945	71.56
234.179	77.56
234.413	79.56
234.647	77.56
234.881	84.56
235.115	83.56
235.349	81.56
235.583	71.56
235.817	74.56
236.051	70.56
236.285	84.56
236.519	66.56
236.753	71.56
236.987	78.56
237.221	87.56
237.455	85.56
237.689	97.56
237.922	90.56
238.156	62.56
238.39	70.56
238.624	75.56
238.858	85.56
239.091	84.56
239.325	85.56
239.559	84.56
239.793	89.56
240.027	78.56
240.26	82.56
240.494	78.56
240.728	77.56
240.961	65.56
241.195	76.56
241.429	76.56
241.662	68.56
241.896	79.56
242.13	70.56
242.363	79.56
242.597	63.56
242.83	72.56
243.064	80.56
243.298	73.56
243.531	74.56
243.765	78.56
243.998	74.56
244.232	91.56
244.465	87.56
244.699	86.56
244.932	73.56
245.166	73.56
245.399	73.56
245.633	70.56
245.866	75.56
246.099	61.56
246.333	78.56
246.566	67.56
246.8	67.56
247.033	82.56
247.266	84.56
247.5	84.56
247.733	79.56
247.966	78.56
248.2	70.56
248.433	79.56
248.666	81.56
248.899	87.56
249.133	81.56
249.366	99.56
249.599	99.56
249.832	71.56
250.066	78.56
250.299	84.56
250.532	70.56
250.765	76.56
250.998	69.56
251.231	74.56
251.465	72.56
251.698	77.56
251.931	75.56
252.164	75.56
252.397	65.56
252.63	63.56
252.863	83.56
253.096	79.56
253.329	88.56
253.562	68.56
253.795	91.56
254.028	84.56
254.261	86.56
254.494	84.56
254.727	77.56
254.96	81.56
255.193	92.56
255.426	76.56
255.659	84.56
255.892	81.56
256.124	75.56
256.357	76.56
256.59	78.56
256.823	70.56
257.056	88.56
257.289	81.56
257.521	66.56
257.754	61.56
257.987	77.56
258.22	77.56
258.452	85.56
258.685	72.56
258.918	86.56
259.151	73.56
259.383	79.56
259.616	63.56
259.849	93.56
260.081	78.56
260.314	84.56
260.547	68.56
260.779	77.56
261.012	85.56
261.244	87.56
261.477	85.56
261.71	89.56
261.942	109.56
262.175	106.56
262.407	77.56
262.64	77.56
262.872	67.56
263.105	91.56
263.337	82.56
263.57	75.56
263.802	91.56
264.035	83.56
264.267	78.56
264.499	85.56
264.732	85.56
264.964	82.56
265.197	78.56
265.429	57.56
265.661	77.56
265.894	73.56
266.126	84.56
266.358	81.56
266.591	90.56
266.823	71.56
267.055	82.56
267.287	84.56
267.52	84.56
267.752	75.56
267.984	87.56
268.216	74.56
268.448	75.56
268.681	84.56
268.913	75.56
269.145	81.56
269.377	89.56
269.609	61.56
269.841	67.56
270.073	85.56
270.306	92.56
270.538	82.56
270.77	81.56
271.002	77.56
271.234	82.56
271.466	69.56
271.698	89.56
271.93	99.56
272.162	87.56
272.394	81.56
272.626	78.56
272.858	88.56
273.09	73.56
273.322	82.56
273.553	82.56
273.785	77.56
274.017	73.56
274.249	77.56
274.481	93.56
274.713	80.56
274.945	74.56
275.176	85.56
275.408	85.56
275.64	78.56
275.872	77.56
276.104	94.56
276.335	94.56
276.567	102.56
276.799	109.56
277.031	102.56
277.262	93.56
277.494	90.56
277.726	78.56
277.957	85.56
278.189	83.56
278.421	75.56
278.652	84.56
278.884	90.56
279.115	79.56
279.347	84.56
279.579	94.56
279.81	87.56
280.042	93.56
280.273	107.56
280.505	97.56
280.736	96.56
280.968	83.56
281.199	70.56
281.431	76.56
281.662	90.56
281.894	97.56
282.125	96.56
282.356	114.56
282.588	132.56
282.819	129.56
283.051	85.56
283.282	81.56
283.513	95.56
283.745	76.56
283.976	64.56
284.207	78.56
284.439	75.56
284.67	97.56
284.901	74.56
285.132	90.56
285.364	88.56
285.595	83.56
285.826	78.56
286.057	92.56
286.288	77.56
286.52	78.56
286.751	71.56
286.982	85.56
287.213	92.56
287.444	91.56
287.675	90.56
287.906	90.56
288.138	91.56
288.369	86.56
288.6	84.56
288.831	98.56
289.062	94.56
289.293	76.56
289.524	89.56
289.755	80.56
289.986	87.56
290.217	90.56
290.448	81.56
290.679	81.56
290.91	75.56
291.141	81.56
291.371	87.56
291.602	69.56
291.833	96.56
292.064	99.56
292.295	93.56
292.526	76.56
292.757	86.56
292.987	93.56
293.218	83.56
293.449	81.56
293.68	92.56
293.91	96.56
294.141	86.56
294.372	86.56
294.603	79.56
294.833	95.56
295.064	79.56
295.295	74.56
295.525	83.56
295.756	85.56
295.987	115.56
296.217	136.56
296.448	123.56
296.679	88.56
296.909	83.56
297.14	75.56
297.37	82.56
297.601	80.56
297.831	79.56
298.062	92.56
298.292	78.56
298.523	80.56
298.753	76.56
298.984	85.56
299.214	95.56
299.445	92.56
299.675	90.56
299.905	88.56
300.136	80.56
300.366	90.56
300.597	78.56
300.827	100.56
301.057	109.56
301.288	95.56
301.518	99.56
301.748	92.56
301.979	109.56
302.209	76.56
302.439	71.56
302.669	83.56
302.9	95.56
303.13	86.56
303.36	93.56
303.59	106.56
303.82	110.56
304.051	97.56
304.281	96.56
304.511	101.56
304.741	87.56
304.971	109.56
305.201	75.56
305.431	101.56
305.661	103.56
305.891	94.56
306.121	92.56
306.352	101.56
306.582	83.56
306.812	89.56
307.042	98.56
307.272	100.56
307.502	89.56
307.731	85.56
307.961	97.56
308.191	90.56
308.421	82.56
308.651	81.56
308.881	86.56
309.111	101.56
309.341	94.56
309.571	107.56
309.8	95.56
310.03	119.56
310.26	97.56
310.49	93.56
310.72	98.56
310.949	108.56
311.179	109.56
311.409	109.56
311.639	88.56
311.868	91.56
312.098	82.56
312.328	91.56
312.557	102.56
312.787	108.56
313.017	100.56
313.246	101.56
313.476	80.56
313.706	99.56
313.935	99.56
314.165	104.56
314.394	107.56
314.624	104.56
314.853	93.56
315.083	77.56
315.312	103.56
315.542	80.56
315.771	108.56
316.001	90.56
316.23	95.56
316.46	89.56
316.689	100.56
316.919	85.56
317.148	85.56
317.377	89.56
317.607	93.56
317.836	79.56
318.065	88.56
318.295	83.56
318.524	85.56
318.753	93.56
318.983	94.56
319.212	98.56
319.441	92.56
319.67	106.56
319.9	97.56
320.129	98.56
320.358	79.56
320.587	99.56
320.816	103.56
321.046	115.56
321.275	90.56
321.504	100.56
321.733	103.56
321.962	92.56
322.191	103.56
322.42	83.56
322.649	119.56
322.878	108.56
323.108	104.56
323.337	136.56
323.566	145.56
323.795	161.56
324.024	235.56
324.253	436.56
324.482	940.56
324.71	1945.56
324.939	2640.56
325.168	920.56
325.397	261.56
325.626	157.56
325.855	139.56
326.084	140.56
326.313	117.56
326.542	158.56
326.77	247.56
326.999	490.56
327.228	1093.56
327.457	1979.56
327.686	1632.56
327.914	428.56
328.143	241.56
328.372	222.56
328.6	159.56
328.829	131.56
329.058	130.56
329.287	152.56
329.515	114.56
329.744	135.56
329.972	155.56
330.201	257.56
330.43	315.56
330.658	222.56
330.887	189.56
331.115	139.56
331.344	113.56
331.572	102.56
331.801	105.56
332.03	114.56
332.258	99.56
332.486	101.56
332.715	101.56
332.943	90.56
333.172	94.56
333.4	91.56
333.629	109.56
333.857	130.56
334.085	166.56
334.314	252.56
334.542	401.56
334.771	356.56
334.999	162.56
335.227	108.56
335.455	99.56
335.684	104.56
335.912	90.56
336.14	85.56
336.369	103.56
336.597	105.56
336.825	98.56
337.053	89.56
337.281	95.56
337.51	71.56
337.738	88.56
337.966	99.56
338.194	94.56
338.422	93.56
338.65	100.56
338.878	90.56
339.106	99.56
339.334	101.56
339.562	75.56
339.79	93.56
340.018	97.56
340.246	89.56
340.474	85.56
340.702	92.56
340.93	107.56
341.158	90.56
341.386	95.56
341.614	93.56
341.842	74.56
342.07	97.56
342.298	87.56
342.526	76.56
342.754	102.56
342.981	100.56
343.209	89.56
343.437	98.56
343.665	90.56
343.893	91.56
344.12	96.56
344.348	74.56
344.576	85.56
344.804	90.56
345.031	104.56
345.259	106.56
345.487	110.56
345.714	94.56
345.942	90.56
346.17	98.56
346.397	86.56
346.625	100.56
346.853	98.56
347.08	95.56
347.308	95.56
347.535	94.56
347.763	100.56
347.99	103.56
348.218	98.56
348.445	111.56
348.673	94.56
348.9	88.56
349.128	97.56
349.355	85.56
349.583	92.56
349.81	95.56
350.037	82.56
350.265	94.56
350.492	72.56
350.72	87.56
350.947	92.56
351.174	104.56
351.402	115.56
351.629	101.56
351.856	93.56
352.083	109.56
352.311	103.56
352.538	113.56
352.765	121.56
352.992	119.56
353.22	115.56
353.447	105.56
353.674	108.56
353.901	93.56
354.128	87.56
354.355	99.56
354.583	102.56
354.81	86.56
355.037	100.56
355.264	91.56
355.491	100.56
355.718	92.56
355.945	99.56
356.172	91.56
356.399	91.56
356.626	91.56
356.853	89.56
357.08	80.56
357.307	83.56
357.534	87.56
357.761	90.56
357.988	89.56
358.215	81.56
358.441	88.56
358.668	84.56
358.895	87.56
359.122	87.56
359.349	100.56
359.576	95.56
359.802	94.56
360.029	114.56
360.256	108.56
360.483	102.56
360.709	92.56
360.936	99.56
361.163	96.56
361.39	85.56
361.616	111.56
361.843	90.56
362.07	91.56
362.296	111.56
362.523	87.56
362.749	82.56
362.976	99.56
363.203	100.56
363.429	87.56
363.656	100.56
363.882	96.56
364.109	73.56
364.335	105.56
364.562	102.56
364.788	80.56
365.015	83.56
365.241	91.56
365.468	92.56
365.694	107.56
365.92	104.56
366.147	82.56
366.373	91.56
366.599	92.56
366.826	86.56
367.052	99.56
367.278	100.56
367.505	82.56
367.731	81.56
367.957	117.56
368.184	109.56
368.41	93.56
368.636	107.56
368.862	109.56
369.089	98.56
369.315	102.56
369.541	90.56
369.767	99.56
369.993	89.56
370.219	88.56
370.445	81.56
370.672	88.56
370.898	75.56
371.124	91.56
371.35	85.56
371.576	88.56
371.802	100.56
372.028	83.56
372.254	84.56
372.48	89.56
372.706	84.56
372.932	78.56
373.158	86.56
373.384	86.56
373.61	98.56
373.835	84.56
374.061	97.56
374.287	90.56
374.513	99.56
374.739	85.56
374.965	79.56
375.191	82.56
375.416	81.56
375.642	92.56
375.868	71.56
376.094	85.56
376.319	78.56
376.545	85.56
376.771	85.56
376.997	85.56
377.222	80.56
377.448	88.56
377.674	84.56
377.899	89.56
378.125	81.56
378.35	97.56
378.576	98.56
378.802	84.56
379.027	92.56
379.253	81.56
379.478	84.56
379.704	88.56
379.929	91.56
380.155	96.56
380.38	97.56
380.606	82.56
380.831	91.56
381.057	87.56
381.282	86.56
381.507	97.56
381.733	93.56
381.958	111.56
382.184	89.56
382.409	98.56
382.634	88.56
382.86	96.56
383.085	99.56
383.31	105.56
383.535	102.56
383.761	108.56
383.986	89.56
384.211	96.56
384.436	107.56
384.662	89.56
384.887	95.56
385.112	91.56
385.337	87.56
385.562	111.56
385.787	107.56
386.013	105.56
386.238	104.56
386.463	94.56
386.688	108.56
386.913	89.56
387.138	93.56
387.363	88.56
387.588	104.56
387.813	97.56
388.038	95.56
388.263	101.56
388.488	96.56
388.713	86.56
388.938	94.56
389.163	82.56
389.387	95.56
389.612	96.56
389.837	93.56
390.062	81.56
390.287	84.56
390.512	102.56
390.736	82.56
390.961	73.56
391.186	78.56
391.411	87.56
391.636	92.56
391.86	98.56
392.085	94.56
392.31	78.56
392.534	89.56
392.759	74.56
392.984	77.56
393.208	78.56
393.433	87.56
393.658	86.56
393.882	88.56
394.107	76.56
394.331	83.56
394.556	73.56
394.78	77.56
395.005	83.56
395.229	84.56
395.454	88.56
395.678	87.56
395.903	76.56
396.127	99.56
396.352	75.56
396.576	86.56
396.801	88.56
397.025	78.56
397.249	79.56
397.474	78.56
397.698	82.56
397.922	105.56
398.147	84.56
398.371	79.56
398.595	85.56
398.82	97.56
399.044	85.56
399.268	77.56
399.492	80.56
399.717	91.56
399.941	79.56
400.165	86.56
400.389	78.56
400.613	86.56
400.837	77.56
401.062	93.56
401.286	86.56
401.51	85.56
401.734	94.56
401.958	100.56
402.182	115.56
402.406	154.56
402.63	123.56
402.854	99.56
403.078	89.56
403.302	77.56
403.526	94.56
403.75	82.56
403.974	89.56
404.198	67.56
404.422	75.56
404.645	85.56
404.869	93.56
405.093	92.56
405.317	106.56
405.541	104.56
405.765	103.56
405.988	110.56
406.212	163.56
406.436	222.56
406.66	163.56
406.883	101.56
407.107	83.56
407.331	98.56
407.555	93.56
407.778	97.56
408.002	79.56
408.226	95.56
408.449	88.56
408.673	85.56
408.896	97.56
409.12	93.56
409.344	94.56
409.567	94.56
409.791	88.56
410.014	82.56
410.238	87.56
410.461	94.56
410.685	92.56
410.908	102.56
411.132	114.56
411.355	108.56
411.578	87.56
411.802	86.56
412.025	80.56
412.249	104.56
412.472	100.56
412.695	110.56
412.919	85.56
413.142	88.56
413.365	85.56
413.589	84.56
413.812	82.56
414.035	92.56
414.258	94.56
414.482	97.56
414.705	92.56
414.928	92.56
415.151	88.56
415.374	81.56
415.597	85.56
415.821	81.56
416.044	87.56
416.267	88.56
416.49	82.56
416.713	93.56
416.936	86.56
417.159	79.56
417.382	78.56
417.605	73.56
417.828	98.56
418.051	81.56
418.274	89.56
418.497	80.56
418.72	76.56
418.943	71.56
419.166	86.56
419.389	89.56
419.611	92.56
419.834	93.56
420.057	77.56
420.28	90.56
420.503	89.56
420.726	85.56
420.948	82.56
421.171	99.56
421.394	84.56
421.617	84.56
421.839	78.56
422.062	86.56
422.285	88.56
422.507	94.56
422.73	110.56
422.953	100.56
423.175	91.56
423.398	86.56
423.621	75.56
423.843	82.56
424.066	83.56
424.288	85.56
424.511	89.56
424.733	105.56
424.956	91.56
425.178	103.56
425.401	105.56
425.623	102.56
425.846	87.56
426.068	105.56
426.291	79.56
426.513	97.56
426.735	94.56
426.958	109.56
427.18	108.56
427.402	142.56
427.625	188.56
427.847	156.56
428.069	170.56
428.292	98.56
428.514	89.56
428.736	83.56
428.958	84.56
429.181	89.56
429.403	89.56
429.625	91.56
429.847	98.56
430.069	95.56
430.292	98.56
430.514	99.56
430.736	85.56
430.958	71.56
431.18	86.56
431.402	76.56
431.624	88.56
431.846	77.56
432.068	77.56
432.29	95.56
432.512	99.56
432.734	90.56
432.956	88.56
433.178	106.56
433.4	93.56
433.622	93.56
433.844	88.56
434.066	80.56
434.287	96.56
434.509	87.56
434.731	82.56
434.953	86.56
435.175	83.56
435.397	98.56
435.618	90.56
435.84	115.56
436.062	134.56
436.284	121.56
436.505	113.56
436.727	113.56
436.949	88.56
437.17	77.56
437.392	72.56
437.614	104.56
437.835	119.56
438.057	131.56
438.278	110.56
438.5	100.56
438.721	120.56
438.943	104.56
439.165	80.56
439.386	87.56
439.608	82.56
439.829	92.56
440.05	136.56
440.272	165.56
440.493	101.56
440.715	84.56
440.936	92.56
441.158	93.56
441.379	98.56
441.6	83.56
441.822	95.56
442.043	93.56
442.264	103.56
442.486	101.56
442.707	93.56
442.928	86.56
443.149	143.56
443.371	158.56
443.592	107.56
443.813	115.56
444.034	119.56
444.255	91.56
444.476	84.56
444.698	76.56
444.919	86.56
445.14	137.56
445.361	123.56
445.582	131.56
445.803	158.56
446.024	155.56
446.245	149.56
446.466	121.56
446.687	92.56
446.908	76.56
447.129	95.56
447.35	88.56
447.571	86.56
447.792	91.56
448.013	90.56
448.234	98.56
448.455	93.56
448.675	119.56
448.896	130.56
449.117	95.56
449.338	105.56
449.559	151.56
449.779	163.56
450	85.56
450.221	86.56
450.442	83.56
450.662	101.56
450.883	105.56
451.104	109.56
451.324	94.56
451.545	92.56
451.766	82.56
451.986	69.56
452.207	78.56
452.428	92.56
452.648	92.56
452.869	107.56
453.089	122.56
453.31	117.56
453.53	86.56
453.751	87.56
453.971	101.56
454.192	107.56
454.412	89.56
454.633	90.56
454.853	92.56
455.073	78.56
455.294	88.56
455.514	110.56
455.734	80.56
455.955	82.56
456.175	85.56
456.395	76.56
456.616	83.56
456.836	93.56
457.056	89.56
457.276	83.56
457.497	75.56
457.717	79.56
457.937	83.56
458.157	77.56
458.377	81.56
458.598	104.56
458.818	156.56
459.038	175.56
459.258	115.56
459.478	79.56
459.698	89.56
459.918	68.56
460.138	78.56
460.358	83.56
460.578	80.56
460.798	88.56
461.018	93.56
461.238	94.56
461.458	63.56
461.678	71.56
461.898	73.56
462.118	76.56
462.338	93.56
462.558	88.56
462.777	79.56
462.997	94.56
463.217	88.56
463.437	79.56
463.657	80.56
463.876	90.56
464.096	88.56
464.316	91.56
464.536	106.56
464.755	83.56
464.975	103.56
465.195	154.56
465.414	173.56
465.634	91.56
465.854	90.56
466.073	72.56
466.293	95.56
466.512	98.56
466.732	102.56
466.951	85.56
467.171	81.56
467.391	82.56
467.61	110.56
467.829	113.56
468.049	177.56
468.268	199.56
468.488	119.56
468.707	86.56
468.927	82.56
469.146	84.56
469.365	86.56
469.585	95.56
469.804	85.56
470.023	104.56
470.243	86.56
470.462	104.56
470.681	113.56
470.901	78.56
471.12	90.56
471.339	83.56
471.558	91.56
471.777	79.56
471.997	129.56
472.216	262.56
472.435	483.56
472.654	174.56
472.873	90.56
473.092	85.56
473.311	75.56
473.53	84.56
473.749	87.56
473.968	108.56
474.187	113.56
474.406	95.56
474.625	87.56
474.844	86.56
475.063	96.56
475.282	95.56
475.501	96.56
475.72	81.56
475.939	82.56
476.158	85.56
476.377	81.56
476.596	84.56
476.814	78.56
477.033	93.56
477.252	97.56
477.471	90.56
477.69	94.56
477.908	99.56
478.127	94.56
478.346	87.56
478.564	94.56
478.783	82.56
479.002	90.56
479.22	102.56
479.439	107.56
479.658	113.56
479.876	99.56
480.095	94.56
480.313	65.56
480.532	103.56
480.751	112.56
480.969	258.56
481.188	823.56
481.406	553.56
481.624	135.56
481.843	86.56
482.061	105.56
482.28	78.56
482.498	82.56
482.717	78.56
482.935	83.56
483.153	89.56
483.372	79.56
483.59	83.56
483.808	93.56
484.027	85.56
484.245	87.56
484.463	94.56
484.681	93.56
484.9	87.56
485.118	93.56
485.336	86.56
485.554	88.56
485.772	92.56
485.99	91.56
486.209	88.56
486.427	101.56
486.645	108.56
486.863	100.56
487.081	91.56
487.299	101.56
487.517	85.56
487.735	92.56
487.953	89.56
488.171	101.56
488.389	91.56
488.607	105.56
488.825	85.56
489.043	89.56
489.261	87.56
489.479	80.56
489.696	73.56
489.914	69.56
490.132	95.56
490.35	86.56
490.568	85.56
490.786	83.56
491.003	83.56
491.221	96.56
491.439	96.56
491.657	96.56
491.874	86.56
492.092	78.56
492.31	86.56
492.527	88.56
492.745	88.56
492.963	90.56
493.18	93.56
493.398	91.56
493.615	91.56
493.833	90.56
494.05	85.56
494.268	95.56
494.485	98.56
494.703	94.56
494.92	84.56
495.138	79.56
495.355	82.56
495.573	80.56
495.79	78.56
496.008	81.56
496.225	97.56
496.442	73.56
496.66	86.56
496.877	85.56
497.094	74.56
497.312	92.56
497.529	85.56
497.746	74.56
497.963	83.56
498.181	91.56
498.398	90.56
498.615	102.56
498.832	100.56
499.049	79.56
499.267	95.56
499.484	85.56
499.701	83.56
499.918	101.56
500.135	87.56
500.352	87.56
500.569	87.56
500.786	86.56
501.003	82.56
501.22	92.56
501.437	90.56
501.654	94.56
501.871	110.56
502.088	95.56
502.305	85.56
502.522	91.56
502.739	84.56
502.956	94.56
503.172	93.56
503.389	82.56
503.606	106.56
503.823	93.56
504.04	78.56
504.256	77.56
504.473	82.56
504.69	84.56
504.907	78.56
505.123	91.56
505.34	93.56
505.557	90.56
505.773	70.56
505.99	90.56
506.207	79.56
506.423	99.56
506.64	86.56
506.856	79.56
507.073	77.56
507.289	94.56
507.506	93.56
507.722	98.56
507.939	112.56
508.155	101.56
508.372	83.56
508.588	87.56
508.805	97.56
509.021	101.56
509.238	86.56
509.454	102.56
509.67	85.56
509.887	93.56
510.103	123.56
510.319	199.56
510.536	677.56
510.752	2280.56
510.968	663.56
511.184	157.56
511.401	121.56
511.617	97.56
511.833	99.56
512.049	91.56
512.265	78.56
512.481	85.56
512.698	83.56
512.914	84.56
513.13	89.56
513.346	93.56
513.562	102.56
513.778	96.56
513.994	105.56
514.21	102.56
514.426	112.56
514.642	149.56
514.858	136.56
515.074	165.56
515.29	455.56
515.506	1612.56
515.721	590.56
