Data from Circ_2011_H10_HRD10591_00050.txt Node
Date: Wed Jan 03 10:08:08 EST 2024
User: Yrep
Spectrometer: HR+D1059
Trigger mode: 1
Integration Time (sec): 1.000000E-1
Scans to average: 1
Electric dark correction enabled: true
Nonlinearity correction enabled: false
Boxcar width: 0
XAxis mode: Wavelengths
Number of Pixels in Spectrum: 2048
>>>>>Begin Spectral Data<<<<<
223.165	-3.94
223.4	-3.94
223.635	-3.94
223.869	-17.94
224.104	-28.94
224.338	-7.94
224.573	-22.94
224.808	-11.94
225.042	3.06
225.277	-6.94
225.511	-16.94
225.746	5.06
225.98	3.06
226.215	-5.94
226.449	12.06
226.683	23.06
226.918	36.06
227.152	41.06
227.387	27.06
227.621	33.06
227.856	44.06
228.09	46.06
228.324	54.06
228.559	46.06
228.793	161.06
229.027	435.06
229.262	508.06
229.496	593.06
229.73	813.06
229.964	814.06
230.199	538.06
230.433	479.06
230.667	461.06
230.901	441.06
231.136	436.06
231.37	468.06
231.604	436.06
231.838	437.06
232.072	443.06
232.306	452.06
232.541	477.06
232.775	439.06
233.009	475.06
233.243	469.06
233.477	453.06
233.711	476.06
233.945	494.06
234.179	507.06
234.413	482.06
234.647	511.06
234.881	485.06
235.115	530.06
235.349	540.06
235.583	546.06
235.817	571.06
236.051	657.06
236.285	592.06
236.519	649.06
236.753	694.06
236.987	936.06
237.221	1365.06
237.455	1512.06
237.689	891.06
237.922	750.06
238.156	712.06
238.39	653.06
238.624	643.06
238.858	661.06
239.091	647.06
239.325	654.06
239.559	654.06
239.793	707.06
240.027	755.06
240.26	924.06
240.494	970.06
240.728	948.06
240.961	874.06
241.195	819.06
241.429	783.06
241.662	773.06
241.896	743.06
242.13	776.06
242.363	783.06
242.597	804.06
242.83	806.06
243.064	818.06
243.298	817.06
243.531	827.06
243.765	846.06
243.998	853.06
244.232	863.06
244.465	885.06
244.699	887.06
244.932	930.06
245.166	895.06
245.399	909.06
245.633	883.06
245.866	877.06
246.099	914.06
246.333	915.06
246.566	949.06
246.8	953.06
247.033	999.06
247.266	1071.06
247.5	1089.06
247.733	1128.06
247.966	1132.06
248.2	1167.06
248.433	1143.06
248.666	1194.06
248.899	1356.06
249.133	1494.06
249.366	1477.06
249.599	1390.06
249.832	1319.06
250.066	1345.06
250.299	1578.06
250.532	1879.06
250.765	1933.06
250.998	1930.06
251.231	1726.06
251.465	1531.06
251.698	1467.06
251.931	1379.06
252.164	1384.06
252.397	1416.06
252.63	1436.06
252.863	1553.06
253.096	1663.06
253.329	1722.06
253.562	1617.06
253.795	1590.06
254.028	1594.06
254.261	1607.06
254.494	1830.06
254.727	2192.06
254.96	2271.06
255.193	2010.06
255.426	1880.06
255.659	1974.06
255.892	2414.06
256.124	2852.06
256.357	2595.06
256.59	2117.06
256.823	1836.06
257.056	1694.06
257.289	1669.06
257.521	1639.06
257.754	1622.06
257.987	1624.06
258.22	1564.06
258.452	1580.06
258.685	1586.06
258.918	1584.06
259.151	1646.06
259.383	1695.06
259.616	1713.06
259.849	1757.06
260.081	1934.06
260.314	2058.06
260.547	1989.06
260.779	1803.06
261.012	1752.06
261.244	1719.06
261.477	1687.06
261.71	1708.06
261.942	1752.06
262.175	1793.06
262.407	1725.06
262.64	1636.06
262.872	1654.06
263.105	1683.06
263.337	1662.06
263.57	1654.06
263.802	1650.06
264.035	1688.06
264.267	1658.06
264.499	1685.06
264.732	1686.06
264.964	1700.06
265.197	1710.06
265.429	1708.06
265.661	1725.06
265.894	1739.06
266.126	1730.06
266.358	1762.06
266.591	1783.06
266.823	1861.06
267.055	1903.06
267.287	1883.06
267.52	1766.06
267.752	1797.06
267.984	1817.06
268.216	1871.06
268.448	1876.06
268.681	1998.06
268.913	2113.06
269.145	2300.06
269.377	2325.06
269.609	2245.06
269.841	2236.06
270.073	2382.06
270.306	2614.06
270.538	2795.06
270.77	2629.06
271.002	2412.06
271.234	2388.06
271.466	2572.06
271.698	2739.06
271.93	2701.06
272.162	2714.06
272.394	2618.06
272.626	2445.06
272.858	2291.06
273.09	2210.06
273.322	2237.06
273.553	2164.06
273.785	2198.06
274.017	2190.06
274.249	2209.06
274.481	2254.06
274.713	2276.06
274.945	2326.06
275.176	2313.06
275.408	2305.06
275.64	2254.06
275.872	2301.06
276.104	2289.06
276.335	2326.06
276.567	2482.06
276.799	2613.06
277.031	2924.06
277.262	2986.06
277.494	2856.06
277.726	2656.06
277.957	2580.06
278.189	2519.06
278.421	2419.06
278.652	2385.06
278.884	2396.06
279.115	2418.06
279.347	2417.06
279.579	2466.06
279.81	2487.06
280.042	2511.06
280.273	2588.06
280.505	2572.06
280.736	2506.06
280.968	2485.06
281.199	2463.06
281.431	2484.06
281.662	2484.06
281.894	2515.06
282.125	2526.06
282.356	2746.06
282.588	2866.06
282.819	2730.06
283.051	2588.06
283.282	2508.06
283.513	2558.06
283.745	2616.06
283.976	2663.06
284.207	2621.06
284.439	2635.06
284.67	2597.06
284.901	2622.06
285.132	2602.06
285.364	2597.06
285.595	2637.06
285.826	2663.06
286.057	2662.06
286.288	2635.06
286.52	2677.06
286.751	2658.06
286.982	2695.06
287.213	2736.06
287.444	2725.06
287.675	2836.06
287.906	2873.06
288.138	2955.06
288.369	2914.06
288.6	2875.06
288.831	2880.06
289.062	2830.06
289.293	2827.06
289.524	2801.06
289.755	2818.06
289.986	2764.06
290.217	2805.06
290.448	2806.06
290.679	2852.06
290.91	2801.06
291.141	2798.06
291.371	2781.06
291.602	2831.06
291.833	2783.06
292.064	2789.06
292.295	2762.06
292.526	2801.06
292.757	2811.06
292.987	2818.06
293.218	2782.06
293.449	2869.06
293.68	2822.06
293.91	2837.06
294.141	2846.06
294.372	2831.06
294.603	2835.06
294.833	2867.06
295.064	2871.06
295.295	2831.06
295.525	2828.06
295.756	2961.06
295.987	3020.06
296.217	3192.06
296.448	3116.06
296.679	2950.06
296.909	2919.06
297.14	2951.06
297.37	2941.06
297.601	3053.06
297.831	3092.06
298.062	3045.06
298.292	3061.06
298.523	3094.06
298.753	3151.06
298.984	3065.06
299.214	3090.06
299.445	3073.06
299.675	3110.06
299.905	3158.06
300.136	3113.06
300.366	3123.06
300.597	3181.06
300.827	3252.06
301.057	3325.06
301.288	3366.06
301.518	3298.06
301.748	3347.06
301.979	3373.06
302.209	3377.06
302.439	3377.06
302.669	3330.06
302.9	3264.06
303.13	3310.06
303.36	3313.06
303.59	3417.06
303.82	3399.06
304.051	3369.06
304.281	3342.06
304.511	3279.06
304.741	3304.06
304.971	3264.06
305.201	3229.06
305.431	3281.06
305.661	3254.06
305.891	3257.06
306.121	3263.06
306.352	3331.06
306.582	3301.06
306.812	3267.06
307.042	3324.06
307.272	3361.06
307.502	3359.06
307.731	3322.06
307.961	3323.06
308.191	3311.06
308.421	3291.06
308.651	3344.06
308.881	3302.06
309.111	3373.06
309.341	3402.06
309.571	3432.06
309.8	3547.06
310.03	3631.06
310.26	3661.06
310.49	3633.06
310.72	3723.06
310.949	3827.06
311.179	3805.06
311.409	3669.06
311.639	3678.06
311.868	3656.06
312.098	3685.06
312.328	3813.06
312.557	4001.06
312.787	3989.06
313.017	3928.06
313.246	3807.06
313.476	3688.06
313.706	3779.06
313.935	3875.06
314.165	4011.06
314.394	3999.06
314.624	3922.06
314.853	3808.06
315.083	3770.06
315.312	3738.06
315.542	3722.06
315.771	3662.06
316.001	3682.06
316.23	3726.06
316.46	3659.06
316.689	3725.06
316.919	3813.06
317.148	3833.06
317.377	3799.06
317.607	3739.06
317.836	3692.06
318.065	3672.06
318.295	3700.06
318.524	3673.06
318.753	3665.06
318.983	3709.06
319.212	3698.06
319.441	3738.06
319.67	3809.06
319.9	3667.06
320.129	3795.06
320.358	3776.06
320.587	3833.06
320.816	3848.06
321.046	3865.06
321.275	3822.06
321.504	3813.06
321.733	3914.06
321.962	3967.06
322.191	4046.06
322.42	4162.06
322.649	4278.06
322.878	4349.06
323.108	4471.06
323.337	4686.06
323.566	4901.06
323.795	5177.06
324.024	5853.06
324.253	7793.06
324.482	12062.06
324.71	15599.06
324.939	15599.06
325.168	13785.06
325.397	6838.06
325.626	5369.06
325.855	4975.06
326.084	4889.06
326.313	4941.06
326.542	5175.06
326.77	5931.06
326.999	7657.06
327.228	11442.06
327.457	15296.06
327.686	14611.06
327.914	8174.06
328.143	7083.06
328.372	6870.06
328.6	6166.06
328.829	5835.06
329.058	6025.06
329.287	6035.06
329.515	5754.06
329.744	5799.06
329.972	6523.06
330.201	7682.06
330.43	8462.06
330.658	7264.06
330.887	6823.06
331.115	6042.06
331.344	5460.06
331.572	5297.06
331.801	5401.06
332.03	5349.06
332.258	5183.06
332.486	5297.06
332.715	5384.06
332.943	5595.06
333.172	5761.06
333.4	6041.06
333.629	6381.06
333.857	6855.06
334.085	7547.06
334.314	8837.06
334.542	10267.06
334.771	9537.06
334.999	6923.06
335.227	6056.06
335.455	5755.06
335.684	5513.06
335.912	5396.06
336.14	5194.06
336.369	5114.06
336.597	5198.06
336.825	5117.06
337.053	4994.06
337.281	4965.06
337.51	4835.06
337.738	4829.06
337.966	4796.06
338.194	4749.06
338.422	4773.06
338.65	4653.06
338.878	4645.06
339.106	4586.06
339.334	4546.06
339.562	4439.06
339.79	4443.06
340.018	4417.06
340.246	4485.06
340.474	4452.06
340.702	4394.06
340.93	4445.06
341.158	4459.06
341.386	4474.06
341.614	4531.06
341.842	4382.06
342.07	4346.06
342.298	4349.06
342.526	4233.06
342.754	4286.06
342.981	4357.06
343.209	4472.06
343.437	4654.06
343.665	4928.06
343.893	5134.06
344.12	5129.06
344.348	4928.06
344.576	4731.06
344.804	4717.06
345.031	4637.06
345.259	4649.06
345.487	4488.06
345.714	4327.06
345.942	4287.06
346.17	4214.06
346.397	4258.06
346.625	4198.06
346.853	4157.06
347.08	4218.06
347.308	4247.06
347.535	4344.06
347.763	4446.06
347.99	4260.06
348.218	4364.06
348.445	4369.06
348.673	4317.06
348.9	4250.06
349.128	4081.06
349.355	4105.06
349.583	4139.06
349.81	4106.06
350.037	4095.06
350.265	4028.06
350.492	4121.06
350.72	4076.06
350.947	4143.06
351.174	4243.06
351.402	4297.06
351.629	4239.06
351.856	4210.06
352.083	4297.06
352.311	4362.06
352.538	4319.06
352.765	4269.06
352.992	4199.06
353.22	4172.06
353.447	4093.06
353.674	4077.06
353.901	3991.06
354.128	3944.06
354.355	3953.06
354.583	4029.06
354.81	3980.06
355.037	3949.06
355.264	3940.06
355.491	3967.06
355.718	3912.06
355.945	3945.06
356.172	3977.06
356.399	3995.06
356.626	3929.06
356.853	3941.06
357.08	3943.06
357.307	3885.06
357.534	3927.06
357.761	3959.06
357.988	3975.06
358.215	3965.06
358.441	3977.06
358.668	4030.06
358.895	4058.06
359.122	4067.06
359.349	4198.06
359.576	4267.06
359.802	4546.06
360.029	4707.06
360.256	4686.06
360.483	4488.06
360.709	4287.06
360.936	4220.06
361.163	4251.06
361.39	4251.06
361.616	4229.06
361.843	4202.06
362.07	4245.06
362.296	4248.06
362.523	4159.06
362.749	4245.06
362.976	4149.06
363.203	4094.06
363.429	4084.06
363.656	4143.06
363.882	4079.06
364.109	4042.06
364.335	4010.06
364.562	4070.06
364.788	4060.06
365.015	4130.06
365.241	4119.06
365.468	4157.06
365.694	4176.06
365.92	4101.06
366.147	4086.06
366.373	4099.06
366.599	4071.06
366.826	4035.06
367.052	3989.06
367.278	4089.06
367.505	4049.06
367.731	4093.06
367.957	4082.06
368.184	4081.06
368.41	4158.06
368.636	4271.06
368.862	4273.06
369.089	4228.06
369.315	4136.06
369.541	4100.06
369.767	4227.06
369.993	4154.06
370.219	4256.06
370.445	4202.06
370.672	4224.06
370.898	4266.06
371.124	4300.06
371.35	4257.06
371.576	4271.06
371.802	4207.06
372.028	4265.06
372.254	4314.06
372.48	4401.06
372.706	4405.06
372.932	4440.06
373.158	4449.06
373.384	4327.06
373.61	4337.06
373.835	4313.06
374.061	4300.06
374.287	4458.06
374.513	4465.06
374.739	4617.06
374.965	4694.06
375.191	4717.06
375.416	4626.06
375.642	4483.06
375.868	4485.06
376.094	4399.06
376.319	4365.06
376.545	4402.06
376.771	4337.06
376.997	4319.06
377.222	4322.06
377.448	4319.06
377.674	4220.06
377.899	4246.06
378.125	4241.06
378.35	4287.06
378.576	4193.06
378.802	4235.06
379.027	4225.06
379.253	4267.06
379.478	4238.06
379.704	4209.06
379.929	4300.06
380.155	4259.06
380.38	4342.06
380.606	4283.06
380.831	4275.06
381.057	4306.06
381.282	4328.06
381.507	4342.06
381.733	4414.06
381.958	4392.06
382.184	4435.06
382.409	4425.06
382.634	4530.06
382.86	4535.06
383.085	4553.06
383.31	4614.06
383.535	4728.06
383.761	4739.06
383.986	4876.06
384.211	4947.06
384.436	5051.06
384.662	5034.06
384.887	5148.06
385.112	5178.06
385.337	5151.06
385.562	5130.06
385.787	5233.06
386.013	5209.06
386.238	5258.06
386.463	5263.06
386.688	5252.06
386.913	5162.06
387.138	5175.06
387.363	5073.06
387.588	5097.06
387.813	5133.06
388.038	5120.06
388.263	5134.06
388.488	5142.06
388.713	5126.06
388.938	5085.06
389.163	5098.06
389.387	5133.06
389.612	4995.06
389.837	5098.06
390.062	4958.06
390.287	5056.06
390.512	4997.06
390.736	5083.06
390.961	5216.06
391.186	5305.06
391.411	5456.06
391.636	5519.06
391.86	5711.06
392.085	5752.06
392.31	5630.06
392.534	5454.06
392.759	5438.06
392.984	5319.06
393.208	5330.06
393.433	5312.06
393.658	5331.06
393.882	5271.06
394.107	5358.06
394.331	5378.06
394.556	5403.06
394.78	5439.06
395.005	5553.06
395.229	5434.06
395.454	5699.06
395.678	5746.06
395.903	5837.06
396.127	5737.06
396.352	5621.06
396.576	5422.06
396.801	5365.06
397.025	5534.06
397.249	5660.06
397.474	5741.06
397.698	5717.06
397.922	5950.06
398.147	5996.06
398.371	6086.06
398.595	6200.06
398.82	6473.06
399.044	7110.06
399.268	7830.06
399.492	8887.06
399.717	9476.06
399.941	9221.06
400.165	8570.06
400.389	7938.06
400.613	7213.06
400.837	6855.06
401.062	6661.06
401.286	6570.06
401.51	6457.06
401.734	6453.06
401.958	6508.06
402.182	6696.06
402.406	6798.06
402.63	6897.06
402.854	6984.06
403.078	6995.06
403.302	7212.06
403.526	7279.06
403.75	7276.06
403.974	7367.06
404.198	7419.06
404.422	7537.06
404.645	7606.06
404.869	7731.06
405.093	8077.06
405.317	8650.06
405.541	8487.06
405.765	7719.06
405.988	7419.06
406.212	7449.06
406.436	7649.06
406.66	7753.06
406.883	7730.06
407.107	8372.06
407.331	8766.06
407.555	9450.06
407.778	8907.06
408.002	8275.06
408.226	7899.06
408.449	7746.06
408.673	7582.06
408.896	7678.06
409.12	7821.06
409.344	7469.06
409.567	7032.06
409.791	7087.06
410.014	6942.06
410.238	6864.06
410.461	6959.06
410.685	7096.06
410.908	7164.06
411.132	7417.06
411.355	7398.06
411.578	6967.06
411.802	6813.06
412.025	6910.06
412.249	7309.06
412.472	7754.06
412.695	8185.06
412.919	7574.06
413.142	7059.06
413.365	6929.06
413.589	6775.06
413.812	6423.06
414.035	6404.06
414.258	6510.06
414.482	6430.06
414.705	6505.06
414.928	6447.06
415.151	6374.06
415.374	6462.06
415.597	6397.06
415.821	6290.06
416.044	6305.06
416.267	6274.06
416.49	6205.06
416.713	6180.06
416.936	6319.06
417.159	6314.06
417.382	6380.06
417.605	6451.06
417.828	6583.06
418.051	6780.06
418.274	6561.06
418.497	6398.06
418.72	6543.06
418.943	6493.06
419.166	6867.06
419.389	7365.06
419.611	7089.06
419.834	7095.06
420.057	7090.06
420.28	7206.06
420.503	7027.06
420.726	6904.06
420.948	6874.06
421.171	7316.06
421.394	7145.06
421.617	6602.06
421.839	6513.06
422.062	6694.06
422.285	6864.06
422.507	7393.06
422.73	8023.06
422.953	7353.06
423.175	6978.06
423.398	7019.06
423.621	6926.06
423.843	7228.06
424.066	7137.06
424.288	7093.06
424.511	7293.06
424.733	7718.06
424.956	8233.06
425.178	7675.06
425.401	7827.06
425.623	7738.06
425.846	6717.06
426.068	6579.06
426.291	6502.06
426.513	6501.06
426.735	6673.06
426.958	7091.06
427.18	7962.06
427.402	9139.06
427.625	9480.06
427.847	8431.06
428.069	7875.06
428.292	6772.06
428.514	6126.06
428.736	6026.06
428.958	5999.06
429.181	5728.06
429.403	5822.06
429.625	6043.06
429.847	6327.06
430.069	6833.06
430.292	6387.06
430.514	5773.06
430.736	5769.06
430.958	5620.06
431.18	5542.06
431.402	5635.06
431.624	5603.06
431.846	5703.06
432.068	5700.06
432.29	5781.06
432.512	5665.06
432.734	5792.06
432.956	5681.06
433.178	5876.06
433.4	5763.06
433.622	5697.06
433.844	5668.06
434.066	5714.06
434.287	5787.06
434.509	6125.06
434.731	6314.06
434.953	6375.06
435.175	6537.06
435.397	6620.06
435.618	6509.06
435.84	6980.06
436.062	7778.06
436.284	7813.06
436.505	6585.06
436.727	6297.06
436.949	5980.06
437.17	5783.06
437.392	5738.06
437.614	5915.06
437.835	6345.06
438.057	7359.06
438.278	7992.06
438.5	7929.06
438.721	8664.06
438.943	7602.06
439.165	6399.06
439.386	6232.06
439.608	6257.06
439.829	6370.06
440.05	6851.06
440.272	7298.06
440.493	6498.06
440.715	6193.06
440.936	6052.06
441.158	6120.06
441.379	6197.06
441.6	6558.06
441.822	6770.06
442.043	7249.06
442.264	8090.06
442.486	7727.06
442.707	6929.06
442.928	6718.06
443.149	7074.06
443.371	7221.06
443.592	7797.06
443.813	8709.06
444.034	8626.06
444.255	7503.06
444.476	7295.06
444.698	7359.06
444.919	7594.06
445.14	7438.06
445.361	7246.06
445.582	7502.06
445.803	8248.06
446.024	8898.06
446.245	8516.06
446.466	7409.06
446.687	6429.06
446.908	6102.06
447.129	5773.06
447.35	5685.06
447.571	5665.06
447.792	5589.06
448.013	5578.06
448.234	5870.06
448.455	6511.06
448.675	7721.06
448.896	8198.06
449.117	6726.06
449.338	7006.06
449.559	8177.06
449.779	8467.06
450	6503.06
450.221	5777.06
450.442	5513.06
450.662	5425.06
450.883	5578.06
451.104	5706.06
451.324	5545.06
451.545	5248.06
451.766	5189.06
451.986	5083.06
452.207	5075.06
452.428	5068.06
452.648	5060.06
452.869	5075.06
453.089	5228.06
453.31	5252.06
453.53	5063.06
453.751	4965.06
453.971	4996.06
454.192	5206.06
454.412	4950.06
454.633	4846.06
454.853	4880.06
455.073	4940.06
455.294	5294.06
455.514	5862.06
455.734	5386.06
455.955	4773.06
456.175	4750.06
456.395	4638.06
456.616	4621.06
456.836	4635.06
457.056	4607.06
457.276	4515.06
457.497	4717.06
457.717	4671.06
457.937	4782.06
458.157	4853.06
458.377	5006.06
458.598	5302.06
458.818	6172.06
459.038	6915.06
459.258	6701.06
459.478	5957.06
459.698	5843.06
459.918	5808.06
460.138	6075.06
460.358	6192.06
460.578	6225.06
460.798	6321.06
461.018	6328.06
461.238	6193.06
461.458	6205.06
461.678	6053.06
461.898	6275.06
462.118	6312.06
462.338	6663.06
462.558	6822.06
462.777	7083.06
462.997	7596.06
463.217	8026.06
463.437	7862.06
463.657	7267.06
463.876	7099.06
464.096	7136.06
464.316	7148.06
464.536	7169.06
464.755	6973.06
464.975	6885.06
465.195	7174.06
465.414	7201.06
465.634	6309.06
465.854	5883.06
466.073	5626.06
466.293	5476.06
466.512	5340.06
466.732	5270.06
466.951	5239.06
467.171	5210.06
467.391	5291.06
467.61	5470.06
467.829	5511.06
468.049	5622.06
468.268	5913.06
468.488	5453.06
468.707	5119.06
468.927	5102.06
469.146	5018.06
469.365	5148.06
469.585	5147.06
469.804	5377.06
470.023	5509.06
470.243	5458.06
470.462	5543.06
470.681	5734.06
470.901	5589.06
471.12	5432.06
471.339	5416.06
471.558	5328.06
471.777	5365.06
471.997	5452.06
472.216	6276.06
472.435	7777.06
472.654	6571.06
472.873	5659.06
473.092	5382.06
473.311	5383.06
473.53	5235.06
473.749	5318.06
473.968	5819.06
474.187	6845.06
474.406	6401.06
474.625	5431.06
474.844	5092.06
475.063	5096.06
475.282	5143.06
475.501	5121.06
475.72	5125.06
475.939	5177.06
476.158	5291.06
476.377	5201.06
476.596	5243.06
476.814	5409.06
477.033	5493.06
477.252	5513.06
477.471	5570.06
477.69	5766.06
477.908	5791.06
478.127	5941.06
478.346	6026.06
478.564	6133.06
478.783	6191.06
479.002	6339.06
479.22	6406.06
479.439	6517.06
479.658	6624.06
479.876	6651.06
480.095	6947.06
480.313	7381.06
480.532	7372.06
480.751	7343.06
480.969	8115.06
481.188	11212.06
481.406	11143.06
481.624	8256.06
481.843	7188.06
482.061	6788.06
482.28	6532.06
482.498	6298.06
482.717	6262.06
482.935	6147.06
483.153	6071.06
483.372	6029.06
483.59	6070.06
483.808	6025.06
484.027	6131.06
484.245	6128.06
484.463	6158.06
484.681	6202.06
484.9	6209.06
485.118	6283.06
485.336	6344.06
485.554	6336.06
485.772	6478.06
485.99	6395.06
486.209	6476.06
486.427	6508.06
486.645	6577.06
486.863	6664.06
487.081	6551.06
487.299	6497.06
487.517	6509.06
487.735	6461.06
487.953	6430.06
