Data from Circ_2011_H10_HRD10591_00010.txt Node
Date: Wed Jan 03 10:08:01 EST 2024
User: Yrep
Spectrometer: HR+D1059
Trigger mode: 1
Integration Time (sec): 1.000000E-1
Scans to average: 1
Electric dark correction enabled: true
Nonlinearity correction enabled: false
Boxcar width: 0
XAxis mode: Wavelengths
Number of Pixels in Spectrum: 2048
>>>>>Begin Spectral Data<<<<<
223.165	-27.25
223.4	-27.25
223.635	-27.25
223.869	-17.25
224.104	-4.25
224.338	-34.25
224.573	-3.25
224.808	7.75
225.042	-19.25
225.277	-12.25
225.511	-13.25
225.746	1.75
225.98	10.75
226.215	24.75
226.449	22.75
226.683	15.75
226.918	22.75
227.152	24.75
227.387	23.75
227.621	27.75
227.856	43.75
228.09	58.75
228.324	44.75
228.559	67.75
228.793	59.75
229.027	65.75
229.262	64.75
229.496	68.75
229.73	70.75
229.964	77.75
230.199	77.75
230.433	71.75
230.667	83.75
230.901	87.75
231.136	72.75
231.37	74.75
231.604	75.75
231.838	80.75
232.072	76.75
232.306	76.75
232.541	84.75
232.775	65.75
233.009	74.75
233.243	84.75
233.477	77.75
233.711	87.75
233.945	79.75
234.179	88.75
234.413	73.75
234.647	75.75
234.881	80.75
235.115	73.75
235.349	77.75
235.583	72.75
235.817	69.75
236.051	81.75
236.285	74.75
236.519	68.75
236.753	79.75
236.987	78.75
237.221	68.75
237.455	93.75
237.689	69.75
237.922	71.75
238.156	72.75
238.39	86.75
238.624	67.75
238.858	67.75
239.091	72.75
239.325	91.75
239.559	74.75
239.793	71.75
240.027	76.75
240.26	81.75
240.494	86.75
240.728	74.75
240.961	85.75
241.195	70.75
241.429	80.75
241.662	84.75
241.896	81.75
242.13	63.75
242.363	67.75
242.597	71.75
242.83	78.75
243.064	75.75
243.298	90.75
243.531	78.75
243.765	75.75
243.998	84.75
244.232	67.75
244.465	74.75
244.699	82.75
244.932	80.75
245.166	70.75
245.399	90.75
245.633	69.75
245.866	66.75
246.099	73.75
246.333	79.75
246.566	86.75
246.8	87.75
247.033	71.75
247.266	74.75
247.5	87.75
247.733	73.75
247.966	90.75
248.2	82.75
248.433	78.75
248.666	71.75
248.899	94.75
249.133	75.75
249.366	81.75
249.599	87.75
249.832	90.75
250.066	80.75
250.299	94.75
250.532	96.75
250.765	79.75
250.998	86.75
251.231	87.75
251.465	72.75
251.698	85.75
251.931	65.75
252.164	73.75
252.397	85.75
252.63	81.75
252.863	69.75
253.096	77.75
253.329	85.75
253.562	69.75
253.795	78.75
254.028	71.75
254.261	91.75
254.494	84.75
254.727	88.75
254.96	88.75
255.193	81.75
255.426	76.75
255.659	72.75
255.892	82.75
256.124	71.75
256.357	74.75
256.59	84.75
256.823	79.75
257.056	92.75
257.289	80.75
257.521	81.75
257.754	81.75
257.987	84.75
258.22	55.75
258.452	77.75
258.685	71.75
258.918	75.75
259.151	88.75
259.383	81.75
259.616	79.75
259.849	87.75
260.081	75.75
260.314	73.75
260.547	85.75
260.779	89.75
261.012	65.75
261.244	77.75
261.477	88.75
261.71	91.75
261.942	110.75
262.175	100.75
262.407	89.75
262.64	84.75
262.872	81.75
263.105	85.75
263.337	79.75
263.57	85.75
263.802	65.75
264.035	83.75
264.267	86.75
264.499	80.75
264.732	94.75
264.964	85.75
265.197	81.75
265.429	88.75
265.661	83.75
265.894	85.75
266.126	76.75
266.358	73.75
266.591	87.75
266.823	79.75
267.055	75.75
267.287	84.75
267.52	79.75
267.752	89.75
267.984	77.75
268.216	85.75
268.448	79.75
268.681	78.75
268.913	81.75
269.145	80.75
269.377	65.75
269.609	73.75
269.841	78.75
270.073	74.75
270.306	87.75
270.538	78.75
270.77	90.75
271.002	90.75
271.234	92.75
271.466	75.75
271.698	87.75
271.93	75.75
272.162	85.75
272.394	89.75
272.626	80.75
272.858	80.75
273.09	86.75
273.322	96.75
273.553	77.75
273.785	89.75
274.017	73.75
274.249	70.75
274.481	72.75
274.713	80.75
274.945	83.75
275.176	90.75
275.408	93.75
275.64	86.75
275.872	84.75
276.104	97.75
276.335	81.75
276.567	86.75
276.799	106.75
277.031	99.75
277.262	89.75
277.494	98.75
277.726	78.75
277.957	78.75
278.189	95.75
278.421	69.75
278.652	96.75
278.884	89.75
279.115	87.75
279.347	74.75
279.579	93.75
279.81	90.75
280.042	105.75
280.273	104.75
280.505	84.75
280.736	86.75
280.968	91.75
281.199	81.75
281.431	83.75
281.662	84.75
281.894	77.75
282.125	88.75
282.356	108.75
282.588	142.75
282.819	91.75
283.051	96.75
283.282	80.75
283.513	66.75
283.745	78.75
283.976	85.75
284.207	82.75
284.439	72.75
284.67	90.75
284.901	85.75
285.132	85.75
285.364	89.75
285.595	89.75
285.826	107.75
286.057	84.75
286.288	91.75
286.52	89.75
286.751	94.75
286.982	73.75
287.213	76.75
287.444	84.75
287.675	79.75
287.906	98.75
288.138	90.75
288.369	93.75
288.6	95.75
288.831	97.75
289.062	95.75
289.293	89.75
289.524	95.75
289.755	92.75
289.986	80.75
290.217	87.75
290.448	85.75
290.679	97.75
290.91	87.75
291.141	91.75
291.371	88.75
291.602	95.75
291.833	84.75
292.064	81.75
292.295	85.75
292.526	80.75
292.757	67.75
292.987	89.75
293.218	74.75
293.449	91.75
293.68	81.75
293.91	79.75
294.141	85.75
294.372	95.75
294.603	71.75
294.833	80.75
295.064	81.75
295.295	97.75
295.525	78.75
295.756	84.75
295.987	99.75
296.217	129.75
296.448	112.75
296.679	103.75
296.909	97.75
297.14	80.75
297.37	92.75
297.601	85.75
297.831	102.75
298.062	85.75
298.292	79.75
298.523	95.75
298.753	76.75
298.984	87.75
299.214	95.75
299.445	101.75
299.675	94.75
299.905	96.75
300.136	91.75
300.366	94.75
300.597	85.75
300.827	90.75
301.057	93.75
301.288	94.75
301.518	99.75
301.748	95.75
301.979	98.75
302.209	93.75
302.439	85.75
302.669	84.75
302.9	81.75
303.13	100.75
303.36	91.75
303.59	106.75
303.82	95.75
304.051	95.75
304.281	86.75
304.511	85.75
304.741	84.75
304.971	74.75
305.201	84.75
305.431	87.75
305.661	77.75
305.891	88.75
306.121	96.75
306.352	96.75
306.582	97.75
306.812	86.75
307.042	84.75
307.272	84.75
307.502	81.75
307.731	86.75
307.961	108.75
308.191	101.75
308.421	101.75
308.651	94.75
308.881	92.75
309.111	77.75
309.341	87.75
309.571	103.75
309.8	96.75
310.03	80.75
310.26	97.75
310.49	107.75
310.72	85.75
310.949	107.75
311.179	107.75
311.409	99.75
311.639	90.75
311.868	89.75
312.098	105.75
312.328	95.75
312.557	89.75
312.787	101.75
313.017	91.75
313.246	83.75
313.476	94.75
313.706	91.75
313.935	90.75
314.165	102.75
314.394	100.75
314.624	103.75
314.853	96.75
315.083	84.75
315.312	88.75
315.542	86.75
315.771	88.75
316.001	92.75
316.23	87.75
316.46	90.75
316.689	74.75
316.919	91.75
317.148	85.75
317.377	99.75
317.607	109.75
317.836	82.75
318.065	83.75
318.295	96.75
318.524	96.75
318.753	88.75
318.983	100.75
319.212	97.75
319.441	93.75
319.67	97.75
319.9	91.75
320.129	71.75
320.358	101.75
320.587	101.75
320.816	105.75
321.046	95.75
321.275	84.75
321.504	85.75
321.733	94.75
321.962	99.75
322.191	100.75
322.42	106.75
322.649	109.75
322.878	109.75
323.108	104.75
323.337	113.75
323.566	123.75
323.795	144.75
324.024	183.75
324.253	354.75
324.482	739.75
324.71	1446.75
324.939	1926.75
325.168	712.75
325.397	228.75
325.626	137.75
325.855	115.75
326.084	127.75
326.313	138.75
326.542	132.75
326.77	201.75
326.999	424.75
327.228	869.75
327.457	1514.75
327.686	1193.75
327.914	326.75
328.143	162.75
328.372	152.75
328.6	132.75
328.829	119.75
329.058	133.75
329.287	120.75
329.515	102.75
329.744	113.75
329.972	119.75
330.201	133.75
330.43	161.75
330.658	136.75
330.887	136.75
331.115	105.75
331.344	97.75
331.572	89.75
331.801	106.75
332.03	107.75
332.258	94.75
332.486	109.75
332.715	94.75
332.943	89.75
333.172	84.75
333.4	110.75
333.629	113.75
333.857	104.75
334.085	113.75
334.314	143.75
334.542	173.75
334.771	186.75
334.999	104.75
335.227	93.75
335.455	91.75
335.684	83.75
335.912	98.75
336.14	89.75
336.369	104.75
336.597	94.75
336.825	101.75
337.053	92.75
337.281	95.75
337.51	76.75
337.738	106.75
337.966	87.75
338.194	95.75
338.422	100.75
338.65	90.75
338.878	86.75
339.106	86.75
339.334	92.75
339.562	74.75
339.79	84.75
340.018	85.75
340.246	85.75
340.474	94.75
340.702	99.75
340.93	101.75
341.158	91.75
341.386	90.75
341.614	96.75
341.842	89.75
342.07	92.75
342.298	92.75
342.526	97.75
342.754	85.75
342.981	67.75
343.209	89.75
343.437	104.75
343.665	85.75
343.893	87.75
344.12	97.75
344.348	99.75
344.576	74.75
344.804	86.75
345.031	98.75
345.259	105.75
345.487	101.75
345.714	95.75
345.942	83.75
346.17	89.75
346.397	90.75
346.625	85.75
346.853	89.75
347.08	89.75
347.308	92.75
347.535	101.75
347.763	105.75
347.99	107.75
348.218	97.75
348.445	106.75
348.673	85.75
348.9	100.75
349.128	106.75
349.355	92.75
349.583	97.75
349.81	96.75
350.037	88.75
350.265	94.75
350.492	101.75
350.72	93.75
350.947	105.75
351.174	103.75
351.402	93.75
351.629	95.75
351.856	104.75
352.083	99.75
352.311	107.75
352.538	88.75
352.765	96.75
352.992	104.75
353.22	104.75
353.447	101.75
353.674	110.75
353.901	96.75
354.128	81.75
354.355	95.75
354.583	94.75
354.81	102.75
355.037	104.75
355.264	96.75
355.491	88.75
355.718	85.75
355.945	99.75
356.172	97.75
356.399	87.75
356.626	79.75
356.853	88.75
357.08	93.75
357.307	80.75
357.534	80.75
357.761	94.75
357.988	101.75
358.215	90.75
358.441	90.75
358.668	86.75
358.895	91.75
359.122	92.75
359.349	86.75
359.576	100.75
359.802	98.75
360.029	105.75
360.256	100.75
360.483	100.75
360.709	85.75
360.936	83.75
361.163	107.75
361.39	95.75
361.616	97.75
361.843	92.75
362.07	96.75
362.296	95.75
362.523	91.75
362.749	99.75
362.976	97.75
363.203	91.75
363.429	94.75
363.656	86.75
363.882	77.75
364.109	95.75
364.335	94.75
364.562	81.75
364.788	94.75
365.015	89.75
365.241	98.75
365.468	103.75
365.694	104.75
365.92	84.75
366.147	89.75
366.373	88.75
366.599	102.75
366.826	108.75
367.052	96.75
367.278	86.75
367.505	82.75
367.731	97.75
367.957	91.75
368.184	76.75
368.41	84.75
368.636	108.75
368.862	96.75
369.089	93.75
369.315	94.75
369.541	78.75
369.767	94.75
369.993	87.75
370.219	97.75
370.445	91.75
370.672	89.75
370.898	84.75
371.124	98.75
371.35	79.75
371.576	101.75
371.802	98.75
372.028	93.75
372.254	76.75
372.48	77.75
372.706	86.75
372.932	77.75
373.158	77.75
373.384	94.75
373.61	86.75
373.835	92.75
374.061	85.75
374.287	88.75
374.513	81.75
374.739	88.75
374.965	102.75
375.191	89.75
375.416	96.75
375.642	70.75
375.868	81.75
376.094	98.75
376.319	100.75
376.545	82.75
376.771	105.75
376.997	79.75
377.222	85.75
377.448	103.75
377.674	91.75
377.899	83.75
378.125	98.75
378.35	94.75
378.576	87.75
378.802	75.75
379.027	86.75
379.253	94.75
379.478	92.75
379.704	85.75
379.929	81.75
380.155	94.75
380.38	96.75
380.606	98.75
380.831	99.75
381.057	98.75
381.282	93.75
381.507	111.75
381.733	86.75
381.958	100.75
382.184	92.75
382.409	89.75
382.634	98.75
382.86	85.75
383.085	103.75
383.31	97.75
383.535	91.75
383.761	89.75
383.986	99.75
384.211	93.75
384.436	120.75
384.662	100.75
384.887	94.75
385.112	95.75
385.337	96.75
385.562	100.75
385.787	87.75
386.013	94.75
386.238	96.75
386.463	110.75
386.688	103.75
386.913	89.75
387.138	107.75
387.363	91.75
387.588	99.75
387.813	99.75
388.038	97.75
388.263	84.75
388.488	111.75
388.713	102.75
388.938	105.75
389.163	93.75
389.387	95.75
389.612	85.75
389.837	90.75
390.062	92.75
390.287	99.75
390.512	102.75
390.736	93.75
390.961	88.75
391.186	94.75
391.411	81.75
391.636	100.75
391.86	91.75
392.085	92.75
392.31	67.75
392.534	85.75
392.759	79.75
392.984	85.75
393.208	87.75
393.433	86.75
393.658	90.75
393.882	91.75
394.107	93.75
394.331	85.75
394.556	94.75
394.78	91.75
395.005	100.75
395.229	79.75
395.454	86.75
395.678	97.75
395.903	80.75
396.127	92.75
396.352	84.75
396.576	77.75
396.801	85.75
397.025	91.75
397.249	92.75
397.474	101.75
397.698	84.75
397.922	89.75
398.147	83.75
398.371	81.75
398.595	84.75
398.82	100.75
399.044	93.75
399.268	84.75
399.492	84.75
399.717	91.75
399.941	91.75
400.165	97.75
400.389	81.75
400.613	80.75
400.837	85.75
401.062	81.75
401.286	84.75
401.51	92.75
401.734	84.75
401.958	97.75
402.182	104.75
402.406	135.75
402.63	115.75
402.854	95.75
403.078	96.75
403.302	100.75
403.526	96.75
403.75	82.75
403.974	88.75
404.198	97.75
404.422	84.75
404.645	78.75
404.869	100.75
405.093	92.75
405.317	95.75
405.541	89.75
405.765	93.75
405.988	105.75
406.212	138.75
406.436	195.75
406.66	138.75
406.883	99.75
407.107	104.75
407.331	90.75
407.555	86.75
407.778	87.75
408.002	89.75
408.226	91.75
408.449	87.75
408.673	81.75
408.896	93.75
409.12	99.75
409.344	74.75
409.567	109.75
409.791	93.75
410.014	95.75
410.238	80.75
410.461	92.75
410.685	92.75
410.908	93.75
411.132	104.75
411.355	92.75
411.578	87.75
411.802	78.75
412.025	96.75
412.249	99.75
412.472	100.75
412.695	100.75
412.919	95.75
413.142	94.75
413.365	79.75
413.589	107.75
413.812	101.75
414.035	85.75
414.258	87.75
414.482	80.75
414.705	85.75
414.928	94.75
415.151	87.75
415.374	97.75
415.597	98.75
415.821	84.75
416.044	87.75
416.267	84.75
416.49	89.75
416.713	79.75
416.936	85.75
417.159	101.75
417.382	85.75
417.605	84.75
417.828	78.75
418.051	108.75
418.274	88.75
418.497	77.75
418.72	81.75
418.943	92.75
419.166	94.75
419.389	90.75
419.611	93.75
419.834	87.75
420.057	94.75
420.28	85.75
420.503	73.75
420.726	84.75
420.948	86.75
421.171	91.75
421.394	92.75
421.617	94.75
421.839	94.75
422.062	80.75
422.285	96.75
422.507	88.75
422.73	102.75
422.953	88.75
423.175	105.75
423.398	92.75
423.621	98.75
423.843	67.75
424.066	88.75
424.288	94.75
424.511	91.75
424.733	100.75
424.956	102.75
425.178	88.75
425.401	107.75
425.623	88.75
425.846	75.75
426.068	71.75
426.291	78.75
426.513	99.75
426.735	77.75
426.958	96.75
427.18	100.75
427.402	121.75
427.625	149.75
427.847	118.75
428.069	105.75
428.292	83.75
428.514	88.75
428.736	88.75
428.958	84.75
429.181	86.75
429.403	90.75
429.625	84.75
429.847	80.75
430.069	96.75
430.292	93.75
430.514	72.75
430.736	72.75
430.958	93.75
431.18	96.75
431.402	84.75
431.624	105.75
431.846	100.75
432.068	84.75
432.29	102.75
432.512	76.75
432.734	80.75
432.956	81.75
433.178	88.75
433.4	93.75
433.622	102.75
433.844	89.75
434.066	91.75
434.287	84.75
434.509	96.75
434.731	79.75
434.953	88.75
435.175	83.75
435.397	91.75
435.618	97.75
435.84	90.75
436.062	118.75
436.284	117.75
436.505	100.75
436.727	80.75
436.949	86.75
437.17	96.75
437.392	99.75
437.614	97.75
437.835	86.75
438.057	112.75
438.278	95.75
438.5	92.75
438.721	105.75
438.943	100.75
439.165	80.75
439.386	96.75
439.608	107.75
439.829	104.75
440.05	104.75
440.272	117.75
440.493	90.75
440.715	89.75
440.936	79.75
441.158	95.75
441.379	88.75
441.6	87.75
441.822	87.75
442.043	86.75
442.264	102.75
442.486	89.75
442.707	88.75
442.928	100.75
443.149	127.75
443.371	121.75
443.592	112.75
443.813	100.75
444.034	103.75
444.255	94.75
444.476	92.75
444.698	81.75
444.919	87.75
445.14	124.75
445.361	110.75
445.582	122.75
445.803	110.75
446.024	119.75
446.245	131.75
446.466	94.75
446.687	92.75
446.908	95.75
447.129	93.75
447.35	96.75
447.571	103.75
447.792	88.75
448.013	93.75
448.234	95.75
448.455	85.75
448.675	106.75
448.896	119.75
449.117	97.75
449.338	103.75
449.559	116.75
449.779	119.75
450	83.75
450.221	90.75
450.442	90.75
450.662	103.75
450.883	119.75
451.104	94.75
451.324	72.75
451.545	81.75
451.766	87.75
451.986	93.75
452.207	93.75
452.428	81.75
452.648	81.75
452.869	119.75
453.089	108.75
453.31	99.75
453.53	84.75
453.751	97.75
453.971	104.75
454.192	104.75
454.412	94.75
454.633	97.75
454.853	79.75
455.073	85.75
455.294	104.75
455.514	106.75
455.734	91.75
455.955	87.75
456.175	84.75
456.395	85.75
456.616	83.75
456.836	87.75
457.056	91.75
457.276	93.75
457.497	80.75
457.717	76.75
457.937	81.75
458.157	87.75
458.377	83.75
458.598	102.75
458.818	121.75
459.038	141.75
459.258	101.75
459.478	94.75
459.698	70.75
459.918	86.75
460.138	79.75
460.358	93.75
460.578	95.75
460.798	76.75
461.018	86.75
461.238	93.75
461.458	72.75
461.678	82.75
461.898	83.75
462.118	81.75
462.338	76.75
462.558	86.75
462.777	98.75
462.997	78.75
463.217	86.75
463.437	81.75
463.657	87.75
463.876	96.75
464.096	91.75
464.316	80.75
464.536	84.75
464.755	91.75
464.975	96.75
465.195	128.75
465.414	136.75
465.634	93.75
465.854	91.75
466.073	72.75
466.293	96.75
466.512	84.75
466.732	86.75
466.951	92.75
467.171	86.75
467.391	86.75
467.61	100.75
467.829	106.75
468.049	117.75
468.268	123.75
468.488	93.75
468.707	84.75
468.927	87.75
469.146	90.75
469.365	83.75
469.585	82.75
469.804	86.75
470.023	101.75
470.243	89.75
470.462	80.75
470.681	97.75
470.901	91.75
471.12	81.75
471.339	89.75
471.558	83.75
471.777	87.75
471.997	100.75
472.216	144.75
472.435	193.75
472.654	115.75
472.873	97.75
473.092	80.75
473.311	93.75
473.53	80.75
473.749	97.75
473.968	93.75
474.187	95.75
474.406	94.75
474.625	88.75
474.844	88.75
475.063	90.75
475.282	84.75
475.501	91.75
475.72	97.75
475.939	93.75
476.158	80.75
476.377	77.75
476.596	87.75
476.814	94.75
477.033	85.75
477.252	91.75
477.471	88.75
477.69	80.75
477.908	88.75
478.127	88.75
478.346	94.75
478.564	84.75
478.783	90.75
479.002	88.75
479.22	90.75
479.439	93.75
479.658	93.75
479.876	81.75
480.095	95.75
480.313	89.75
480.532	85.75
480.751	96.75
480.969	133.75
481.188	309.75
481.406	235.75
481.624	117.75
481.843	88.75
482.061	95.75
482.28	78.75
482.498	96.75
482.717	87.75
482.935	87.75
483.153	82.75
483.372	89.75
483.59	87.75
483.808	97.75
484.027	83.75
484.245	89.75
484.463	87.75
484.681	95.75
484.9	84.75
485.118	85.75
485.336	88.75
485.554	103.75
485.772	93.75
485.99	111.75
486.209	80.75
486.427	104.75
486.645	109.75
486.863	101.75
487.081	89.75
487.299	101.75
487.517	93.75
487.735	101.75
487.953	88.75
488.171	88.75
488.389	93.75
488.607	96.75
488.825	87.75
489.043	85.75
489.261	88.75
489.479	84.75
489.696	91.75
489.914	69.75
490.132	104.75
490.35	92.75
490.568	86.75
490.786	75.75
491.003	90.75
491.221	92.75
491.439	83.75
491.657	79.75
491.874	80.75
492.092	96.75
492.31	100.75
492.527	96.75
492.745	90.75
492.963	79.75
493.18	85.75
493.398	99.75
493.615	103.75
493.833	90.75
494.05	91.75
494.268	70.75
494.485	81.75
494.703	101.75
494.92	86.75
495.138	79.75
495.355	91.75
495.573	89.75
495.79	80.75
496.008	87.75
496.225	92.75
496.442	87.75
496.66	102.75
496.877	84.75
497.094	94.75
497.312	96.75
497.529	86.75
497.746	90.75
497.963	92.75
498.181	88.75
498.398	91.75
498.615	105.75
498.832	101.75
499.049	76.75
499.267	90.75
499.484	81.75
499.701	97.75
499.918	92.75
500.135	91.75
500.352	108.75
500.569	92.75
500.786	99.75
501.003	88.75
501.22	105.75
501.437	101.75
501.654	95.75
501.871	112.75
502.088	90.75
502.305	96.75
502.522	66.75
502.739	83.75
502.956	89.75
503.172	90.75
503.389	81.75
503.606	95.75
503.823	92.75
504.04	87.75
504.256	88.75
504.473	97.75
504.69	101.75
504.907	75.75
505.123	79.75
505.34	84.75
505.557	81.75
505.773	89.75
505.99	90.75
506.207	85.75
506.423	106.75
506.64	85.75
506.856	93.75
507.073	102.75
507.289	99.75
507.506	88.75
507.722	97.75
507.939	100.75
508.155	91.75
508.372	91.75
508.588	82.75
508.805	92.75
509.021	94.75
509.238	85.75
509.454	100.75
509.67	85.75
509.887	87.75
510.103	106.75
510.319	187.75
510.536	599.75
510.752	1745.75
510.968	528.75
511.184	155.75
511.401	107.75
511.617	86.75
511.833	93.75
512.049	90.75
512.265	80.75
512.481	92.75
512.698	97.75
512.914	97.75
513.13	100.75
513.346	91.75
513.562	100.75
513.778	88.75
513.994	91.75
514.21	93.75
514.426	107.75
514.642	119.75
514.858	105.75
515.074	139.75
515.29	327.75
515.506	1103.75
515.721	431.75
515.937	139.75
516.153	110.75
