Data from Circ_2011_H10_HRD10591_00062.txt Node
Date: Wed Jan 03 10:08:11 EST 2024
User: Yrep
Spectrometer: HR+D1059
Trigger mode: 1
Integration Time (sec): 1.000000E-1
Scans to average: 1
Electric dark correction enabled: true
Nonlinearity correction enabled: false
Boxcar width: 0
XAxis mode: Wavelengths
Number of Pixels in Spectrum: 2048
>>>>>Begin Spectral Data<<<<<
223.165	-14.06
223.4	-14.06
223.635	-14.06
223.869	-30.06
224.104	-28.06
224.338	-8.06
224.573	-9.06
224.808	-14.06
225.042	0.94
225.277	-5.06
225.511	8.94
225.746	-0.06
225.98	-1.06
226.215	20.94
226.449	16.94
226.683	16.94
226.918	20.94
227.152	23.94
227.387	43.94
227.621	41.94
227.856	43.94
228.09	51.94
228.324	47.94
228.559	51.94
228.793	43.94
229.027	58.94
229.262	74.94
229.496	79.94
229.73	77.94
229.964	71.94
230.199	80.94
230.433	71.94
230.667	73.94
230.901	88.94
231.136	78.94
231.37	92.94
231.604	84.94
231.838	65.94
232.072	86.94
232.306	57.94
232.541	86.94
232.775	72.94
233.009	78.94
233.243	89.94
233.477	89.94
233.711	86.94
233.945	71.94
234.179	72.94
234.413	85.94
234.647	72.94
234.881	92.94
235.115	77.94
235.349	69.94
235.583	77.94
235.817	88.94
236.051	88.94
236.285	75.94
236.519	77.94
236.753	87.94
236.987	71.94
237.221	89.94
237.455	77.94
237.689	77.94
237.922	85.94
238.156	80.94
238.39	73.94
238.624	80.94
238.858	83.94
239.091	80.94
239.325	75.94
239.559	83.94
239.793	80.94
240.027	101.94
240.26	87.94
240.494	94.94
240.728	72.94
240.961	79.94
241.195	87.94
241.429	69.94
241.662	79.94
241.896	84.94
242.13	89.94
242.363	72.94
242.597	82.94
242.83	71.94
243.064	75.94
243.298	85.94
243.531	86.94
243.765	79.94
243.998	77.94
244.232	82.94
244.465	66.94
244.699	68.94
244.932	62.94
245.166	81.94
245.399	72.94
245.633	73.94
245.866	84.94
246.099	68.94
246.333	84.94
246.566	83.94
246.8	80.94
247.033	74.94
247.266	89.94
247.5	73.94
247.733	78.94
247.966	77.94
248.2	76.94
248.433	84.94
248.666	72.94
248.899	87.94
249.133	80.94
249.366	89.94
249.599	111.94
249.832	81.94
250.066	84.94
250.299	64.94
250.532	83.94
250.765	86.94
250.998	83.94
251.231	87.94
251.465	75.94
251.698	62.94
251.931	86.94
252.164	69.94
252.397	56.94
252.63	70.94
252.863	80.94
253.096	80.94
253.329	69.94
253.562	77.94
253.795	80.94
254.028	78.94
254.261	87.94
254.494	83.94
254.727	83.94
254.96	79.94
255.193	72.94
255.426	67.94
255.659	77.94
255.892	79.94
256.124	88.94
256.357	88.94
256.59	81.94
256.823	72.94
257.056	76.94
257.289	75.94
257.521	69.94
257.754	87.94
257.987	78.94
258.22	92.94
258.452	80.94
258.685	83.94
258.918	86.94
259.151	80.94
259.383	88.94
259.616	83.94
259.849	83.94
260.081	84.94
260.314	88.94
260.547	90.94
260.779	79.94
261.012	86.94
261.244	96.94
261.477	91.94
261.71	82.94
261.942	99.94
262.175	108.94
262.407	81.94
262.64	91.94
262.872	91.94
263.105	81.94
263.337	78.94
263.57	71.94
263.802	80.94
264.035	94.94
264.267	98.94
264.499	75.94
264.732	90.94
264.964	87.94
265.197	68.94
265.429	73.94
265.661	75.94
265.894	71.94
266.126	87.94
266.358	80.94
266.591	73.94
266.823	81.94
267.055	78.94
267.287	85.94
267.52	65.94
267.752	87.94
267.984	76.94
268.216	81.94
268.448	81.94
268.681	80.94
268.913	80.94
269.145	87.94
269.377	79.94
269.609	88.94
269.841	68.94
270.073	76.94
270.306	86.94
270.538	89.94
270.77	88.94
271.002	86.94
271.234	87.94
271.466	81.94
271.698	69.94
271.93	81.94
272.162	84.94
272.394	72.94
272.626	84.94
272.858	77.94
273.09	81.94
273.322	82.94
273.553	99.94
273.785	83.94
274.017	80.94
274.249	79.94
274.481	78.94
274.713	84.94
274.945	84.94
275.176	76.94
275.408	74.94
275.64	79.94
275.872	88.94
276.104	81.94
276.335	80.94
276.567	104.94
276.799	103.94
277.031	90.94
277.262	104.94
277.494	99.94
277.726	91.94
277.957	94.94
278.189	81.94
278.421	84.94
278.652	69.94
278.884	94.94
279.115	85.94
279.347	85.94
279.579	81.94
279.81	94.94
280.042	96.94
280.273	102.94
280.505	85.94
280.736	81.94
280.968	81.94
281.199	86.94
281.431	93.94
281.662	91.94
281.894	103.94
282.125	93.94
282.356	99.94
282.588	121.94
282.819	109.94
283.051	89.94
283.282	87.94
283.513	87.94
283.745	88.94
283.976	88.94
284.207	96.94
284.439	93.94
284.67	103.94
284.901	91.94
285.132	86.94
285.364	90.94
285.595	78.94
285.826	83.94
286.057	90.94
286.288	91.94
286.52	81.94
286.751	88.94
286.982	80.94
287.213	87.94
287.444	85.94
287.675	93.94
287.906	110.94
288.138	89.94
288.369	91.94
288.6	97.94
288.831	99.94
289.062	92.94
289.293	85.94
289.524	90.94
289.755	92.94
289.986	80.94
290.217	76.94
290.448	85.94
290.679	99.94
290.91	88.94
291.141	88.94
291.371	76.94
291.602	103.94
291.833	84.94
292.064	72.94
292.295	91.94
292.526	83.94
292.757	79.94
292.987	83.94
293.218	89.94
293.449	88.94
293.68	77.94
293.91	85.94
294.141	81.94
294.372	99.94
294.603	78.94
294.833	90.94
295.064	85.94
295.295	82.94
295.525	94.94
295.756	97.94
295.987	95.94
296.217	118.94
296.448	126.94
296.679	89.94
296.909	82.94
297.14	91.94
297.37	90.94
297.601	95.94
297.831	100.94
298.062	89.94
298.292	87.94
298.523	83.94
298.753	89.94
298.984	94.94
299.214	84.94
299.445	95.94
299.675	71.94
299.905	95.94
300.136	99.94
300.366	97.94
300.597	97.94
300.827	102.94
301.057	103.94
301.288	100.94
301.518	79.94
301.748	72.94
301.979	112.94
302.209	83.94
302.439	89.94
302.669	97.94
302.9	86.94
303.13	95.94
303.36	97.94
303.59	106.94
303.82	96.94
304.051	87.94
304.281	86.94
304.511	97.94
304.741	92.94
304.971	89.94
305.201	75.94
305.431	79.94
305.661	79.94
305.891	94.94
306.121	95.94
306.352	109.94
306.582	98.94
306.812	86.94
307.042	94.94
307.272	106.94
307.502	107.94
307.731	111.94
307.961	90.94
308.191	93.94
308.421	74.94
308.651	81.94
308.881	92.94
309.111	89.94
309.341	83.94
309.571	94.94
309.8	104.94
310.03	93.94
310.26	96.94
310.49	98.94
310.72	104.94
310.949	110.94
311.179	107.94
311.409	104.94
311.639	88.94
311.868	104.94
312.098	91.94
312.328	100.94
312.557	89.94
312.787	103.94
313.017	115.94
313.246	97.94
313.476	91.94
313.706	85.94
313.935	92.94
314.165	102.94
314.394	89.94
314.624	94.94
314.853	86.94
315.083	87.94
315.312	97.94
315.542	96.94
315.771	93.94
316.001	104.94
316.23	80.94
316.46	89.94
316.689	85.94
316.919	93.94
317.148	103.94
317.377	79.94
317.607	86.94
317.836	93.94
318.065	86.94
318.295	81.94
318.524	94.94
318.753	93.94
318.983	89.94
319.212	96.94
319.441	98.94
319.67	105.94
319.9	103.94
320.129	94.94
320.358	92.94
320.587	90.94
320.816	103.94
321.046	103.94
321.275	99.94
321.504	86.94
321.733	100.94
321.962	104.94
322.191	98.94
322.42	112.94
322.649	118.94
322.878	127.94
323.108	113.94
323.337	129.94
323.566	139.94
323.795	159.94
324.024	226.94
324.253	463.94
324.482	941.94
324.71	1941.94
324.939	2603.94
325.168	903.94
325.397	255.94
325.626	167.94
325.855	129.94
326.084	129.94
326.313	132.94
326.542	173.94
326.77	248.94
326.999	526.94
327.228	1098.94
327.457	2019.94
327.686	1561.94
327.914	406.94
328.143	250.94
328.372	209.94
328.6	161.94
328.829	142.94
329.058	119.94
329.287	127.94
329.515	112.94
329.744	111.94
329.972	151.94
330.201	214.94
330.43	267.94
330.658	185.94
330.887	151.94
331.115	114.94
331.344	102.94
331.572	120.94
331.801	104.94
332.03	107.94
332.258	94.94
332.486	89.94
332.715	96.94
332.943	97.94
333.172	97.94
333.4	101.94
333.629	110.94
333.857	113.94
334.085	157.94
334.314	210.94
334.542	307.94
334.771	295.94
334.999	136.94
335.227	101.94
335.455	97.94
335.684	99.94
335.912	99.94
336.14	97.94
336.369	90.94
336.597	88.94
336.825	103.94
337.053	87.94
337.281	98.94
337.51	90.94
337.738	98.94
337.966	103.94
338.194	91.94
338.422	101.94
338.65	98.94
338.878	93.94
339.106	105.94
339.334	99.94
339.562	96.94
339.79	101.94
340.018	94.94
340.246	99.94
340.474	108.94
340.702	84.94
340.93	99.94
341.158	100.94
341.386	104.94
341.614	92.94
341.842	92.94
342.07	80.94
342.298	88.94
342.526	79.94
342.754	92.94
342.981	92.94
343.209	98.94
343.437	99.94
343.665	89.94
343.893	99.94
344.12	99.94
344.348	92.94
344.576	91.94
344.804	94.94
345.031	93.94
345.259	96.94
345.487	82.94
345.714	105.94
345.942	85.94
346.17	93.94
346.397	84.94
346.625	105.94
346.853	109.94
347.08	93.94
347.308	97.94
347.535	77.94
347.763	90.94
347.99	96.94
348.218	100.94
348.445	99.94
348.673	95.94
348.9	91.94
349.128	94.94
349.355	100.94
349.583	106.94
349.81	99.94
350.037	86.94
350.265	90.94
350.492	101.94
350.72	101.94
350.947	100.94
351.174	115.94
351.402	102.94
351.629	90.94
351.856	106.94
352.083	90.94
352.311	98.94
352.538	105.94
352.765	105.94
352.992	111.94
353.22	106.94
353.447	97.94
353.674	111.94
353.901	99.94
354.128	98.94
354.355	85.94
354.583	99.94
354.81	89.94
355.037	101.94
355.264	102.94
355.491	88.94
355.718	89.94
355.945	96.94
356.172	90.94
356.399	99.94
356.626	94.94
356.853	95.94
357.08	83.94
357.307	101.94
357.534	92.94
357.761	92.94
357.988	95.94
358.215	89.94
358.441	100.94
358.668	89.94
358.895	93.94
359.122	92.94
359.349	111.94
359.576	89.94
359.802	80.94
360.029	113.94
360.256	104.94
360.483	93.94
360.709	85.94
360.936	103.94
361.163	92.94
361.39	98.94
361.616	97.94
361.843	101.94
362.07	87.94
362.296	103.94
362.523	78.94
362.749	81.94
362.976	82.94
363.203	95.94
363.429	92.94
363.656	81.94
363.882	103.94
364.109	79.94
364.335	101.94
364.562	86.94
364.788	93.94
365.015	90.94
365.241	99.94
365.468	99.94
365.694	100.94
365.92	105.94
366.147	75.94
366.373	86.94
366.599	66.94
366.826	82.94
367.052	86.94
367.278	89.94
367.505	94.94
367.731	96.94
367.957	91.94
368.184	85.94
368.41	94.94
368.636	96.94
368.862	103.94
369.089	101.94
369.315	91.94
369.541	102.94
369.767	93.94
369.993	94.94
370.219	88.94
370.445	85.94
370.672	92.94
370.898	93.94
371.124	84.94
371.35	94.94
371.576	81.94
371.802	81.94
372.028	96.94
372.254	87.94
372.48	89.94
372.706	85.94
372.932	80.94
373.158	99.94
373.384	92.94
373.61	92.94
373.835	90.94
374.061	87.94
374.287	87.94
374.513	87.94
374.739	92.94
374.965	81.94
375.191	93.94
375.416	92.94
375.642	84.94
375.868	99.94
376.094	96.94
376.319	84.94
376.545	85.94
376.771	88.94
376.997	87.94
377.222	93.94
377.448	97.94
377.674	101.94
377.899	85.94
378.125	89.94
378.35	84.94
378.576	105.94
378.802	100.94
379.027	91.94
379.253	95.94
379.478	110.94
379.704	76.94
379.929	92.94
380.155	96.94
380.38	98.94
380.606	91.94
380.831	89.94
381.057	101.94
381.282	101.94
381.507	85.94
381.733	76.94
381.958	83.94
382.184	97.94
382.409	86.94
382.634	93.94
382.86	101.94
383.085	109.94
383.31	99.94
383.535	94.94
383.761	84.94
383.986	90.94
384.211	104.94
384.436	105.94
384.662	95.94
384.887	98.94
385.112	104.94
385.337	89.94
385.562	102.94
385.787	107.94
386.013	100.94
386.238	108.94
386.463	119.94
386.688	121.94
386.913	116.94
387.138	98.94
387.363	92.94
387.588	100.94
387.813	98.94
388.038	99.94
388.263	105.94
388.488	107.94
388.713	90.94
388.938	86.94
389.163	108.94
389.387	94.94
389.612	107.94
389.837	94.94
390.062	94.94
390.287	91.94
390.512	90.94
390.736	96.94
390.961	81.94
391.186	89.94
391.411	87.94
391.636	80.94
391.86	81.94
392.085	110.94
392.31	88.94
392.534	96.94
392.759	91.94
392.984	93.94
393.208	78.94
393.433	80.94
393.658	86.94
393.882	84.94
394.107	80.94
394.331	68.94
394.556	76.94
394.78	85.94
395.005	79.94
395.229	70.94
395.454	87.94
395.678	92.94
395.903	94.94
396.127	101.94
396.352	90.94
396.576	94.94
396.801	98.94
397.025	75.94
397.249	86.94
397.474	92.94
397.698	80.94
397.922	83.94
398.147	86.94
398.371	93.94
398.595	80.94
398.82	92.94
399.044	88.94
399.268	86.94
399.492	102.94
399.717	97.94
399.941	88.94
400.165	95.94
400.389	84.94
400.613	95.94
400.837	95.94
401.062	94.94
401.286	92.94
401.51	106.94
401.734	85.94
401.958	93.94
402.182	118.94
402.406	150.94
402.63	119.94
402.854	85.94
403.078	82.94
403.302	76.94
403.526	82.94
403.75	86.94
403.974	87.94
404.198	103.94
404.422	94.94
404.645	87.94
404.869	92.94
405.093	97.94
405.317	117.94
405.541	116.94
405.765	89.94
405.988	125.94
406.212	171.94
406.436	203.94
406.66	137.94
406.883	107.94
407.107	104.94
407.331	100.94
407.555	109.94
407.778	105.94
408.002	92.94
408.226	89.94
408.449	77.94
408.673	96.94
408.896	86.94
409.12	113.94
409.344	96.94
409.567	71.94
409.791	85.94
410.014	88.94
410.238	99.94
410.461	101.94
410.685	79.94
410.908	94.94
411.132	107.94
411.355	98.94
411.578	85.94
411.802	79.94
412.025	87.94
412.249	93.94
412.472	106.94
412.695	107.94
412.919	95.94
413.142	91.94
413.365	101.94
413.589	87.94
413.812	84.94
414.035	100.94
414.258	94.94
414.482	93.94
414.705	87.94
414.928	95.94
415.151	79.94
415.374	91.94
415.597	89.94
415.821	85.94
416.044	89.94
416.267	93.94
416.49	93.94
416.713	93.94
416.936	101.94
417.159	100.94
417.382	84.94
417.605	91.94
417.828	96.94
418.051	97.94
418.274	81.94
418.497	87.94
418.72	85.94
418.943	91.94
419.166	82.94
419.389	80.94
419.611	92.94
419.834	88.94
420.057	88.94
420.28	95.94
420.503	82.94
420.726	82.94
420.948	82.94
421.171	91.94
421.394	97.94
421.617	102.94
421.839	94.94
422.062	84.94
422.285	93.94
422.507	88.94
422.73	103.94
422.953	103.94
423.175	87.94
423.398	95.94
423.621	104.94
423.843	91.94
424.066	101.94
424.288	93.94
424.511	96.94
424.733	86.94
424.956	113.94
425.178	118.94
425.401	112.94
425.623	105.94
425.846	77.94
426.068	93.94
426.291	105.94
426.513	92.94
426.735	91.94
426.958	106.94
427.18	110.94
427.402	163.94
427.625	192.94
427.847	155.94
428.069	151.94
428.292	99.94
428.514	80.94
428.736	80.94
428.958	72.94
429.181	83.94
429.403	90.94
429.625	88.94
429.847	86.94
430.069	89.94
430.292	100.94
430.514	86.94
430.736	80.94
430.958	81.94
431.18	84.94
431.402	93.94
431.624	86.94
431.846	97.94
432.068	78.94
432.29	86.94
432.512	98.94
432.734	89.94
432.956	96.94
433.178	97.94
433.4	86.94
433.622	89.94
433.844	93.94
434.066	87.94
434.287	94.94
434.509	87.94
434.731	91.94
434.953	75.94
435.175	93.94
435.397	100.94
435.618	108.94
435.84	88.94
436.062	139.94
436.284	120.94
436.505	109.94
436.727	93.94
436.949	97.94
437.17	95.94
437.392	91.94
437.614	100.94
437.835	97.94
438.057	124.94
438.278	121.94
438.5	107.94
438.721	143.94
438.943	119.94
439.165	109.94
439.386	101.94
439.608	84.94
439.829	102.94
440.05	134.94
440.272	149.94
440.493	104.94
440.715	94.94
440.936	92.94
441.158	92.94
441.379	91.94
441.6	102.94
441.822	105.94
442.043	96.94
442.264	105.94
442.486	121.94
442.707	102.94
442.928	103.94
443.149	129.94
443.371	135.94
443.592	119.94
443.813	120.94
444.034	118.94
444.255	101.94
444.476	90.94
444.698	84.94
444.919	87.94
445.14	136.94
445.361	133.94
445.582	122.94
445.803	137.94
446.024	145.94
446.245	142.94
446.466	118.94
446.687	95.94
446.908	88.94
447.129	76.94
447.35	86.94
447.571	91.94
447.792	70.94
448.013	95.94
448.234	78.94
448.455	109.94
448.675	122.94
448.896	125.94
449.117	113.94
449.338	109.94
449.559	133.94
449.779	151.94
450	108.94
450.221	88.94
450.442	89.94
450.662	92.94
450.883	98.94
451.104	107.94
451.324	97.94
451.545	106.94
451.766	91.94
451.986	103.94
452.207	93.94
452.428	94.94
452.648	86.94
452.869	110.94
453.089	116.94
453.31	121.94
453.53	92.94
453.751	100.94
453.971	92.94
454.192	113.94
454.412	87.94
454.633	85.94
454.853	94.94
455.073	80.94
455.294	92.94
455.514	103.94
455.734	104.94
455.955	87.94
456.175	88.94
456.395	87.94
456.616	94.94
456.836	89.94
457.056	93.94
457.276	81.94
457.497	79.94
457.717	83.94
457.937	90.94
458.157	88.94
458.377	97.94
458.598	96.94
458.818	153.94
459.038	160.94
459.258	108.94
459.478	102.94
459.698	80.94
459.918	92.94
460.138	81.94
460.358	95.94
460.578	97.94
460.798	86.94
461.018	91.94
461.238	95.94
461.458	98.94
461.678	91.94
461.898	89.94
462.118	95.94
462.338	93.94
462.558	85.94
462.777	89.94
462.997	85.94
463.217	79.94
463.437	84.94
463.657	91.94
463.876	95.94
464.096	80.94
464.316	95.94
464.536	91.94
464.755	88.94
464.975	86.94
465.195	162.94
465.414	162.94
465.634	98.94
465.854	90.94
466.073	79.94
466.293	95.94
466.512	102.94
466.732	95.94
466.951	89.94
467.171	91.94
467.391	83.94
467.61	117.94
467.829	123.94
468.049	140.94
468.268	195.94
468.488	95.94
468.707	83.94
468.927	83.94
469.146	85.94
469.365	81.94
469.585	78.94
469.804	95.94
470.023	116.94
470.243	100.94
470.462	105.94
470.681	113.94
470.901	101.94
471.12	91.94
471.339	88.94
471.558	106.94
471.777	106.94
471.997	107.94
472.216	212.94
472.435	391.94
472.654	141.94
472.873	104.94
473.092	97.94
473.311	87.94
473.53	69.94
473.749	80.94
473.968	86.94
474.187	107.94
474.406	102.94
474.625	83.94
474.844	97.94
475.063	79.94
475.282	100.94
475.501	94.94
475.72	97.94
475.939	96.94
476.158	90.94
476.377	88.94
476.596	84.94
476.814	102.94
477.033	97.94
477.252	106.94
477.471	96.94
477.69	88.94
477.908	80.94
478.127	84.94
478.346	92.94
478.564	99.94
478.783	84.94
479.002	88.94
479.22	103.94
479.439	95.94
479.658	97.94
479.876	88.94
480.095	94.94
480.313	86.94
480.532	102.94
480.751	120.94
480.969	210.94
481.188	647.94
481.406	434.94
481.624	130.94
481.843	83.94
482.061	83.94
482.28	95.94
482.498	71.94
482.717	97.94
482.935	87.94
483.153	79.94
483.372	89.94
483.59	101.94
483.808	84.94
484.027	103.94
484.245	84.94
484.463	83.94
484.681	90.94
484.9	94.94
485.118	94.94
485.336	102.94
485.554	92.94
485.772	107.94
485.99	104.94
486.209	98.94
486.427	115.94
486.645	104.94
486.863	123.94
487.081	85.94
487.299	88.94
487.517	81.94
487.735	105.94
487.953	96.94
488.171	94.94
488.389	93.94
488.607	100.94
488.825	103.94
489.043	91.94
489.261	91.94
489.479	78.94
489.696	80.94
489.914	82.94
490.132	94.94
490.35	88.94
490.568	106.94
490.786	91.94
491.003	78.94
491.221	105.94
491.439	89.94
491.657	82.94
491.874	87.94
492.092	91.94
492.31	79.94
492.527	88.94
492.745	81.94
492.963	89.94
493.18	102.94
493.398	87.94
493.615	94.94
493.833	92.94
494.05	96.94
494.268	96.94
494.485	94.94
494.703	90.94
494.92	56.94
495.138	95.94
495.355	83.94
495.573	91.94
495.79	101.94
496.008	93.94
496.225	83.94
496.442	83.94
496.66	98.94
496.877	100.94
497.094	98.94
497.312	92.94
497.529	87.94
497.746	88.94
497.963	81.94
498.181	87.94
498.398	95.94
498.615	111.94
498.832	116.94
499.049	89.94
499.267	97.94
499.484	97.94
499.701	95.94
499.918	100.94
500.135	78.94
500.352	92.94
500.569	97.94
500.786	86.94
501.003	102.94
501.22	95.94
501.437	92.94
501.654	93.94
501.871	109.94
502.088	92.94
502.305	95.94
502.522	81.94
502.739	95.94
502.956	91.94
503.172	88.94
503.389	105.94
503.606	107.94
503.823	85.94
504.04	75.94
504.256	71.94
504.473	71.94
504.69	88.94
504.907	89.94
505.123	91.94
505.34	105.94
505.557	108.94
505.773	88.94
505.99	98.94
506.207	87.94
506.423	92.94
506.64	93.94
506.856	91.94
507.073	90.94
507.289	100.94
507.506	98.94
507.722	110.94
507.939	115.94
508.155	98.94
508.372	86.94
508.588	90.94
508.805	94.94
509.021	94.94
509.238	94.94
509.454	89.94
509.67	84.94
509.887	104.94
510.103	129.94
510.319	198.94
510.536	688.94
510.752	2153.94
510.968	623.94
511.184	142.94
511.401	119.94
511.617	105.94
511.833	113.94
512.049	95.94
512.265	82.94
512.481	83.94
512.698	96.94
512.914	98.94
513.13	85.94
513.346	91.94
513.562	77.94
513.778	109.94
513.994	91.94
514.21	102.94
514.426	114.94
514.642	139.94
514.858	108.94
515.074	175.94
515.29	432.94
