Data from Circ_2011_H10_HRD10591_00026.txt Node
Date: Wed Jan 03 10:08:04 EST 2024
User: Yrep
Spectrometer: HR+D1059
Trigger mode: 1
Integration Time (sec): 1.000000E-1
Scans to average: 1
Electric dark correction enabled: true
Nonlinearity correction enabled: false
Boxcar width: 0
XAxis mode: Wavelengths
Number of Pixels in Spectrum: 2048
>>>>>Begin Spectral Data<<<<<
223.165	-24.31
223.4	-24.31
223.635	-24.31
223.869	-30.31
224.104	-22.31
224.338	-3.31
224.573	-3.31
224.808	-11.31
225.042	-7.31
225.277	-16.31
225.511	6.69
225.746	-3.31
225.98	3.69
226.215	23.69
226.449	21.69
226.683	12.69
226.918	18.69
227.152	34.69
227.387	19.69
227.621	57.69
227.856	43.69
228.09	48.69
228.324	50.69
228.559	64.69
228.793	42.69
229.027	64.69
229.262	77.69
229.496	75.69
229.73	93.69
229.964	82.69
230.199	86.69
230.433	75.69
230.667	94.69
230.901	65.69
231.136	76.69
231.37	78.69
231.604	86.69
231.838	79.69
232.072	82.69
232.306	90.69
232.541	86.69
232.775	81.69
233.009	73.69
233.243	74.69
233.477	87.69
233.711	89.69
233.945	84.69
234.179	83.69
234.413	85.69
234.647	78.69
234.881	86.69
235.115	87.69
235.349	69.69
235.583	88.69
235.817	84.69
236.051	69.69
236.285	89.69
236.519	87.69
236.753	81.69
236.987	92.69
237.221	79.69
237.455	81.69
237.689	82.69
237.922	80.69
238.156	75.69
238.39	80.69
238.624	79.69
238.858	80.69
239.091	86.69
239.325	81.69
239.559	86.69
239.793	83.69
240.027	86.69
240.26	96.69
240.494	88.69
240.728	88.69
240.961	68.69
241.195	79.69
241.429	88.69
241.662	78.69
241.896	86.69
242.13	81.69
242.363	72.69
242.597	98.69
242.83	84.69
243.064	72.69
243.298	82.69
243.531	81.69
243.765	82.69
243.998	87.69
244.232	76.69
244.465	82.69
244.699	84.69
244.932	67.69
245.166	73.69
245.399	80.69
245.633	79.69
245.866	68.69
246.099	87.69
246.333	74.69
246.566	76.69
246.8	86.69
247.033	87.69
247.266	69.69
247.5	81.69
247.733	83.69
247.966	80.69
248.2	78.69
248.433	81.69
248.666	80.69
248.899	92.69
249.133	72.69
249.366	92.69
249.599	94.69
249.832	87.69
250.066	86.69
250.299	94.69
250.532	65.69
250.765	81.69
250.998	66.69
251.231	87.69
251.465	97.69
251.698	97.69
251.931	86.69
252.164	86.69
252.397	82.69
252.63	76.69
252.863	85.69
253.096	72.69
253.329	92.69
253.562	74.69
253.795	81.69
254.028	82.69
254.261	73.69
254.494	85.69
254.727	77.69
254.96	82.69
255.193	81.69
255.426	85.69
255.659	79.69
255.892	81.69
256.124	81.69
256.357	80.69
256.59	99.69
256.823	79.69
257.056	86.69
257.289	82.69
257.521	79.69
257.754	75.69
257.987	74.69
258.22	83.69
258.452	81.69
258.685	88.69
258.918	90.69
259.151	94.69
259.383	88.69
259.616	85.69
259.849	78.69
260.081	87.69
260.314	98.69
260.547	84.69
260.779	77.69
261.012	82.69
261.244	88.69
261.477	80.69
261.71	109.69
261.942	112.69
262.175	108.69
262.407	98.69
262.64	93.69
262.872	81.69
263.105	77.69
263.337	94.69
263.57	75.69
263.802	63.69
264.035	82.69
264.267	73.69
264.499	92.69
264.732	90.69
264.964	90.69
265.197	91.69
265.429	85.69
265.661	79.69
265.894	78.69
266.126	93.69
266.358	95.69
266.591	98.69
266.823	85.69
267.055	92.69
267.287	90.69
267.52	88.69
267.752	87.69
267.984	79.69
268.216	81.69
268.448	82.69
268.681	83.69
268.913	88.69
269.145	98.69
269.377	84.69
269.609	86.69
269.841	86.69
270.073	71.69
270.306	87.69
270.538	75.69
270.77	86.69
271.002	85.69
271.234	106.69
271.466	92.69
271.698	92.69
271.93	81.69
272.162	96.69
272.394	81.69
272.626	89.69
272.858	79.69
273.09	90.69
273.322	80.69
273.553	88.69
273.785	78.69
274.017	84.69
274.249	87.69
274.481	85.69
274.713	84.69
274.945	89.69
275.176	85.69
275.408	82.69
275.64	90.69
275.872	107.69
276.104	105.69
276.335	92.69
276.567	109.69
276.799	114.69
277.031	102.69
277.262	104.69
277.494	93.69
277.726	91.69
277.957	81.69
278.189	86.69
278.421	92.69
278.652	92.69
278.884	81.69
279.115	82.69
279.347	80.69
279.579	92.69
279.81	86.69
280.042	104.69
280.273	111.69
280.505	100.69
280.736	96.69
280.968	92.69
281.199	87.69
281.431	105.69
281.662	95.69
281.894	94.69
282.125	107.69
282.356	109.69
282.588	150.69
282.819	118.69
283.051	87.69
283.282	87.69
283.513	94.69
283.745	95.69
283.976	103.69
284.207	78.69
284.439	72.69
284.67	87.69
284.901	91.69
285.132	81.69
285.364	76.69
285.595	89.69
285.826	82.69
286.057	87.69
286.288	99.69
286.52	78.69
286.751	92.69
286.982	94.69
287.213	84.69
287.444	88.69
287.675	90.69
287.906	102.69
288.138	108.69
288.369	87.69
288.6	102.69
288.831	87.69
289.062	79.69
289.293	96.69
289.524	97.69
289.755	92.69
289.986	81.69
290.217	95.69
290.448	99.69
290.679	89.69
290.91	90.69
291.141	87.69
291.371	82.69
291.602	81.69
291.833	104.69
292.064	96.69
292.295	76.69
292.526	90.69
292.757	80.69
292.987	91.69
293.218	90.69
293.449	89.69
293.68	80.69
293.91	84.69
294.141	94.69
294.372	85.69
294.603	85.69
294.833	80.69
295.064	80.69
295.295	95.69
295.525	101.69
295.756	100.69
295.987	121.69
296.217	140.69
296.448	124.69
296.679	93.69
296.909	90.69
297.14	82.69
297.37	94.69
297.601	86.69
297.831	93.69
298.062	80.69
298.292	73.69
298.523	79.69
298.753	83.69
298.984	92.69
299.214	81.69
299.445	103.69
299.675	85.69
299.905	96.69
300.136	94.69
300.366	97.69
300.597	74.69
300.827	90.69
301.057	97.69
301.288	112.69
301.518	86.69
301.748	100.69
301.979	104.69
302.209	99.69
302.439	90.69
302.669	82.69
302.9	97.69
303.13	86.69
303.36	89.69
303.59	94.69
303.82	105.69
304.051	85.69
304.281	90.69
304.511	82.69
304.741	88.69
304.971	99.69
305.201	94.69
305.431	79.69
305.661	98.69
305.891	84.69
306.121	92.69
306.352	95.69
306.582	115.69
306.812	107.69
307.042	104.69
307.272	109.69
307.502	113.69
307.731	112.69
307.961	108.69
308.191	85.69
308.421	93.69
308.651	94.69
308.881	104.69
309.111	96.69
309.341	101.69
309.571	81.69
309.8	90.69
310.03	102.69
310.26	96.69
310.49	111.69
310.72	98.69
310.949	97.69
311.179	94.69
311.409	84.69
311.639	104.69
311.868	96.69
312.098	91.69
312.328	91.69
312.557	101.69
312.787	105.69
313.017	105.69
313.246	94.69
313.476	69.69
313.706	103.69
313.935	103.69
314.165	106.69
314.394	98.69
314.624	101.69
314.853	91.69
315.083	82.69
315.312	94.69
315.542	106.69
315.771	99.69
316.001	91.69
316.23	86.69
316.46	92.69
316.689	92.69
316.919	111.69
317.148	86.69
317.377	103.69
317.607	93.69
317.836	105.69
318.065	86.69
318.295	95.69
318.524	88.69
318.753	88.69
318.983	101.69
319.212	112.69
319.441	97.69
319.67	110.69
319.9	94.69
320.129	100.69
320.358	102.69
320.587	84.69
320.816	95.69
321.046	104.69
321.275	120.69
321.504	101.69
321.733	95.69
321.962	98.69
322.191	109.69
322.42	102.69
322.649	127.69
322.878	118.69
323.108	127.69
323.337	132.69
323.566	134.69
323.795	166.69
324.024	222.69
324.253	447.69
324.482	958.69
324.71	1920.69
324.939	2548.69
325.168	918.69
325.397	268.69
325.626	158.69
325.855	141.69
326.084	141.69
326.313	130.69
326.542	166.69
326.77	260.69
326.999	495.69
327.228	1062.69
327.457	1942.69
327.686	1570.69
327.914	446.69
328.143	226.69
328.372	207.69
328.6	174.69
328.829	132.69
329.058	140.69
329.287	139.69
329.515	113.69
329.744	125.69
329.972	150.69
330.201	208.69
330.43	254.69
330.658	199.69
330.887	164.69
331.115	132.69
331.344	110.69
331.572	95.69
331.801	116.69
332.03	109.69
332.258	102.69
332.486	97.69
332.715	99.69
332.943	93.69
333.172	95.69
333.4	94.69
333.629	110.69
333.857	114.69
334.085	139.69
334.314	192.69
334.542	292.69
334.771	268.69
334.999	149.69
335.227	115.69
335.455	105.69
335.684	103.69
335.912	107.69
336.14	88.69
336.369	91.69
336.597	119.69
336.825	103.69
337.053	93.69
337.281	82.69
337.51	92.69
337.738	112.69
337.966	99.69
338.194	98.69
338.422	98.69
338.65	96.69
338.878	92.69
339.106	96.69
339.334	87.69
339.562	89.69
339.79	101.69
340.018	90.69
340.246	82.69
340.474	82.69
340.702	100.69
340.93	85.69
341.158	91.69
341.386	93.69
341.614	109.69
341.842	82.69
342.07	92.69
342.298	102.69
342.526	92.69
342.754	90.69
342.981	77.69
343.209	82.69
343.437	100.69
343.665	95.69
343.893	101.69
344.12	101.69
344.348	104.69
344.576	97.69
344.804	84.69
345.031	97.69
345.259	118.69
345.487	108.69
345.714	94.69
345.942	94.69
346.17	95.69
346.397	102.69
346.625	87.69
346.853	84.69
347.08	99.69
347.308	94.69
347.535	101.69
347.763	118.69
347.99	109.69
348.218	103.69
348.445	110.69
348.673	106.69
348.9	101.69
349.128	92.69
349.355	91.69
349.583	101.69
349.81	87.69
350.037	86.69
350.265	103.69
350.492	106.69
350.72	104.69
350.947	97.69
351.174	108.69
351.402	112.69
351.629	111.69
351.856	99.69
352.083	100.69
352.311	110.69
352.538	115.69
352.765	107.69
352.992	118.69
353.22	110.69
353.447	95.69
353.674	121.69
353.901	106.69
354.128	100.69
354.355	85.69
354.583	89.69
354.81	98.69
355.037	98.69
355.264	87.69
355.491	87.69
355.718	100.69
355.945	96.69
356.172	93.69
356.399	86.69
356.626	93.69
356.853	102.69
357.08	102.69
357.307	89.69
357.534	94.69
357.761	91.69
357.988	103.69
358.215	89.69
358.441	77.69
358.668	95.69
358.895	93.69
359.122	107.69
359.349	101.69
359.576	103.69
359.802	87.69
360.029	115.69
360.256	112.69
360.483	96.69
360.709	80.69
360.936	89.69
361.163	81.69
361.39	103.69
361.616	96.69
361.843	94.69
362.07	96.69
362.296	96.69
362.523	112.69
362.749	98.69
362.976	83.69
363.203	93.69
363.429	85.69
363.656	100.69
363.882	102.69
364.109	92.69
364.335	72.69
364.562	82.69
364.788	93.69
365.015	96.69
365.241	106.69
365.468	121.69
365.694	114.69
365.92	100.69
366.147	79.69
366.373	85.69
366.599	78.69
366.826	88.69
367.052	93.69
367.278	82.69
367.505	102.69
367.731	90.69
367.957	85.69
368.184	84.69
368.41	97.69
368.636	109.69
368.862	130.69
369.089	103.69
369.315	102.69
369.541	81.69
369.767	81.69
369.993	96.69
370.219	80.69
370.445	98.69
370.672	93.69
370.898	92.69
371.124	81.69
371.35	105.69
371.576	91.69
371.802	79.69
372.028	82.69
372.254	82.69
372.48	81.69
372.706	76.69
372.932	92.69
373.158	86.69
373.384	93.69
373.61	93.69
373.835	104.69
374.061	80.69
374.287	89.69
374.513	90.69
374.739	78.69
374.965	88.69
375.191	93.69
375.416	79.69
375.642	89.69
375.868	102.69
376.094	103.69
376.319	95.69
376.545	96.69
376.771	90.69
376.997	98.69
377.222	90.69
377.448	95.69
377.674	100.69
377.899	76.69
378.125	91.69
378.35	100.69
378.576	96.69
378.802	86.69
379.027	94.69
379.253	95.69
379.478	101.69
379.704	88.69
379.929	91.69
380.155	79.69
380.38	89.69
380.606	85.69
380.831	82.69
381.057	90.69
381.282	91.69
381.507	87.69
381.733	101.69
381.958	96.69
382.184	113.69
382.409	89.69
382.634	99.69
382.86	94.69
383.085	107.69
383.31	103.69
383.535	90.69
383.761	89.69
383.986	99.69
384.211	89.69
384.436	88.69
384.662	92.69
384.887	94.69
385.112	85.69
385.337	107.69
385.562	102.69
385.787	107.69
386.013	92.69
386.238	107.69
386.463	99.69
386.688	105.69
386.913	100.69
387.138	93.69
387.363	96.69
387.588	77.69
387.813	102.69
388.038	102.69
388.263	89.69
388.488	94.69
388.713	87.69
388.938	92.69
389.163	91.69
389.387	105.69
389.612	95.69
389.837	95.69
390.062	89.69
390.287	88.69
390.512	90.69
390.736	87.69
390.961	93.69
391.186	98.69
391.411	99.69
391.636	78.69
391.86	82.69
392.085	98.69
392.31	85.69
392.534	95.69
392.759	93.69
392.984	81.69
393.208	85.69
393.433	81.69
393.658	90.69
393.882	86.69
394.107	74.69
394.331	83.69
394.556	74.69
394.78	87.69
395.005	91.69
395.229	90.69
395.454	98.69
395.678	83.69
395.903	90.69
396.127	92.69
396.352	104.69
396.576	70.69
396.801	87.69
397.025	86.69
397.249	82.69
397.474	101.69
397.698	89.69
397.922	89.69
398.147	102.69
398.371	77.69
398.595	89.69
398.82	82.69
399.044	90.69
399.268	86.69
399.492	93.69
399.717	109.69
399.941	106.69
400.165	104.69
400.389	102.69
400.613	87.69
400.837	94.69
401.062	98.69
401.286	91.69
401.51	97.69
401.734	89.69
401.958	106.69
402.182	136.69
402.406	173.69
402.63	120.69
402.854	97.69
403.078	97.69
403.302	98.69
403.526	96.69
403.75	87.69
403.974	73.69
404.198	76.69
404.422	95.69
404.645	94.69
404.869	81.69
405.093	99.69
405.317	106.69
405.541	102.69
405.765	110.69
405.988	105.69
406.212	175.69
406.436	241.69
406.66	165.69
406.883	90.69
407.107	103.69
407.331	95.69
407.555	93.69
407.778	101.69
408.002	92.69
408.226	85.69
408.449	94.69
408.673	87.69
408.896	96.69
409.12	107.69
409.344	90.69
409.567	100.69
409.791	86.69
410.014	99.69
410.238	88.69
410.461	87.69
410.685	100.69
410.908	81.69
411.132	98.69
411.355	115.69
411.578	92.69
411.802	87.69
412.025	106.69
412.249	88.69
412.472	106.69
412.695	106.69
412.919	96.69
413.142	95.69
413.365	76.69
413.589	86.69
413.812	87.69
414.035	97.69
414.258	92.69
414.482	89.69
414.705	86.69
414.928	77.69
415.151	86.69
415.374	88.69
415.597	87.69
415.821	89.69
416.044	84.69
416.267	97.69
416.49	96.69
416.713	88.69
416.936	77.69
417.159	93.69
417.382	75.69
417.605	88.69
417.828	98.69
418.051	100.69
418.274	104.69
418.497	87.69
418.72	88.69
418.943	83.69
419.166	82.69
419.389	85.69
419.611	94.69
419.834	83.69
420.057	95.69
420.28	86.69
420.503	83.69
420.726	81.69
420.948	92.69
421.171	100.69
421.394	100.69
421.617	91.69
421.839	96.69
422.062	84.69
422.285	88.69
422.507	101.69
422.73	105.69
422.953	102.69
423.175	90.69
423.398	94.69
423.621	100.69
423.843	80.69
424.066	86.69
424.288	84.69
424.511	96.69
424.733	109.69
424.956	104.69
425.178	93.69
425.401	111.69
425.623	105.69
425.846	100.69
426.068	95.69
426.291	92.69
426.513	86.69
426.735	92.69
426.958	89.69
427.18	113.69
427.402	154.69
427.625	202.69
427.847	144.69
428.069	121.69
428.292	96.69
428.514	88.69
428.736	79.69
428.958	96.69
429.181	96.69
429.403	89.69
429.625	97.69
429.847	105.69
430.069	105.69
430.292	98.69
430.514	83.69
430.736	104.69
430.958	78.69
431.18	96.69
431.402	74.69
431.624	89.69
431.846	83.69
432.068	90.69
432.29	94.69
432.512	86.69
432.734	76.69
432.956	88.69
433.178	99.69
433.4	101.69
433.622	87.69
433.844	74.69
434.066	77.69
434.287	85.69
434.509	88.69
434.731	89.69
434.953	88.69
435.175	96.69
435.397	88.69
435.618	107.69
435.84	128.69
436.062	121.69
436.284	123.69
436.505	101.69
436.727	116.69
436.949	102.69
437.17	87.69
437.392	85.69
437.614	104.69
437.835	102.69
438.057	109.69
438.278	119.69
438.5	108.69
438.721	124.69
438.943	96.69
439.165	92.69
439.386	108.69
439.608	81.69
439.829	105.69
440.05	123.69
440.272	154.69
440.493	95.69
440.715	101.69
440.936	92.69
441.158	81.69
441.379	93.69
441.6	89.69
441.822	107.69
442.043	95.69
442.264	115.69
442.486	111.69
442.707	95.69
442.928	111.69
443.149	129.69
443.371	138.69
443.592	122.69
443.813	126.69
444.034	104.69
444.255	99.69
444.476	91.69
444.698	92.69
444.919	75.69
445.14	128.69
445.361	128.69
445.582	137.69
445.803	144.69
446.024	158.69
446.245	149.69
446.466	106.69
446.687	91.69
446.908	118.69
447.129	90.69
447.35	94.69
447.571	96.69
447.792	102.69
448.013	85.69
448.234	111.69
448.455	102.69
448.675	104.69
448.896	119.69
449.117	108.69
449.338	93.69
449.559	158.69
449.779	134.69
450	95.69
450.221	99.69
450.442	94.69
450.662	88.69
450.883	104.69
451.104	111.69
451.324	97.69
451.545	88.69
451.766	90.69
451.986	84.69
452.207	95.69
452.428	96.69
452.648	106.69
452.869	121.69
453.089	136.69
453.31	120.69
453.53	111.69
453.751	99.69
453.971	104.69
454.192	119.69
454.412	96.69
454.633	88.69
454.853	90.69
455.073	78.69
455.294	106.69
455.514	92.69
455.734	89.69
455.955	87.69
456.175	94.69
456.395	87.69
456.616	87.69
456.836	97.69
457.056	98.69
457.276	89.69
457.497	89.69
457.717	96.69
457.937	96.69
458.157	88.69
458.377	101.69
458.598	105.69
458.818	175.69
459.038	173.69
459.258	124.69
459.478	110.69
459.698	87.69
459.918	87.69
460.138	85.69
460.358	78.69
460.578	82.69
460.798	76.69
461.018	89.69
461.238	89.69
461.458	84.69
461.678	100.69
461.898	87.69
462.118	86.69
462.338	93.69
462.558	76.69
462.777	92.69
462.997	103.69
463.217	97.69
463.437	96.69
463.657	81.69
463.876	93.69
464.096	82.69
464.316	101.69
464.536	98.69
464.755	86.69
464.975	109.69
465.195	168.69
465.414	183.69
465.634	108.69
465.854	95.69
466.073	88.69
466.293	86.69
466.512	88.69
466.732	87.69
466.951	91.69
467.171	103.69
467.391	91.69
467.61	115.69
467.829	125.69
468.049	153.69
468.268	165.69
468.488	89.69
468.707	83.69
468.927	77.69
469.146	98.69
469.365	88.69
469.585	97.69
469.804	90.69
470.023	105.69
470.243	105.69
470.462	113.69
470.681	101.69
470.901	91.69
471.12	77.69
471.339	87.69
471.558	113.69
471.777	101.69
471.997	110.69
472.216	202.69
472.435	349.69
472.654	147.69
472.873	93.69
473.092	98.69
473.311	93.69
473.53	81.69
473.749	89.69
473.968	95.69
474.187	108.69
474.406	89.69
474.625	94.69
474.844	93.69
475.063	90.69
475.282	84.69
475.501	85.69
475.72	101.69
475.939	79.69
476.158	88.69
476.377	80.69
476.596	89.69
476.814	79.69
477.033	90.69
477.252	81.69
477.471	98.69
477.69	100.69
477.908	96.69
478.127	110.69
478.346	90.69
478.564	101.69
478.783	96.69
479.002	84.69
479.22	82.69
479.439	103.69
479.658	111.69
479.876	76.69
480.095	89.69
480.313	105.69
480.532	87.69
480.751	120.69
480.969	205.69
481.188	553.69
481.406	390.69
481.624	133.69
481.843	101.69
482.061	96.69
482.28	97.69
482.498	108.69
482.717	92.69
482.935	75.69
483.153	84.69
483.372	80.69
483.59	103.69
483.808	91.69
484.027	90.69
484.245	87.69
484.463	104.69
484.681	108.69
484.9	97.69
485.118	91.69
485.336	98.69
485.554	100.69
485.772	99.69
485.99	106.69
486.209	89.69
486.427	97.69
486.645	117.69
486.863	106.69
487.081	91.69
487.299	111.69
487.517	91.69
487.735	88.69
487.953	92.69
488.171	95.69
488.389	81.69
488.607	113.69
488.825	103.69
489.043	87.69
489.261	86.69
489.479	88.69
489.696	85.69
489.914	105.69
490.132	105.69
490.35	87.69
490.568	97.69
490.786	91.69
491.003	93.69
491.221	85.69
491.439	97.69
491.657	92.69
491.874	89.69
492.092	91.69
492.31	91.69
492.527	94.69
492.745	101.69
492.963	96.69
493.18	91.69
493.398	98.69
493.615	104.69
493.833	102.69
494.05	88.69
494.268	94.69
494.485	92.69
494.703	87.69
494.92	88.69
495.138	92.69
495.355	93.69
495.573	97.69
495.79	83.69
496.008	92.69
496.225	86.69
496.442	105.69
496.66	110.69
496.877	100.69
497.094	100.69
497.312	93.69
497.529	99.69
497.746	78.69
497.963	93.69
498.181	94.69
498.398	87.69
498.615	119.69
498.832	122.69
499.049	80.69
499.267	89.69
499.484	98.69
499.701	89.69
499.918	90.69
500.135	95.69
500.352	90.69
500.569	92.69
500.786	95.69
501.003	96.69
501.22	97.69
501.437	89.69
501.654	84.69
501.871	130.69
502.088	102.69
502.305	86.69
502.522	96.69
502.739	97.69
502.956	70.69
503.172	105.69
503.389	96.69
503.606	98.69
503.823	96.69
504.04	96.69
504.256	90.69
504.473	91.69
504.69	74.69
504.907	89.69
505.123	85.69
505.34	95.69
505.557	93.69
505.773	104.69
505.99	96.69
506.207	95.69
506.423	96.69
506.64	93.69
506.856	104.69
507.073	82.69
507.289	93.69
507.506	90.69
507.722	116.69
507.939	106.69
508.155	93.69
508.372	91.69
508.588	92.69
508.805	89.69
509.021	101.69
509.238	109.69
509.454	103.69
509.67	109.69
509.887	110.69
510.103	140.69
510.319	218.69
510.536	817.69
510.752	2632.69
510.968	763.69
511.184	170.69
511.401	135.69
511.617	112.69
511.833	104.69
512.049	92.69
512.265	89.69
512.481	87.69
512.698	94.69
512.914	96.69
513.13	94.69
513.346	102.69
513.562	99.69
513.778	85.69
513.994	87.69
514.21	86.69
514.426	112.69
514.642	143.69
