Data from Circ_2011_H10_HRD10591_00047.txt Node
Date: Wed Jan 03 10:08:08 EST 2024
User: Yrep
Spectrometer: HR+D1059
Trigger mode: 1
Integration Time (sec): 1.000000E-1
Scans to average: 1
Electric dark correction enabled: true
Nonlinearity correction enabled: false
Boxcar width: 0
XAxis mode: Wavelengths
Number of Pixels in Spectrum: 2048
>>>>>Begin Spectral Data<<<<<
223.165	-20.69
223.4	-20.69
223.635	-20.69
223.869	-20.69
224.104	-16.69
224.338	-18.69
224.573	-21.69
224.808	-16.69
225.042	-5.69
225.277	-2.69
225.511	14.31
225.746	5.31
225.98	6.31
226.215	7.31
226.449	7.31
226.683	16.31
226.918	26.31
227.152	40.31
227.387	49.31
227.621	41.31
227.856	44.31
228.09	51.31
228.324	51.31
228.559	48.31
228.793	53.31
229.027	55.31
229.262	79.31
229.496	63.31
229.73	80.31
229.964	89.31
230.199	76.31
230.433	81.31
230.667	75.31
230.901	73.31
231.136	78.31
231.37	90.31
231.604	84.31
231.838	96.31
232.072	71.31
232.306	63.31
232.541	77.31
232.775	86.31
233.009	94.31
233.243	79.31
233.477	77.31
233.711	87.31
233.945	73.31
234.179	84.31
234.413	77.31
234.647	90.31
234.881	75.31
235.115	81.31
235.349	75.31
235.583	72.31
235.817	67.31
236.051	83.31
236.285	89.31
236.519	81.31
236.753	72.31
236.987	69.31
237.221	79.31
237.455	90.31
237.689	85.31
237.922	89.31
238.156	81.31
238.39	73.31
238.624	73.31
238.858	86.31
239.091	73.31
239.325	76.31
239.559	79.31
239.793	77.31
240.027	81.31
240.26	68.31
240.494	81.31
240.728	63.31
240.961	78.31
241.195	86.31
241.429	79.31
241.662	80.31
241.896	80.31
242.13	88.31
242.363	69.31
242.597	73.31
242.83	78.31
243.064	78.31
243.298	81.31
243.531	71.31
243.765	79.31
243.998	92.31
244.232	95.31
244.465	88.31
244.699	69.31
244.932	75.31
245.166	71.31
245.399	91.31
245.633	67.31
245.866	80.31
246.099	88.31
246.333	79.31
246.566	72.31
246.8	82.31
247.033	52.31
247.266	71.31
247.5	55.31
247.733	97.31
247.966	71.31
248.2	80.31
248.433	70.31
248.666	75.31
248.899	78.31
249.133	88.31
249.366	85.31
249.599	93.31
249.832	73.31
250.066	79.31
250.299	95.31
250.532	71.31
250.765	72.31
250.998	85.31
251.231	76.31
251.465	77.31
251.698	76.31
251.931	80.31
252.164	84.31
252.397	85.31
252.63	87.31
252.863	70.31
253.096	100.31
253.329	73.31
253.562	79.31
253.795	79.31
254.028	78.31
254.261	100.31
254.494	70.31
254.727	89.31
254.96	73.31
255.193	86.31
255.426	91.31
255.659	88.31
255.892	84.31
256.124	86.31
256.357	78.31
256.59	81.31
256.823	76.31
257.056	86.31
257.289	89.31
257.521	84.31
257.754	87.31
257.987	71.31
258.22	79.31
258.452	90.31
258.685	92.31
258.918	97.31
259.151	73.31
259.383	83.31
259.616	88.31
259.849	83.31
260.081	93.31
260.314	92.31
260.547	82.31
260.779	65.31
261.012	79.31
261.244	76.31
261.477	86.31
261.71	104.31
261.942	110.31
262.175	103.31
262.407	85.31
262.64	79.31
262.872	89.31
263.105	97.31
263.337	75.31
263.57	85.31
263.802	87.31
264.035	75.31
264.267	77.31
264.499	92.31
264.732	87.31
264.964	76.31
265.197	80.31
265.429	91.31
265.661	77.31
265.894	82.31
266.126	85.31
266.358	87.31
266.591	80.31
266.823	91.31
267.055	75.31
267.287	91.31
267.52	89.31
267.752	78.31
267.984	76.31
268.216	83.31
268.448	84.31
268.681	76.31
268.913	85.31
269.145	81.31
269.377	85.31
269.609	85.31
269.841	91.31
270.073	86.31
270.306	83.31
270.538	98.31
270.77	89.31
271.002	97.31
271.234	81.31
271.466	85.31
271.698	85.31
271.93	96.31
272.162	82.31
272.394	62.31
272.626	82.31
272.858	90.31
273.09	77.31
273.322	89.31
273.553	83.31
273.785	89.31
274.017	86.31
274.249	100.31
274.481	92.31
274.713	97.31
274.945	89.31
275.176	75.31
275.408	91.31
275.64	91.31
275.872	95.31
276.104	96.31
276.335	96.31
276.567	94.31
276.799	114.31
277.031	103.31
277.262	99.31
277.494	90.31
277.726	88.31
277.957	88.31
278.189	98.31
278.421	93.31
278.652	87.31
278.884	84.31
279.115	85.31
279.347	74.31
279.579	85.31
279.81	89.31
280.042	92.31
280.273	92.31
280.505	97.31
280.736	72.31
280.968	95.31
281.199	92.31
281.431	95.31
281.662	88.31
281.894	104.31
282.125	97.31
282.356	105.31
282.588	128.31
282.819	100.31
283.051	108.31
283.282	73.31
283.513	82.31
283.745	83.31
283.976	77.31
284.207	76.31
284.439	65.31
284.67	76.31
284.901	82.31
285.132	80.31
285.364	92.31
285.595	98.31
285.826	89.31
286.057	105.31
286.288	88.31
286.52	69.31
286.751	86.31
286.982	86.31
287.213	90.31
287.444	99.31
287.675	87.31
287.906	96.31
288.138	85.31
288.369	90.31
288.6	86.31
288.831	92.31
289.062	89.31
289.293	88.31
289.524	72.31
289.755	73.31
289.986	93.31
290.217	83.31
290.448	80.31
290.679	85.31
290.91	69.31
291.141	86.31
291.371	87.31
291.602	90.31
291.833	74.31
292.064	85.31
292.295	104.31
292.526	81.31
292.757	88.31
292.987	81.31
293.218	85.31
293.449	79.31
293.68	87.31
293.91	93.31
294.141	102.31
294.372	92.31
294.603	95.31
294.833	89.31
295.064	92.31
295.295	89.31
295.525	100.31
295.756	115.31
295.987	118.31
296.217	133.31
296.448	153.31
296.679	100.31
296.909	71.31
297.14	86.31
297.37	98.31
297.601	92.31
297.831	94.31
298.062	81.31
298.292	87.31
298.523	89.31
298.753	92.31
298.984	91.31
299.214	83.31
299.445	82.31
299.675	77.31
299.905	81.31
300.136	89.31
300.366	100.31
300.597	92.31
300.827	86.31
301.057	99.31
301.288	88.31
301.518	95.31
301.748	89.31
301.979	90.31
302.209	77.31
302.439	91.31
302.669	90.31
302.9	87.31
303.13	112.31
303.36	94.31
303.59	92.31
303.82	106.31
304.051	93.31
304.281	85.31
304.511	95.31
304.741	89.31
304.971	97.31
305.201	108.31
305.431	86.31
305.661	80.31
305.891	101.31
306.121	101.31
306.352	96.31
306.582	105.31
306.812	92.31
307.042	96.31
307.272	75.31
307.502	106.31
307.731	106.31
307.961	79.31
308.191	98.31
308.421	83.31
308.651	95.31
308.881	87.31
309.111	94.31
309.341	89.31
309.571	96.31
309.8	93.31
310.03	94.31
310.26	101.31
310.49	86.31
310.72	86.31
310.949	90.31
311.179	99.31
311.409	84.31
311.639	110.31
311.868	97.31
312.098	102.31
312.328	100.31
312.557	96.31
312.787	105.31
313.017	110.31
313.246	110.31
313.476	89.31
313.706	85.31
313.935	103.31
314.165	94.31
314.394	100.31
314.624	102.31
314.853	97.31
315.083	104.31
315.312	105.31
315.542	76.31
315.771	92.31
316.001	95.31
316.23	88.31
316.46	84.31
316.689	93.31
316.919	100.31
317.148	104.31
317.377	95.31
317.607	91.31
317.836	107.31
318.065	93.31
318.295	102.31
318.524	75.31
318.753	97.31
318.983	88.31
319.212	106.31
319.441	105.31
319.67	119.31
319.9	93.31
320.129	96.31
320.358	92.31
320.587	102.31
320.816	100.31
321.046	120.31
321.275	96.31
321.504	90.31
321.733	91.31
321.962	104.31
322.191	111.31
322.42	98.31
322.649	110.31
322.878	111.31
323.108	112.31
323.337	131.31
323.566	145.31
323.795	159.31
324.024	205.31
324.253	423.31
324.482	885.31
324.71	1779.31
324.939	2299.31
325.168	850.31
325.397	244.31
325.626	154.31
325.855	133.31
326.084	135.31
326.313	134.31
326.542	167.31
326.77	246.31
326.999	493.31
327.228	1008.31
327.457	1815.31
327.686	1433.31
327.914	376.31
328.143	206.31
328.372	191.31
328.6	140.31
328.829	112.31
329.058	121.31
329.287	130.31
329.515	119.31
329.744	127.31
329.972	122.31
330.201	164.31
330.43	196.31
330.658	149.31
330.887	144.31
331.115	107.31
331.344	109.31
331.572	104.31
331.801	95.31
332.03	95.31
332.258	79.31
332.486	89.31
332.715	100.31
332.943	90.31
333.172	85.31
333.4	105.31
333.629	96.31
333.857	121.31
334.085	127.31
334.314	176.31
334.542	225.31
334.771	238.31
334.999	120.31
335.227	107.31
335.455	96.31
335.684	97.31
335.912	80.31
336.14	100.31
336.369	99.31
336.597	92.31
336.825	97.31
337.053	86.31
337.281	88.31
337.51	89.31
337.738	96.31
337.966	96.31
338.194	100.31
338.422	101.31
338.65	79.31
338.878	89.31
339.106	98.31
339.334	91.31
339.562	80.31
339.79	96.31
340.018	91.31
340.246	94.31
340.474	84.31
340.702	84.31
340.93	105.31
341.158	97.31
341.386	95.31
341.614	87.31
341.842	81.31
342.07	89.31
342.298	83.31
342.526	86.31
342.754	81.31
342.981	83.31
343.209	91.31
343.437	91.31
343.665	87.31
343.893	86.31
344.12	86.31
344.348	92.31
344.576	93.31
344.804	88.31
345.031	91.31
345.259	84.31
345.487	77.31
345.714	81.31
345.942	88.31
346.17	80.31
346.397	96.31
346.625	87.31
346.853	93.31
347.08	99.31
347.308	94.31
347.535	99.31
347.763	86.31
347.99	84.31
348.218	99.31
348.445	95.31
348.673	89.31
348.9	97.31
349.128	89.31
349.355	86.31
349.583	97.31
349.81	94.31
350.037	92.31
350.265	96.31
350.492	105.31
350.72	106.31
350.947	104.31
351.174	107.31
351.402	112.31
351.629	104.31
351.856	106.31
352.083	101.31
352.311	105.31
352.538	98.31
352.765	104.31
352.992	116.31
353.22	101.31
353.447	97.31
353.674	97.31
353.901	115.31
354.128	95.31
354.355	91.31
354.583	100.31
354.81	96.31
355.037	91.31
355.264	84.31
355.491	84.31
355.718	81.31
355.945	103.31
356.172	81.31
356.399	95.31
356.626	103.31
356.853	91.31
357.08	85.31
357.307	97.31
357.534	86.31
357.761	104.31
357.988	89.31
358.215	84.31
358.441	92.31
358.668	93.31
358.895	101.31
359.122	88.31
359.349	89.31
359.576	101.31
359.802	107.31
360.029	134.31
360.256	107.31
360.483	93.31
360.709	87.31
360.936	94.31
361.163	98.31
361.39	93.31
361.616	89.31
361.843	71.31
362.07	96.31
362.296	96.31
362.523	85.31
362.749	91.31
362.976	96.31
363.203	104.31
363.429	95.31
363.656	81.31
363.882	93.31
364.109	97.31
364.335	79.31
364.562	102.31
364.788	96.31
365.015	94.31
365.241	105.31
365.468	115.31
365.694	105.31
365.92	99.31
366.147	100.31
366.373	96.31
366.599	92.31
366.826	88.31
367.052	92.31
367.278	81.31
367.505	93.31
367.731	87.31
367.957	82.31
368.184	87.31
368.41	98.31
368.636	108.31
368.862	114.31
369.089	103.31
369.315	96.31
369.541	87.31
369.767	102.31
369.993	89.31
370.219	69.31
370.445	107.31
370.672	86.31
370.898	92.31
371.124	89.31
371.35	87.31
371.576	97.31
371.802	85.31
372.028	76.31
372.254	78.31
372.48	95.31
372.706	104.31
372.932	92.31
373.158	99.31
373.384	84.31
373.61	95.31
373.835	92.31
374.061	96.31
374.287	92.31
374.513	101.31
374.739	90.31
374.965	92.31
375.191	78.31
375.416	86.31
375.642	97.31
375.868	92.31
376.094	101.31
376.319	91.31
376.545	79.31
376.771	75.31
376.997	103.31
377.222	90.31
377.448	92.31
377.674	86.31
377.899	84.31
378.125	86.31
378.35	87.31
378.576	90.31
378.802	93.31
379.027	96.31
379.253	84.31
379.478	80.31
379.704	92.31
379.929	92.31
380.155	88.31
380.38	90.31
380.606	87.31
380.831	97.31
381.057	96.31
381.282	97.31
381.507	77.31
381.733	95.31
381.958	96.31
382.184	90.31
382.409	87.31
382.634	90.31
382.86	105.31
383.085	100.31
383.31	81.31
383.535	110.31
383.761	90.31
383.986	109.31
384.211	105.31
384.436	87.31
384.662	92.31
384.887	85.31
385.112	87.31
385.337	96.31
385.562	94.31
385.787	101.31
386.013	96.31
386.238	96.31
386.463	91.31
386.688	102.31
386.913	112.31
387.138	85.31
387.363	92.31
387.588	101.31
387.813	92.31
388.038	101.31
388.263	88.31
388.488	100.31
388.713	88.31
388.938	80.31
389.163	102.31
389.387	95.31
389.612	92.31
389.837	101.31
390.062	92.31
390.287	87.31
390.512	85.31
390.736	89.31
390.961	84.31
391.186	95.31
391.411	76.31
391.636	92.31
391.86	78.31
392.085	86.31
392.31	81.31
392.534	108.31
392.759	78.31
392.984	89.31
393.208	92.31
393.433	91.31
393.658	90.31
393.882	90.31
394.107	88.31
394.331	75.31
394.556	89.31
394.78	89.31
395.005	80.31
395.229	87.31
395.454	96.31
395.678	78.31
395.903	87.31
396.127	94.31
396.352	94.31
396.576	80.31
396.801	98.31
397.025	101.31
397.249	86.31
397.474	86.31
397.698	94.31
397.922	81.31
398.147	82.31
398.371	86.31
398.595	70.31
398.82	96.31
399.044	79.31
399.268	86.31
399.492	101.31
399.717	78.31
399.941	84.31
400.165	88.31
400.389	106.31
400.613	97.31
400.837	75.31
401.062	80.31
401.286	90.31
401.51	96.31
401.734	98.31
401.958	90.31
402.182	122.31
402.406	145.31
402.63	120.31
402.854	95.31
403.078	97.31
403.302	83.31
403.526	102.31
403.75	83.31
403.974	75.31
404.198	80.31
404.422	92.31
404.645	81.31
404.869	101.31
405.093	96.31
405.317	96.31
405.541	92.31
405.765	93.31
405.988	109.31
406.212	159.31
406.436	223.31
406.66	144.31
406.883	89.31
407.107	98.31
407.331	96.31
407.555	98.31
407.778	89.31
408.002	103.31
408.226	80.31
408.449	83.31
408.673	80.31
408.896	80.31
409.12	104.31
409.344	86.31
409.567	96.31
409.791	91.31
410.014	94.31
410.238	103.31
410.461	92.31
410.685	83.31
410.908	98.31
411.132	121.31
411.355	88.31
411.578	83.31
411.802	85.31
412.025	81.31
412.249	84.31
412.472	99.31
412.695	100.31
412.919	85.31
413.142	89.31
413.365	85.31
413.589	79.31
413.812	83.31
414.035	87.31
414.258	89.31
414.482	96.31
414.705	89.31
414.928	88.31
415.151	97.31
415.374	95.31
415.597	88.31
415.821	91.31
416.044	89.31
416.267	72.31
416.49	91.31
416.713	85.31
416.936	82.31
417.159	89.31
417.382	102.31
417.605	87.31
417.828	78.31
418.051	94.31
418.274	99.31
418.497	90.31
418.72	85.31
418.943	94.31
419.166	75.31
419.389	99.31
419.611	72.31
419.834	83.31
420.057	95.31
420.28	101.31
420.503	88.31
420.726	99.31
420.948	94.31
421.171	97.31
421.394	81.31
421.617	84.31
421.839	83.31
422.062	98.31
422.285	103.31
422.507	96.31
422.73	106.31
422.953	102.31
423.175	81.31
423.398	80.31
423.621	82.31
423.843	103.31
424.066	86.31
424.288	86.31
424.511	90.31
424.733	85.31
424.956	101.31
425.178	103.31
425.401	86.31
425.623	107.31
425.846	99.31
426.068	92.31
426.291	100.31
426.513	84.31
426.735	93.31
426.958	99.31
427.18	100.31
427.402	132.31
427.625	163.31
427.847	141.31
428.069	137.31
428.292	100.31
428.514	86.31
428.736	92.31
428.958	78.31
429.181	95.31
429.403	95.31
429.625	80.31
429.847	87.31
430.069	96.31
430.292	85.31
430.514	88.31
430.736	104.31
430.958	86.31
431.18	86.31
431.402	96.31
431.624	85.31
431.846	86.31
432.068	91.31
432.29	82.31
432.512	91.31
432.734	87.31
432.956	79.31
433.178	101.31
433.4	94.31
433.622	102.31
433.844	96.31
434.066	81.31
434.287	90.31
434.509	85.31
434.731	92.31
434.953	89.31
435.175	100.31
435.397	88.31
435.618	83.31
435.84	100.31
436.062	105.31
436.284	131.31
436.505	95.31
436.727	89.31
436.949	90.31
437.17	82.31
437.392	87.31
437.614	100.31
437.835	105.31
438.057	118.31
438.278	98.31
438.5	104.31
438.721	114.31
438.943	108.31
439.165	101.31
439.386	100.31
439.608	84.31
439.829	97.31
440.05	106.31
440.272	147.31
440.493	99.31
440.715	91.31
440.936	84.31
441.158	97.31
441.379	92.31
441.6	87.31
441.822	100.31
442.043	94.31
442.264	91.31
442.486	102.31
442.707	111.31
442.928	108.31
443.149	113.31
443.371	118.31
443.592	112.31
443.813	108.31
444.034	100.31
444.255	85.31
444.476	93.31
444.698	79.31
444.919	71.31
445.14	129.31
445.361	132.31
445.582	117.31
445.803	121.31
446.024	145.31
446.245	135.31
446.466	107.31
446.687	93.31
446.908	86.31
447.129	104.31
447.35	100.31
447.571	103.31
447.792	90.31
448.013	99.31
448.234	102.31
448.455	112.31
448.675	110.31
448.896	121.31
449.117	89.31
449.338	102.31
449.559	116.31
449.779	129.31
450	92.31
450.221	80.31
450.442	86.31
450.662	88.31
450.883	100.31
451.104	115.31
451.324	89.31
451.545	92.31
451.766	87.31
451.986	92.31
452.207	89.31
452.428	89.31
452.648	105.31
452.869	129.31
453.089	123.31
453.31	97.31
453.53	103.31
453.751	96.31
453.971	100.31
454.192	117.31
454.412	76.31
454.633	81.31
454.853	87.31
455.073	90.31
455.294	92.31
455.514	94.31
455.734	88.31
455.955	82.31
456.175	92.31
456.395	87.31
456.616	97.31
456.836	85.31
457.056	69.31
457.276	79.31
457.497	88.31
457.717	79.31
457.937	100.31
458.157	83.31
458.377	97.31
458.598	99.31
458.818	132.31
459.038	148.31
459.258	117.31
459.478	84.31
459.698	90.31
459.918	91.31
460.138	84.31
460.358	97.31
460.578	94.31
460.798	89.31
461.018	75.31
461.238	83.31
461.458	90.31
461.678	81.31
461.898	91.31
462.118	84.31
462.338	75.31
462.558	92.31
462.777	91.31
462.997	91.31
463.217	78.31
463.437	92.31
463.657	80.31
463.876	93.31
464.096	83.31
464.316	93.31
464.536	93.31
464.755	84.31
464.975	111.31
465.195	142.31
465.414	153.31
465.634	84.31
465.854	84.31
466.073	93.31
466.293	80.31
466.512	87.31
466.732	86.31
466.951	84.31
467.171	81.31
467.391	92.31
467.61	107.31
467.829	97.31
468.049	115.31
468.268	155.31
468.488	102.31
468.707	79.31
468.927	98.31
469.146	90.31
469.365	91.31
469.585	87.31
469.804	75.31
470.023	85.31
470.243	91.31
470.462	105.31
470.681	78.31
470.901	80.31
471.12	92.31
471.339	80.31
471.558	84.31
471.777	96.31
471.997	90.31
472.216	185.31
472.435	300.31
472.654	135.31
472.873	83.31
473.092	94.31
473.311	79.31
473.53	89.31
473.749	87.31
473.968	86.31
474.187	92.31
474.406	97.31
474.625	75.31
474.844	85.31
475.063	91.31
475.282	90.31
475.501	95.31
475.72	85.31
475.939	84.31
476.158	82.31
476.377	84.31
476.596	89.31
476.814	95.31
477.033	91.31
477.252	85.31
477.471	85.31
477.69	89.31
477.908	91.31
478.127	81.31
478.346	93.31
478.564	90.31
478.783	92.31
479.002	82.31
479.22	94.31
479.439	96.31
479.658	84.31
479.876	85.31
480.095	83.31
480.313	80.31
480.532	80.31
480.751	112.31
480.969	180.31
481.188	490.31
481.406	320.31
481.624	110.31
481.843	80.31
482.061	97.31
482.28	91.31
482.498	95.31
482.717	84.31
482.935	85.31
483.153	91.31
483.372	91.31
483.59	87.31
483.808	90.31
484.027	72.31
484.245	83.31
484.463	88.31
484.681	100.31
484.9	91.31
485.118	84.31
485.336	108.31
485.554	104.31
485.772	88.31
485.99	93.31
486.209	97.31
486.427	106.31
486.645	107.31
486.863	109.31
487.081	108.31
487.299	91.31
487.517	101.31
487.735	80.31
487.953	95.31
488.171	76.31
488.389	89.31
488.607	85.31
488.825	90.31
489.043	96.31
489.261	99.31
489.479	78.31
489.696	93.31
489.914	90.31
490.132	97.31
490.35	97.31
490.568	86.31
490.786	86.31
491.003	89.31
491.221	89.31
491.439	84.31
491.657	78.31
491.874	85.31
492.092	81.31
492.31	83.31
492.527	96.31
492.745	85.31
492.963	96.31
493.18	89.31
493.398	89.31
493.615	92.31
493.833	101.31
494.05	88.31
494.268	97.31
494.485	91.31
494.703	89.31
494.92	95.31
495.138	94.31
495.355	93.31
495.573	94.31
495.79	79.31
496.008	88.31
496.225	98.31
496.442	80.31
496.66	107.31
496.877	78.31
497.094	83.31
497.312	101.31
497.529	86.31
497.746	85.31
497.963	92.31
498.181	80.31
498.398	84.31
498.615	97.31
498.832	103.31
499.049	86.31
499.267	96.31
499.484	79.31
499.701	94.31
499.918	90.31
500.135	74.31
500.352	91.31
500.569	89.31
500.786	91.31
501.003	84.31
501.22	96.31
501.437	85.31
501.654	106.31
501.871	111.31
502.088	93.31
502.305	92.31
502.522	81.31
502.739	91.31
502.956	100.31
503.172	100.31
503.389	83.31
503.606	103.31
503.823	96.31
504.04	91.31
504.256	99.31
504.473	84.31
504.69	97.31
504.907	98.31
505.123	76.31
505.34	86.31
505.557	95.31
505.773	84.31
505.99	97.31
506.207	83.31
506.423	94.31
506.64	97.31
506.856	89.31
507.073	88.31
507.289	94.31
507.506	84.31
507.722	114.31
507.939	105.31
508.155	79.31
508.372	73.31
508.588	87.31
508.805	94.31
509.021	108.31
509.238	100.31
509.454	85.31
509.67	91.31
509.887	92.31
510.103	139.31
510.319	211.31
510.536	717.31
510.752	2197.31
510.968	648.31
511.184	156.31
511.401	97.31
511.617	97.31
511.833	88.31
512.049	96.31
512.265	95.31
512.481	104.31
512.698	100.31
512.914	96.31
513.13	95.31
513.346	86.31
513.562	93.31
513.778	93.31
513.994	86.31
514.21	111.31
514.426	120.31
514.642	135.31
514.858	137.31
515.074	161.31
515.29	423.31
515.506	1354.31
515.721	532.31
