Data from Circ_2011_H10_HRD10591_00006.txt Node
Date: Wed Jan 03 10:08:00 EST 2024
User: Yrep
Spectrometer: HR+D1059
Trigger mode: 1
Integration Time (sec): 1.000000E-1
Scans to average: 1
Electric dark correction enabled: true
Nonlinearity correction enabled: false
Boxcar width: 0
XAxis mode: Wavelengths
Number of Pixels in Spectrum: 2048
>>>>>Begin Spectral Data<<<<<
223.165	-17
223.4	-17
223.635	-17
223.869	-8
224.104	-13
224.338	-12
224.573	-27
224.808	-13
225.042	3
225.277	-6
225.511	-5
225.746	4
225.98	12
226.215	8
226.449	8
226.683	19
226.918	18
227.152	29
227.387	30
227.621	43
227.856	56
228.09	41
228.324	45
228.559	55
228.793	49
229.027	62
229.262	74
229.496	67
229.73	91
229.964	99
230.199	73
230.433	77
230.667	66
230.901	76
231.136	90
231.37	80
231.604	83
231.838	92
232.072	68
232.306	95
232.541	69
232.775	84
233.009	101
233.243	85
233.477	80
233.711	86
233.945	95
234.179	98
234.413	87
234.647	87
234.881	82
235.115	76
235.349	80
235.583	75
235.817	77
236.051	82
236.285	82
236.519	71
236.753	70
236.987	69
237.221	105
237.455	101
237.689	78
237.922	89
238.156	81
238.39	59
238.624	65
238.858	68
239.091	90
239.325	75
239.559	88
239.793	77
240.027	92
240.26	82
240.494	81
240.728	93
240.961	71
241.195	89
241.429	74
241.662	75
241.896	75
242.13	78
242.363	74
242.597	84
242.83	78
243.064	70
243.298	82
243.531	90
243.765	78
243.998	68
244.232	83
244.465	82
244.699	89
244.932	91
245.166	76
245.399	87
245.633	79
245.866	87
246.099	76
246.333	80
246.566	82
246.8	85
247.033	72
247.266	78
247.5	74
247.733	94
247.966	92
248.2	94
248.433	89
248.666	86
248.899	77
249.133	91
249.366	97
249.599	108
249.832	90
250.066	75
250.299	80
250.532	86
250.765	71
250.998	76
251.231	74
251.465	73
251.698	84
251.931	80
252.164	100
252.397	89
252.63	74
252.863	75
253.096	76
253.329	87
253.562	81
253.795	82
254.028	89
254.261	88
254.494	83
254.727	88
254.96	90
255.193	98
255.426	94
255.659	74
255.892	92
256.124	100
256.357	79
256.59	66
256.823	74
257.056	79
257.289	102
257.521	93
257.754	86
257.987	93
258.22	85
258.452	97
258.685	95
258.918	95
259.151	87
259.383	77
259.616	85
259.849	90
260.081	77
260.314	89
260.547	80
260.779	86
261.012	84
261.244	93
261.477	94
261.71	107
261.942	122
262.175	130
262.407	84
262.64	80
262.872	90
263.105	83
263.337	87
263.57	88
263.802	77
264.035	75
264.267	85
264.499	87
264.732	75
264.964	88
265.197	75
265.429	92
265.661	93
265.894	91
266.126	92
266.358	88
266.591	93
266.823	81
267.055	81
267.287	82
267.52	79
267.752	81
267.984	84
268.216	81
268.448	92
268.681	99
268.913	91
269.145	98
269.377	84
269.609	96
269.841	86
270.073	89
270.306	84
270.538	88
270.77	83
271.002	89
271.234	94
271.466	93
271.698	83
271.93	88
272.162	90
272.394	94
272.626	77
272.858	82
273.09	79
273.322	106
273.553	91
273.785	90
274.017	80
274.249	95
274.481	88
274.713	86
274.945	86
275.176	79
275.408	99
275.64	74
275.872	85
276.104	107
276.335	102
276.567	109
276.799	110
277.031	110
277.262	114
277.494	97
277.726	93
277.957	85
278.189	87
278.421	67
278.652	89
278.884	92
279.115	92
279.347	87
279.579	98
279.81	82
280.042	90
280.273	98
280.505	74
280.736	100
280.968	89
281.199	84
281.431	77
281.662	96
281.894	107
282.125	106
282.356	123
282.588	147
282.819	120
283.051	89
283.282	81
283.513	92
283.745	90
283.976	91
284.207	88
284.439	90
284.67	84
284.901	92
285.132	98
285.364	84
285.595	87
285.826	94
286.057	105
286.288	89
286.52	96
286.751	87
286.982	90
287.213	88
287.444	99
287.675	97
287.906	93
288.138	91
288.369	103
288.6	94
288.831	83
289.062	82
289.293	92
289.524	101
289.755	96
289.986	86
290.217	93
290.448	98
290.679	95
290.91	94
291.141	86
291.371	93
291.602	92
291.833	96
292.064	83
292.295	93
292.526	84
292.757	85
292.987	96
293.218	99
293.449	98
293.68	96
293.91	94
294.141	77
294.372	82
294.603	84
294.833	81
295.064	110
295.295	102
295.525	91
295.756	107
295.987	111
296.217	163
296.448	147
296.679	80
296.909	83
297.14	103
297.37	97
297.601	95
297.831	95
298.062	105
298.292	81
298.523	107
298.753	80
298.984	85
299.214	85
299.445	108
299.675	96
299.905	84
300.136	95
300.366	96
300.597	87
300.827	104
301.057	104
301.288	97
301.518	109
301.748	95
301.979	99
302.209	93
302.439	94
302.669	89
302.9	100
303.13	88
303.36	106
303.59	113
303.82	110
304.051	97
304.281	98
304.511	101
304.741	82
304.971	92
305.201	98
305.431	83
305.661	90
305.891	101
306.121	98
306.352	107
306.582	113
306.812	106
307.042	106
307.272	93
307.502	111
307.731	94
307.961	97
308.191	86
308.421	94
308.651	74
308.881	100
309.111	104
309.341	93
309.571	102
309.8	92
310.03	109
310.26	94
310.49	106
310.72	116
310.949	103
311.179	104
311.409	109
311.639	101
311.868	108
312.098	90
312.328	101
312.557	106
312.787	106
313.017	103
313.246	97
313.476	105
313.706	95
313.935	107
314.165	107
314.394	110
314.624	103
314.853	100
315.083	103
315.312	87
315.542	79
315.771	99
316.001	102
316.23	97
316.46	101
316.689	83
316.919	110
317.148	99
317.377	100
317.607	91
317.836	89
318.065	84
318.295	97
318.524	95
318.753	93
318.983	97
319.212	111
319.441	104
319.67	115
319.9	94
320.129	101
320.358	96
320.587	95
320.816	111
321.046	107
321.275	103
321.504	96
321.733	110
321.962	105
322.191	105
322.42	116
322.649	130
322.878	136
323.108	146
323.337	128
323.566	152
323.795	168
324.024	251
324.253	518
324.482	1119
324.71	2334
324.939	3070
325.168	1076
325.397	296
325.626	165
325.855	146
326.084	154
326.313	153
326.542	179
326.77	268
326.999	610
327.228	1256
327.457	2371
327.686	1832
327.914	468
328.143	263
328.372	196
328.6	165
328.829	150
329.058	129
329.287	130
329.515	122
329.744	119
329.972	127
330.201	169
330.43	207
330.658	170
330.887	160
331.115	144
331.344	113
331.572	109
331.801	96
332.03	116
332.258	107
332.486	103
332.715	95
332.943	94
333.172	107
333.4	112
333.629	112
333.857	122
334.085	145
334.314	184
334.542	248
334.771	226
334.999	122
335.227	105
335.455	112
335.684	100
335.912	105
336.14	94
336.369	110
336.597	121
336.825	93
337.053	103
337.281	106
337.51	88
337.738	80
337.966	99
338.194	101
338.422	99
338.65	102
338.878	96
339.106	95
339.334	95
339.562	102
339.79	92
340.018	92
340.246	91
340.474	94
340.702	106
340.93	93
341.158	99
341.386	84
341.614	99
341.842	103
342.07	90
342.298	91
342.526	103
342.754	97
342.981	87
343.209	97
343.437	96
343.665	92
343.893	88
344.12	98
344.348	91
344.576	99
344.804	97
345.031	112
345.259	102
345.487	106
345.714	101
345.942	92
346.17	102
346.397	103
346.625	102
346.853	102
347.08	86
347.308	102
347.535	95
347.763	102
347.99	102
348.218	112
348.445	109
348.673	114
348.9	92
349.128	105
349.355	105
349.583	89
349.81	95
350.037	105
350.265	103
350.492	93
350.72	97
350.947	119
351.174	116
351.402	126
351.629	109
351.856	120
352.083	109
352.311	110
352.538	110
352.765	126
352.992	134
353.22	109
353.447	91
353.674	101
353.901	102
354.128	103
354.355	106
354.583	107
354.81	98
355.037	101
355.264	93
355.491	82
355.718	94
355.945	98
356.172	92
356.399	97
356.626	111
356.853	90
357.08	83
357.307	113
357.534	80
357.761	99
357.988	92
358.215	92
358.441	109
358.668	84
358.895	82
359.122	100
359.349	93
359.576	91
359.802	107
360.029	126
360.256	116
360.483	118
360.709	87
360.936	98
361.163	98
361.39	97
361.616	94
361.843	94
362.07	94
362.296	104
362.523	92
362.749	99
362.976	86
363.203	103
363.429	105
363.656	104
363.882	90
364.109	84
364.335	97
364.562	103
364.788	92
365.015	92
365.241	108
365.468	119
365.694	106
365.92	88
366.147	94
366.373	101
366.599	101
366.826	90
367.052	78
367.278	85
367.505	95
367.731	98
367.957	95
368.184	113
368.41	106
368.636	123
368.862	120
369.089	116
369.315	105
369.541	98
369.767	99
369.993	87
370.219	91
370.445	101
370.672	90
370.898	102
371.124	96
371.35	96
371.576	112
371.802	81
372.028	91
372.254	85
372.48	83
372.706	70
372.932	75
373.158	93
373.384	79
373.61	92
373.835	82
374.061	94
374.287	95
374.513	104
374.739	99
374.965	101
375.191	80
375.416	98
375.642	98
375.868	89
376.094	92
376.319	87
376.545	93
376.771	89
376.997	101
377.222	99
377.448	82
377.674	87
377.899	84
378.125	90
378.35	94
378.576	94
378.802	91
379.027	89
379.253	96
379.478	98
379.704	95
379.929	99
380.155	99
380.38	90
380.606	92
380.831	87
381.057	99
381.282	94
381.507	92
381.733	98
381.958	105
382.184	106
382.409	105
382.634	112
382.86	96
383.085	100
383.31	92
383.535	101
383.761	92
383.986	102
384.211	102
384.436	111
384.662	83
384.887	104
385.112	94
385.337	90
385.562	96
385.787	121
386.013	106
386.238	113
386.463	105
386.688	107
386.913	96
387.138	107
387.363	113
387.588	91
387.813	89
388.038	103
388.263	118
388.488	95
388.713	95
388.938	95
389.163	81
389.387	104
389.612	117
389.837	88
390.062	91
390.287	91
390.512	100
390.736	93
390.961	84
391.186	101
391.411	100
391.636	80
391.86	77
392.085	95
392.31	98
392.534	84
392.759	98
392.984	91
393.208	91
393.433	100
393.658	83
393.882	88
394.107	91
394.331	84
394.556	102
394.78	90
395.005	94
395.229	96
395.454	78
395.678	97
395.903	93
396.127	91
396.352	76
396.576	87
396.801	83
397.025	79
397.249	103
397.474	85
397.698	90
397.922	84
398.147	83
398.371	76
398.595	90
398.82	86
399.044	76
399.268	105
399.492	88
399.717	99
399.941	104
400.165	102
400.389	95
400.613	96
400.837	104
401.062	101
401.286	82
401.51	82
401.734	91
401.958	104
402.182	140
402.406	171
402.63	116
402.854	98
403.078	99
403.302	91
403.526	101
403.75	88
403.974	106
404.198	87
404.422	79
404.645	100
404.869	95
405.093	123
405.317	110
405.541	111
405.765	104
405.988	150
406.212	200
406.436	267
406.66	184
406.883	118
407.107	96
407.331	109
407.555	91
407.778	118
408.002	91
408.226	105
408.449	88
408.673	89
408.896	107
409.12	105
409.344	87
409.567	101
409.791	101
410.014	97
410.238	95
410.461	98
410.685	102
410.908	94
411.132	103
411.355	98
411.578	91
411.802	91
412.025	75
412.249	89
412.472	102
412.695	105
412.919	92
413.142	88
413.365	87
413.589	87
413.812	105
414.035	77
414.258	91
414.482	97
414.705	83
414.928	92
415.151	105
415.374	102
415.597	96
415.821	89
416.044	90
416.267	110
416.49	98
416.713	92
416.936	89
417.159	84
417.382	87
417.605	103
417.828	104
418.051	86
418.274	94
418.497	79
418.72	83
418.943	90
419.166	94
419.389	106
419.611	77
419.834	102
420.057	81
420.28	87
420.503	91
420.726	92
420.948	83
421.171	103
421.394	93
421.617	90
421.839	81
422.062	101
422.285	97
422.507	111
422.73	98
422.953	109
423.175	98
423.398	80
423.621	88
423.843	79
424.066	94
424.288	90
424.511	98
424.733	100
424.956	124
425.178	114
425.401	111
425.623	107
425.846	89
426.068	99
426.291	83
426.513	104
426.735	95
426.958	104
427.18	116
427.402	172
427.625	188
427.847	163
428.069	144
428.292	104
428.514	92
428.736	87
428.958	87
429.181	91
429.403	86
429.625	99
429.847	105
430.069	106
430.292	96
430.514	102
430.736	94
430.958	89
431.18	92
431.402	94
431.624	89
431.846	95
432.068	90
432.29	90
432.512	91
432.734	87
432.956	89
433.178	101
433.4	91
433.622	96
433.844	95
434.066	97
434.287	92
434.509	93
434.731	102
434.953	84
435.175	96
435.397	80
435.618	99
435.84	109
436.062	146
436.284	138
436.505	115
436.727	121
436.949	93
437.17	88
437.392	74
437.614	94
437.835	108
438.057	114
438.278	127
438.5	107
438.721	140
438.943	109
439.165	87
439.386	99
439.608	86
439.829	111
440.05	136
440.272	163
440.493	92
440.715	104
440.936	89
441.158	94
441.379	89
441.6	101
441.822	112
442.043	97
442.264	123
442.486	100
442.707	106
442.928	107
443.149	160
443.371	154
443.592	116
443.813	110
444.034	118
444.255	109
444.476	103
444.698	98
444.919	105
445.14	132
445.361	133
445.582	123
445.803	169
446.024	158
446.245	157
446.466	135
446.687	93
446.908	88
447.129	104
447.35	104
447.571	100
447.792	100
448.013	107
448.234	122
448.455	111
448.675	134
448.896	151
449.117	105
449.338	113
449.559	136
449.779	157
450	98
450.221	89
450.442	88
450.662	94
450.883	113
451.104	114
451.324	113
451.545	90
451.766	94
451.986	96
452.207	91
452.428	90
452.648	109
452.869	118
453.089	114
453.31	132
453.53	95
453.751	103
453.971	99
454.192	121
454.412	109
454.633	94
454.853	75
455.073	86
455.294	100
455.514	112
455.734	97
455.955	87
456.175	86
456.395	84
456.616	81
456.836	88
457.056	75
457.276	95
457.497	84
457.717	74
457.937	89
458.157	83
458.377	92
458.598	112
458.818	177
459.038	194
459.258	137
459.478	102
459.698	82
459.918	88
460.138	81
460.358	92
460.578	98
460.798	76
461.018	89
461.238	97
461.458	88
461.678	82
461.898	90
462.118	102
462.338	94
462.558	92
462.777	89
462.997	84
463.217	94
463.437	87
463.657	90
463.876	82
464.096	93
464.316	85
464.536	98
464.755	89
464.975	127
465.195	198
465.414	188
465.634	109
465.854	87
466.073	84
466.293	101
466.512	77
466.732	104
466.951	82
467.171	84
467.391	93
467.61	106
467.829	103
468.049	123
468.268	134
468.488	78
468.707	84
468.927	95
469.146	87
469.365	78
469.585	107
469.804	88
470.023	92
470.243	92
470.462	111
470.681	146
470.901	101
471.12	98
471.339	84
471.558	89
471.777	110
471.997	112
472.216	170
472.435	275
472.654	111
472.873	101
473.092	101
473.311	95
473.53	85
473.749	88
473.968	109
474.187	107
474.406	96
474.625	94
474.844	112
475.063	104
475.282	74
475.501	94
475.72	90
475.939	78
476.158	97
476.377	84
476.596	88
476.814	98
477.033	97
477.252	92
477.471	92
477.69	85
477.908	81
478.127	93
478.346	89
478.564	98
478.783	98
479.002	99
479.22	101
479.439	106
479.658	111
479.876	100
480.095	97
480.313	93
480.532	99
480.751	110
480.969	182
481.188	439
481.406	288
481.624	121
481.843	84
482.061	87
482.28	99
482.498	90
482.717	94
482.935	101
483.153	92
483.372	106
483.59	75
483.808	79
484.027	89
484.245	108
484.463	104
484.681	100
484.9	86
485.118	87
485.336	95
485.554	104
485.772	107
485.99	104
486.209	108
486.427	124
486.645	117
486.863	120
487.081	115
487.299	92
487.517	96
487.735	98
487.953	87
488.171	96
488.389	108
488.607	94
488.825	90
489.043	89
489.261	90
489.479	90
489.696	102
489.914	91
490.132	90
490.35	101
490.568	95
490.786	80
491.003	99
491.221	100
491.439	98
491.657	102
491.874	98
492.092	87
492.31	91
492.527	72
492.745	91
492.963	88
493.18	91
493.398	97
493.615	99
493.833	88
494.05	109
494.268	101
494.485	103
494.703	96
494.92	100
495.138	92
495.355	81
495.573	97
495.79	89
496.008	74
496.225	100
496.442	94
496.66	83
496.877	83
497.094	88
497.312	97
497.529	92
497.746	98
497.963	100
498.181	97
498.398	86
498.615	130
498.832	106
499.049	97
499.267	94
499.484	75
499.701	94
499.918	105
500.135	93
500.352	96
500.569	99
500.786	100
501.003	102
501.22	104
501.437	111
501.654	117
501.871	112
502.088	91
502.305	92
502.522	91
502.739	88
502.956	81
503.172	96
503.389	97
503.606	106
503.823	102
504.04	97
504.256	95
504.473	89
504.69	82
504.907	91
505.123	96
505.34	90
505.557	103
505.773	92
505.99	95
506.207	90
506.423	86
506.64	80
506.856	100
507.073	105
507.289	96
507.506	89
507.722	127
507.939	123
508.155	95
508.372	99
508.588	92
508.805	96
509.021	105
509.238	115
509.454	105
509.67	109
509.887	123
510.103	138
510.319	244
510.536	904
510.752	2913
510.968	813
511.184	179
511.401	111
511.617	119
511.833	104
512.049	99
512.265	108
512.481	97
512.698	99
512.914	96
513.13	110
513.346	91
513.562	102
513.778	97
513.994	90
514.21	107
514.426	133
514.642	167
514.858	146
515.074	192
515.29	579
515.506	2000
515.721	710
515.937	195
516.153	120
516.369	105
516.585	114
516.801	99
517.016	86
517.232	91
517.448	97
517.664	95
517.879	94
518.095	83
518.311	91
518.527	86
518.742	88
518.958	106
519.173	106
519.389	101
519.605	102
519.82	107
520.036	112
520.251	146
520.467	126
520.682	106
520.898	116
521.113	126
521.329	152
521.544	244
521.76	725
521.975	3280
522.19	1986
522.406	412
522.621	155
522.836	117
523.052	98
523.267	106
523.482	93
523.698	118
523.913	125
524.128	124
524.343	105
524.559	106
524.774	103
524.989	89
525.204	120
525.419	115
525.634	91
525.849	95
526.064	100
526.28	108
526.495	103
526.71	91
526.925	98
527.14	98
527.355	92
527.57	83
527.785	91
527.999	106
528.214	95
528.429	99
528.644	103
528.859	96
529.074	106
529.289	142
529.503	230
529.718	114
529.933	93
530.148	86
530.363	85
530.577	91
530.792	95
531.007	88
531.221	90
531.436	83
531.651	83
531.865	103
532.08	90
532.295	96
532.509	97
532.724	94
532.938	92
533.153	103
533.367	101
533.582	94
533.796	93
534.011	84
534.225	110
534.44	105
534.654	87
534.868	99
535.083	82
535.297	90
535.511	99
535.726	104
535.94	103
536.154	105
536.369	90
536.583	97
536.797	93
537.011	83
537.225	96
537.44	87
537.654	84
537.868	93
538.082	87
538.296	91
538.51	91
538.724	92
538.938	84
539.153	86
539.367	115
539.581	95
539.795	100
540.009	102
540.222	90
540.436	74
540.65	88
540.864	108
541.078	78
541.292	95
541.506	99
541.72	95
541.934	101
542.147	99
542.361	94
542.575	79
542.789	98
543.002	93
543.216	105
543.43	105
543.644	91
543.857	95
544.071	98
544.285	93
544.498	102
544.712	101
544.925	92
545.139	95
545.352	90
545.566	104
545.779	90
545.993	89
546.206	85
546.42	99
546.633	102
546.847	97
547.06	93
547.274	92
547.487	75
547.7	101
547.914	90
548.127	95
548.34	71
548.554	96
548.767	94
548.98	102
549.193	89
549.407	80
549.62	81
549.833	92
550.046	83
550.259	84
550.473	86
550.686	77
550.899	88
551.112	82
551.325	106
551.538	92
551.751	91
551.964	74
552.177	92
552.39	98
552.603	108
552.816	103
553.029	104
553.242	104
553.455	105
553.667	107
553.88	118
554.093	105
554.306	101
554.519	106
554.732	87
554.944	93
555.157	84
555.37	98
555.583	100
555.795	118
556.008	101
556.221	94
556.433	91
556.646	88
556.859	102
557.071	97
557.284	99
557.496	88
557.709	95
557.921	83
558.134	93
558.346	94
558.559	94
558.771	99
558.984	93
559.196	86
559.409	103
559.621	95
559.833	91
560.046	90
560.258	95
560.47	107
560.683	108
560.895	97
561.107	98
561.32	79
561.532	104
561.744	94
561.956	95
562.168	93
562.381	96
562.593	100
562.805	82
563.017	95
563.229	102
563.441	92
563.653	87
563.865	97
564.077	88
564.289	94
564.501	95
564.713	100
564.925	88
565.137	99
565.349	95
565.561	104
565.773	90
565.985	82
566.197	95
566.408	98
566.62	90
566.832	80
567.044	93
567.255	97
567.467	100
567.679	105
567.891	91
568.102	93
568.314	86
568.526	98
568.737	87
568.949	92
569.161	96
569.372	84
569.584	97
569.795	104
570.007	134
570.218	289
570.43	134
570.641	105
570.853	102
571.064	95
571.276	105
571.487	90
571.698	93
571.91	95
572.121	87
572.333	83
572.544	83
572.755	97
572.966	85
573.178	97
573.389	95
573.6	89
573.811	96
574.023	90
574.234	91
574.445	100
574.656	100
574.867	111
575.078	102
575.289	101
575.501	105
575.712	84
575.923	90
576.134	106
576.345	94
576.556	110
576.767	95
576.978	113
577.188	99
577.399	90
577.61	79
577.821	97
578.032	126
578.243	297
578.454	915
578.665	235
578.875	110
579.086	98
579.297	88
579.508	87
579.718	109
579.929	93
580.14	95
580.35	89
580.561	85
