Data from Circ_2011_H10_HRD10591_00044.txt Node
Date: Wed Jan 03 10:08:07 EST 2024
User: Yrep
Spectrometer: HR+D1059
Trigger mode: 1
Integration Time (sec): 1.000000E-1
Scans to average: 1
Electric dark correction enabled: true
Nonlinearity correction enabled: false
Boxcar width: 0
XAxis mode: Wavelengths
Number of Pixels in Spectrum: 2048
>>>>>Begin Spectral Data<<<<<
223.165	-15.56
223.4	-15.56
223.635	-15.56
223.869	-29.56
224.104	-7.56
224.338	-23.56
224.573	-17.56
224.808	-1.56
225.042	-5.56
225.277	-19.56
225.511	-4.56
225.746	13.44
225.98	15.44
226.215	16.44
226.449	8.44
226.683	16.44
226.918	27.44
227.152	27.44
227.387	35.44
227.621	40.44
227.856	59.44
228.09	43.44
228.324	53.44
228.559	50.44
228.793	71.44
229.027	66.44
229.262	68.44
229.496	72.44
229.73	87.44
229.964	79.44
230.199	69.44
230.433	88.44
230.667	89.44
230.901	71.44
231.136	81.44
231.37	81.44
231.604	83.44
231.838	93.44
232.072	88.44
232.306	80.44
232.541	84.44
232.775	105.44
233.009	65.44
233.243	87.44
233.477	88.44
233.711	88.44
233.945	95.44
234.179	90.44
234.413	77.44
234.647	83.44
234.881	86.44
235.115	91.44
235.349	74.44
235.583	88.44
235.817	75.44
236.051	73.44
236.285	76.44
236.519	69.44
236.753	92.44
236.987	80.44
237.221	96.44
237.455	88.44
237.689	85.44
237.922	80.44
238.156	80.44
238.39	80.44
238.624	62.44
238.858	68.44
239.091	85.44
239.325	86.44
239.559	83.44
239.793	76.44
240.027	71.44
240.26	76.44
240.494	82.44
240.728	77.44
240.961	78.44
241.195	68.44
241.429	84.44
241.662	80.44
241.896	71.44
242.13	85.44
242.363	83.44
242.597	85.44
242.83	80.44
243.064	86.44
243.298	79.44
243.531	85.44
243.765	73.44
243.998	68.44
244.232	74.44
244.465	73.44
244.699	81.44
244.932	83.44
245.166	89.44
245.399	85.44
245.633	79.44
245.866	89.44
246.099	69.44
246.333	71.44
246.566	83.44
246.8	85.44
247.033	70.44
247.266	80.44
247.5	78.44
247.733	91.44
247.966	83.44
248.2	83.44
248.433	82.44
248.666	79.44
248.899	68.44
249.133	90.44
249.366	107.44
249.599	105.44
249.832	85.44
250.066	86.44
250.299	73.44
250.532	75.44
250.765	84.44
250.998	83.44
251.231	94.44
251.465	85.44
251.698	95.44
251.931	90.44
252.164	85.44
252.397	88.44
252.63	78.44
252.863	96.44
253.096	87.44
253.329	91.44
253.562	92.44
253.795	98.44
254.028	95.44
254.261	75.44
254.494	93.44
254.727	90.44
254.96	86.44
255.193	80.44
255.426	82.44
255.659	93.44
255.892	95.44
256.124	90.44
256.357	74.44
256.59	94.44
256.823	94.44
257.056	72.44
257.289	73.44
257.521	79.44
257.754	92.44
257.987	85.44
258.22	97.44
258.452	87.44
258.685	82.44
258.918	80.44
259.151	84.44
259.383	97.44
259.616	87.44
259.849	80.44
260.081	82.44
260.314	87.44
260.547	92.44
260.779	94.44
261.012	96.44
261.244	83.44
261.477	85.44
261.71	106.44
261.942	112.44
262.175	109.44
262.407	81.44
262.64	90.44
262.872	95.44
263.105	94.44
263.337	87.44
263.57	87.44
263.802	94.44
264.035	101.44
264.267	84.44
264.499	100.44
264.732	100.44
264.964	79.44
265.197	82.44
265.429	84.44
265.661	97.44
265.894	85.44
266.126	91.44
266.358	91.44
266.591	96.44
266.823	78.44
267.055	80.44
267.287	93.44
267.52	89.44
267.752	87.44
267.984	84.44
268.216	73.44
268.448	82.44
268.681	79.44
268.913	89.44
269.145	97.44
269.377	95.44
269.609	85.44
269.841	71.44
270.073	85.44
270.306	98.44
270.538	80.44
270.77	91.44
271.002	91.44
271.234	86.44
271.466	87.44
271.698	91.44
271.93	86.44
272.162	86.44
272.394	93.44
272.626	85.44
272.858	93.44
273.09	81.44
273.322	105.44
273.553	83.44
273.785	94.44
274.017	84.44
274.249	87.44
274.481	87.44
274.713	75.44
274.945	80.44
275.176	82.44
275.408	73.44
275.64	91.44
275.872	93.44
276.104	93.44
276.335	85.44
276.567	106.44
276.799	107.44
277.031	106.44
277.262	99.44
277.494	96.44
277.726	92.44
277.957	86.44
278.189	77.44
278.421	89.44
278.652	95.44
278.884	83.44
279.115	91.44
279.347	90.44
279.579	83.44
279.81	88.44
280.042	100.44
280.273	99.44
280.505	91.44
280.736	90.44
280.968	88.44
281.199	91.44
281.431	93.44
281.662	84.44
281.894	84.44
282.125	103.44
282.356	123.44
282.588	143.44
282.819	120.44
283.051	83.44
283.282	90.44
283.513	89.44
283.745	75.44
283.976	77.44
284.207	95.44
284.439	72.44
284.67	101.44
284.901	90.44
285.132	95.44
285.364	82.44
285.595	106.44
285.826	81.44
286.057	89.44
286.288	94.44
286.52	73.44
286.751	91.44
286.982	81.44
287.213	96.44
287.444	83.44
287.675	83.44
287.906	99.44
288.138	91.44
288.369	98.44
288.6	88.44
288.831	72.44
289.062	91.44
289.293	106.44
289.524	84.44
289.755	83.44
289.986	94.44
290.217	106.44
290.448	81.44
290.679	79.44
290.91	91.44
291.141	89.44
291.371	95.44
291.602	87.44
291.833	88.44
292.064	94.44
292.295	110.44
292.526	92.44
292.757	91.44
292.987	97.44
293.218	89.44
293.449	93.44
293.68	95.44
293.91	72.44
294.141	88.44
294.372	89.44
294.603	92.44
294.833	99.44
295.064	93.44
295.295	94.44
295.525	96.44
295.756	109.44
295.987	103.44
296.217	136.44
296.448	107.44
296.679	105.44
296.909	95.44
297.14	94.44
297.37	98.44
297.601	94.44
297.831	92.44
298.062	89.44
298.292	86.44
298.523	103.44
298.753	89.44
298.984	106.44
299.214	101.44
299.445	97.44
299.675	103.44
299.905	99.44
300.136	108.44
300.366	103.44
300.597	99.44
300.827	97.44
301.057	85.44
301.288	103.44
301.518	103.44
301.748	96.44
301.979	103.44
302.209	104.44
302.439	95.44
302.669	96.44
302.9	106.44
303.13	101.44
303.36	104.44
303.59	104.44
303.82	103.44
304.051	99.44
304.281	100.44
304.511	95.44
304.741	98.44
304.971	97.44
305.201	94.44
305.431	92.44
305.661	89.44
305.891	93.44
306.121	98.44
306.352	109.44
306.582	105.44
306.812	98.44
307.042	90.44
307.272	85.44
307.502	103.44
307.731	99.44
307.961	97.44
308.191	99.44
308.421	86.44
308.651	94.44
308.881	104.44
309.111	100.44
309.341	90.44
309.571	96.44
309.8	91.44
310.03	109.44
310.26	99.44
310.49	103.44
310.72	108.44
310.949	110.44
311.179	106.44
311.409	105.44
311.639	104.44
311.868	96.44
312.098	96.44
312.328	99.44
312.557	107.44
312.787	103.44
313.017	115.44
313.246	101.44
313.476	87.44
313.706	83.44
313.935	103.44
314.165	107.44
314.394	106.44
314.624	112.44
314.853	101.44
315.083	91.44
315.312	91.44
315.542	98.44
315.771	95.44
316.001	92.44
316.23	100.44
316.46	107.44
316.689	99.44
316.919	97.44
317.148	95.44
317.377	101.44
317.607	101.44
317.836	112.44
318.065	92.44
318.295	96.44
318.524	88.44
318.753	108.44
318.983	100.44
319.212	107.44
319.441	104.44
319.67	112.44
319.9	91.44
320.129	100.44
320.358	98.44
320.587	112.44
320.816	107.44
321.046	95.44
321.275	101.44
321.504	91.44
321.733	93.44
321.962	90.44
322.191	93.44
322.42	111.44
322.649	123.44
322.878	133.44
323.108	113.44
323.337	138.44
323.566	147.44
323.795	160.44
324.024	227.44
324.253	422.44
324.482	856.44
324.71	1864.44
324.939	2403.44
325.168	874.44
325.397	254.44
325.626	139.44
325.855	143.44
326.084	132.44
326.313	127.44
326.542	166.44
326.77	253.44
326.999	507.44
327.228	1036.44
327.457	1861.44
327.686	1516.44
327.914	416.44
328.143	228.44
328.372	201.44
328.6	148.44
328.829	119.44
329.058	144.44
329.287	126.44
329.515	103.44
329.744	113.44
329.972	153.44
330.201	214.44
330.43	263.44
330.658	188.44
330.887	155.44
331.115	122.44
331.344	103.44
331.572	109.44
331.801	104.44
332.03	101.44
332.258	112.44
332.486	103.44
332.715	88.44
332.943	92.44
333.172	115.44
333.4	93.44
333.629	104.44
333.857	140.44
334.085	157.44
334.314	223.44
334.542	309.44
334.771	279.44
334.999	153.44
335.227	102.44
335.455	89.44
335.684	101.44
335.912	100.44
336.14	105.44
336.369	98.44
336.597	100.44
336.825	104.44
337.053	106.44
337.281	99.44
337.51	84.44
337.738	90.44
337.966	95.44
338.194	89.44
338.422	98.44
338.65	107.44
338.878	95.44
339.106	78.44
339.334	105.44
339.562	96.44
339.79	94.44
340.018	107.44
340.246	93.44
340.474	108.44
340.702	94.44
340.93	100.44
341.158	119.44
341.386	102.44
341.614	115.44
341.842	103.44
342.07	109.44
342.298	106.44
342.526	103.44
342.754	97.44
342.981	92.44
343.209	98.44
343.437	97.44
343.665	92.44
343.893	93.44
344.12	99.44
344.348	93.44
344.576	97.44
344.804	101.44
345.031	104.44
345.259	98.44
345.487	94.44
345.714	103.44
345.942	90.44
346.17	103.44
346.397	94.44
346.625	92.44
346.853	87.44
347.08	98.44
347.308	98.44
347.535	99.44
347.763	99.44
347.99	106.44
348.218	100.44
348.445	109.44
348.673	115.44
348.9	112.44
349.128	85.44
349.355	99.44
349.583	102.44
349.81	107.44
350.037	95.44
350.265	96.44
350.492	102.44
350.72	116.44
350.947	103.44
351.174	98.44
351.402	115.44
351.629	101.44
351.856	114.44
352.083	116.44
352.311	109.44
352.538	114.44
352.765	101.44
352.992	112.44
353.22	96.44
353.447	94.44
353.674	90.44
353.901	92.44
354.128	102.44
354.355	96.44
354.583	96.44
354.81	95.44
355.037	98.44
355.264	98.44
355.491	99.44
355.718	81.44
355.945	102.44
356.172	102.44
356.399	104.44
356.626	98.44
356.853	105.44
357.08	100.44
357.307	94.44
357.534	104.44
357.761	74.44
357.988	110.44
358.215	97.44
358.441	104.44
358.668	102.44
358.895	95.44
359.122	83.44
359.349	101.44
359.576	97.44
359.802	106.44
360.029	128.44
360.256	112.44
360.483	109.44
360.709	102.44
360.936	93.44
361.163	89.44
361.39	103.44
361.616	93.44
361.843	99.44
362.07	103.44
362.296	92.44
362.523	101.44
362.749	93.44
362.976	92.44
363.203	115.44
363.429	88.44
363.656	104.44
363.882	89.44
364.109	90.44
364.335	100.44
364.562	105.44
364.788	103.44
365.015	99.44
365.241	91.44
365.468	116.44
365.694	123.44
365.92	112.44
366.147	97.44
366.373	99.44
366.599	82.44
366.826	96.44
367.052	92.44
367.278	90.44
367.505	94.44
367.731	100.44
367.957	91.44
368.184	104.44
368.41	105.44
368.636	116.44
368.862	124.44
369.089	97.44
369.315	96.44
369.541	83.44
369.767	98.44
369.993	105.44
370.219	97.44
370.445	83.44
370.672	106.44
370.898	85.44
371.124	94.44
371.35	89.44
371.576	106.44
371.802	77.44
372.028	97.44
372.254	91.44
372.48	76.44
372.706	96.44
372.932	89.44
373.158	96.44
373.384	100.44
373.61	95.44
373.835	103.44
374.061	90.44
374.287	87.44
374.513	86.44
374.739	95.44
374.965	99.44
375.191	93.44
375.416	87.44
375.642	108.44
375.868	97.44
376.094	91.44
376.319	94.44
376.545	91.44
376.771	95.44
376.997	85.44
377.222	79.44
377.448	96.44
377.674	98.44
377.899	79.44
378.125	96.44
378.35	88.44
378.576	80.44
378.802	98.44
379.027	94.44
379.253	108.44
379.478	82.44
379.704	95.44
379.929	90.44
380.155	108.44
380.38	116.44
380.606	88.44
380.831	78.44
381.057	96.44
381.282	83.44
381.507	107.44
381.733	101.44
381.958	93.44
382.184	80.44
382.409	95.44
382.634	110.44
382.86	104.44
383.085	99.44
383.31	107.44
383.535	100.44
383.761	99.44
383.986	81.44
384.211	105.44
384.436	93.44
384.662	87.44
384.887	106.44
385.112	98.44
385.337	115.44
385.562	83.44
385.787	92.44
386.013	103.44
386.238	109.44
386.463	94.44
386.688	106.44
386.913	98.44
387.138	116.44
387.363	91.44
387.588	98.44
387.813	97.44
388.038	108.44
388.263	98.44
388.488	85.44
388.713	93.44
388.938	101.44
389.163	105.44
389.387	108.44
389.612	92.44
389.837	88.44
390.062	88.44
390.287	112.44
390.512	98.44
390.736	89.44
390.961	94.44
391.186	100.44
391.411	98.44
391.636	97.44
391.86	86.44
392.085	89.44
392.31	87.44
392.534	85.44
392.759	95.44
392.984	92.44
393.208	90.44
393.433	85.44
393.658	97.44
393.882	80.44
394.107	84.44
394.331	99.44
394.556	83.44
394.78	90.44
395.005	89.44
395.229	90.44
395.454	89.44
395.678	89.44
395.903	81.44
396.127	98.44
396.352	104.44
396.576	100.44
396.801	101.44
397.025	83.44
397.249	85.44
397.474	82.44
397.698	91.44
397.922	81.44
398.147	77.44
398.371	91.44
398.595	84.44
398.82	96.44
399.044	83.44
399.268	87.44
399.492	84.44
399.717	96.44
399.941	92.44
400.165	109.44
400.389	114.44
400.613	91.44
400.837	82.44
401.062	81.44
401.286	87.44
401.51	88.44
401.734	106.44
401.958	106.44
402.182	114.44
402.406	160.44
402.63	117.44
402.854	84.44
403.078	97.44
403.302	89.44
403.526	96.44
403.75	99.44
403.974	89.44
404.198	87.44
404.422	108.44
404.645	89.44
404.869	100.44
405.093	104.44
405.317	113.44
405.541	112.44
405.765	96.44
405.988	123.44
406.212	174.44
406.436	234.44
406.66	158.44
406.883	95.44
407.107	97.44
407.331	119.44
407.555	112.44
407.778	95.44
408.002	108.44
408.226	95.44
408.449	89.44
408.673	96.44
408.896	96.44
409.12	91.44
409.344	104.44
409.567	103.44
409.791	92.44
410.014	110.44
410.238	92.44
410.461	105.44
410.685	92.44
410.908	93.44
411.132	95.44
411.355	90.44
411.578	95.44
411.802	76.44
412.025	100.44
412.249	92.44
412.472	116.44
412.695	116.44
412.919	106.44
413.142	92.44
413.365	93.44
413.589	97.44
413.812	75.44
414.035	103.44
414.258	97.44
414.482	93.44
414.705	93.44
414.928	94.44
415.151	88.44
415.374	103.44
415.597	86.44
415.821	88.44
416.044	97.44
416.267	95.44
416.49	101.44
416.713	99.44
416.936	91.44
417.159	92.44
417.382	100.44
417.605	89.44
417.828	106.44
418.051	107.44
418.274	89.44
418.497	105.44
418.72	94.44
418.943	92.44
419.166	95.44
419.389	86.44
419.611	100.44
419.834	103.44
420.057	92.44
420.28	97.44
420.503	90.44
420.726	75.44
420.948	88.44
421.171	100.44
421.394	98.44
421.617	99.44
421.839	101.44
422.062	84.44
422.285	93.44
422.507	95.44
422.73	109.44
422.953	98.44
423.175	82.44
423.398	113.44
423.621	94.44
423.843	97.44
424.066	100.44
424.288	88.44
424.511	88.44
424.733	109.44
424.956	109.44
425.178	97.44
425.401	109.44
425.623	100.44
425.846	114.44
426.068	91.44
426.291	85.44
426.513	87.44
426.735	91.44
426.958	101.44
427.18	98.44
427.402	161.44
427.625	181.44
427.847	151.44
428.069	132.44
428.292	94.44
428.514	85.44
428.736	93.44
428.958	107.44
429.181	100.44
429.403	93.44
429.625	90.44
429.847	90.44
430.069	113.44
430.292	94.44
430.514	90.44
430.736	100.44
430.958	109.44
431.18	95.44
431.402	89.44
431.624	89.44
431.846	87.44
432.068	92.44
432.29	102.44
432.512	93.44
432.734	96.44
432.956	94.44
433.178	92.44
433.4	106.44
433.622	82.44
433.844	92.44
434.066	96.44
434.287	93.44
434.509	96.44
434.731	82.44
434.953	93.44
435.175	88.44
435.397	97.44
435.618	97.44
435.84	111.44
436.062	135.44
436.284	121.44
436.505	113.44
436.727	101.44
436.949	101.44
437.17	91.44
437.392	88.44
437.614	99.44
437.835	112.44
438.057	119.44
438.278	125.44
438.5	108.44
438.721	139.44
438.943	115.44
439.165	90.44
439.386	85.44
439.608	90.44
439.829	107.44
440.05	128.44
440.272	148.44
440.493	100.44
440.715	82.44
440.936	91.44
441.158	95.44
441.379	87.44
441.6	98.44
441.822	100.44
442.043	101.44
442.264	107.44
442.486	110.44
442.707	88.44
442.928	129.44
443.149	139.44
443.371	137.44
443.592	128.44
443.813	117.44
444.034	121.44
444.255	97.44
444.476	99.44
444.698	93.44
444.919	98.44
445.14	129.44
445.361	111.44
445.582	116.44
445.803	144.44
446.024	160.44
446.245	152.44
446.466	119.44
446.687	97.44
446.908	96.44
447.129	100.44
447.35	72.44
447.571	94.44
447.792	105.44
448.013	101.44
448.234	104.44
448.455	87.44
448.675	120.44
448.896	140.44
449.117	107.44
449.338	94.44
449.559	141.44
449.779	153.44
450	103.44
450.221	83.44
450.442	81.44
450.662	83.44
450.883	110.44
451.104	114.44
451.324	99.44
451.545	96.44
451.766	85.44
451.986	88.44
452.207	106.44
452.428	103.44
452.648	96.44
452.869	110.44
453.089	121.44
453.31	108.44
453.53	106.44
453.751	102.44
453.971	105.44
454.192	108.44
454.412	105.44
454.633	86.44
454.853	87.44
455.073	84.44
455.294	100.44
455.514	106.44
455.734	108.44
455.955	88.44
456.175	91.44
456.395	88.44
456.616	89.44
456.836	93.44
457.056	89.44
457.276	89.44
457.497	101.44
457.717	94.44
457.937	95.44
458.157	103.44
458.377	93.44
458.598	107.44
458.818	148.44
459.038	157.44
459.258	120.44
459.478	102.44
459.698	94.44
459.918	83.44
460.138	70.44
460.358	98.44
460.578	100.44
460.798	100.44
461.018	85.44
461.238	99.44
461.458	88.44
461.678	86.44
461.898	100.44
462.118	88.44
462.338	86.44
462.558	96.44
462.777	77.44
462.997	77.44
463.217	85.44
463.437	94.44
463.657	95.44
463.876	88.44
464.096	91.44
464.316	99.44
464.536	97.44
464.755	96.44
464.975	106.44
465.195	165.44
465.414	157.44
465.634	98.44
465.854	94.44
466.073	86.44
466.293	105.44
466.512	88.44
466.732	102.44
466.951	106.44
467.171	90.44
467.391	98.44
467.61	115.44
467.829	107.44
468.049	159.44
468.268	176.44
468.488	108.44
468.707	96.44
468.927	89.44
469.146	86.44
469.365	96.44
469.585	91.44
469.804	108.44
470.023	106.44
470.243	81.44
470.462	108.44
470.681	127.44
470.901	87.44
471.12	95.44
471.339	92.44
471.558	85.44
471.777	101.44
471.997	116.44
472.216	201.44
472.435	364.44
472.654	155.44
472.873	109.44
473.092	103.44
473.311	88.44
473.53	88.44
473.749	100.44
473.968	94.44
474.187	101.44
474.406	109.44
474.625	99.44
474.844	100.44
475.063	90.44
475.282	91.44
475.501	97.44
475.72	89.44
475.939	89.44
476.158	90.44
476.377	103.44
476.596	103.44
476.814	97.44
477.033	107.44
477.252	97.44
477.471	95.44
477.69	89.44
477.908	84.44
478.127	83.44
478.346	88.44
478.564	97.44
478.783	92.44
479.002	99.44
479.22	107.44
479.439	106.44
479.658	105.44
479.876	111.44
480.095	93.44
480.313	102.44
480.532	103.44
480.751	139.44
480.969	220.44
481.188	607.44
481.406	413.44
481.624	126.44
481.843	90.44
482.061	83.44
482.28	100.44
482.498	91.44
482.717	87.44
482.935	74.44
483.153	80.44
483.372	87.44
483.59	84.44
483.808	96.44
484.027	88.44
484.245	100.44
484.463	91.44
484.681	104.44
484.9	93.44
485.118	85.44
485.336	97.44
485.554	99.44
485.772	102.44
485.99	104.44
486.209	104.44
486.427	104.44
486.645	117.44
486.863	119.44
487.081	101.44
487.299	100.44
487.517	111.44
487.735	99.44
487.953	89.44
488.171	96.44
488.389	88.44
488.607	108.44
488.825	98.44
489.043	98.44
489.261	100.44
489.479	99.44
489.696	91.44
489.914	96.44
490.132	99.44
490.35	89.44
490.568	95.44
490.786	91.44
491.003	101.44
491.221	96.44
491.439	97.44
491.657	118.44
491.874	101.44
492.092	100.44
492.31	86.44
492.527	96.44
492.745	93.44
492.963	93.44
493.18	94.44
493.398	102.44
493.615	93.44
493.833	85.44
494.05	99.44
494.268	89.44
494.485	105.44
494.703	85.44
494.92	82.44
495.138	90.44
495.355	84.44
495.573	88.44
495.79	88.44
496.008	99.44
496.225	85.44
496.442	93.44
496.66	91.44
496.877	80.44
497.094	92.44
497.312	108.44
497.529	89.44
497.746	91.44
497.963	92.44
498.181	104.44
498.398	94.44
498.615	104.44
498.832	100.44
499.049	85.44
499.267	96.44
499.484	97.44
499.701	89.44
499.918	98.44
500.135	85.44
500.352	97.44
500.569	96.44
500.786	98.44
501.003	106.44
501.22	97.44
501.437	98.44
501.654	104.44
501.871	116.44
502.088	98.44
502.305	100.44
502.522	93.44
502.739	105.44
502.956	76.44
503.172	81.44
503.389	95.44
503.606	120.44
503.823	91.44
504.04	90.44
504.256	93.44
504.473	88.44
504.69	90.44
504.907	102.44
505.123	100.44
505.34	91.44
505.557	94.44
505.773	93.44
505.99	95.44
506.207	92.44
506.423	90.44
506.64	96.44
506.856	97.44
507.073	100.44
507.289	119.44
507.506	98.44
507.722	121.44
507.939	110.44
508.155	97.44
508.372	85.44
508.588	91.44
508.805	100.44
509.021	80.44
509.238	97.44
509.454	90.44
509.67	108.44
509.887	114.44
510.103	123.44
510.319	200.44
510.536	683.44
510.752	2201.44
510.968	652.44
511.184	165.44
511.401	122.44
511.617	113.44
511.833	101.44
512.049	96.44
512.265	99.44
512.481	90.44
512.698	95.44
512.914	90.44
513.13	94.44
513.346	98.44
513.562	100.44
