Data from Circ_2011_H10_HRD10591_00017.txt Node
Date: Wed Jan 03 10:08:02 EST 2024
User: Yrep
Spectrometer: HR+D1059
Trigger mode: 1
Integration Time (sec): 1.000000E-1
Scans to average: 1
Electric dark correction enabled: true
Nonlinearity correction enabled: false
Boxcar width: 0
XAxis mode: Wavelengths
Number of Pixels in Spectrum: 2048
>>>>>Begin Spectral Data<<<<<
223.165	0.31
223.4	0.31
223.635	0.31
223.869	-25.69
224.104	-3.69
224.338	-25.69
224.573	-11.69
224.808	-23.69
225.042	-6.69
225.277	-0.69
225.511	-6.69
225.746	2.31
225.98	-0.69
226.215	12.31
226.449	20.31
226.683	14.31
226.918	26.31
227.152	29.31
227.387	38.31
227.621	46.31
227.856	44.31
228.09	50.31
228.324	54.31
228.559	59.31
228.793	63.31
229.027	63.31
229.262	73.31
229.496	66.31
229.73	79.31
229.964	78.31
230.199	75.31
230.433	61.31
230.667	76.31
230.901	93.31
231.136	81.31
231.37	73.31
231.604	74.31
231.838	84.31
232.072	70.31
232.306	68.31
232.541	91.31
232.775	89.31
233.009	73.31
233.243	77.31
233.477	85.31
233.711	78.31
233.945	78.31
234.179	67.31
234.413	63.31
234.647	80.31
234.881	85.31
235.115	81.31
235.349	94.31
235.583	89.31
235.817	80.31
236.051	90.31
236.285	81.31
236.519	77.31
236.753	88.31
236.987	86.31
237.221	74.31
237.455	83.31
237.689	79.31
237.922	78.31
238.156	78.31
238.39	81.31
238.624	75.31
238.858	76.31
239.091	66.31
239.325	80.31
239.559	82.31
239.793	76.31
240.027	80.31
240.26	74.31
240.494	79.31
240.728	68.31
240.961	71.31
241.195	72.31
241.429	71.31
241.662	69.31
241.896	70.31
242.13	71.31
242.363	66.31
242.597	89.31
242.83	71.31
243.064	85.31
243.298	74.31
243.531	72.31
243.765	73.31
243.998	72.31
244.232	68.31
244.465	76.31
244.699	87.31
244.932	74.31
245.166	73.31
245.399	85.31
245.633	71.31
245.866	83.31
246.099	87.31
246.333	73.31
246.566	94.31
246.8	77.31
247.033	69.31
247.266	85.31
247.5	78.31
247.733	85.31
247.966	70.31
248.2	80.31
248.433	61.31
248.666	73.31
248.899	87.31
249.133	85.31
249.366	101.31
249.599	98.31
249.832	80.31
250.066	68.31
250.299	79.31
250.532	79.31
250.765	86.31
250.998	85.31
251.231	71.31
251.465	67.31
251.698	75.31
251.931	79.31
252.164	76.31
252.397	78.31
252.63	72.31
252.863	83.31
253.096	75.31
253.329	101.31
253.562	83.31
253.795	91.31
254.028	92.31
254.261	76.31
254.494	88.31
254.727	77.31
254.96	78.31
255.193	79.31
255.426	62.31
255.659	76.31
255.892	89.31
256.124	83.31
256.357	86.31
256.59	81.31
256.823	86.31
257.056	91.31
257.289	84.31
257.521	83.31
257.754	91.31
257.987	82.31
258.22	75.31
258.452	76.31
258.685	76.31
258.918	67.31
259.151	82.31
259.383	90.31
259.616	77.31
259.849	76.31
260.081	101.31
260.314	85.31
260.547	77.31
260.779	89.31
261.012	83.31
261.244	74.31
261.477	74.31
261.71	92.31
261.942	107.31
262.175	121.31
262.407	88.31
262.64	87.31
262.872	84.31
263.105	71.31
263.337	86.31
263.57	85.31
263.802	76.31
264.035	80.31
264.267	76.31
264.499	78.31
264.732	82.31
264.964	77.31
265.197	96.31
265.429	93.31
265.661	74.31
265.894	72.31
266.126	98.31
266.358	77.31
266.591	78.31
266.823	90.31
267.055	81.31
267.287	77.31
267.52	83.31
267.752	74.31
267.984	82.31
268.216	87.31
268.448	78.31
268.681	76.31
268.913	79.31
269.145	87.31
269.377	80.31
269.609	82.31
269.841	79.31
270.073	79.31
270.306	82.31
270.538	84.31
270.77	79.31
271.002	79.31
271.234	75.31
271.466	87.31
271.698	93.31
271.93	94.31
272.162	88.31
272.394	83.31
272.626	93.31
272.858	92.31
273.09	76.31
273.322	79.31
273.553	74.31
273.785	95.31
274.017	78.31
274.249	78.31
274.481	85.31
274.713	85.31
274.945	98.31
275.176	93.31
275.408	88.31
275.64	83.31
275.872	70.31
276.104	107.31
276.335	82.31
276.567	93.31
276.799	86.31
277.031	108.31
277.262	83.31
277.494	85.31
277.726	85.31
277.957	88.31
278.189	85.31
278.421	68.31
278.652	74.31
278.884	86.31
279.115	76.31
279.347	77.31
279.579	90.31
279.81	79.31
280.042	87.31
280.273	85.31
280.505	103.31
280.736	69.31
280.968	77.31
281.199	93.31
281.431	75.31
281.662	87.31
281.894	93.31
282.125	89.31
282.356	114.31
282.588	138.31
282.819	102.31
283.051	84.31
283.282	85.31
283.513	81.31
283.745	100.31
283.976	90.31
284.207	93.31
284.439	79.31
284.67	92.31
284.901	89.31
285.132	75.31
285.364	93.31
285.595	93.31
285.826	74.31
286.057	103.31
286.288	66.31
286.52	75.31
286.751	107.31
286.982	74.31
287.213	72.31
287.444	86.31
287.675	91.31
287.906	80.31
288.138	91.31
288.369	83.31
288.6	96.31
288.831	89.31
289.062	99.31
289.293	96.31
289.524	86.31
289.755	95.31
289.986	93.31
290.217	76.31
290.448	89.31
290.679	100.31
290.91	90.31
291.141	83.31
291.371	81.31
291.602	90.31
291.833	84.31
292.064	78.31
292.295	82.31
292.526	92.31
292.757	87.31
292.987	87.31
293.218	85.31
293.449	78.31
293.68	83.31
293.91	88.31
294.141	86.31
294.372	91.31
294.603	85.31
294.833	102.31
295.064	97.31
295.295	78.31
295.525	84.31
295.756	98.31
295.987	124.31
296.217	132.31
296.448	123.31
296.679	95.31
296.909	88.31
297.14	71.31
297.37	88.31
297.601	86.31
297.831	88.31
298.062	98.31
298.292	91.31
298.523	81.31
298.753	88.31
298.984	89.31
299.214	79.31
299.445	77.31
299.675	74.31
299.905	95.31
300.136	86.31
300.366	93.31
300.597	92.31
300.827	76.31
301.057	91.31
301.288	103.31
301.518	94.31
301.748	98.31
301.979	95.31
302.209	92.31
302.439	87.31
302.669	87.31
302.9	71.31
303.13	80.31
303.36	88.31
303.59	105.31
303.82	93.31
304.051	80.31
304.281	99.31
304.511	88.31
304.741	94.31
304.971	91.31
305.201	87.31
305.431	83.31
305.661	86.31
305.891	95.31
306.121	90.31
306.352	90.31
306.582	102.31
306.812	85.31
307.042	77.31
307.272	84.31
307.502	83.31
307.731	96.31
307.961	88.31
308.191	87.31
308.421	103.31
308.651	97.31
308.881	95.31
309.111	92.31
309.341	91.31
309.571	91.31
309.8	89.31
310.03	92.31
310.26	114.31
310.49	104.31
310.72	92.31
310.949	100.31
311.179	102.31
311.409	86.31
311.639	95.31
311.868	100.31
312.098	91.31
312.328	88.31
312.557	97.31
312.787	98.31
313.017	96.31
313.246	93.31
313.476	87.31
313.706	95.31
313.935	79.31
314.165	102.31
314.394	105.31
314.624	86.31
314.853	94.31
315.083	92.31
315.312	89.31
315.542	76.31
315.771	95.31
316.001	89.31
316.23	98.31
316.46	96.31
316.689	100.31
316.919	114.31
317.148	93.31
317.377	89.31
317.607	83.31
317.836	95.31
318.065	93.31
318.295	89.31
318.524	77.31
318.753	91.31
318.983	94.31
319.212	101.31
319.441	103.31
319.67	112.31
319.9	92.31
320.129	99.31
320.358	86.31
320.587	96.31
320.816	116.31
321.046	95.31
321.275	103.31
321.504	72.31
321.733	94.31
321.962	88.31
322.191	88.31
322.42	85.31
322.649	89.31
322.878	100.31
323.108	133.31
323.337	116.31
323.566	120.31
323.795	147.31
324.024	228.31
324.253	422.31
324.482	890.31
324.71	1836.31
324.939	2437.31
325.168	889.31
325.397	247.31
325.626	153.31
325.855	136.31
326.084	118.31
326.313	126.31
326.542	152.31
326.77	240.31
326.999	505.31
327.228	1012.31
327.457	1894.31
327.686	1479.31
327.914	397.31
328.143	219.31
328.372	172.31
328.6	134.31
328.829	97.31
329.058	131.31
329.287	142.31
329.515	123.31
329.744	117.31
329.972	136.31
330.201	172.31
330.43	205.31
330.658	151.31
330.887	148.31
331.115	119.31
331.344	108.31
331.572	93.31
331.801	102.31
332.03	101.31
332.258	93.31
332.486	80.31
332.715	89.31
332.943	101.31
333.172	95.31
333.4	107.31
333.629	102.31
333.857	101.31
334.085	134.31
334.314	160.31
334.542	238.31
334.771	227.31
334.999	137.31
335.227	98.31
335.455	87.31
335.684	80.31
335.912	84.31
336.14	106.31
336.369	96.31
336.597	91.31
336.825	93.31
337.053	94.31
337.281	99.31
337.51	79.31
337.738	84.31
337.966	96.31
338.194	87.31
338.422	84.31
338.65	85.31
338.878	90.31
339.106	84.31
339.334	84.31
339.562	111.31
339.79	90.31
340.018	87.31
340.246	85.31
340.474	102.31
340.702	90.31
340.93	84.31
341.158	81.31
341.386	97.31
341.614	96.31
341.842	80.31
342.07	85.31
342.298	73.31
342.526	88.31
342.754	87.31
342.981	102.31
343.209	77.31
343.437	97.31
343.665	87.31
343.893	89.31
344.12	94.31
344.348	85.31
344.576	77.31
344.804	85.31
345.031	84.31
345.259	91.31
345.487	97.31
345.714	95.31
345.942	86.31
346.17	86.31
346.397	99.31
346.625	83.31
346.853	82.31
347.08	90.31
347.308	94.31
347.535	97.31
347.763	99.31
347.99	99.31
348.218	104.31
348.445	105.31
348.673	105.31
348.9	79.31
349.128	95.31
349.355	94.31
349.583	85.31
349.81	90.31
350.037	89.31
350.265	84.31
350.492	99.31
350.72	98.31
350.947	94.31
351.174	95.31
351.402	107.31
351.629	95.31
351.856	111.31
352.083	86.31
352.311	101.31
352.538	97.31
352.765	100.31
352.992	102.31
353.22	98.31
353.447	92.31
353.674	82.31
353.901	81.31
354.128	91.31
354.355	105.31
354.583	92.31
354.81	86.31
355.037	109.31
355.264	100.31
355.491	78.31
355.718	93.31
355.945	99.31
356.172	85.31
356.399	100.31
356.626	97.31
356.853	89.31
357.08	92.31
357.307	81.31
357.534	83.31
357.761	99.31
357.988	95.31
358.215	70.31
358.441	91.31
358.668	82.31
358.895	99.31
359.122	77.31
359.349	95.31
359.576	89.31
359.802	97.31
360.029	102.31
360.256	105.31
360.483	90.31
360.709	86.31
360.936	100.31
361.163	88.31
361.39	105.31
361.616	99.31
361.843	90.31
362.07	107.31
362.296	97.31
362.523	93.31
362.749	93.31
362.976	102.31
363.203	73.31
363.429	100.31
363.656	89.31
363.882	80.31
364.109	98.31
364.335	105.31
364.562	91.31
364.788	100.31
365.015	88.31
365.241	93.31
365.468	101.31
365.694	86.31
365.92	86.31
366.147	95.31
366.373	79.31
366.599	97.31
366.826	96.31
367.052	87.31
367.278	96.31
367.505	85.31
367.731	106.31
367.957	82.31
368.184	88.31
368.41	86.31
368.636	106.31
368.862	101.31
369.089	105.31
369.315	90.31
369.541	99.31
369.767	86.31
369.993	89.31
370.219	91.31
370.445	76.31
370.672	86.31
370.898	92.31
371.124	83.31
371.35	84.31
371.576	89.31
371.802	82.31
372.028	76.31
372.254	82.31
372.48	82.31
372.706	84.31
372.932	74.31
373.158	90.31
373.384	80.31
373.61	94.31
373.835	91.31
374.061	90.31
374.287	79.31
374.513	93.31
374.739	87.31
374.965	90.31
375.191	91.31
375.416	76.31
375.642	80.31
375.868	102.31
376.094	82.31
376.319	90.31
376.545	80.31
376.771	84.31
376.997	82.31
377.222	97.31
377.448	86.31
377.674	98.31
377.899	82.31
378.125	92.31
378.35	88.31
378.576	83.31
378.802	84.31
379.027	96.31
379.253	89.31
379.478	94.31
379.704	96.31
379.929	95.31
380.155	85.31
380.38	106.31
380.606	94.31
380.831	98.31
381.057	91.31
381.282	86.31
381.507	104.31
381.733	79.31
381.958	102.31
382.184	106.31
382.409	115.31
382.634	98.31
382.86	92.31
383.085	98.31
383.31	95.31
383.535	95.31
383.761	102.31
383.986	87.31
384.211	85.31
384.436	95.31
384.662	92.31
384.887	86.31
385.112	108.31
385.337	89.31
385.562	89.31
385.787	90.31
386.013	96.31
386.238	115.31
386.463	111.31
386.688	110.31
386.913	99.31
387.138	100.31
387.363	99.31
387.588	107.31
387.813	104.31
388.038	119.31
388.263	105.31
388.488	98.31
388.713	87.31
388.938	88.31
389.163	109.31
389.387	99.31
389.612	94.31
389.837	78.31
390.062	78.31
390.287	92.31
390.512	93.31
390.736	71.31
390.961	85.31
391.186	94.31
391.411	98.31
391.636	84.31
391.86	94.31
392.085	84.31
392.31	87.31
392.534	94.31
392.759	86.31
392.984	88.31
393.208	100.31
393.433	82.31
393.658	86.31
393.882	95.31
394.107	84.31
394.331	91.31
394.556	88.31
394.78	94.31
395.005	66.31
395.229	92.31
395.454	100.31
395.678	79.31
395.903	84.31
396.127	91.31
396.352	99.31
396.576	73.31
396.801	83.31
397.025	84.31
397.249	82.31
397.474	102.31
397.698	88.31
397.922	91.31
398.147	88.31
398.371	80.31
398.595	95.31
398.82	79.31
399.044	91.31
399.268	86.31
399.492	87.31
399.717	91.31
399.941	86.31
400.165	106.31
400.389	110.31
400.613	79.31
400.837	87.31
401.062	86.31
401.286	99.31
401.51	93.31
401.734	93.31
401.958	101.31
402.182	118.31
402.406	160.31
402.63	106.31
402.854	92.31
403.078	94.31
403.302	94.31
403.526	95.31
403.75	98.31
403.974	90.31
404.198	96.31
404.422	85.31
404.645	79.31
404.869	97.31
405.093	92.31
405.317	101.31
405.541	99.31
405.765	110.31
405.988	111.31
406.212	152.31
406.436	228.31
406.66	123.31
406.883	90.31
407.107	97.31
407.331	101.31
407.555	86.31
407.778	97.31
408.002	72.31
408.226	100.31
408.449	106.31
408.673	80.31
408.896	99.31
409.12	91.31
409.344	90.31
409.567	92.31
409.791	85.31
410.014	99.31
410.238	88.31
410.461	86.31
410.685	90.31
410.908	89.31
411.132	93.31
411.355	99.31
411.578	88.31
411.802	75.31
412.025	72.31
412.249	94.31
412.472	90.31
412.695	119.31
412.919	77.31
413.142	76.31
413.365	100.31
413.589	87.31
413.812	80.31
414.035	75.31
414.258	75.31
414.482	74.31
414.705	93.31
414.928	86.31
415.151	107.31
415.374	85.31
415.597	90.31
415.821	91.31
416.044	91.31
416.267	89.31
416.49	84.31
416.713	105.31
416.936	94.31
417.159	92.31
417.382	91.31
417.605	103.31
417.828	86.31
418.051	79.31
418.274	79.31
418.497	76.31
418.72	78.31
418.943	80.31
419.166	84.31
419.389	88.31
419.611	83.31
419.834	90.31
420.057	84.31
420.28	86.31
420.503	83.31
420.726	99.31
420.948	88.31
421.171	89.31
421.394	106.31
421.617	90.31
421.839	90.31
422.062	87.31
422.285	97.31
422.507	80.31
422.73	106.31
422.953	99.31
423.175	91.31
423.398	98.31
423.621	90.31
423.843	76.31
424.066	77.31
424.288	86.31
424.511	93.31
424.733	104.31
424.956	128.31
425.178	104.31
425.401	104.31
425.623	104.31
425.846	92.31
426.068	104.31
426.291	95.31
426.513	90.31
426.735	75.31
426.958	90.31
427.18	107.31
427.402	140.31
427.625	164.31
427.847	127.31
428.069	125.31
428.292	92.31
428.514	99.31
428.736	88.31
428.958	88.31
429.181	66.31
429.403	100.31
429.625	87.31
429.847	101.31
430.069	95.31
430.292	92.31
430.514	86.31
430.736	77.31
430.958	106.31
431.18	74.31
431.402	91.31
431.624	89.31
431.846	88.31
432.068	74.31
432.29	99.31
432.512	86.31
432.734	90.31
432.956	101.31
433.178	110.31
433.4	92.31
433.622	93.31
433.844	88.31
434.066	91.31
434.287	90.31
434.509	87.31
434.731	87.31
434.953	91.31
435.175	90.31
435.397	94.31
435.618	108.31
435.84	100.31
436.062	125.31
436.284	108.31
436.505	94.31
436.727	94.31
436.949	106.31
437.17	91.31
437.392	77.31
437.614	85.31
437.835	115.31
438.057	120.31
438.278	99.31
438.5	111.31
438.721	115.31
438.943	90.31
439.165	91.31
439.386	92.31
439.608	96.31
439.829	110.31
440.05	121.31
440.272	135.31
440.493	93.31
440.715	93.31
440.936	89.31
441.158	83.31
441.379	105.31
441.6	94.31
441.822	98.31
442.043	96.31
442.264	96.31
442.486	92.31
442.707	95.31
442.928	107.31
443.149	131.31
443.371	134.31
443.592	115.31
443.813	116.31
444.034	119.31
444.255	101.31
444.476	78.31
444.698	78.31
444.919	92.31
445.14	129.31
445.361	123.31
445.582	112.31
445.803	153.31
446.024	143.31
446.245	144.31
446.466	111.31
446.687	76.31
446.908	90.31
447.129	76.31
447.35	94.31
447.571	86.31
447.792	94.31
448.013	93.31
448.234	113.31
448.455	96.31
448.675	120.31
448.896	140.31
449.117	103.31
449.338	117.31
449.559	136.31
449.779	144.31
450	117.31
450.221	80.31
450.442	95.31
450.662	86.31
450.883	103.31
451.104	118.31
451.324	91.31
451.545	90.31
451.766	91.31
451.986	91.31
452.207	98.31
452.428	87.31
452.648	108.31
452.869	101.31
453.089	120.31
453.31	129.31
453.53	103.31
453.751	91.31
453.971	98.31
454.192	103.31
454.412	75.31
454.633	80.31
454.853	88.31
455.073	85.31
455.294	79.31
455.514	105.31
455.734	94.31
455.955	76.31
456.175	75.31
456.395	89.31
456.616	75.31
456.836	86.31
457.056	90.31
457.276	78.31
457.497	84.31
457.717	74.31
457.937	72.31
458.157	89.31
458.377	99.31
458.598	108.31
458.818	163.31
459.038	183.31
459.258	124.31
459.478	92.31
459.698	76.31
459.918	83.31
460.138	91.31
460.358	100.31
460.578	82.31
460.798	85.31
461.018	91.31
461.238	85.31
461.458	98.31
461.678	71.31
461.898	82.31
462.118	76.31
462.338	87.31
462.558	92.31
462.777	90.31
462.997	93.31
463.217	91.31
463.437	91.31
463.657	81.31
463.876	71.31
464.096	76.31
464.316	86.31
464.536	100.31
464.755	87.31
464.975	114.31
465.195	162.31
465.414	164.31
465.634	96.31
465.854	88.31
466.073	98.31
466.293	93.31
466.512	80.31
466.732	85.31
466.951	98.31
467.171	81.31
467.391	80.31
467.61	107.31
467.829	104.31
468.049	128.31
468.268	144.31
468.488	94.31
468.707	85.31
468.927	79.31
469.146	94.31
469.365	88.31
469.585	79.31
469.804	87.31
470.023	98.31
470.243	98.31
470.462	106.31
470.681	106.31
470.901	92.31
471.12	92.31
471.339	92.31
471.558	85.31
471.777	88.31
471.997	106.31
472.216	192.31
472.435	287.31
472.654	114.31
472.873	87.31
473.092	84.31
473.311	86.31
473.53	86.31
473.749	97.31
473.968	106.31
474.187	103.31
474.406	102.31
474.625	85.31
474.844	84.31
475.063	94.31
475.282	83.31
475.501	90.31
475.72	88.31
475.939	94.31
476.158	78.31
476.377	80.31
476.596	80.31
476.814	92.31
477.033	86.31
477.252	88.31
477.471	86.31
477.69	95.31
477.908	85.31
478.127	75.31
478.346	88.31
478.564	89.31
478.783	93.31
479.002	70.31
479.22	87.31
479.439	111.31
479.658	100.31
479.876	93.31
480.095	100.31
480.313	96.31
480.532	96.31
480.751	98.31
480.969	169.31
481.188	463.31
481.406	327.31
481.624	106.31
481.843	99.31
482.061	88.31
482.28	99.31
482.498	89.31
482.717	84.31
482.935	96.31
483.153	76.31
483.372	72.31
483.59	89.31
483.808	88.31
484.027	95.31
484.245	90.31
484.463	97.31
484.681	100.31
484.9	94.31
485.118	94.31
485.336	93.31
485.554	91.31
485.772	95.31
485.99	85.31
486.209	111.31
486.427	98.31
486.645	99.31
486.863	112.31
487.081	92.31
487.299	97.31
487.517	86.31
487.735	80.31
487.953	92.31
488.171	99.31
488.389	91.31
488.607	95.31
488.825	93.31
489.043	78.31
489.261	93.31
489.479	92.31
489.696	87.31
489.914	88.31
490.132	86.31
490.35	85.31
490.568	100.31
490.786	88.31
491.003	87.31
491.221	83.31
491.439	90.31
491.657	93.31
491.874	89.31
492.092	106.31
492.31	83.31
492.527	88.31
492.745	87.31
492.963	81.31
493.18	91.31
493.398	88.31
493.615	91.31
493.833	100.31
494.05	90.31
494.268	78.31
494.485	95.31
494.703	91.31
494.92	94.31
495.138	89.31
495.355	87.31
495.573	93.31
495.79	80.31
496.008	90.31
496.225	80.31
496.442	88.31
496.66	78.31
496.877	85.31
497.094	84.31
497.312	95.31
497.529	94.31
497.746	94.31
497.963	80.31
498.181	72.31
498.398	84.31
498.615	114.31
498.832	109.31
499.049	98.31
499.267	96.31
499.484	83.31
499.701	89.31
499.918	92.31
500.135	92.31
500.352	89.31
500.569	73.31
500.786	101.31
501.003	91.31
501.22	86.31
501.437	95.31
501.654	101.31
501.871	100.31
502.088	94.31
502.305	82.31
502.522	90.31
502.739	90.31
502.956	96.31
503.172	88.31
503.389	86.31
503.606	95.31
503.823	104.31
504.04	102.31
504.256	82.31
504.473	95.31
504.69	84.31
504.907	89.31
505.123	101.31
505.34	82.31
505.557	94.31
505.773	108.31
505.99	91.31
506.207	90.31
506.423	93.31
506.64	95.31
506.856	85.31
507.073	107.31
507.289	92.31
507.506	88.31
507.722	106.31
507.939	116.31
508.155	91.31
508.372	100.31
508.588	95.31
508.805	92.31
509.021	92.31
509.238	102.31
509.454	102.31
509.67	118.31
509.887	105.31
510.103	139.31
510.319	189.31
510.536	697.31
510.752	2255.31
510.968	649.31
511.184	163.31
511.401	115.31
511.617	87.31
511.833	89.31
512.049	96.31
512.265	86.31
512.481	95.31
512.698	96.31
512.914	95.31
513.13	99.31
513.346	100.31
513.562	99.31
513.778	100.31
513.994	95.31
514.21	90.31
514.426	128.31
514.642	132.31
514.858	128.31
515.074	156.31
515.29	409.31
515.506	1455.31
515.721	555.31
515.937	157.31
516.153	112.31
