Data from Circ_2011_H10_HRD10591_00033.txt Node
Date: Wed Jan 03 10:08:05 EST 2024
User: Yrep
Spectrometer: HR+D1059
Trigger mode: 1
Integration Time (sec): 1.000000E-1
Scans to average: 1
Electric dark correction enabled: true
Nonlinearity correction enabled: false
Boxcar width: 0
XAxis mode: Wavelengths
Number of Pixels in Spectrum: 2048
>>>>>Begin Spectral Data<<<<<
223.165	-1.69
223.4	-1.69
223.635	-1.69
223.869	-27.69
224.104	-22.69
224.338	-10.69
224.573	-2.69
224.808	-15.69
225.042	-15.69
225.277	-9.69
225.511	0.31
225.746	7.31
225.98	5.31
226.215	6.31
226.449	14.31
226.683	14.31
226.918	18.31
227.152	40.31
227.387	32.31
227.621	45.31
227.856	42.31
228.09	51.31
228.324	48.31
228.559	55.31
228.793	51.31
229.027	54.31
229.262	62.31
229.496	77.31
229.73	73.31
229.964	74.31
230.199	82.31
230.433	78.31
230.667	86.31
230.901	83.31
231.136	92.31
231.37	74.31
231.604	85.31
231.838	77.31
232.072	88.31
232.306	72.31
232.541	100.31
232.775	81.31
233.009	80.31
233.243	89.31
233.477	94.31
233.711	89.31
233.945	87.31
234.179	85.31
234.413	76.31
234.647	97.31
234.881	75.31
235.115	91.31
235.349	61.31
235.583	71.31
235.817	85.31
236.051	89.31
236.285	81.31
236.519	86.31
236.753	86.31
236.987	81.31
237.221	88.31
237.455	92.31
237.689	69.31
237.922	82.31
238.156	78.31
238.39	72.31
238.624	82.31
238.858	80.31
239.091	81.31
239.325	86.31
239.559	66.31
239.793	59.31
240.027	88.31
240.26	91.31
240.494	87.31
240.728	102.31
240.961	88.31
241.195	83.31
241.429	73.31
241.662	103.31
241.896	73.31
242.13	76.31
242.363	79.31
242.597	71.31
242.83	74.31
243.064	79.31
243.298	86.31
243.531	63.31
243.765	71.31
243.998	85.31
244.232	78.31
244.465	88.31
244.699	85.31
244.932	86.31
245.166	100.31
245.399	78.31
245.633	82.31
245.866	88.31
246.099	81.31
246.333	84.31
246.566	75.31
246.8	75.31
247.033	84.31
247.266	70.31
247.5	83.31
247.733	63.31
247.966	85.31
248.2	72.31
248.433	80.31
248.666	74.31
248.899	92.31
249.133	93.31
249.366	104.31
249.599	95.31
249.832	92.31
250.066	80.31
250.299	65.31
250.532	83.31
250.765	86.31
250.998	90.31
251.231	89.31
251.465	81.31
251.698	98.31
251.931	89.31
252.164	82.31
252.397	95.31
252.63	93.31
252.863	87.31
253.096	86.31
253.329	86.31
253.562	83.31
253.795	97.31
254.028	77.31
254.261	77.31
254.494	75.31
254.727	93.31
254.96	85.31
255.193	86.31
255.426	60.31
255.659	73.31
255.892	85.31
256.124	77.31
256.357	83.31
256.59	98.31
256.823	87.31
257.056	74.31
257.289	80.31
257.521	89.31
257.754	69.31
257.987	82.31
258.22	81.31
258.452	89.31
258.685	88.31
258.918	86.31
259.151	79.31
259.383	94.31
259.616	92.31
259.849	80.31
260.081	78.31
260.314	82.31
260.547	92.31
260.779	90.31
261.012	87.31
261.244	76.31
261.477	99.31
261.71	94.31
261.942	117.31
262.175	125.31
262.407	95.31
262.64	73.31
262.872	81.31
263.105	81.31
263.337	75.31
263.57	82.31
263.802	83.31
264.035	81.31
264.267	90.31
264.499	83.31
264.732	85.31
264.964	78.31
265.197	83.31
265.429	80.31
265.661	86.31
265.894	88.31
266.126	90.31
266.358	93.31
266.591	96.31
266.823	85.31
267.055	79.31
267.287	94.31
267.52	77.31
267.752	83.31
267.984	92.31
268.216	80.31
268.448	87.31
268.681	94.31
268.913	79.31
269.145	90.31
269.377	84.31
269.609	83.31
269.841	66.31
270.073	82.31
270.306	85.31
270.538	84.31
270.77	98.31
271.002	93.31
271.234	88.31
271.466	96.31
271.698	96.31
271.93	95.31
272.162	101.31
272.394	91.31
272.626	91.31
272.858	81.31
273.09	78.31
273.322	82.31
273.553	70.31
273.785	89.31
274.017	83.31
274.249	87.31
274.481	82.31
274.713	84.31
274.945	87.31
275.176	80.31
275.408	86.31
275.64	85.31
275.872	88.31
276.104	89.31
276.335	89.31
276.567	99.31
276.799	101.31
277.031	89.31
277.262	89.31
277.494	100.31
277.726	91.31
277.957	90.31
278.189	92.31
278.421	104.31
278.652	92.31
278.884	84.31
279.115	81.31
279.347	88.31
279.579	85.31
279.81	86.31
280.042	87.31
280.273	96.31
280.505	94.31
280.736	92.31
280.968	116.31
281.199	107.31
281.431	86.31
281.662	82.31
281.894	86.31
282.125	107.31
282.356	128.31
282.588	135.31
282.819	115.31
283.051	84.31
283.282	94.31
283.513	94.31
283.745	88.31
283.976	90.31
284.207	83.31
284.439	90.31
284.67	90.31
284.901	88.31
285.132	93.31
285.364	85.31
285.595	97.31
285.826	101.31
286.057	82.31
286.288	93.31
286.52	89.31
286.751	90.31
286.982	90.31
287.213	83.31
287.444	89.31
287.675	92.31
287.906	95.31
288.138	83.31
288.369	92.31
288.6	87.31
288.831	90.31
289.062	88.31
289.293	82.31
289.524	76.31
289.755	74.31
289.986	79.31
290.217	91.31
290.448	95.31
290.679	104.31
290.91	91.31
291.141	80.31
291.371	97.31
291.602	75.31
291.833	85.31
292.064	86.31
292.295	77.31
292.526	95.31
292.757	89.31
292.987	103.31
293.218	81.31
293.449	89.31
293.68	82.31
293.91	84.31
294.141	81.31
294.372	106.31
294.603	87.31
294.833	88.31
295.064	83.31
295.295	103.31
295.525	102.31
295.756	106.31
295.987	112.31
296.217	147.31
296.448	123.31
296.679	92.31
296.909	83.31
297.14	95.31
297.37	99.31
297.601	88.31
297.831	82.31
298.062	97.31
298.292	90.31
298.523	91.31
298.753	99.31
298.984	102.31
299.214	88.31
299.445	88.31
299.675	93.31
299.905	86.31
300.136	93.31
300.366	88.31
300.597	99.31
300.827	89.31
301.057	98.31
301.288	101.31
301.518	92.31
301.748	99.31
301.979	98.31
302.209	108.31
302.439	93.31
302.669	77.31
302.9	101.31
303.13	88.31
303.36	96.31
303.59	107.31
303.82	110.31
304.051	109.31
304.281	89.31
304.511	91.31
304.741	82.31
304.971	77.31
305.201	98.31
305.431	90.31
305.661	90.31
305.891	89.31
306.121	104.31
306.352	94.31
306.582	97.31
306.812	96.31
307.042	82.31
307.272	97.31
307.502	99.31
307.731	105.31
307.961	88.31
308.191	94.31
308.421	94.31
308.651	110.31
308.881	97.31
309.111	90.31
309.341	112.31
309.571	85.31
309.8	88.31
310.03	98.31
310.26	102.31
310.49	96.31
310.72	107.31
310.949	103.31
311.179	97.31
311.409	91.31
311.639	105.31
311.868	97.31
312.098	97.31
312.328	89.31
312.557	97.31
312.787	97.31
313.017	101.31
313.246	81.31
313.476	88.31
313.706	81.31
313.935	105.31
314.165	88.31
314.394	85.31
314.624	95.31
314.853	108.31
315.083	90.31
315.312	90.31
315.542	88.31
315.771	102.31
316.001	73.31
316.23	95.31
316.46	79.31
316.689	103.31
316.919	97.31
317.148	98.31
317.377	97.31
317.607	94.31
317.836	90.31
318.065	87.31
318.295	82.31
318.524	87.31
318.753	93.31
318.983	95.31
319.212	82.31
319.441	88.31
319.67	100.31
319.9	91.31
320.129	85.31
320.358	98.31
320.587	90.31
320.816	108.31
321.046	96.31
321.275	90.31
321.504	91.31
321.733	83.31
321.962	85.31
322.191	105.31
322.42	115.31
322.649	125.31
322.878	110.31
323.108	118.31
323.337	122.31
323.566	123.31
323.795	145.31
324.024	217.31
324.253	408.31
324.482	819.31
324.71	1683.31
324.939	2196.31
325.168	808.31
325.397	249.31
325.626	141.31
325.855	127.31
326.084	154.31
326.313	132.31
326.542	144.31
326.77	236.31
326.999	453.31
327.228	950.31
327.457	1728.31
327.686	1384.31
327.914	380.31
328.143	203.31
328.372	172.31
328.6	147.31
328.829	115.31
329.058	129.31
329.287	121.31
329.515	121.31
329.744	125.31
329.972	119.31
330.201	179.31
330.43	189.31
330.658	155.31
330.887	149.31
331.115	130.31
331.344	93.31
331.572	103.31
331.801	111.31
332.03	111.31
332.258	101.31
332.486	101.31
332.715	99.31
332.943	94.31
333.172	102.31
333.4	104.31
333.629	101.31
333.857	120.31
334.085	125.31
334.314	157.31
334.542	219.31
334.771	210.31
334.999	122.31
335.227	97.31
335.455	76.31
335.684	103.31
335.912	96.31
336.14	95.31
336.369	107.31
336.597	97.31
336.825	90.31
337.053	80.31
337.281	86.31
337.51	91.31
337.738	94.31
337.966	89.31
338.194	99.31
338.422	100.31
338.65	104.31
338.878	90.31
339.106	92.31
339.334	86.31
339.562	95.31
339.79	104.31
340.018	83.31
340.246	93.31
340.474	96.31
340.702	94.31
340.93	94.31
341.158	80.31
341.386	94.31
341.614	92.31
341.842	83.31
342.07	96.31
342.298	102.31
342.526	96.31
342.754	90.31
342.981	83.31
343.209	104.31
343.437	97.31
343.665	85.31
343.893	82.31
344.12	101.31
344.348	90.31
344.576	100.31
344.804	85.31
345.031	99.31
345.259	103.31
345.487	88.31
345.714	93.31
345.942	91.31
346.17	97.31
346.397	101.31
346.625	95.31
346.853	85.31
347.08	74.31
347.308	94.31
347.535	109.31
347.763	91.31
347.99	103.31
348.218	101.31
348.445	94.31
348.673	103.31
348.9	82.31
349.128	87.31
349.355	92.31
349.583	90.31
349.81	88.31
350.037	84.31
350.265	98.31
350.492	81.31
350.72	97.31
350.947	101.31
351.174	106.31
351.402	104.31
351.629	94.31
351.856	101.31
352.083	92.31
352.311	110.31
352.538	107.31
352.765	105.31
352.992	103.31
353.22	111.31
353.447	114.31
353.674	104.31
353.901	94.31
354.128	90.31
354.355	90.31
354.583	101.31
354.81	90.31
355.037	78.31
355.264	94.31
355.491	90.31
355.718	78.31
355.945	93.31
356.172	94.31
356.399	95.31
356.626	96.31
356.853	86.31
357.08	99.31
357.307	97.31
357.534	97.31
357.761	97.31
357.988	102.31
358.215	99.31
358.441	98.31
358.668	90.31
358.895	94.31
359.122	82.31
359.349	95.31
359.576	95.31
359.802	96.31
360.029	112.31
360.256	122.31
360.483	119.31
360.709	94.31
360.936	102.31
361.163	98.31
361.39	100.31
361.616	82.31
361.843	102.31
362.07	86.31
362.296	106.31
362.523	91.31
362.749	91.31
362.976	101.31
363.203	86.31
363.429	84.31
363.656	93.31
363.882	94.31
364.109	77.31
364.335	82.31
364.562	86.31
364.788	86.31
365.015	96.31
365.241	97.31
365.468	102.31
365.694	98.31
365.92	103.31
366.147	91.31
366.373	89.31
366.599	85.31
366.826	101.31
367.052	86.31
367.278	82.31
367.505	102.31
367.731	92.31
367.957	85.31
368.184	89.31
368.41	91.31
368.636	105.31
368.862	121.31
369.089	102.31
369.315	107.31
369.541	96.31
369.767	76.31
369.993	102.31
370.219	91.31
370.445	80.31
370.672	82.31
370.898	82.31
371.124	94.31
371.35	98.31
371.576	97.31
371.802	86.31
372.028	97.31
372.254	102.31
372.48	84.31
372.706	91.31
372.932	84.31
373.158	93.31
373.384	109.31
373.61	90.31
373.835	107.31
374.061	88.31
374.287	98.31
374.513	94.31
374.739	91.31
374.965	93.31
375.191	96.31
375.416	84.31
375.642	98.31
375.868	103.31
376.094	93.31
376.319	89.31
376.545	99.31
376.771	97.31
376.997	96.31
377.222	113.31
377.448	106.31
377.674	86.31
377.899	99.31
378.125	73.31
378.35	74.31
378.576	89.31
378.802	89.31
379.027	87.31
379.253	103.31
379.478	101.31
379.704	101.31
379.929	92.31
380.155	94.31
380.38	80.31
380.606	97.31
380.831	90.31
381.057	94.31
381.282	88.31
381.507	98.31
381.733	102.31
381.958	88.31
382.184	98.31
382.409	96.31
382.634	101.31
382.86	105.31
383.085	111.31
383.31	113.31
383.535	104.31
383.761	86.31
383.986	104.31
384.211	93.31
384.436	105.31
384.662	113.31
384.887	96.31
385.112	102.31
385.337	101.31
385.562	92.31
385.787	106.31
386.013	103.31
386.238	113.31
386.463	99.31
386.688	99.31
386.913	93.31
387.138	98.31
387.363	107.31
387.588	94.31
387.813	94.31
388.038	111.31
388.263	106.31
388.488	94.31
388.713	100.31
388.938	96.31
389.163	93.31
389.387	89.31
389.612	80.31
389.837	85.31
390.062	103.31
390.287	92.31
390.512	96.31
390.736	99.31
390.961	100.31
391.186	102.31
391.411	88.31
391.636	82.31
391.86	79.31
392.085	82.31
392.31	78.31
392.534	86.31
392.759	71.31
392.984	94.31
393.208	99.31
393.433	93.31
393.658	82.31
393.882	94.31
394.107	96.31
394.331	85.31
394.556	85.31
394.78	94.31
395.005	95.31
395.229	91.31
395.454	98.31
395.678	90.31
395.903	85.31
396.127	92.31
396.352	96.31
396.576	93.31
396.801	83.31
397.025	73.31
397.249	75.31
397.474	80.31
397.698	88.31
397.922	94.31
398.147	90.31
398.371	83.31
398.595	79.31
398.82	82.31
399.044	75.31
399.268	88.31
399.492	92.31
399.717	78.31
399.941	99.31
400.165	108.31
400.389	92.31
400.613	99.31
400.837	93.31
401.062	106.31
401.286	98.31
401.51	89.31
401.734	79.31
401.958	104.31
402.182	129.31
402.406	135.31
402.63	131.31
402.854	96.31
403.078	91.31
403.302	90.31
403.526	87.31
403.75	82.31
403.974	88.31
404.198	79.31
404.422	102.31
404.645	92.31
404.869	93.31
405.093	110.31
405.317	91.31
405.541	99.31
405.765	97.31
405.988	113.31
406.212	158.31
406.436	239.31
406.66	152.31
406.883	92.31
407.107	82.31
407.331	89.31
407.555	96.31
407.778	95.31
408.002	83.31
408.226	97.31
408.449	90.31
408.673	87.31
408.896	114.31
409.12	88.31
409.344	89.31
409.567	88.31
409.791	99.31
410.014	100.31
410.238	93.31
410.461	90.31
410.685	91.31
410.908	90.31
411.132	97.31
411.355	103.31
411.578	92.31
411.802	86.31
412.025	90.31
412.249	87.31
412.472	91.31
412.695	93.31
412.919	100.31
413.142	86.31
413.365	88.31
413.589	76.31
413.812	91.31
414.035	99.31
414.258	92.31
414.482	92.31
414.705	90.31
414.928	95.31
415.151	87.31
415.374	103.31
415.597	86.31
415.821	90.31
416.044	97.31
416.267	98.31
416.49	88.31
416.713	89.31
416.936	95.31
417.159	92.31
417.382	82.31
417.605	93.31
417.828	106.31
418.051	92.31
418.274	98.31
418.497	84.31
418.72	83.31
418.943	85.31
419.166	78.31
419.389	89.31
419.611	82.31
419.834	93.31
420.057	87.31
420.28	90.31
420.503	96.31
420.726	94.31
420.948	76.31
421.171	78.31
421.394	94.31
421.617	93.31
421.839	101.31
422.062	98.31
422.285	104.31
422.507	103.31
422.73	108.31
422.953	90.31
423.175	88.31
423.398	92.31
423.621	99.31
423.843	94.31
424.066	88.31
424.288	96.31
424.511	104.31
424.733	106.31
424.956	111.31
425.178	97.31
425.401	121.31
425.623	113.31
425.846	95.31
426.068	104.31
426.291	88.31
426.513	95.31
426.735	95.31
426.958	100.31
427.18	108.31
427.402	140.31
427.625	172.31
427.847	133.31
428.069	131.31
428.292	92.31
428.514	108.31
428.736	88.31
428.958	83.31
429.181	89.31
429.403	89.31
429.625	109.31
429.847	94.31
430.069	106.31
430.292	92.31
430.514	86.31
430.736	97.31
430.958	95.31
431.18	90.31
431.402	100.31
431.624	95.31
431.846	88.31
432.068	90.31
432.29	94.31
432.512	100.31
432.734	88.31
432.956	93.31
433.178	99.31
433.4	108.31
433.622	100.31
433.844	91.31
434.066	92.31
434.287	101.31
434.509	77.31
434.731	102.31
434.953	83.31
435.175	91.31
435.397	83.31
435.618	95.31
435.84	96.31
436.062	122.31
436.284	117.31
436.505	93.31
436.727	115.31
436.949	99.31
437.17	100.31
437.392	91.31
437.614	96.31
437.835	102.31
438.057	108.31
438.278	104.31
438.5	110.31
438.721	106.31
438.943	115.31
439.165	81.31
439.386	89.31
439.608	93.31
439.829	91.31
440.05	115.31
440.272	159.31
440.493	96.31
440.715	81.31
440.936	90.31
441.158	81.31
441.379	87.31
441.6	94.31
441.822	101.31
442.043	96.31
442.264	109.31
442.486	92.31
442.707	94.31
442.928	113.31
443.149	135.31
443.371	130.31
443.592	113.31
443.813	108.31
444.034	102.31
444.255	90.31
444.476	97.31
444.698	93.31
444.919	96.31
445.14	122.31
445.361	126.31
445.582	117.31
445.803	121.31
446.024	126.31
446.245	136.31
446.466	107.31
446.687	106.31
446.908	84.31
447.129	95.31
447.35	90.31
447.571	108.31
447.792	97.31
448.013	83.31
448.234	103.31
448.455	101.31
448.675	125.31
448.896	133.31
449.117	91.31
449.338	106.31
449.559	130.31
449.779	136.31
450	100.31
450.221	104.31
450.442	96.31
450.662	104.31
450.883	95.31
451.104	117.31
451.324	95.31
451.545	94.31
451.766	79.31
451.986	77.31
452.207	87.31
452.428	91.31
452.648	98.31
452.869	111.31
453.089	117.31
453.31	113.31
453.53	93.31
453.751	92.31
453.971	111.31
454.192	105.31
454.412	99.31
454.633	97.31
454.853	89.31
455.073	105.31
455.294	80.31
455.514	107.31
455.734	109.31
455.955	104.31
456.175	89.31
456.395	83.31
456.616	85.31
456.836	82.31
457.056	77.31
457.276	83.31
457.497	91.31
457.717	82.31
457.937	82.31
458.157	82.31
458.377	80.31
458.598	103.31
458.818	129.31
459.038	146.31
459.258	116.31
459.478	86.31
459.698	88.31
459.918	95.31
460.138	90.31
460.358	83.31
460.578	106.31
460.798	83.31
461.018	96.31
461.238	83.31
461.458	93.31
461.678	88.31
461.898	94.31
462.118	95.31
462.338	98.31
462.558	92.31
462.777	93.31
462.997	84.31
463.217	84.31
463.437	75.31
463.657	87.31
463.876	101.31
464.096	106.31
464.316	85.31
464.536	89.31
464.755	88.31
464.975	123.31
465.195	166.31
465.414	171.31
465.634	98.31
465.854	80.31
466.073	93.31
466.293	92.31
466.512	75.31
466.732	83.31
466.951	91.31
467.171	98.31
467.391	99.31
467.61	103.31
467.829	107.31
468.049	123.31
468.268	135.31
468.488	103.31
468.707	107.31
468.927	102.31
469.146	90.31
469.365	98.31
469.585	104.31
469.804	93.31
470.023	109.31
470.243	101.31
470.462	95.31
470.681	104.31
470.901	106.31
471.12	81.31
471.339	94.31
471.558	85.31
471.777	97.31
471.997	104.31
472.216	166.31
472.435	277.31
472.654	120.31
472.873	110.31
473.092	90.31
473.311	87.31
473.53	79.31
473.749	83.31
473.968	98.31
474.187	103.31
474.406	96.31
474.625	105.31
474.844	94.31
475.063	106.31
475.282	94.31
475.501	82.31
475.72	95.31
475.939	98.31
476.158	82.31
476.377	90.31
476.596	104.31
476.814	103.31
477.033	84.31
477.252	91.31
477.471	86.31
477.69	91.31
477.908	101.31
478.127	94.31
478.346	88.31
478.564	96.31
478.783	97.31
479.002	97.31
479.22	81.31
479.439	108.31
479.658	92.31
479.876	125.31
480.095	97.31
480.313	98.31
480.532	98.31
480.751	123.31
480.969	172.31
481.188	430.31
481.406	293.31
481.624	112.31
481.843	96.31
482.061	86.31
482.28	104.31
482.498	104.31
482.717	96.31
482.935	87.31
483.153	79.31
483.372	88.31
483.59	99.31
483.808	89.31
484.027	99.31
484.245	98.31
484.463	94.31
484.681	88.31
484.9	104.31
485.118	86.31
485.336	103.31
485.554	99.31
485.772	104.31
485.99	94.31
486.209	106.31
486.427	117.31
486.645	101.31
486.863	103.31
487.081	106.31
487.299	110.31
487.517	94.31
487.735	98.31
487.953	86.31
488.171	101.31
488.389	92.31
488.607	97.31
488.825	100.31
489.043	91.31
489.261	85.31
489.479	87.31
489.696	99.31
489.914	103.31
490.132	88.31
490.35	95.31
490.568	97.31
490.786	97.31
491.003	81.31
491.221	96.31
491.439	95.31
491.657	101.31
491.874	96.31
492.092	79.31
492.31	99.31
492.527	83.31
492.745	94.31
492.963	82.31
493.18	94.31
493.398	92.31
493.615	90.31
493.833	99.31
494.05	94.31
494.268	90.31
494.485	87.31
494.703	81.31
494.92	86.31
495.138	93.31
495.355	90.31
495.573	98.31
495.79	83.31
496.008	96.31
496.225	96.31
496.442	88.31
496.66	102.31
496.877	89.31
497.094	97.31
497.312	90.31
497.529	89.31
497.746	101.31
497.963	106.31
498.181	98.31
498.398	88.31
498.615	115.31
498.832	108.31
499.049	100.31
499.267	83.31
499.484	95.31
499.701	94.31
499.918	102.31
500.135	97.31
500.352	99.31
500.569	80.31
500.786	88.31
501.003	89.31
501.22	99.31
501.437	93.31
501.654	104.31
501.871	113.31
502.088	89.31
502.305	96.31
502.522	93.31
502.739	91.31
502.956	93.31
503.172	90.31
503.389	85.31
503.606	89.31
503.823	95.31
504.04	95.31
504.256	84.31
504.473	101.31
504.69	88.31
504.907	89.31
505.123	102.31
505.34	102.31
505.557	106.31
505.773	97.31
505.99	98.31
506.207	105.31
506.423	94.31
506.64	87.31
506.856	99.31
507.073	91.31
507.289	93.31
507.506	107.31
507.722	112.31
507.939	110.31
508.155	101.31
508.372	99.31
508.588	87.31
508.805	98.31
509.021	102.31
509.238	94.31
509.454	95.31
509.67	99.31
509.887	101.31
510.103	131.31
510.319	199.31
510.536	710.31
510.752	2191.31
510.968	612.31
511.184	155.31
511.401	121.31
511.617	106.31
511.833	87.31
512.049	93.31
512.265	98.31
512.481	102.31
512.698	95.31
512.914	101.31
513.13	81.31
513.346	98.31
513.562	94.31
513.778	109.31
513.994	89.31
514.21	98.31
514.426	117.31
514.642	127.31
514.858	144.31
515.074	158.31
