Data from Circ_2011_H10_HRD10591_00066.txt Node
Date: Wed Jan 03 10:08:12 EST 2024
User: Yrep
Spectrometer: HR+D1059
Trigger mode: 1
Integration Time (sec): 1.000000E-1
Scans to average: 1
Electric dark correction enabled: true
Nonlinearity correction enabled: false
Boxcar width: 0
XAxis mode: Wavelengths
Number of Pixels in Spectrum: 2048
>>>>>Begin Spectral Data<<<<<
223.165	-27.31
223.4	-27.31
223.635	-27.31
223.869	-19.31
224.104	-20.31
224.338	-12.31
224.573	-16.31
224.808	-3.31
225.042	1.69
225.277	7.69
225.511	5.69
225.746	0.69
225.98	-0.31
226.215	5.69
226.449	22.69
226.683	8.69
226.918	26.69
227.152	19.69
227.387	32.69
227.621	37.69
227.856	38.69
228.09	58.69
228.324	48.69
228.559	57.69
228.793	52.69
229.027	70.69
229.262	65.69
229.496	74.69
229.73	82.69
229.964	78.69
230.199	85.69
230.433	70.69
230.667	79.69
230.901	70.69
231.136	81.69
231.37	81.69
231.604	85.69
231.838	87.69
232.072	87.69
232.306	92.69
232.541	93.69
232.775	80.69
233.009	87.69
233.243	76.69
233.477	74.69
233.711	85.69
233.945	91.69
234.179	74.69
234.413	88.69
234.647	84.69
234.881	85.69
235.115	88.69
235.349	67.69
235.583	82.69
235.817	69.69
236.051	75.69
236.285	89.69
236.519	75.69
236.753	84.69
236.987	81.69
237.221	87.69
237.455	87.69
237.689	93.69
237.922	82.69
238.156	71.69
238.39	77.69
238.624	53.69
238.858	81.69
239.091	86.69
239.325	84.69
239.559	92.69
239.793	71.69
240.027	66.69
240.26	87.69
240.494	75.69
240.728	73.69
240.961	79.69
241.195	64.69
241.429	75.69
241.662	82.69
241.896	69.69
242.13	78.69
242.363	72.69
242.597	78.69
242.83	72.69
243.064	66.69
243.298	89.69
243.531	80.69
243.765	83.69
243.998	93.69
244.232	78.69
244.465	88.69
244.699	90.69
244.932	76.69
245.166	80.69
245.399	90.69
245.633	73.69
245.866	75.69
246.099	76.69
246.333	82.69
246.566	79.69
246.8	66.69
247.033	81.69
247.266	90.69
247.5	83.69
247.733	78.69
247.966	81.69
248.2	75.69
248.433	80.69
248.666	81.69
248.899	90.69
249.133	71.69
249.366	98.69
249.599	97.69
249.832	75.69
250.066	75.69
250.299	79.69
250.532	88.69
250.765	84.69
250.998	78.69
251.231	83.69
251.465	89.69
251.698	73.69
251.931	91.69
252.164	69.69
252.397	93.69
252.63	87.69
252.863	80.69
253.096	73.69
253.329	94.69
253.562	81.69
253.795	79.69
254.028	86.69
254.261	75.69
254.494	82.69
254.727	76.69
254.96	88.69
255.193	77.69
255.426	90.69
255.659	74.69
255.892	76.69
256.124	82.69
256.357	86.69
256.59	80.69
256.823	72.69
257.056	78.69
257.289	79.69
257.521	77.69
257.754	85.69
257.987	77.69
258.22	76.69
258.452	86.69
258.685	97.69
258.918	86.69
259.151	87.69
259.383	95.69
259.616	77.69
259.849	85.69
260.081	91.69
260.314	88.69
260.547	91.69
260.779	77.69
261.012	89.69
261.244	93.69
261.477	105.69
261.71	97.69
261.942	104.69
262.175	116.69
262.407	85.69
262.64	98.69
262.872	79.69
263.105	87.69
263.337	78.69
263.57	88.69
263.802	81.69
264.035	79.69
264.267	90.69
264.499	91.69
264.732	73.69
264.964	79.69
265.197	80.69
265.429	85.69
265.661	92.69
265.894	82.69
266.126	82.69
266.358	81.69
266.591	80.69
266.823	79.69
267.055	93.69
267.287	82.69
267.52	74.69
267.752	77.69
267.984	77.69
268.216	82.69
268.448	88.69
268.681	92.69
268.913	80.69
269.145	78.69
269.377	95.69
269.609	86.69
269.841	79.69
270.073	81.69
270.306	94.69
270.538	86.69
270.77	81.69
271.002	73.69
271.234	92.69
271.466	100.69
271.698	92.69
271.93	88.69
272.162	79.69
272.394	89.69
272.626	92.69
272.858	94.69
273.09	84.69
273.322	73.69
273.553	81.69
273.785	65.69
274.017	89.69
274.249	80.69
274.481	85.69
274.713	68.69
274.945	68.69
275.176	82.69
275.408	96.69
275.64	97.69
275.872	89.69
276.104	93.69
276.335	86.69
276.567	93.69
276.799	118.69
277.031	120.69
277.262	111.69
277.494	87.69
277.726	84.69
277.957	95.69
278.189	74.69
278.421	88.69
278.652	92.69
278.884	77.69
279.115	85.69
279.347	91.69
279.579	92.69
279.81	93.69
280.042	101.69
280.273	95.69
280.505	109.69
280.736	90.69
280.968	92.69
281.199	85.69
281.431	95.69
281.662	87.69
281.894	87.69
282.125	106.69
282.356	122.69
282.588	134.69
282.819	124.69
283.051	90.69
283.282	95.69
283.513	76.69
283.745	94.69
283.976	81.69
284.207	82.69
284.439	77.69
284.67	89.69
284.901	81.69
285.132	82.69
285.364	72.69
285.595	84.69
285.826	90.69
286.057	94.69
286.288	85.69
286.52	80.69
286.751	81.69
286.982	89.69
287.213	88.69
287.444	94.69
287.675	82.69
287.906	88.69
288.138	95.69
288.369	96.69
288.6	96.69
288.831	85.69
289.062	82.69
289.293	79.69
289.524	88.69
289.755	92.69
289.986	85.69
290.217	96.69
290.448	78.69
290.679	97.69
290.91	91.69
291.141	97.69
291.371	87.69
291.602	86.69
291.833	91.69
292.064	79.69
292.295	73.69
292.526	99.69
292.757	102.69
292.987	88.69
293.218	91.69
293.449	87.69
293.68	96.69
293.91	85.69
294.141	103.69
294.372	84.69
294.603	82.69
294.833	94.69
295.064	81.69
295.295	90.69
295.525	93.69
295.756	101.69
295.987	122.69
296.217	141.69
296.448	122.69
296.679	100.69
296.909	96.69
297.14	101.69
297.37	86.69
297.601	105.69
297.831	92.69
298.062	99.69
298.292	86.69
298.523	75.69
298.753	86.69
298.984	92.69
299.214	86.69
299.445	90.69
299.675	96.69
299.905	88.69
300.136	90.69
300.366	79.69
300.597	84.69
300.827	82.69
301.057	100.69
301.288	105.69
301.518	99.69
301.748	96.69
301.979	101.69
302.209	74.69
302.439	107.69
302.669	88.69
302.9	100.69
303.13	91.69
303.36	103.69
303.59	86.69
303.82	105.69
304.051	106.69
304.281	103.69
304.511	73.69
304.741	84.69
304.971	94.69
305.201	102.69
305.431	95.69
305.661	73.69
305.891	102.69
306.121	107.69
306.352	82.69
306.582	98.69
306.812	98.69
307.042	85.69
307.272	112.69
307.502	104.69
307.731	103.69
307.961	97.69
308.191	79.69
308.421	105.69
308.651	91.69
308.881	97.69
309.111	84.69
309.341	92.69
309.571	109.69
309.8	101.69
310.03	98.69
310.26	93.69
310.49	95.69
310.72	104.69
310.949	106.69
311.179	121.69
311.409	96.69
311.639	99.69
311.868	77.69
312.098	84.69
312.328	107.69
312.557	97.69
312.787	107.69
313.017	93.69
313.246	85.69
313.476	95.69
313.706	105.69
313.935	105.69
314.165	89.69
314.394	96.69
314.624	105.69
314.853	89.69
315.083	99.69
315.312	91.69
315.542	88.69
315.771	97.69
316.001	94.69
316.23	102.69
316.46	91.69
316.689	95.69
316.919	92.69
317.148	82.69
317.377	95.69
317.607	94.69
317.836	89.69
318.065	86.69
318.295	91.69
318.524	105.69
318.753	89.69
318.983	93.69
319.212	97.69
319.441	92.69
319.67	97.69
319.9	77.69
320.129	97.69
320.358	109.69
320.587	94.69
320.816	90.69
321.046	104.69
321.275	104.69
321.504	97.69
321.733	90.69
321.962	103.69
322.191	105.69
322.42	101.69
322.649	113.69
322.878	116.69
323.108	115.69
323.337	111.69
323.566	132.69
323.795	162.69
324.024	225.69
324.253	458.69
324.482	974.69
324.71	2032.69
324.939	2712.69
325.168	966.69
325.397	274.69
325.626	161.69
325.855	150.69
326.084	129.69
326.313	129.69
326.542	157.69
326.77	260.69
326.999	559.69
327.228	1117.69
327.457	2059.69
327.686	1604.69
327.914	439.69
328.143	252.69
328.372	226.69
328.6	164.69
328.829	136.69
329.058	119.69
329.287	145.69
329.515	126.69
329.744	135.69
329.972	156.69
330.201	239.69
330.43	292.69
330.658	189.69
330.887	163.69
331.115	143.69
331.344	100.69
331.572	99.69
331.801	109.69
332.03	111.69
332.258	109.69
332.486	93.69
332.715	89.69
332.943	91.69
333.172	95.69
333.4	113.69
333.629	108.69
333.857	127.69
334.085	150.69
334.314	215.69
334.542	358.69
334.771	341.69
334.999	151.69
335.227	112.69
335.455	97.69
335.684	100.69
335.912	102.69
336.14	105.69
336.369	92.69
336.597	101.69
336.825	91.69
337.053	104.69
337.281	103.69
337.51	93.69
337.738	82.69
337.966	91.69
338.194	101.69
338.422	91.69
338.65	81.69
338.878	88.69
339.106	88.69
339.334	94.69
339.562	92.69
339.79	102.69
340.018	94.69
340.246	98.69
340.474	117.69
340.702	90.69
340.93	91.69
341.158	82.69
341.386	111.69
341.614	102.69
341.842	117.69
342.07	86.69
342.298	108.69
342.526	92.69
342.754	75.69
342.981	78.69
343.209	96.69
343.437	99.69
343.665	89.69
343.893	103.69
344.12	86.69
344.348	81.69
344.576	95.69
344.804	94.69
345.031	90.69
345.259	92.69
345.487	92.69
345.714	102.69
345.942	88.69
346.17	100.69
346.397	100.69
346.625	104.69
346.853	80.69
347.08	106.69
347.308	87.69
347.535	97.69
347.763	93.69
347.99	99.69
348.218	110.69
348.445	117.69
348.673	97.69
348.9	90.69
349.128	101.69
349.355	96.69
349.583	95.69
349.81	93.69
350.037	107.69
350.265	111.69
350.492	87.69
350.72	97.69
350.947	114.69
351.174	109.69
351.402	104.69
351.629	94.69
351.856	92.69
352.083	104.69
352.311	114.69
352.538	113.69
352.765	108.69
352.992	106.69
353.22	100.69
353.447	92.69
353.674	121.69
353.901	111.69
354.128	91.69
354.355	101.69
354.583	107.69
354.81	100.69
355.037	98.69
355.264	103.69
355.491	111.69
355.718	89.69
355.945	93.69
356.172	89.69
356.399	101.69
356.626	101.69
356.853	84.69
357.08	91.69
357.307	79.69
357.534	89.69
357.761	96.69
357.988	101.69
358.215	107.69
358.441	72.69
358.668	109.69
358.895	82.69
359.122	85.69
359.349	100.69
359.576	90.69
359.802	106.69
360.029	116.69
360.256	124.69
360.483	108.69
360.709	95.69
360.936	98.69
361.163	97.69
361.39	105.69
361.616	103.69
361.843	82.69
362.07	98.69
362.296	95.69
362.523	85.69
362.749	98.69
362.976	98.69
363.203	101.69
363.429	97.69
363.656	101.69
363.882	78.69
364.109	96.69
364.335	88.69
364.562	87.69
364.788	84.69
365.015	109.69
365.241	86.69
365.468	108.69
365.694	108.69
365.92	95.69
366.147	90.69
366.373	86.69
366.599	88.69
366.826	75.69
367.052	86.69
367.278	102.69
367.505	88.69
367.731	92.69
367.957	93.69
368.184	97.69
368.41	97.69
368.636	135.69
368.862	128.69
369.089	103.69
369.315	108.69
369.541	107.69
369.767	94.69
369.993	85.69
370.219	87.69
370.445	99.69
370.672	108.69
370.898	85.69
371.124	107.69
371.35	95.69
371.576	85.69
371.802	84.69
372.028	79.69
372.254	77.69
372.48	87.69
372.706	79.69
372.932	91.69
373.158	78.69
373.384	81.69
373.61	97.69
373.835	88.69
374.061	83.69
374.287	82.69
374.513	96.69
374.739	103.69
374.965	106.69
375.191	87.69
375.416	99.69
375.642	89.69
375.868	102.69
376.094	91.69
376.319	88.69
376.545	87.69
376.771	84.69
376.997	97.69
377.222	98.69
377.448	97.69
377.674	107.69
377.899	89.69
378.125	89.69
378.35	73.69
378.576	82.69
378.802	86.69
379.027	101.69
379.253	87.69
379.478	81.69
379.704	97.69
379.929	100.69
380.155	101.69
380.38	89.69
380.606	93.69
380.831	94.69
381.057	108.69
381.282	104.69
381.507	82.69
381.733	93.69
381.958	93.69
382.184	104.69
382.409	93.69
382.634	101.69
382.86	101.69
383.085	101.69
383.31	104.69
383.535	121.69
383.761	97.69
383.986	101.69
384.211	104.69
384.436	109.69
384.662	83.69
384.887	84.69
385.112	88.69
385.337	93.69
385.562	94.69
385.787	112.69
386.013	112.69
386.238	123.69
386.463	106.69
386.688	110.69
386.913	96.69
387.138	111.69
387.363	100.69
387.588	94.69
387.813	109.69
388.038	98.69
388.263	96.69
388.488	88.69
388.713	88.69
388.938	86.69
389.163	73.69
389.387	85.69
389.612	94.69
389.837	93.69
390.062	104.69
390.287	94.69
390.512	94.69
390.736	105.69
390.961	94.69
391.186	97.69
391.411	103.69
391.636	86.69
391.86	88.69
392.085	79.69
392.31	84.69
392.534	88.69
392.759	91.69
392.984	77.69
393.208	91.69
393.433	91.69
393.658	75.69
393.882	99.69
394.107	89.69
394.331	85.69
394.556	86.69
394.78	96.69
395.005	89.69
395.229	92.69
395.454	90.69
395.678	85.69
395.903	75.69
396.127	107.69
396.352	89.69
396.576	87.69
396.801	95.69
397.025	91.69
397.249	89.69
397.474	94.69
397.698	73.69
397.922	76.69
398.147	74.69
398.371	97.69
398.595	89.69
398.82	90.69
399.044	98.69
399.268	79.69
399.492	87.69
399.717	98.69
399.941	92.69
400.165	110.69
400.389	96.69
400.613	84.69
400.837	78.69
401.062	94.69
401.286	64.69
401.51	92.69
401.734	92.69
401.958	101.69
402.182	140.69
402.406	149.69
402.63	121.69
402.854	92.69
403.078	82.69
403.302	75.69
403.526	90.69
403.75	97.69
403.974	83.69
404.198	99.69
404.422	94.69
404.645	92.69
404.869	79.69
405.093	114.69
405.317	123.69
405.541	100.69
405.765	116.69
405.988	119.69
406.212	168.69
406.436	228.69
406.66	146.69
406.883	108.69
407.107	94.69
407.331	103.69
407.555	102.69
407.778	100.69
408.002	101.69
408.226	86.69
408.449	89.69
408.673	81.69
408.896	96.69
409.12	97.69
409.344	70.69
409.567	101.69
409.791	83.69
410.014	76.69
410.238	81.69
410.461	86.69
410.685	106.69
410.908	87.69
411.132	109.69
411.355	106.69
411.578	97.69
411.802	93.69
412.025	95.69
412.249	105.69
412.472	102.69
412.695	103.69
412.919	108.69
413.142	96.69
413.365	85.69
413.589	85.69
413.812	101.69
414.035	101.69
414.258	86.69
414.482	90.69
414.705	84.69
414.928	86.69
415.151	102.69
415.374	84.69
415.597	89.69
415.821	104.69
416.044	99.69
416.267	92.69
416.49	76.69
416.713	89.69
416.936	77.69
417.159	85.69
417.382	97.69
417.605	88.69
417.828	95.69
418.051	94.69
418.274	93.69
418.497	78.69
418.72	95.69
418.943	81.69
419.166	76.69
419.389	96.69
419.611	80.69
419.834	82.69
420.057	84.69
420.28	88.69
420.503	80.69
420.726	97.69
420.948	93.69
421.171	100.69
421.394	93.69
421.617	94.69
421.839	89.69
422.062	80.69
422.285	98.69
422.507	94.69
422.73	105.69
422.953	97.69
423.175	90.69
423.398	87.69
423.621	85.69
423.843	101.69
424.066	84.69
424.288	83.69
424.511	82.69
424.733	88.69
424.956	88.69
425.178	91.69
425.401	103.69
425.623	100.69
425.846	95.69
426.068	90.69
426.291	95.69
426.513	71.69
426.735	80.69
426.958	89.69
427.18	132.69
427.402	150.69
427.625	188.69
427.847	163.69
428.069	125.69
428.292	96.69
428.514	96.69
428.736	87.69
428.958	89.69
429.181	102.69
429.403	89.69
429.625	80.69
429.847	96.69
430.069	107.69
430.292	88.69
430.514	86.69
430.736	76.69
430.958	84.69
431.18	82.69
431.402	73.69
431.624	76.69
431.846	89.69
432.068	96.69
432.29	87.69
432.512	92.69
432.734	89.69
432.956	112.69
433.178	104.69
433.4	101.69
433.622	92.69
433.844	80.69
434.066	82.69
434.287	89.69
434.509	95.69
434.731	89.69
434.953	102.69
435.175	79.69
435.397	90.69
435.618	74.69
435.84	110.69
436.062	119.69
436.284	133.69
436.505	103.69
436.727	103.69
436.949	84.69
437.17	85.69
437.392	96.69
437.614	81.69
437.835	110.69
438.057	125.69
438.278	106.69
438.5	96.69
438.721	112.69
438.943	108.69
439.165	92.69
439.386	88.69
439.608	90.69
439.829	102.69
440.05	133.69
440.272	155.69
440.493	108.69
440.715	89.69
440.936	91.69
441.158	89.69
441.379	90.69
441.6	89.69
441.822	95.69
442.043	92.69
442.264	92.69
442.486	109.69
442.707	102.69
442.928	100.69
443.149	152.69
443.371	123.69
443.592	124.69
443.813	111.69
444.034	102.69
444.255	96.69
444.476	84.69
444.698	96.69
444.919	78.69
445.14	136.69
445.361	120.69
445.582	118.69
445.803	130.69
446.024	147.69
446.245	145.69
446.466	128.69
446.687	103.69
446.908	91.69
447.129	101.69
447.35	80.69
447.571	97.69
447.792	87.69
448.013	97.69
448.234	112.69
448.455	106.69
448.675	116.69
448.896	118.69
449.117	96.69
449.338	104.69
449.559	132.69
449.779	146.69
450	102.69
450.221	60.69
450.442	88.69
450.662	105.69
450.883	94.69
451.104	104.69
451.324	91.69
451.545	100.69
451.766	92.69
451.986	87.69
452.207	98.69
452.428	96.69
452.648	84.69
452.869	101.69
453.089	122.69
453.31	118.69
453.53	101.69
453.751	94.69
453.971	117.69
454.192	113.69
454.412	95.69
454.633	95.69
454.853	95.69
455.073	81.69
455.294	90.69
455.514	106.69
455.734	81.69
455.955	95.69
456.175	84.69
456.395	86.69
456.616	78.69
456.836	83.69
457.056	93.69
457.276	84.69
457.497	77.69
457.717	76.69
457.937	97.69
458.157	93.69
458.377	95.69
458.598	89.69
458.818	153.69
459.038	174.69
459.258	113.69
459.478	93.69
459.698	95.69
459.918	80.69
460.138	89.69
460.358	88.69
460.578	98.69
460.798	89.69
461.018	108.69
461.238	100.69
461.458	79.69
461.678	82.69
461.898	86.69
462.118	80.69
462.338	88.69
462.558	95.69
462.777	89.69
462.997	80.69
463.217	88.69
463.437	87.69
463.657	81.69
463.876	78.69
464.096	81.69
464.316	81.69
464.536	86.69
464.755	92.69
464.975	95.69
465.195	177.69
465.414	175.69
465.634	118.69
465.854	88.69
466.073	91.69
466.293	92.69
466.512	78.69
466.732	88.69
466.951	87.69
467.171	97.69
467.391	103.69
467.61	91.69
467.829	112.69
468.049	134.69
468.268	194.69
468.488	101.69
468.707	105.69
468.927	94.69
469.146	84.69
469.365	97.69
469.585	96.69
469.804	99.69
470.023	110.69
470.243	110.69
470.462	102.69
470.681	116.69
470.901	90.69
471.12	93.69
471.339	98.69
471.558	100.69
471.777	105.69
471.997	112.69
472.216	242.69
472.435	469.69
472.654	169.69
472.873	100.69
473.092	100.69
473.311	81.69
473.53	85.69
473.749	102.69
473.968	98.69
474.187	114.69
474.406	103.69
474.625	80.69
474.844	90.69
475.063	107.69
475.282	81.69
475.501	82.69
475.72	96.69
475.939	92.69
476.158	93.69
476.377	77.69
476.596	88.69
476.814	82.69
477.033	89.69
477.252	91.69
477.471	56.69
477.69	92.69
477.908	74.69
478.127	88.69
478.346	88.69
478.564	108.69
478.783	91.69
479.002	78.69
479.22	81.69
479.439	113.69
479.658	110.69
479.876	108.69
480.095	90.69
480.313	79.69
480.532	108.69
480.751	135.69
480.969	241.69
481.188	760.69
481.406	490.69
481.624	134.69
481.843	87.69
482.061	94.69
482.28	91.69
482.498	106.69
482.717	88.69
482.935	82.69
483.153	90.69
483.372	93.69
483.59	94.69
483.808	97.69
484.027	81.69
484.245	102.69
484.463	105.69
484.681	95.69
484.9	81.69
485.118	96.69
485.336	90.69
485.554	93.69
485.772	109.69
485.99	99.69
486.209	104.69
486.427	103.69
486.645	110.69
486.863	102.69
487.081	109.69
487.299	90.69
487.517	103.69
487.735	98.69
487.953	95.69
488.171	96.69
488.389	86.69
488.607	108.69
488.825	90.69
489.043	93.69
489.261	93.69
489.479	92.69
489.696	81.69
489.914	90.69
490.132	77.69
490.35	93.69
490.568	88.69
490.786	88.69
491.003	81.69
491.221	91.69
491.439	81.69
491.657	81.69
491.874	86.69
492.092	86.69
492.31	87.69
492.527	97.69
492.745	90.69
492.963	99.69
493.18	109.69
493.398	92.69
493.615	81.69
493.833	88.69
494.05	78.69
494.268	81.69
494.485	99.69
494.703	95.69
494.92	85.69
495.138	85.69
495.355	92.69
495.573	90.69
495.79	84.69
496.008	96.69
496.225	81.69
496.442	86.69
496.66	88.69
496.877	97.69
497.094	92.69
497.312	101.69
497.529	87.69
497.746	111.69
497.963	102.69
498.181	92.69
498.398	100.69
498.615	106.69
498.832	97.69
499.049	82.69
499.267	95.69
499.484	96.69
499.701	86.69
499.918	105.69
500.135	96.69
500.352	86.69
500.569	96.69
500.786	88.69
501.003	94.69
501.22	105.69
501.437	97.69
501.654	85.69
501.871	96.69
502.088	96.69
502.305	98.69
502.522	90.69
502.739	78.69
502.956	92.69
503.172	93.69
503.389	105.69
503.606	105.69
503.823	93.69
504.04	77.69
504.256	94.69
504.473	80.69
504.69	90.69
504.907	99.69
505.123	90.69
505.34	98.69
505.557	85.69
505.773	101.69
505.99	96.69
506.207	80.69
506.423	90.69
506.64	87.69
506.856	96.69
507.073	93.69
507.289	89.69
507.506	103.69
507.722	110.69
507.939	118.69
508.155	85.69
508.372	96.69
508.588	89.69
508.805	103.69
509.021	93.69
509.238	100.69
509.454	99.69
509.67	100.69
509.887	117.69
510.103	109.69
510.319	202.69
510.536	740.69
510.752	2368.69
510.968	689.69
511.184	156.69
511.401	104.69
511.617	99.69
511.833	103.69
512.049	110.69
512.265	84.69
512.481	94.69
512.698	93.69
512.914	95.69
513.13	93.69
513.346	90.69
513.562	96.69
513.778	95.69
513.994	95.69
514.21	104.69
514.426	121.69
514.642	137.69
