Data from Circ_2011_H10_HRD10591_00046.txt Node
Date: Wed Jan 03 10:08:08 EST 2024
User: Yrep
Spectrometer: HR+D1059
Trigger mode: 1
Integration Time (sec): 1.000000E-1
Scans to average: 1
Electric dark correction enabled: true
Nonlinearity correction enabled: false
Boxcar width: 0
XAxis mode: Wavelengths
Number of Pixels in Spectrum: 2048
>>>>>Begin Spectral Data<<<<<
223.165	-6.12
223.4	-6.12
223.635	-6.12
223.869	-25.12
224.104	-21.12
224.338	-22.12
224.573	-18.12
224.808	-23.12
225.042	-10.12
225.277	-9.12
225.511	-6.12
225.746	21.88
225.98	6.88
226.215	10.88
226.449	12.88
226.683	20.88
226.918	25.88
227.152	41.88
227.387	27.88
227.621	44.88
227.856	53.88
228.09	49.88
228.324	46.88
228.559	60.88
228.793	55.88
229.027	53.88
229.262	80.88
229.496	70.88
229.73	93.88
229.964	72.88
230.199	65.88
230.433	51.88
230.667	72.88
230.901	76.88
231.136	77.88
231.37	81.88
231.604	76.88
231.838	86.88
232.072	70.88
232.306	68.88
232.541	78.88
232.775	73.88
233.009	95.88
233.243	91.88
233.477	72.88
233.711	73.88
233.945	60.88
234.179	76.88
234.413	81.88
234.647	70.88
234.881	79.88
235.115	93.88
235.349	75.88
235.583	65.88
235.817	63.88
236.051	65.88
236.285	86.88
236.519	90.88
236.753	78.88
236.987	76.88
237.221	82.88
237.455	89.88
237.689	64.88
237.922	82.88
238.156	92.88
238.39	81.88
238.624	73.88
238.858	69.88
239.091	70.88
239.325	85.88
239.559	82.88
239.793	84.88
240.027	89.88
240.26	78.88
240.494	85.88
240.728	67.88
240.961	74.88
241.195	86.88
241.429	77.88
241.662	74.88
241.896	73.88
242.13	78.88
242.363	67.88
242.597	73.88
242.83	78.88
243.064	83.88
243.298	75.88
243.531	70.88
243.765	67.88
243.998	78.88
244.232	88.88
244.465	81.88
244.699	88.88
244.932	80.88
245.166	77.88
245.399	75.88
245.633	61.88
245.866	76.88
246.099	65.88
246.333	92.88
246.566	81.88
246.8	67.88
247.033	65.88
247.266	79.88
247.5	78.88
247.733	82.88
247.966	74.88
248.2	72.88
248.433	73.88
248.666	73.88
248.899	76.88
249.133	79.88
249.366	104.88
249.599	106.88
249.832	92.88
250.066	74.88
250.299	82.88
250.532	83.88
250.765	91.88
250.998	82.88
251.231	85.88
251.465	72.88
251.698	81.88
251.931	61.88
252.164	85.88
252.397	69.88
252.63	77.88
252.863	62.88
253.096	79.88
253.329	87.88
253.562	72.88
253.795	83.88
254.028	73.88
254.261	72.88
254.494	79.88
254.727	95.88
254.96	83.88
255.193	86.88
255.426	82.88
255.659	80.88
255.892	85.88
256.124	84.88
256.357	69.88
256.59	84.88
256.823	73.88
257.056	77.88
257.289	75.88
257.521	79.88
257.754	81.88
257.987	73.88
258.22	81.88
258.452	73.88
258.685	86.88
258.918	59.88
259.151	73.88
259.383	79.88
259.616	84.88
259.849	84.88
260.081	78.88
260.314	77.88
260.547	81.88
260.779	79.88
261.012	78.88
261.244	76.88
261.477	86.88
261.71	91.88
261.942	97.88
262.175	114.88
262.407	75.88
262.64	83.88
262.872	83.88
263.105	84.88
263.337	90.88
263.57	89.88
263.802	83.88
264.035	68.88
264.267	81.88
264.499	96.88
264.732	84.88
264.964	91.88
265.197	73.88
265.429	75.88
265.661	66.88
265.894	90.88
266.126	72.88
266.358	84.88
266.591	84.88
266.823	86.88
267.055	87.88
267.287	81.88
267.52	75.88
267.752	92.88
267.984	84.88
268.216	79.88
268.448	79.88
268.681	75.88
268.913	85.88
269.145	78.88
269.377	92.88
269.609	85.88
269.841	92.88
270.073	78.88
270.306	84.88
270.538	90.88
270.77	82.88
271.002	94.88
271.234	74.88
271.466	92.88
271.698	75.88
271.93	94.88
272.162	92.88
272.394	86.88
272.626	82.88
272.858	89.88
273.09	79.88
273.322	87.88
273.553	73.88
273.785	83.88
274.017	75.88
274.249	83.88
274.481	90.88
274.713	91.88
274.945	91.88
275.176	82.88
275.408	80.88
275.64	84.88
275.872	88.88
276.104	88.88
276.335	90.88
276.567	104.88
276.799	98.88
277.031	114.88
277.262	100.88
277.494	99.88
277.726	89.88
277.957	87.88
278.189	83.88
278.421	93.88
278.652	100.88
278.884	95.88
279.115	80.88
279.347	85.88
279.579	87.88
279.81	76.88
280.042	98.88
280.273	95.88
280.505	88.88
280.736	104.88
280.968	86.88
281.199	96.88
281.431	73.88
281.662	74.88
281.894	83.88
282.125	97.88
282.356	120.88
282.588	142.88
282.819	108.88
283.051	88.88
283.282	90.88
283.513	77.88
283.745	89.88
283.976	79.88
284.207	83.88
284.439	70.88
284.67	83.88
284.901	93.88
285.132	84.88
285.364	77.88
285.595	87.88
285.826	87.88
286.057	74.88
286.288	83.88
286.52	94.88
286.751	78.88
286.982	76.88
287.213	97.88
287.444	86.88
287.675	94.88
287.906	91.88
288.138	92.88
288.369	97.88
288.6	89.88
288.831	83.88
289.062	92.88
289.293	96.88
289.524	100.88
289.755	95.88
289.986	76.88
290.217	84.88
290.448	90.88
290.679	88.88
290.91	79.88
291.141	80.88
291.371	102.88
291.602	95.88
291.833	81.88
292.064	89.88
292.295	89.88
292.526	85.88
292.757	81.88
292.987	83.88
293.218	85.88
293.449	99.88
293.68	76.88
293.91	87.88
294.141	93.88
294.372	95.88
294.603	99.88
294.833	79.88
295.064	88.88
295.295	86.88
295.525	87.88
295.756	97.88
295.987	114.88
296.217	145.88
296.448	126.88
296.679	98.88
296.909	91.88
297.14	86.88
297.37	87.88
297.601	92.88
297.831	77.88
298.062	78.88
298.292	76.88
298.523	83.88
298.753	85.88
298.984	91.88
299.214	95.88
299.445	89.88
299.675	94.88
299.905	101.88
300.136	93.88
300.366	91.88
300.597	90.88
300.827	99.88
301.057	98.88
301.288	114.88
301.518	94.88
301.748	91.88
301.979	83.88
302.209	89.88
302.439	97.88
302.669	91.88
302.9	96.88
303.13	100.88
303.36	86.88
303.59	98.88
303.82	98.88
304.051	89.88
304.281	89.88
304.511	84.88
304.741	97.88
304.971	90.88
305.201	81.88
305.431	86.88
305.661	84.88
305.891	88.88
306.121	98.88
306.352	101.88
306.582	88.88
306.812	95.88
307.042	112.88
307.272	92.88
307.502	117.88
307.731	99.88
307.961	103.88
308.191	86.88
308.421	97.88
308.651	94.88
308.881	92.88
309.111	90.88
309.341	97.88
309.571	99.88
309.8	98.88
310.03	92.88
310.26	90.88
310.49	100.88
310.72	99.88
310.949	85.88
311.179	121.88
311.409	97.88
311.639	93.88
311.868	98.88
312.098	97.88
312.328	93.88
312.557	101.88
312.787	103.88
313.017	102.88
313.246	90.88
313.476	97.88
313.706	99.88
313.935	113.88
314.165	96.88
314.394	111.88
314.624	101.88
314.853	102.88
315.083	94.88
315.312	91.88
315.542	95.88
315.771	98.88
316.001	87.88
316.23	87.88
316.46	66.88
316.689	92.88
316.919	71.88
317.148	96.88
317.377	92.88
317.607	85.88
317.836	94.88
318.065	83.88
318.295	86.88
318.524	97.88
318.753	85.88
318.983	82.88
319.212	90.88
319.441	105.88
319.67	117.88
319.9	96.88
320.129	89.88
320.358	100.88
320.587	103.88
320.816	89.88
321.046	102.88
321.275	91.88
321.504	91.88
321.733	109.88
321.962	91.88
322.191	93.88
322.42	85.88
322.649	96.88
322.878	110.88
323.108	117.88
323.337	135.88
323.566	122.88
323.795	161.88
324.024	217.88
324.253	405.88
324.482	881.88
324.71	1766.88
324.939	2335.88
325.168	869.88
325.397	234.88
325.626	157.88
325.855	124.88
326.084	118.88
326.313	133.88
326.542	169.88
326.77	237.88
326.999	493.88
327.228	989.88
327.457	1815.88
327.686	1424.88
327.914	421.88
328.143	244.88
328.372	208.88
328.6	156.88
328.829	131.88
329.058	149.88
329.287	163.88
329.515	117.88
329.744	120.88
329.972	129.88
330.201	221.88
330.43	280.88
330.658	173.88
330.887	153.88
331.115	127.88
331.344	115.88
331.572	99.88
331.801	103.88
332.03	108.88
332.258	77.88
332.486	103.88
332.715	87.88
332.943	93.88
333.172	97.88
333.4	96.88
333.629	116.88
333.857	136.88
334.085	141.88
334.314	222.88
334.542	336.88
334.771	314.88
334.999	148.88
335.227	98.88
335.455	91.88
335.684	100.88
335.912	102.88
336.14	87.88
336.369	90.88
336.597	83.88
336.825	102.88
337.053	114.88
337.281	87.88
337.51	105.88
337.738	88.88
337.966	106.88
338.194	95.88
338.422	101.88
338.65	90.88
338.878	93.88
339.106	89.88
339.334	93.88
339.562	82.88
339.79	83.88
340.018	86.88
340.246	91.88
340.474	96.88
340.702	86.88
340.93	89.88
341.158	97.88
341.386	86.88
341.614	106.88
341.842	101.88
342.07	101.88
342.298	93.88
342.526	84.88
342.754	90.88
342.981	88.88
343.209	78.88
343.437	90.88
343.665	75.88
343.893	83.88
344.12	94.88
344.348	88.88
344.576	78.88
344.804	87.88
345.031	82.88
345.259	97.88
345.487	104.88
345.714	104.88
345.942	104.88
346.17	81.88
346.397	88.88
346.625	102.88
346.853	88.88
347.08	83.88
347.308	97.88
347.535	97.88
347.763	100.88
347.99	97.88
348.218	95.88
348.445	103.88
348.673	87.88
348.9	81.88
349.128	106.88
349.355	98.88
349.583	90.88
349.81	90.88
350.037	80.88
350.265	76.88
350.492	104.88
350.72	98.88
350.947	99.88
351.174	115.88
351.402	113.88
351.629	99.88
351.856	109.88
352.083	104.88
352.311	100.88
352.538	107.88
352.765	91.88
352.992	104.88
353.22	117.88
353.447	97.88
353.674	99.88
353.901	92.88
354.128	98.88
354.355	94.88
354.583	85.88
354.81	83.88
355.037	94.88
355.264	82.88
355.491	89.88
355.718	89.88
355.945	105.88
356.172	92.88
356.399	84.88
356.626	85.88
356.853	86.88
357.08	93.88
357.307	93.88
357.534	101.88
357.761	103.88
357.988	93.88
358.215	106.88
358.441	88.88
358.668	75.88
358.895	85.88
359.122	73.88
359.349	90.88
359.576	92.88
359.802	89.88
360.029	113.88
360.256	114.88
360.483	99.88
360.709	73.88
360.936	84.88
361.163	83.88
361.39	85.88
361.616	87.88
361.843	90.88
362.07	107.88
362.296	114.88
362.523	97.88
362.749	90.88
362.976	90.88
363.203	87.88
363.429	89.88
363.656	78.88
363.882	82.88
364.109	99.88
364.335	80.88
364.562	90.88
364.788	85.88
365.015	94.88
365.241	99.88
365.468	107.88
365.694	107.88
365.92	100.88
366.147	94.88
366.373	80.88
366.599	97.88
366.826	91.88
367.052	95.88
367.278	112.88
367.505	97.88
367.731	94.88
367.957	92.88
368.184	83.88
368.41	95.88
368.636	103.88
368.862	131.88
369.089	105.88
369.315	95.88
369.541	96.88
369.767	85.88
369.993	89.88
370.219	88.88
370.445	86.88
370.672	85.88
370.898	85.88
371.124	89.88
371.35	97.88
371.576	79.88
371.802	90.88
372.028	78.88
372.254	87.88
372.48	78.88
372.706	98.88
372.932	81.88
373.158	89.88
373.384	100.88
373.61	78.88
373.835	82.88
374.061	87.88
374.287	83.88
374.513	78.88
374.739	86.88
374.965	91.88
375.191	71.88
375.416	102.88
375.642	83.88
375.868	74.88
376.094	76.88
376.319	100.88
376.545	94.88
376.771	81.88
376.997	103.88
377.222	87.88
377.448	87.88
377.674	88.88
377.899	90.88
378.125	85.88
378.35	93.88
378.576	91.88
378.802	99.88
379.027	85.88
379.253	86.88
379.478	96.88
379.704	90.88
379.929	101.88
380.155	92.88
380.38	99.88
380.606	83.88
380.831	94.88
381.057	91.88
381.282	86.88
381.507	81.88
381.733	79.88
381.958	87.88
382.184	101.88
382.409	91.88
382.634	90.88
382.86	88.88
383.085	89.88
383.31	97.88
383.535	77.88
383.761	94.88
383.986	89.88
384.211	112.88
384.436	89.88
384.662	93.88
384.887	104.88
385.112	90.88
385.337	104.88
385.562	103.88
385.787	109.88
386.013	108.88
386.238	98.88
386.463	96.88
386.688	109.88
386.913	111.88
387.138	94.88
387.363	81.88
387.588	78.88
387.813	89.88
388.038	85.88
388.263	94.88
388.488	98.88
388.713	81.88
388.938	95.88
389.163	88.88
389.387	92.88
389.612	86.88
389.837	94.88
390.062	90.88
390.287	82.88
390.512	97.88
390.736	76.88
390.961	89.88
391.186	98.88
391.411	111.88
391.636	88.88
391.86	83.88
392.085	82.88
392.31	77.88
392.534	70.88
392.759	85.88
392.984	83.88
393.208	88.88
393.433	94.88
393.658	82.88
393.882	72.88
394.107	87.88
394.331	73.88
394.556	91.88
394.78	89.88
395.005	89.88
395.229	92.88
395.454	94.88
395.678	80.88
395.903	80.88
396.127	87.88
396.352	90.88
396.576	94.88
396.801	81.88
397.025	76.88
397.249	85.88
397.474	83.88
397.698	75.88
397.922	82.88
398.147	78.88
398.371	106.88
398.595	93.88
398.82	89.88
399.044	70.88
399.268	87.88
399.492	73.88
399.717	73.88
399.941	82.88
400.165	87.88
400.389	79.88
400.613	75.88
400.837	92.88
401.062	92.88
401.286	85.88
401.51	81.88
401.734	81.88
401.958	98.88
402.182	125.88
402.406	160.88
402.63	119.88
402.854	94.88
403.078	86.88
403.302	100.88
403.526	70.88
403.75	92.88
403.974	81.88
404.198	87.88
404.422	72.88
404.645	85.88
404.869	86.88
405.093	93.88
405.317	106.88
405.541	115.88
405.765	102.88
405.988	127.88
406.212	173.88
406.436	232.88
406.66	160.88
406.883	87.88
407.107	98.88
407.331	95.88
407.555	99.88
407.778	100.88
408.002	93.88
408.226	84.88
408.449	75.88
408.673	92.88
408.896	98.88
409.12	97.88
409.344	77.88
409.567	86.88
409.791	81.88
410.014	87.88
410.238	86.88
410.461	75.88
410.685	85.88
410.908	95.88
411.132	96.88
411.355	98.88
411.578	88.88
411.802	89.88
412.025	92.88
412.249	87.88
412.472	106.88
412.695	99.88
412.919	110.88
413.142	86.88
413.365	85.88
413.589	83.88
413.812	76.88
414.035	84.88
414.258	78.88
414.482	90.88
414.705	72.88
414.928	86.88
415.151	101.88
415.374	84.88
415.597	89.88
415.821	73.88
416.044	96.88
416.267	84.88
416.49	86.88
416.713	86.88
416.936	74.88
417.159	81.88
417.382	78.88
417.605	94.88
417.828	101.88
418.051	78.88
418.274	90.88
418.497	79.88
418.72	74.88
418.943	79.88
419.166	89.88
419.389	77.88
419.611	84.88
419.834	93.88
420.057	90.88
420.28	82.88
420.503	74.88
420.726	70.88
420.948	74.88
421.171	91.88
421.394	98.88
421.617	99.88
421.839	91.88
422.062	68.88
422.285	83.88
422.507	100.88
422.73	113.88
422.953	91.88
423.175	85.88
423.398	89.88
423.621	82.88
423.843	97.88
424.066	87.88
424.288	79.88
424.511	85.88
424.733	93.88
424.956	107.88
425.178	94.88
425.401	104.88
425.623	108.88
425.846	94.88
426.068	101.88
426.291	93.88
426.513	84.88
426.735	91.88
426.958	94.88
427.18	97.88
427.402	145.88
427.625	185.88
427.847	150.88
428.069	135.88
428.292	88.88
428.514	91.88
428.736	80.88
428.958	99.88
429.181	87.88
429.403	76.88
429.625	87.88
429.847	100.88
430.069	108.88
430.292	96.88
430.514	79.88
430.736	93.88
430.958	83.88
431.18	84.88
431.402	88.88
431.624	78.88
431.846	77.88
432.068	78.88
432.29	81.88
432.512	89.88
432.734	75.88
432.956	79.88
433.178	102.88
433.4	87.88
433.622	94.88
433.844	85.88
434.066	88.88
434.287	88.88
434.509	67.88
434.731	82.88
434.953	83.88
435.175	78.88
435.397	86.88
435.618	107.88
435.84	100.88
436.062	119.88
436.284	105.88
436.505	109.88
436.727	105.88
436.949	90.88
437.17	90.88
437.392	85.88
437.614	86.88
437.835	97.88
438.057	125.88
438.278	111.88
438.5	113.88
438.721	124.88
438.943	109.88
439.165	93.88
439.386	76.88
439.608	94.88
439.829	102.88
440.05	111.88
440.272	147.88
440.493	103.88
440.715	97.88
440.936	105.88
441.158	77.88
441.379	84.88
441.6	77.88
441.822	86.88
442.043	93.88
442.264	99.88
442.486	98.88
442.707	93.88
442.928	113.88
443.149	138.88
443.371	123.88
443.592	106.88
443.813	121.88
444.034	95.88
444.255	88.88
444.476	98.88
444.698	77.88
444.919	78.88
445.14	123.88
445.361	133.88
445.582	110.88
445.803	151.88
446.024	149.88
446.245	151.88
446.466	106.88
446.687	85.88
446.908	82.88
447.129	79.88
447.35	82.88
447.571	92.88
447.792	95.88
448.013	91.88
448.234	106.88
448.455	109.88
448.675	106.88
448.896	127.88
449.117	108.88
449.338	105.88
449.559	122.88
449.779	152.88
450	97.88
450.221	83.88
450.442	85.88
450.662	87.88
450.883	109.88
451.104	104.88
451.324	111.88
451.545	82.88
451.766	89.88
451.986	83.88
452.207	84.88
452.428	99.88
452.648	95.88
452.869	117.88
453.089	103.88
453.31	116.88
453.53	89.88
453.751	87.88
453.971	92.88
454.192	116.88
454.412	87.88
454.633	101.88
454.853	87.88
455.073	89.88
455.294	90.88
455.514	89.88
455.734	82.88
455.955	82.88
456.175	75.88
456.395	81.88
456.616	89.88
456.836	88.88
457.056	90.88
457.276	77.88
457.497	82.88
457.717	83.88
457.937	78.88
458.157	93.88
458.377	91.88
458.598	101.88
458.818	151.88
459.038	158.88
459.258	123.88
459.478	99.88
459.698	85.88
459.918	86.88
460.138	78.88
460.358	103.88
460.578	90.88
460.798	82.88
461.018	102.88
461.238	94.88
461.458	63.88
461.678	77.88
461.898	80.88
462.118	87.88
462.338	81.88
462.558	78.88
462.777	85.88
462.997	83.88
463.217	80.88
463.437	78.88
463.657	86.88
463.876	89.88
464.096	86.88
464.316	94.88
464.536	84.88
464.755	95.88
464.975	106.88
465.195	181.88
465.414	177.88
465.634	97.88
465.854	93.88
466.073	92.88
466.293	84.88
466.512	90.88
466.732	73.88
466.951	87.88
467.171	76.88
467.391	102.88
467.61	110.88
467.829	104.88
468.049	156.88
468.268	189.88
468.488	106.88
468.707	85.88
468.927	72.88
469.146	81.88
469.365	89.88
469.585	74.88
469.804	98.88
470.023	88.88
470.243	107.88
470.462	101.88
470.681	127.88
470.901	90.88
471.12	90.88
471.339	90.88
471.558	83.88
471.777	96.88
471.997	131.88
472.216	222.88
472.435	383.88
472.654	139.88
472.873	96.88
473.092	94.88
473.311	79.88
473.53	76.88
473.749	84.88
473.968	87.88
474.187	108.88
474.406	93.88
474.625	98.88
474.844	86.88
475.063	82.88
475.282	96.88
475.501	95.88
475.72	88.88
475.939	95.88
476.158	97.88
476.377	88.88
476.596	78.88
476.814	98.88
477.033	89.88
477.252	77.88
477.471	97.88
477.69	85.88
477.908	82.88
478.127	91.88
478.346	80.88
478.564	87.88
478.783	105.88
479.002	82.88
479.22	95.88
479.439	102.88
479.658	98.88
479.876	96.88
480.095	104.88
480.313	82.88
480.532	97.88
480.751	117.88
480.969	219.88
481.188	662.88
481.406	429.88
481.624	141.88
481.843	94.88
482.061	98.88
482.28	96.88
482.498	83.88
482.717	87.88
482.935	86.88
483.153	86.88
483.372	93.88
483.59	94.88
483.808	94.88
484.027	83.88
484.245	99.88
484.463	95.88
484.681	86.88
484.9	95.88
485.118	94.88
485.336	95.88
485.554	91.88
485.772	93.88
485.99	100.88
486.209	102.88
486.427	98.88
486.645	106.88
486.863	108.88
487.081	111.88
487.299	97.88
487.517	97.88
487.735	91.88
487.953	91.88
488.171	104.88
488.389	87.88
488.607	100.88
488.825	90.88
489.043	78.88
489.261	77.88
489.479	87.88
489.696	90.88
489.914	90.88
490.132	85.88
490.35	90.88
490.568	87.88
490.786	95.88
491.003	94.88
491.221	92.88
491.439	87.88
491.657	97.88
491.874	106.88
492.092	97.88
492.31	82.88
492.527	98.88
492.745	90.88
492.963	90.88
493.18	92.88
493.398	97.88
493.615	90.88
493.833	99.88
494.05	82.88
494.268	97.88
494.485	94.88
494.703	89.88
494.92	100.88
495.138	96.88
495.355	89.88
495.573	89.88
495.79	94.88
496.008	86.88
496.225	86.88
496.442	90.88
496.66	88.88
496.877	99.88
497.094	82.88
497.312	85.88
497.529	92.88
497.746	89.88
497.963	79.88
498.181	91.88
498.398	93.88
498.615	110.88
498.832	113.88
499.049	94.88
499.267	89.88
499.484	80.88
499.701	74.88
499.918	85.88
500.135	94.88
500.352	85.88
500.569	86.88
500.786	90.88
501.003	95.88
501.22	91.88
501.437	90.88
501.654	95.88
501.871	103.88
502.088	94.88
502.305	82.88
502.522	98.88
502.739	100.88
502.956	95.88
503.172	101.88
503.389	94.88
503.606	100.88
503.823	97.88
504.04	89.88
504.256	77.88
504.473	93.88
504.69	94.88
504.907	92.88
505.123	100.88
505.34	95.88
505.557	93.88
505.773	90.88
505.99	72.88
506.207	97.88
506.423	93.88
506.64	107.88
506.856	79.88
507.073	97.88
507.289	103.88
507.506	86.88
507.722	105.88
507.939	123.88
508.155	94.88
508.372	90.88
508.588	85.88
508.805	98.88
509.021	93.88
509.238	91.88
509.454	85.88
509.67	99.88
509.887	111.88
510.103	116.88
510.319	205.88
510.536	773.88
510.752	2552.88
510.968	724.88
511.184	154.88
511.401	120.88
511.617	92.88
511.833	92.88
512.049	100.88
512.265	83.88
512.481	85.88
512.698	78.88
512.914	96.88
513.13	100.88
513.346	85.88
513.562	96.88
513.778	99.88
513.994	91.88
514.21	99.88
514.426	120.88
514.642	117.88
514.858	121.88
515.074	187.88
515.29	482.88
515.506	1666.88
515.721	624.88
515.937	170.88
