Data from Circ_2011_H10_HRD10591_00096.txt Node
Date: Wed Jan 03 10:08:18 EST 2024
User: Yrep
Spectrometer: HR+D1059
Trigger mode: 1
Integration Time (sec): 1.000000E-1
Scans to average: 1
Electric dark correction enabled: true
Nonlinearity correction enabled: false
Boxcar width: 0
XAxis mode: Wavelengths
Number of Pixels in Spectrum: 2048
>>>>>Begin Spectral Data<<<<<
223.165	-10.88
223.4	-10.88
223.635	-10.88
223.869	-25.88
224.104	-24.88
224.338	-5.88
224.573	-11.88
224.808	-15.88
225.042	-19.88
225.277	-12.88
225.511	-5.88
225.746	4.12
225.98	15.12
226.215	21.12
226.449	16.12
226.683	16.12
226.918	31.12
227.152	30.12
227.387	37.12
227.621	41.12
227.856	47.12
228.09	55.12
228.324	58.12
228.559	47.12
228.793	68.12
229.027	61.12
229.262	83.12
229.496	79.12
229.73	95.12
229.964	87.12
230.199	71.12
230.433	92.12
230.667	76.12
230.901	79.12
231.136	78.12
231.37	86.12
231.604	93.12
231.838	90.12
232.072	69.12
232.306	95.12
232.541	94.12
232.775	76.12
233.009	83.12
233.243	70.12
233.477	80.12
233.711	91.12
233.945	89.12
234.179	66.12
234.413	83.12
234.647	79.12
234.881	73.12
235.115	87.12
235.349	82.12
235.583	92.12
235.817	83.12
236.051	72.12
236.285	71.12
236.519	77.12
236.753	90.12
236.987	98.12
237.221	96.12
237.455	98.12
237.689	79.12
237.922	87.12
238.156	81.12
238.39	73.12
238.624	71.12
238.858	81.12
239.091	72.12
239.325	91.12
239.559	86.12
239.793	82.12
240.027	86.12
240.26	69.12
240.494	88.12
240.728	78.12
240.961	85.12
241.195	74.12
241.429	84.12
241.662	84.12
241.896	73.12
242.13	86.12
242.363	74.12
242.597	90.12
242.83	80.12
243.064	83.12
243.298	72.12
243.531	90.12
243.765	83.12
243.998	95.12
244.232	85.12
244.465	90.12
244.699	90.12
244.932	79.12
245.166	75.12
245.399	72.12
245.633	75.12
245.866	71.12
246.099	75.12
246.333	88.12
246.566	75.12
246.8	60.12
247.033	90.12
247.266	86.12
247.5	92.12
247.733	79.12
247.966	78.12
248.2	87.12
248.433	73.12
248.666	80.12
248.899	77.12
249.133	73.12
249.366	92.12
249.599	109.12
249.832	95.12
250.066	87.12
250.299	98.12
250.532	72.12
250.765	83.12
250.998	81.12
251.231	86.12
251.465	83.12
251.698	79.12
251.931	78.12
252.164	74.12
252.397	85.12
252.63	73.12
252.863	73.12
253.096	83.12
253.329	95.12
253.562	74.12
253.795	82.12
254.028	78.12
254.261	93.12
254.494	84.12
254.727	78.12
254.96	78.12
255.193	74.12
255.426	81.12
255.659	84.12
255.892	98.12
256.124	97.12
256.357	88.12
256.59	90.12
256.823	79.12
257.056	86.12
257.289	81.12
257.521	95.12
257.754	83.12
257.987	83.12
258.22	83.12
258.452	81.12
258.685	70.12
258.918	78.12
259.151	83.12
259.383	86.12
259.616	88.12
259.849	96.12
260.081	82.12
260.314	86.12
260.547	85.12
260.779	83.12
261.012	103.12
261.244	99.12
261.477	80.12
261.71	99.12
261.942	135.12
262.175	115.12
262.407	97.12
262.64	93.12
262.872	80.12
263.105	81.12
263.337	91.12
263.57	71.12
263.802	102.12
264.035	88.12
264.267	75.12
264.499	92.12
264.732	91.12
264.964	90.12
265.197	78.12
265.429	91.12
265.661	90.12
265.894	77.12
266.126	87.12
266.358	82.12
266.591	91.12
266.823	105.12
267.055	81.12
267.287	100.12
267.52	96.12
267.752	89.12
267.984	99.12
268.216	87.12
268.448	82.12
268.681	90.12
268.913	81.12
269.145	95.12
269.377	91.12
269.609	95.12
269.841	81.12
270.073	106.12
270.306	88.12
270.538	85.12
270.77	84.12
271.002	83.12
271.234	97.12
271.466	87.12
271.698	81.12
271.93	96.12
272.162	89.12
272.394	83.12
272.626	90.12
272.858	83.12
273.09	99.12
273.322	90.12
273.553	81.12
273.785	89.12
274.017	90.12
274.249	82.12
274.481	89.12
274.713	95.12
274.945	76.12
275.176	100.12
275.408	85.12
275.64	88.12
275.872	83.12
276.104	81.12
276.335	106.12
276.567	105.12
276.799	98.12
277.031	119.12
277.262	102.12
277.494	94.12
277.726	97.12
277.957	89.12
278.189	83.12
278.421	91.12
278.652	87.12
278.884	87.12
279.115	95.12
279.347	85.12
279.579	73.12
279.81	99.12
280.042	100.12
280.273	114.12
280.505	103.12
280.736	87.12
280.968	90.12
281.199	77.12
281.431	96.12
281.662	90.12
281.894	101.12
282.125	90.12
282.356	120.12
282.588	143.12
282.819	106.12
283.051	93.12
283.282	78.12
283.513	89.12
283.745	94.12
283.976	93.12
284.207	79.12
284.439	88.12
284.67	76.12
284.901	89.12
285.132	82.12
285.364	78.12
285.595	95.12
285.826	79.12
286.057	98.12
286.288	97.12
286.52	83.12
286.751	84.12
286.982	83.12
287.213	84.12
287.444	105.12
287.675	95.12
287.906	93.12
288.138	100.12
288.369	105.12
288.6	86.12
288.831	86.12
289.062	90.12
289.293	93.12
289.524	96.12
289.755	100.12
289.986	81.12
290.217	93.12
290.448	93.12
290.679	98.12
290.91	96.12
291.141	98.12
291.371	92.12
291.602	84.12
291.833	83.12
292.064	94.12
292.295	94.12
292.526	100.12
292.757	91.12
292.987	82.12
293.218	95.12
293.449	91.12
293.68	88.12
293.91	104.12
294.141	79.12
294.372	82.12
294.603	90.12
294.833	83.12
295.064	103.12
295.295	87.12
295.525	93.12
295.756	108.12
295.987	120.12
296.217	138.12
296.448	114.12
296.679	89.12
296.909	88.12
297.14	76.12
297.37	97.12
297.601	88.12
297.831	99.12
298.062	89.12
298.292	79.12
298.523	80.12
298.753	94.12
298.984	92.12
299.214	101.12
299.445	108.12
299.675	93.12
299.905	98.12
300.136	99.12
300.366	92.12
300.597	83.12
300.827	85.12
301.057	88.12
301.288	112.12
301.518	93.12
301.748	91.12
301.979	106.12
302.209	90.12
302.439	97.12
302.669	92.12
302.9	83.12
303.13	95.12
303.36	107.12
303.59	110.12
303.82	116.12
304.051	100.12
304.281	83.12
304.511	85.12
304.741	80.12
304.971	90.12
305.201	76.12
305.431	98.12
305.661	86.12
305.891	91.12
306.121	96.12
306.352	95.12
306.582	97.12
306.812	107.12
307.042	102.12
307.272	105.12
307.502	126.12
307.731	107.12
307.961	92.12
308.191	111.12
308.421	88.12
308.651	90.12
308.881	91.12
309.111	101.12
309.341	94.12
309.571	111.12
309.8	84.12
310.03	85.12
310.26	94.12
310.49	101.12
310.72	99.12
310.949	97.12
311.179	112.12
311.409	91.12
311.639	91.12
311.868	100.12
312.098	90.12
312.328	105.12
312.557	99.12
312.787	108.12
313.017	99.12
313.246	124.12
313.476	94.12
313.706	104.12
313.935	105.12
314.165	94.12
314.394	111.12
314.624	111.12
314.853	113.12
315.083	96.12
315.312	95.12
315.542	96.12
315.771	99.12
316.001	101.12
316.23	92.12
316.46	102.12
316.689	81.12
316.919	88.12
317.148	102.12
317.377	105.12
317.607	88.12
317.836	102.12
318.065	101.12
318.295	94.12
318.524	88.12
318.753	87.12
318.983	82.12
319.212	108.12
319.441	111.12
319.67	106.12
319.9	100.12
320.129	97.12
320.358	102.12
320.587	110.12
320.816	100.12
321.046	114.12
321.275	100.12
321.504	99.12
321.733	89.12
321.962	103.12
322.191	98.12
322.42	123.12
322.649	113.12
322.878	109.12
323.108	123.12
323.337	127.12
323.566	131.12
323.795	165.12
324.024	220.12
324.253	399.12
324.482	868.12
324.71	1810.12
324.939	2448.12
325.168	846.12
325.397	262.12
325.626	174.12
325.855	136.12
326.084	134.12
326.313	129.12
326.542	152.12
326.77	242.12
326.999	495.12
327.228	1053.12
327.457	1854.12
327.686	1489.12
327.914	422.12
328.143	230.12
328.372	215.12
328.6	159.12
328.829	125.12
329.058	152.12
329.287	151.12
329.515	143.12
329.744	130.12
329.972	160.12
330.201	224.12
330.43	299.12
330.658	194.12
330.887	158.12
331.115	144.12
331.344	101.12
331.572	103.12
331.801	102.12
332.03	107.12
332.258	111.12
332.486	106.12
332.715	104.12
332.943	103.12
333.172	110.12
333.4	106.12
333.629	109.12
333.857	122.12
334.085	157.12
334.314	228.12
334.542	373.12
334.771	344.12
334.999	153.12
335.227	113.12
335.455	111.12
335.684	103.12
335.912	94.12
336.14	93.12
336.369	102.12
336.597	100.12
336.825	108.12
337.053	96.12
337.281	104.12
337.51	98.12
337.738	91.12
337.966	106.12
338.194	99.12
338.422	111.12
338.65	99.12
338.878	101.12
339.106	95.12
339.334	94.12
339.562	95.12
339.79	98.12
340.018	81.12
340.246	103.12
340.474	98.12
340.702	105.12
340.93	87.12
341.158	89.12
341.386	107.12
341.614	94.12
341.842	114.12
342.07	100.12
342.298	74.12
342.526	83.12
342.754	95.12
342.981	108.12
343.209	99.12
343.437	110.12
343.665	92.12
343.893	92.12
344.12	74.12
344.348	88.12
344.576	107.12
344.804	102.12
345.031	93.12
345.259	101.12
345.487	89.12
345.714	93.12
345.942	97.12
346.17	106.12
346.397	95.12
346.625	89.12
346.853	107.12
347.08	102.12
347.308	108.12
347.535	92.12
347.763	94.12
347.99	99.12
348.218	98.12
348.445	108.12
348.673	125.12
348.9	95.12
349.128	96.12
349.355	92.12
349.583	103.12
349.81	96.12
350.037	101.12
350.265	97.12
350.492	104.12
350.72	110.12
350.947	114.12
351.174	114.12
351.402	107.12
351.629	118.12
351.856	114.12
352.083	111.12
352.311	88.12
352.538	103.12
352.765	118.12
352.992	115.12
353.22	117.12
353.447	98.12
353.674	103.12
353.901	99.12
354.128	102.12
354.355	85.12
354.583	110.12
354.81	119.12
355.037	108.12
355.264	91.12
355.491	84.12
355.718	90.12
355.945	98.12
356.172	110.12
356.399	111.12
356.626	86.12
356.853	101.12
357.08	107.12
357.307	100.12
357.534	82.12
357.761	94.12
357.988	102.12
358.215	110.12
358.441	95.12
358.668	85.12
358.895	97.12
359.122	97.12
359.349	91.12
359.576	91.12
359.802	100.12
360.029	109.12
360.256	112.12
360.483	110.12
360.709	97.12
360.936	96.12
361.163	89.12
361.39	93.12
361.616	82.12
361.843	89.12
362.07	99.12
362.296	100.12
362.523	100.12
362.749	91.12
362.976	75.12
363.203	104.12
363.429	103.12
363.656	104.12
363.882	99.12
364.109	106.12
364.335	95.12
364.562	91.12
364.788	92.12
365.015	84.12
365.241	99.12
365.468	95.12
365.694	100.12
365.92	100.12
366.147	109.12
366.373	96.12
366.599	93.12
366.826	85.12
367.052	74.12
367.278	94.12
367.505	81.12
367.731	104.12
367.957	96.12
368.184	95.12
368.41	120.12
368.636	124.12
368.862	122.12
369.089	99.12
369.315	99.12
369.541	112.12
369.767	98.12
369.993	82.12
370.219	93.12
370.445	94.12
370.672	99.12
370.898	94.12
371.124	88.12
371.35	89.12
371.576	102.12
371.802	72.12
372.028	92.12
372.254	86.12
372.48	98.12
372.706	86.12
372.932	83.12
373.158	86.12
373.384	98.12
373.61	98.12
373.835	101.12
374.061	85.12
374.287	90.12
374.513	98.12
374.739	89.12
374.965	95.12
375.191	94.12
375.416	89.12
375.642	86.12
375.868	92.12
376.094	97.12
376.319	102.12
376.545	92.12
376.771	78.12
376.997	71.12
377.222	94.12
377.448	104.12
377.674	99.12
377.899	110.12
378.125	96.12
378.35	91.12
378.576	96.12
378.802	104.12
379.027	88.12
379.253	89.12
379.478	88.12
379.704	99.12
379.929	99.12
380.155	97.12
380.38	92.12
380.606	93.12
380.831	87.12
381.057	97.12
381.282	93.12
381.507	89.12
381.733	103.12
381.958	89.12
382.184	119.12
382.409	96.12
382.634	106.12
382.86	107.12
383.085	104.12
383.31	97.12
383.535	100.12
383.761	97.12
383.986	91.12
384.211	101.12
384.436	96.12
384.662	87.12
384.887	89.12
385.112	103.12
385.337	93.12
385.562	103.12
385.787	94.12
386.013	96.12
386.238	98.12
386.463	104.12
386.688	97.12
386.913	95.12
387.138	94.12
387.363	108.12
387.588	103.12
387.813	105.12
388.038	111.12
388.263	99.12
388.488	108.12
388.713	96.12
388.938	105.12
389.163	92.12
389.387	98.12
389.612	100.12
389.837	96.12
390.062	98.12
390.287	96.12
390.512	82.12
390.736	111.12
390.961	94.12
391.186	102.12
391.411	108.12
391.636	94.12
391.86	87.12
392.085	91.12
392.31	87.12
392.534	93.12
392.759	75.12
392.984	103.12
393.208	89.12
393.433	95.12
393.658	88.12
393.882	97.12
394.107	84.12
394.331	89.12
394.556	100.12
394.78	95.12
395.005	76.12
395.229	85.12
395.454	84.12
395.678	86.12
395.903	96.12
396.127	85.12
396.352	80.12
396.576	90.12
396.801	84.12
397.025	103.12
397.249	101.12
397.474	92.12
397.698	91.12
397.922	83.12
398.147	80.12
398.371	90.12
398.595	87.12
398.82	96.12
399.044	110.12
399.268	95.12
399.492	96.12
399.717	87.12
399.941	88.12
400.165	97.12
400.389	94.12
400.613	91.12
400.837	102.12
401.062	99.12
401.286	88.12
401.51	93.12
401.734	82.12
401.958	106.12
402.182	140.12
402.406	161.12
402.63	122.12
402.854	93.12
403.078	93.12
403.302	93.12
403.526	93.12
403.75	95.12
403.974	85.12
404.198	88.12
404.422	94.12
404.645	83.12
404.869	92.12
405.093	122.12
405.317	108.12
405.541	109.12
405.765	110.12
405.988	107.12
406.212	165.12
406.436	203.12
406.66	146.12
406.883	118.12
407.107	109.12
407.331	111.12
407.555	100.12
407.778	99.12
408.002	101.12
408.226	112.12
408.449	106.12
408.673	93.12
408.896	94.12
409.12	108.12
409.344	108.12
409.567	82.12
409.791	86.12
410.014	96.12
410.238	98.12
410.461	100.12
410.685	91.12
410.908	95.12
411.132	113.12
411.355	103.12
411.578	103.12
411.802	87.12
412.025	88.12
412.249	83.12
412.472	109.12
412.695	114.12
412.919	88.12
413.142	102.12
413.365	86.12
413.589	91.12
413.812	88.12
414.035	103.12
414.258	92.12
414.482	91.12
414.705	99.12
414.928	83.12
415.151	86.12
415.374	86.12
415.597	76.12
415.821	87.12
416.044	83.12
416.267	98.12
416.49	99.12
416.713	103.12
416.936	90.12
417.159	91.12
417.382	94.12
417.605	111.12
417.828	93.12
418.051	83.12
418.274	66.12
418.497	90.12
418.72	95.12
418.943	86.12
419.166	82.12
419.389	87.12
419.611	101.12
419.834	86.12
420.057	95.12
420.28	99.12
420.503	103.12
420.726	88.12
420.948	90.12
421.171	92.12
421.394	90.12
421.617	88.12
421.839	94.12
422.062	93.12
422.285	96.12
422.507	99.12
422.73	112.12
422.953	96.12
423.175	98.12
423.398	109.12
423.621	91.12
423.843	90.12
424.066	98.12
424.288	96.12
424.511	90.12
424.733	108.12
424.956	107.12
425.178	103.12
425.401	102.12
425.623	97.12
425.846	83.12
426.068	99.12
426.291	105.12
426.513	85.12
426.735	86.12
426.958	108.12
427.18	115.12
427.402	144.12
427.625	189.12
427.847	153.12
428.069	138.12
428.292	101.12
428.514	87.12
428.736	97.12
428.958	96.12
429.181	81.12
429.403	89.12
429.625	89.12
429.847	89.12
430.069	133.12
430.292	100.12
430.514	94.12
430.736	79.12
430.958	91.12
431.18	86.12
431.402	88.12
431.624	81.12
431.846	101.12
432.068	90.12
432.29	101.12
432.512	90.12
432.734	86.12
432.956	92.12
433.178	99.12
433.4	119.12
433.622	113.12
433.844	95.12
434.066	89.12
434.287	90.12
434.509	88.12
434.731	85.12
434.953	89.12
435.175	87.12
435.397	91.12
435.618	98.12
435.84	107.12
436.062	120.12
436.284	98.12
436.505	107.12
436.727	107.12
436.949	100.12
437.17	95.12
437.392	79.12
437.614	95.12
437.835	103.12
438.057	113.12
438.278	107.12
438.5	114.12
438.721	132.12
438.943	111.12
439.165	93.12
439.386	98.12
439.608	106.12
439.829	96.12
440.05	144.12
440.272	164.12
440.493	101.12
440.715	81.12
440.936	86.12
441.158	112.12
441.379	90.12
441.6	90.12
441.822	88.12
442.043	113.12
442.264	114.12
442.486	107.12
442.707	96.12
442.928	102.12
443.149	120.12
443.371	134.12
443.592	115.12
443.813	114.12
444.034	110.12
444.255	88.12
444.476	93.12
444.698	84.12
444.919	98.12
445.14	138.12
445.361	140.12
445.582	126.12
445.803	150.12
446.024	144.12
446.245	144.12
446.466	116.12
446.687	96.12
446.908	99.12
447.129	88.12
447.35	90.12
447.571	99.12
447.792	99.12
448.013	110.12
448.234	107.12
448.455	104.12
448.675	131.12
448.896	140.12
449.117	94.12
449.338	102.12
449.559	128.12
449.779	138.12
450	100.12
450.221	87.12
450.442	97.12
450.662	102.12
450.883	113.12
451.104	106.12
451.324	102.12
451.545	100.12
451.766	88.12
451.986	95.12
452.207	90.12
452.428	95.12
452.648	82.12
452.869	101.12
453.089	115.12
453.31	112.12
453.53	103.12
453.751	105.12
453.971	92.12
454.192	116.12
454.412	110.12
454.633	100.12
454.853	89.12
455.073	86.12
455.294	81.12
455.514	103.12
455.734	81.12
455.955	106.12
456.175	100.12
456.395	87.12
456.616	83.12
456.836	101.12
457.056	79.12
457.276	95.12
457.497	84.12
457.717	85.12
457.937	101.12
458.157	97.12
458.377	93.12
458.598	105.12
458.818	140.12
459.038	160.12
459.258	106.12
459.478	105.12
459.698	79.12
459.918	70.12
460.138	86.12
460.358	81.12
460.578	90.12
460.798	109.12
461.018	105.12
461.238	94.12
461.458	94.12
461.678	102.12
461.898	91.12
462.118	89.12
462.338	99.12
462.558	83.12
462.777	85.12
462.997	85.12
463.217	87.12
463.437	93.12
463.657	95.12
463.876	88.12
464.096	95.12
464.316	82.12
464.536	92.12
464.755	105.12
464.975	91.12
465.195	161.12
465.414	154.12
465.634	95.12
465.854	92.12
466.073	97.12
466.293	95.12
466.512	80.12
466.732	82.12
466.951	92.12
467.171	99.12
467.391	99.12
467.61	95.12
467.829	107.12
468.049	163.12
468.268	200.12
468.488	105.12
468.707	83.12
468.927	86.12
469.146	94.12
469.365	93.12
469.585	94.12
469.804	98.12
470.023	100.12
470.243	105.12
470.462	101.12
470.681	104.12
470.901	100.12
471.12	92.12
471.339	92.12
471.558	94.12
471.777	104.12
471.997	139.12
472.216	269.12
472.435	462.12
472.654	173.12
472.873	107.12
473.092	96.12
473.311	103.12
473.53	98.12
473.749	106.12
473.968	107.12
474.187	106.12
474.406	97.12
474.625	82.12
474.844	87.12
475.063	84.12
475.282	98.12
475.501	76.12
475.72	94.12
475.939	92.12
476.158	99.12
476.377	96.12
476.596	89.12
476.814	79.12
477.033	94.12
477.252	114.12
477.471	104.12
477.69	99.12
477.908	86.12
478.127	91.12
478.346	100.12
478.564	107.12
478.783	91.12
479.002	101.12
479.22	99.12
479.439	107.12
479.658	107.12
479.876	102.12
480.095	108.12
480.313	110.12
480.532	99.12
480.751	122.12
480.969	255.12
481.188	792.12
481.406	526.12
481.624	140.12
481.843	94.12
482.061	98.12
482.28	98.12
482.498	95.12
482.717	92.12
482.935	94.12
483.153	96.12
483.372	84.12
483.59	99.12
483.808	88.12
484.027	89.12
484.245	97.12
484.463	90.12
484.681	88.12
484.9	90.12
485.118	108.12
485.336	96.12
485.554	101.12
485.772	106.12
485.99	106.12
486.209	84.12
486.427	108.12
486.645	103.12
486.863	134.12
487.081	97.12
487.299	91.12
487.517	86.12
487.735	101.12
487.953	94.12
488.171	94.12
488.389	104.12
488.607	99.12
488.825	89.12
489.043	98.12
489.261	103.12
489.479	84.12
489.696	96.12
489.914	95.12
490.132	95.12
490.35	91.12
490.568	108.12
490.786	96.12
491.003	91.12
491.221	95.12
491.439	82.12
491.657	78.12
491.874	98.12
492.092	88.12
492.31	92.12
492.527	84.12
492.745	86.12
492.963	82.12
493.18	91.12
493.398	103.12
493.615	96.12
493.833	117.12
494.05	84.12
494.268	86.12
494.485	92.12
494.703	95.12
494.92	89.12
495.138	102.12
495.355	89.12
495.573	82.12
495.79	92.12
496.008	96.12
496.225	98.12
496.442	104.12
496.66	92.12
496.877	92.12
497.094	91.12
497.312	102.12
497.529	99.12
497.746	95.12
497.963	103.12
498.181	91.12
498.398	94.12
498.615	111.12
498.832	117.12
499.049	86.12
499.267	80.12
499.484	108.12
499.701	92.12
499.918	105.12
500.135	96.12
500.352	89.12
500.569	101.12
500.786	107.12
501.003	101.12
501.22	98.12
501.437	102.12
501.654	103.12
501.871	107.12
502.088	89.12
502.305	93.12
502.522	96.12
502.739	91.12
502.956	97.12
503.172	82.12
503.389	98.12
503.606	93.12
503.823	94.12
504.04	82.12
504.256	82.12
504.473	90.12
504.69	103.12
504.907	88.12
505.123	103.12
505.34	94.12
505.557	100.12
505.773	93.12
505.99	110.12
506.207	103.12
506.423	78.12
506.64	88.12
506.856	95.12
507.073	98.12
507.289	95.12
507.506	101.12
507.722	105.12
507.939	123.12
508.155	104.12
508.372	84.12
508.588	97.12
508.805	98.12
509.021	98.12
509.238	95.12
509.454	104.12
509.67	102.12
509.887	110.12
510.103	132.12
510.319	190.12
510.536	686.12
510.752	2108.12
510.968	635.12
511.184	158.12
511.401	105.12
511.617	98.12
511.833	98.12
512.049	95.12
512.265	90.12
512.481	97.12
512.698	103.12
512.914	108.12
513.13	92.12
513.346	90.12
513.562	92.12
513.778	87.12
