Data from Circ_2011_H10_HRD10591_00087.txt Node
Date: Wed Jan 03 10:08:16 EST 2024
User: Yrep
Spectrometer: HR+D1059
Trigger mode: 1
Integration Time (sec): 1.000000E-1
Scans to average: 1
Electric dark correction enabled: true
Nonlinearity correction enabled: false
Boxcar width: 0
XAxis mode: Wavelengths
Number of Pixels in Spectrum: 2048
>>>>>Begin Spectral Data<<<<<
223.165	-9
223.4	-9
223.635	-9
223.869	-18
224.104	-26
224.338	-17
224.573	-16
224.808	3
225.042	3
225.277	-5
225.511	-12
225.746	-3
225.98	2
226.215	9
226.449	13
226.683	16
226.918	27
227.152	33
227.387	44
227.621	29
227.856	55
228.09	42
228.324	42
228.559	52
228.793	50
229.027	58
229.262	66
229.496	79
229.73	86
229.964	74
230.199	81
230.433	77
230.667	82
230.901	90
231.136	68
231.37	78
231.604	87
231.838	89
232.072	81
232.306	79
232.541	62
232.775	74
233.009	71
233.243	81
233.477	95
233.711	75
233.945	68
234.179	89
234.413	77
234.647	78
234.881	82
235.115	82
235.349	69
235.583	83
235.817	84
236.051	72
236.285	78
236.519	73
236.753	77
236.987	76
237.221	85
237.455	80
237.689	93
237.922	70
238.156	78
238.39	81
238.624	76
238.858	92
239.091	85
239.325	83
239.559	78
239.793	75
240.027	73
240.26	83
240.494	76
240.728	69
240.961	75
241.195	80
241.429	76
241.662	82
241.896	84
242.13	86
242.363	68
242.597	74
242.83	80
243.064	62
243.298	76
243.531	81
243.765	67
243.998	76
244.232	72
244.465	82
244.699	82
244.932	73
245.166	86
245.399	83
245.633	79
245.866	82
246.099	80
246.333	88
246.566	85
246.8	80
247.033	83
247.266	79
247.5	74
247.733	77
247.966	72
248.2	90
248.433	78
248.666	79
248.899	86
249.133	80
249.366	95
249.599	74
249.832	77
250.066	67
250.299	71
250.532	82
250.765	82
250.998	77
251.231	77
251.465	74
251.698	66
251.931	73
252.164	69
252.397	80
252.63	74
252.863	68
253.096	78
253.329	69
253.562	78
253.795	79
254.028	64
254.261	78
254.494	79
254.727	85
254.96	86
255.193	80
255.426	79
255.659	81
255.892	87
256.124	89
256.357	78
256.59	83
256.823	78
257.056	85
257.289	78
257.521	64
257.754	74
257.987	83
258.22	82
258.452	77
258.685	68
258.918	65
259.151	84
259.383	84
259.616	70
259.849	67
260.081	79
260.314	80
260.547	80
260.779	86
261.012	77
261.244	75
261.477	92
261.71	87
261.942	99
262.175	96
262.407	79
262.64	84
262.872	87
263.105	72
263.337	92
263.57	92
263.802	82
264.035	86
264.267	79
264.499	76
264.732	79
264.964	90
265.197	91
265.429	79
265.661	77
265.894	85
266.126	87
266.358	76
266.591	92
266.823	75
267.055	76
267.287	77
267.52	84
267.752	79
267.984	78
268.216	72
268.448	78
268.681	77
268.913	87
269.145	89
269.377	86
269.609	72
269.841	79
270.073	81
270.306	88
270.538	85
270.77	75
271.002	72
271.234	84
271.466	80
271.698	80
271.93	86
272.162	74
272.394	85
272.626	73
272.858	80
273.09	96
273.322	79
273.553	98
273.785	90
274.017	82
274.249	85
274.481	86
274.713	92
274.945	86
275.176	94
275.408	90
275.64	86
275.872	72
276.104	96
276.335	92
276.567	108
276.799	94
277.031	116
277.262	103
277.494	92
277.726	73
277.957	83
278.189	84
278.421	80
278.652	91
278.884	79
279.115	79
279.347	86
279.579	59
279.81	90
280.042	96
280.273	93
280.505	90
280.736	97
280.968	82
281.199	95
281.431	91
281.662	83
281.894	80
282.125	90
282.356	106
282.588	114
282.819	134
283.051	90
283.282	80
283.513	87
283.745	79
283.976	80
284.207	82
284.439	94
284.67	78
284.901	83
285.132	77
285.364	90
285.595	89
285.826	75
286.057	85
286.288	84
286.52	85
286.751	87
286.982	85
287.213	72
287.444	84
287.675	88
287.906	88
288.138	80
288.369	82
288.6	90
288.831	79
289.062	88
289.293	100
289.524	87
289.755	92
289.986	80
290.217	85
290.448	90
290.679	87
290.91	90
291.141	79
291.371	80
291.602	83
291.833	77
292.064	98
292.295	90
292.526	85
292.757	93
292.987	90
293.218	73
293.449	88
293.68	88
293.91	87
294.141	93
294.372	81
294.603	95
294.833	108
295.064	79
295.295	84
295.525	80
295.756	94
295.987	121
296.217	125
296.448	116
296.679	94
296.909	97
297.14	95
297.37	102
297.601	98
297.831	83
298.062	89
298.292	99
298.523	86
298.753	90
298.984	89
299.214	91
299.445	84
299.675	96
299.905	81
300.136	78
300.366	78
300.597	87
300.827	88
301.057	92
301.288	94
301.518	81
301.748	87
301.979	94
302.209	78
302.439	79
302.669	78
302.9	95
303.13	92
303.36	98
303.59	90
303.82	108
304.051	88
304.281	99
304.511	95
304.741	90
304.971	70
305.201	91
305.431	83
305.661	87
305.891	90
306.121	100
306.352	110
306.582	107
306.812	90
307.042	106
307.272	105
307.502	118
307.731	97
307.961	91
308.191	90
308.421	66
308.651	83
308.881	84
309.111	100
309.341	80
309.571	94
309.8	91
310.03	98
310.26	97
310.49	107
310.72	82
310.949	114
311.179	104
311.409	99
311.639	95
311.868	101
312.098	100
312.328	84
312.557	98
312.787	105
313.017	87
313.246	82
313.476	86
313.706	89
313.935	86
314.165	105
314.394	94
314.624	103
314.853	98
315.083	78
315.312	94
315.542	93
315.771	89
316.001	97
316.23	79
316.46	81
316.689	82
316.919	89
317.148	82
317.377	92
317.607	108
317.836	86
318.065	77
318.295	83
318.524	83
318.753	90
318.983	93
319.212	87
319.441	103
319.67	103
319.9	96
320.129	86
320.358	91
320.587	87
320.816	88
321.046	98
321.275	85
321.504	102
321.733	109
321.962	99
322.191	102
322.42	99
322.649	117
322.878	106
323.108	111
323.337	126
323.566	134
323.795	156
324.024	205
324.253	395
324.482	863
324.71	1775
324.939	2356
325.168	852
325.397	239
325.626	144
325.855	124
326.084	133
326.313	139
326.542	148
326.77	231
326.999	480
327.228	1011
327.457	1812
327.686	1462
327.914	388
328.143	224
328.372	202
328.6	156
328.829	122
329.058	114
329.287	127
329.515	108
329.744	132
329.972	163
330.201	214
330.43	277
330.658	200
330.887	154
331.115	122
331.344	101
331.572	98
331.801	101
332.03	84
332.258	104
332.486	92
332.715	85
332.943	93
333.172	91
333.4	98
333.629	105
333.857	116
334.085	156
334.314	217
334.542	349
334.771	315
334.999	140
335.227	93
335.455	98
335.684	110
335.912	91
336.14	85
336.369	99
336.597	120
336.825	102
337.053	106
337.281	105
337.51	90
337.738	101
337.966	94
338.194	101
338.422	88
338.65	91
338.878	78
339.106	86
339.334	82
339.562	91
339.79	89
340.018	108
340.246	90
340.474	91
340.702	92
340.93	100
341.158	88
341.386	95
341.614	92
341.842	100
342.07	91
342.298	90
342.526	84
342.754	81
342.981	82
343.209	80
343.437	92
343.665	79
343.893	89
344.12	93
344.348	91
344.576	100
344.804	90
345.031	84
345.259	92
345.487	91
345.714	95
345.942	90
346.17	87
346.397	82
346.625	100
346.853	93
347.08	95
347.308	100
347.535	79
347.763	85
347.99	107
348.218	100
348.445	118
348.673	85
348.9	91
349.128	93
349.355	99
349.583	94
349.81	86
350.037	93
350.265	89
350.492	88
350.72	92
350.947	99
351.174	115
351.402	100
351.629	94
351.856	104
352.083	102
352.311	92
352.538	101
352.765	105
352.992	95
353.22	103
353.447	110
353.674	105
353.901	87
354.128	99
354.355	98
354.583	110
354.81	90
355.037	98
355.264	100
355.491	91
355.718	86
355.945	90
356.172	94
356.399	101
356.626	95
356.853	99
357.08	90
357.307	86
357.534	99
357.761	84
357.988	96
358.215	106
358.441	86
358.668	89
358.895	93
359.122	90
359.349	90
359.576	97
359.802	90
360.029	109
360.256	108
360.483	93
360.709	98
360.936	87
361.163	82
361.39	91
361.616	76
361.843	90
362.07	91
362.296	91
362.523	85
362.749	92
362.976	95
363.203	96
363.429	80
363.656	91
363.882	91
364.109	86
364.335	80
364.562	88
364.788	93
365.015	84
365.241	95
365.468	107
365.694	94
365.92	92
366.147	95
366.373	105
366.599	96
366.826	83
367.052	94
367.278	87
367.505	79
367.731	93
367.957	92
368.184	92
368.41	96
368.636	110
368.862	116
369.089	103
369.315	101
369.541	88
369.767	92
369.993	89
370.219	84
370.445	84
370.672	91
370.898	99
371.124	83
371.35	97
371.576	98
371.802	80
372.028	92
372.254	88
372.48	79
372.706	86
372.932	67
373.158	90
373.384	84
373.61	89
373.835	94
374.061	81
374.287	93
374.513	97
374.739	89
374.965	96
375.191	73
375.416	78
375.642	99
375.868	83
376.094	93
376.319	92
376.545	81
376.771	80
376.997	85
377.222	81
377.448	89
377.674	94
377.899	84
378.125	95
378.35	91
378.576	91
378.802	85
379.027	87
379.253	89
379.478	92
379.704	86
379.929	84
380.155	92
380.38	94
380.606	85
380.831	95
381.057	104
381.282	98
381.507	81
381.733	96
381.958	99
382.184	100
382.409	92
382.634	85
382.86	104
383.085	114
383.31	105
383.535	97
383.761	88
383.986	77
384.211	99
384.436	94
384.662	98
384.887	93
385.112	103
385.337	91
385.562	93
385.787	88
386.013	116
386.238	114
386.463	98
386.688	114
386.913	99
387.138	96
387.363	106
387.588	93
387.813	98
388.038	95
388.263	98
388.488	101
388.713	96
388.938	86
389.163	88
389.387	88
389.612	75
389.837	72
390.062	100
390.287	92
390.512	84
390.736	99
390.961	98
391.186	112
391.411	100
391.636	96
391.86	89
392.085	82
392.31	78
392.534	79
392.759	88
392.984	91
393.208	95
393.433	93
393.658	88
393.882	99
394.107	83
394.331	88
394.556	79
394.78	74
395.005	88
395.229	87
395.454	80
395.678	78
395.903	75
396.127	93
396.352	97
396.576	89
396.801	87
397.025	94
397.249	82
397.474	88
397.698	89
397.922	85
398.147	83
398.371	94
398.595	89
398.82	92
399.044	92
399.268	71
399.492	84
399.717	103
399.941	85
400.165	102
400.389	85
400.613	84
400.837	93
401.062	79
401.286	86
401.51	95
401.734	78
401.958	86
402.182	118
402.406	154
402.63	135
402.854	101
403.078	109
403.302	95
403.526	81
403.75	83
403.974	71
404.198	84
404.422	75
404.645	81
404.869	86
405.093	97
405.317	109
405.541	107
405.765	87
405.988	109
406.212	162
406.436	198
406.66	145
406.883	93
407.107	92
407.331	86
407.555	96
407.778	82
408.002	98
408.226	86
408.449	87
408.673	94
408.896	96
409.12	92
409.344	88
409.567	70
409.791	83
410.014	87
410.238	72
410.461	82
410.685	98
410.908	95
411.132	95
411.355	102
411.578	99
411.802	94
412.025	97
412.249	89
412.472	100
412.695	101
412.919	100
413.142	82
413.365	86
413.589	77
413.812	94
414.035	89
414.258	87
414.482	92
414.705	104
414.928	91
415.151	93
415.374	91
415.597	97
415.821	75
416.044	93
416.267	90
416.49	85
416.713	93
416.936	86
417.159	99
417.382	90
417.605	86
417.828	102
418.051	84
418.274	76
418.497	89
418.72	89
418.943	92
419.166	86
419.389	82
419.611	95
419.834	99
420.057	86
420.28	85
420.503	67
420.726	91
420.948	90
421.171	76
421.394	76
421.617	95
421.839	97
422.062	85
422.285	106
422.507	88
422.73	96
422.953	104
423.175	89
423.398	86
423.621	92
423.843	98
424.066	85
424.288	90
424.511	90
424.733	80
424.956	94
425.178	101
425.401	97
425.623	114
425.846	90
426.068	95
426.291	79
426.513	77
426.735	89
426.958	102
427.18	104
427.402	151
427.625	166
427.847	149
428.069	131
428.292	99
428.514	85
428.736	92
428.958	86
429.181	71
429.403	93
429.625	94
429.847	89
430.069	90
430.292	90
430.514	88
430.736	86
430.958	92
431.18	85
431.402	77
431.624	82
431.846	79
432.068	82
432.29	80
432.512	95
432.734	91
432.956	81
433.178	106
433.4	102
433.622	85
433.844	80
434.066	84
434.287	87
434.509	92
434.731	82
434.953	83
435.175	94
435.397	91
435.618	82
435.84	101
436.062	118
436.284	108
436.505	97
436.727	119
436.949	95
437.17	78
437.392	86
437.614	90
437.835	105
438.057	111
438.278	102
438.5	104
438.721	129
438.943	102
439.165	96
439.386	76
439.608	83
439.829	103
440.05	117
440.272	154
440.493	84
440.715	91
440.936	98
441.158	78
441.379	93
441.6	111
441.822	96
442.043	90
442.264	107
442.486	95
442.707	93
442.928	106
443.149	123
443.371	126
443.592	106
443.813	109
444.034	107
444.255	97
444.476	98
444.698	96
444.919	90
445.14	120
445.361	132
445.582	137
445.803	135
446.024	149
446.245	139
446.466	115
446.687	87
446.908	96
447.129	81
447.35	92
447.571	99
447.792	93
448.013	95
448.234	92
448.455	85
448.675	105
448.896	120
449.117	99
449.338	118
449.559	137
449.779	156
450	94
450.221	83
450.442	84
450.662	81
450.883	96
451.104	107
451.324	94
451.545	89
451.766	94
451.986	89
452.207	86
452.428	87
452.648	101
452.869	105
453.089	93
453.31	108
453.53	83
453.751	95
453.971	101
454.192	99
454.412	87
454.633	86
454.853	87
455.073	84
455.294	90
455.514	95
455.734	99
455.955	86
456.175	99
456.395	86
456.616	85
456.836	89
457.056	84
457.276	88
457.497	79
457.717	87
457.937	95
458.157	80
458.377	76
458.598	93
458.818	124
459.038	164
459.258	125
459.478	87
459.698	96
459.918	78
460.138	77
460.358	83
460.578	94
460.798	81
461.018	74
461.238	89
461.458	86
461.678	64
461.898	81
462.118	88
462.338	82
462.558	88
462.777	87
462.997	82
463.217	80
463.437	89
463.657	76
463.876	83
464.096	86
464.316	90
464.536	95
464.755	94
464.975	107
465.195	150
465.414	146
465.634	87
465.854	96
466.073	82
466.293	82
466.512	94
466.732	91
466.951	95
467.171	89
467.391	92
467.61	104
467.829	121
468.049	138
468.268	183
468.488	94
468.707	90
468.927	81
469.146	77
469.365	87
469.585	95
469.804	95
470.023	88
470.243	87
470.462	89
470.681	104
470.901	87
471.12	82
471.339	87
471.558	75
471.777	100
471.997	125
472.216	237
472.435	443
472.654	152
472.873	83
473.092	98
473.311	77
473.53	86
473.749	78
473.968	102
474.187	116
474.406	98
474.625	95
474.844	92
475.063	86
475.282	80
475.501	79
475.72	98
475.939	84
476.158	92
476.377	82
476.596	89
476.814	82
477.033	83
477.252	92
477.471	104
477.69	96
477.908	90
478.127	80
478.346	80
478.564	87
478.783	87
479.002	73
479.22	88
479.439	98
479.658	101
479.876	94
480.095	95
480.313	110
480.532	92
480.751	134
480.969	257
481.188	699
481.406	481
481.624	143
481.843	101
482.061	87
482.28	93
482.498	86
482.717	82
482.935	83
483.153	71
483.372	80
483.59	83
483.808	92
484.027	99
484.245	102
484.463	86
484.681	102
484.9	103
485.118	93
485.336	90
485.554	97
485.772	99
485.99	122
486.209	104
486.427	106
486.645	108
486.863	108
487.081	98
487.299	94
487.517	106
487.735	80
487.953	87
488.171	84
488.389	79
488.607	91
488.825	99
489.043	93
489.261	102
489.479	74
489.696	88
489.914	89
490.132	88
490.35	82
490.568	82
490.786	85
491.003	93
491.221	84
491.439	84
491.657	91
491.874	85
492.092	84
492.31	81
492.527	83
492.745	87
492.963	86
493.18	94
493.398	95
493.615	94
493.833	98
494.05	91
494.268	92
494.485	77
494.703	71
494.92	82
495.138	78
495.355	78
495.573	88
495.79	87
496.008	94
496.225	99
496.442	73
496.66	72
496.877	90
497.094	84
497.312	109
497.529	103
497.746	82
497.963	80
498.181	95
498.398	94
498.615	94
498.832	112
499.049	98
499.267	80
499.484	107
499.701	100
499.918	99
500.135	86
500.352	95
500.569	82
500.786	99
501.003	102
501.22	89
501.437	87
501.654	93
501.871	110
502.088	80
502.305	91
502.522	87
502.739	93
502.956	98
503.172	84
503.389	95
503.606	102
503.823	99
504.04	96
504.256	101
504.473	84
504.69	86
504.907	102
505.123	78
505.34	94
505.557	89
505.773	85
505.99	100
506.207	85
506.423	102
506.64	93
506.856	95
507.073	91
507.289	100
507.506	91
507.722	115
507.939	117
508.155	98
508.372	101
508.588	95
508.805	90
509.021	94
509.238	98
509.454	108
509.67	104
509.887	111
510.103	121
510.319	198
510.536	660
510.752	2092
510.968	623
511.184	157
511.401	109
511.617	119
511.833	92
512.049	98
512.265	88
512.481	93
512.698	90
512.914	86
513.13	94
513.346	94
513.562	86
513.778	101
513.994	115
514.21	100
514.426	111
514.642	126
514.858	122
515.074	165
515.29	423
515.506	1366
515.721	520
515.937	149
516.153	122
516.369	76
516.585	95
516.801	103
517.016	108
517.232	90
517.448	88
517.664	87
517.879	97
518.095	94
518.311	96
518.527	97
518.742	101
518.958	101
519.173	99
519.389	95
519.605	96
519.82	88
520.036	92
520.251	113
520.467	102
520.682	101
520.898	111
521.113	103
521.329	140
521.544	182
521.76	516
521.975	2198
522.19	1336
522.406	302
522.621	117
522.836	94
523.052	92
523.267	88
523.482	93
523.698	88
523.913	125
524.128	107
524.343	98
524.559	91
524.774	79
524.989	90
525.204	103
525.419	95
525.634	78
525.849	93
526.064	81
526.28	91
526.495	95
526.71	72
526.925	89
527.14	83
527.355	82
527.57	70
527.785	79
527.999	95
528.214	91
528.429	94
528.644	104
528.859	106
529.074	107
529.289	118
529.503	164
529.718	98
529.933	94
530.148	80
530.363	82
530.577	90
530.792	87
531.007	93
531.221	87
531.436	87
531.651	79
531.865	110
532.08	86
532.295	75
532.509	103
532.724	98
532.938	83
533.153	78
533.367	92
533.582	92
533.796	94
534.011	85
534.225	85
534.44	101
534.654	98
534.868	87
535.083	86
535.297	88
535.511	102
535.726	108
535.94	108
536.154	101
536.369	73
536.583	71
536.797	92
537.011	92
537.225	90
537.44	104
537.654	82
537.868	102
538.082	86
538.296	92
538.51	96
538.724	83
538.938	94
539.153	97
539.367	103
539.581	97
539.795	93
540.009	84
540.222	84
540.436	92
540.65	93
540.864	91
541.078	83
541.292	82
541.506	103
541.72	95
541.934	84
542.147	86
542.361	84
542.575	86
542.789	86
543.002	103
543.216	99
543.43	110
543.644	99
543.857	95
544.071	101
544.285	90
544.498	94
544.712	86
544.925	70
545.139	94
545.352	88
545.566	95
545.779	90
545.993	85
546.206	93
546.42	86
546.633	88
546.847	96
547.06	87
547.274	77
547.487	115
547.7	78
547.914	73
548.127	75
548.34	84
548.554	75
548.767	88
548.98	85
549.193	79
549.407	90
549.62	73
549.833	105
550.046	87
550.259	91
550.473	79
550.686	95
550.899	90
551.112	94
551.325	85
551.538	72
551.751	91
551.964	97
552.177	110
552.39	90
552.603	88
552.816	92
553.029	74
553.242	86
553.455	84
553.667	94
553.88	97
554.093	99
554.306	83
554.519	92
554.732	98
554.944	77
555.157	86
555.37	92
555.583	92
555.795	100
556.008	96
556.221	85
556.433	88
556.646	85
556.859	82
557.071	89
557.284	83
557.496	96
557.709	87
557.921	106
558.134	91
558.346	94
558.559	90
558.771	93
558.984	72
559.196	86
559.409	79
559.621	80
559.833	82
560.046	93
560.258	80
560.47	97
560.683	90
560.895	88
561.107	85
561.32	90
561.532	83
561.744	95
561.956	84
562.168	102
562.381	95
562.593	83
562.805	94
563.017	90
563.229	95
563.441	88
563.653	93
563.865	75
564.077	76
564.289	83
564.501	90
564.713	93
564.925	100
565.137	100
565.349	102
565.561	79
565.773	84
565.985	75
566.197	79
566.408	81
566.62	86
566.832	84
567.044	83
567.255	84
567.467	90
567.679	83
567.891	85
568.102	87
568.314	84
568.526	82
568.737	84
568.949	64
569.161	73
569.372	76
569.584	94
569.795	86
570.007	105
570.218	225
570.43	128
570.641	90
570.853	82
571.064	74
571.276	85
571.487	73
571.698	93
571.91	95
572.121	76
572.333	82
572.544	92
572.755	94
572.966	95
573.178	78
573.389	99
573.6	85
573.811	96
574.023	91
574.234	88
574.445	85
574.656	88
574.867	72
575.078	80
575.289	77
575.501	80
575.712	90
575.923	91
576.134	75
576.345	100
576.556	96
576.767	76
576.978	102
577.188	82
577.399	79
577.61	87
577.821	109
578.032	99
578.243	228
578.454	677
578.665	200
578.875	92
579.086	90
579.297	87
579.508	82
579.718	95
579.929	90
580.14	95
580.35	82
580.561	75
580.772	91
580.982	96
581.193	78
581.403	93
581.614	87
581.825	82
582.035	81
582.246	71
582.456	87
582.667	82
582.877	87
583.087	93
583.298	102
583.508	74
583.719	91
583.929	100
584.139	81
584.35	80
584.56	92
584.77	85
584.981	75
