Data from Circ_2011_H10_HRD10591_00007.txt Node
Date: Wed Jan 03 10:08:00 EST 2024
User: Yrep
Spectrometer: HR+D1059
Trigger mode: 1
Integration Time (sec): 1.000000E-1
Scans to average: 1
Electric dark correction enabled: true
Nonlinearity correction enabled: false
Boxcar width: 0
XAxis mode: Wavelengths
Number of Pixels in Spectrum: 2048
>>>>>Begin Spectral Data<<<<<
223.165	-24.06
223.4	-24.06
223.635	-24.06
223.869	-9.06
224.104	-15.06
224.338	-23.06
224.573	-32.06
224.808	-18.06
225.042	-3.06
225.277	-3.06
225.511	6.94
225.746	4.94
225.98	9.94
226.215	4.94
226.449	13.94
226.683	33.94
226.918	18.94
227.152	33.94
227.387	33.94
227.621	39.94
227.856	41.94
228.09	48.94
228.324	53.94
228.559	57.94
228.793	74.94
229.027	69.94
229.262	63.94
229.496	75.94
229.73	77.94
229.964	77.94
230.199	79.94
230.433	68.94
230.667	82.94
230.901	80.94
231.136	81.94
231.37	80.94
231.604	88.94
231.838	87.94
232.072	77.94
232.306	87.94
232.541	87.94
232.775	80.94
233.009	94.94
233.243	86.94
233.477	79.94
233.711	87.94
233.945	74.94
234.179	72.94
234.413	73.94
234.647	73.94
234.881	85.94
235.115	81.94
235.349	79.94
235.583	71.94
235.817	84.94
236.051	85.94
236.285	87.94
236.519	71.94
236.753	67.94
236.987	71.94
237.221	80.94
237.455	91.94
237.689	72.94
237.922	69.94
238.156	85.94
238.39	76.94
238.624	78.94
238.858	82.94
239.091	75.94
239.325	78.94
239.559	76.94
239.793	82.94
240.027	79.94
240.26	77.94
240.494	72.94
240.728	61.94
240.961	76.94
241.195	71.94
241.429	81.94
241.662	66.94
241.896	72.94
242.13	65.94
242.363	72.94
242.597	70.94
242.83	71.94
243.064	73.94
243.298	79.94
243.531	84.94
243.765	66.94
243.998	74.94
244.232	65.94
244.465	97.94
244.699	80.94
244.932	75.94
245.166	82.94
245.399	74.94
245.633	72.94
245.866	83.94
246.099	87.94
246.333	81.94
246.566	71.94
246.8	66.94
247.033	71.94
247.266	72.94
247.5	78.94
247.733	85.94
247.966	84.94
248.2	79.94
248.433	82.94
248.666	83.94
248.899	79.94
249.133	75.94
249.366	89.94
249.599	80.94
249.832	78.94
250.066	93.94
250.299	74.94
250.532	89.94
250.765	80.94
250.998	74.94
251.231	68.94
251.465	75.94
251.698	76.94
251.931	78.94
252.164	83.94
252.397	87.94
252.63	98.94
252.863	72.94
253.096	80.94
253.329	84.94
253.562	80.94
253.795	71.94
254.028	88.94
254.261	80.94
254.494	73.94
254.727	79.94
254.96	87.94
255.193	77.94
255.426	80.94
255.659	72.94
255.892	88.94
256.124	77.94
256.357	75.94
256.59	76.94
256.823	75.94
257.056	75.94
257.289	78.94
257.521	71.94
257.754	78.94
257.987	83.94
258.22	95.94
258.452	80.94
258.685	68.94
258.918	72.94
259.151	75.94
259.383	72.94
259.616	73.94
259.849	97.94
260.081	79.94
260.314	85.94
260.547	72.94
260.779	85.94
261.012	83.94
261.244	84.94
261.477	90.94
261.71	96.94
261.942	119.94
262.175	106.94
262.407	91.94
262.64	89.94
262.872	91.94
263.105	96.94
263.337	75.94
263.57	67.94
263.802	82.94
264.035	81.94
264.267	85.94
264.499	91.94
264.732	78.94
264.964	90.94
265.197	78.94
265.429	96.94
265.661	94.94
265.894	90.94
266.126	80.94
266.358	87.94
266.591	79.94
266.823	64.94
267.055	84.94
267.287	73.94
267.52	81.94
267.752	83.94
267.984	88.94
268.216	81.94
268.448	70.94
268.681	67.94
268.913	91.94
269.145	75.94
269.377	78.94
269.609	78.94
269.841	77.94
270.073	93.94
270.306	88.94
270.538	92.94
270.77	83.94
271.002	77.94
271.234	85.94
271.466	94.94
271.698	83.94
271.93	82.94
272.162	87.94
272.394	95.94
272.626	95.94
272.858	85.94
273.09	92.94
273.322	84.94
273.553	76.94
273.785	91.94
274.017	87.94
274.249	88.94
274.481	100.94
274.713	92.94
274.945	71.94
275.176	79.94
275.408	97.94
275.64	85.94
275.872	83.94
276.104	91.94
276.335	101.94
276.567	88.94
276.799	107.94
277.031	94.94
277.262	88.94
277.494	96.94
277.726	87.94
277.957	85.94
278.189	84.94
278.421	88.94
278.652	94.94
278.884	99.94
279.115	89.94
279.347	80.94
279.579	91.94
279.81	89.94
280.042	73.94
280.273	112.94
280.505	81.94
280.736	70.94
280.968	88.94
281.199	88.94
281.431	92.94
281.662	97.94
281.894	85.94
282.125	85.94
282.356	113.94
282.588	130.94
282.819	106.94
283.051	82.94
283.282	103.94
283.513	84.94
283.745	85.94
283.976	73.94
284.207	91.94
284.439	85.94
284.67	89.94
284.901	88.94
285.132	91.94
285.364	75.94
285.595	83.94
285.826	95.94
286.057	89.94
286.288	77.94
286.52	92.94
286.751	89.94
286.982	86.94
287.213	91.94
287.444	85.94
287.675	109.94
287.906	91.94
288.138	83.94
288.369	93.94
288.6	76.94
288.831	98.94
289.062	90.94
289.293	91.94
289.524	91.94
289.755	82.94
289.986	100.94
290.217	79.94
290.448	93.94
290.679	86.94
290.91	97.94
291.141	87.94
291.371	84.94
291.602	100.94
291.833	97.94
292.064	90.94
292.295	90.94
292.526	86.94
292.757	87.94
292.987	79.94
293.218	92.94
293.449	89.94
293.68	91.94
293.91	93.94
294.141	88.94
294.372	94.94
294.603	91.94
294.833	78.94
295.064	93.94
295.295	95.94
295.525	95.94
295.756	100.94
295.987	95.94
296.217	119.94
296.448	111.94
296.679	92.94
296.909	100.94
297.14	88.94
297.37	86.94
297.601	96.94
297.831	84.94
298.062	94.94
298.292	93.94
298.523	94.94
298.753	87.94
298.984	75.94
299.214	83.94
299.445	89.94
299.675	93.94
299.905	84.94
300.136	92.94
300.366	98.94
300.597	90.94
300.827	105.94
301.057	84.94
301.288	103.94
301.518	101.94
301.748	80.94
301.979	91.94
302.209	85.94
302.439	87.94
302.669	85.94
302.9	96.94
303.13	96.94
303.36	85.94
303.59	109.94
303.82	97.94
304.051	91.94
304.281	88.94
304.511	97.94
304.741	88.94
304.971	85.94
305.201	92.94
305.431	90.94
305.661	84.94
305.891	90.94
306.121	87.94
306.352	101.94
306.582	110.94
306.812	89.94
307.042	92.94
307.272	105.94
307.502	100.94
307.731	96.94
307.961	90.94
308.191	81.94
308.421	87.94
308.651	95.94
308.881	95.94
309.111	97.94
309.341	87.94
309.571	91.94
309.8	105.94
310.03	100.94
310.26	93.94
310.49	87.94
310.72	93.94
310.949	102.94
311.179	94.94
311.409	88.94
311.639	79.94
311.868	84.94
312.098	106.94
312.328	113.94
312.557	105.94
312.787	111.94
313.017	106.94
313.246	90.94
313.476	94.94
313.706	88.94
313.935	96.94
314.165	101.94
314.394	105.94
314.624	83.94
314.853	76.94
315.083	101.94
315.312	83.94
315.542	98.94
315.771	77.94
316.001	93.94
316.23	85.94
316.46	92.94
316.689	73.94
316.919	93.94
317.148	97.94
317.377	118.94
317.607	90.94
317.836	110.94
318.065	88.94
318.295	86.94
318.524	91.94
318.753	87.94
318.983	103.94
319.212	90.94
319.441	106.94
319.67	111.94
319.9	88.94
320.129	94.94
320.358	77.94
320.587	104.94
320.816	88.94
321.046	93.94
321.275	112.94
321.504	96.94
321.733	98.94
321.962	97.94
322.191	100.94
322.42	101.94
322.649	106.94
322.878	115.94
323.108	101.94
323.337	117.94
323.566	141.94
323.795	150.94
324.024	219.94
324.253	394.94
324.482	829.94
324.71	1691.94
324.939	2222.94
325.168	807.94
325.397	258.94
325.626	152.94
325.855	126.94
326.084	134.94
326.313	117.94
326.542	165.94
326.77	227.94
326.999	480.94
327.228	967.94
327.457	1748.94
327.686	1411.94
327.914	374.94
328.143	184.94
328.372	163.94
328.6	125.94
328.829	110.94
329.058	113.94
329.287	132.94
329.515	111.94
329.744	113.94
329.972	131.94
330.201	139.94
330.43	156.94
330.658	140.94
330.887	123.94
331.115	127.94
331.344	91.94
331.572	108.94
331.801	102.94
332.03	108.94
332.258	115.94
332.486	101.94
332.715	109.94
332.943	95.94
333.172	103.94
333.4	85.94
333.629	101.94
333.857	109.94
334.085	113.94
334.314	122.94
334.542	165.94
334.771	184.94
334.999	98.94
335.227	98.94
335.455	95.94
335.684	91.94
335.912	102.94
336.14	95.94
336.369	103.94
336.597	90.94
336.825	92.94
337.053	92.94
337.281	93.94
337.51	73.94
337.738	101.94
337.966	95.94
338.194	104.94
338.422	90.94
338.65	80.94
338.878	91.94
339.106	84.94
339.334	87.94
339.562	78.94
339.79	84.94
340.018	97.94
340.246	76.94
340.474	95.94
340.702	90.94
340.93	92.94
341.158	97.94
341.386	103.94
341.614	94.94
341.842	99.94
342.07	83.94
342.298	101.94
342.526	87.94
342.754	98.94
342.981	86.94
343.209	79.94
343.437	102.94
343.665	89.94
343.893	86.94
344.12	95.94
344.348	99.94
344.576	85.94
344.804	101.94
345.031	103.94
345.259	104.94
345.487	89.94
345.714	87.94
345.942	86.94
346.17	95.94
346.397	97.94
346.625	105.94
346.853	81.94
347.08	104.94
347.308	107.94
347.535	90.94
347.763	103.94
347.99	99.94
348.218	96.94
348.445	110.94
348.673	101.94
348.9	81.94
349.128	84.94
349.355	95.94
349.583	91.94
349.81	92.94
350.037	91.94
350.265	75.94
350.492	92.94
350.72	95.94
350.947	91.94
351.174	112.94
351.402	126.94
351.629	103.94
351.856	106.94
352.083	115.94
352.311	91.94
352.538	85.94
352.765	95.94
352.992	115.94
353.22	115.94
353.447	88.94
353.674	107.94
353.901	87.94
354.128	92.94
354.355	101.94
354.583	100.94
354.81	83.94
355.037	102.94
355.264	88.94
355.491	87.94
355.718	80.94
355.945	87.94
356.172	100.94
356.399	108.94
356.626	88.94
356.853	89.94
357.08	89.94
357.307	81.94
357.534	87.94
357.761	95.94
357.988	91.94
358.215	100.94
358.441	93.94
358.668	83.94
358.895	76.94
359.122	73.94
359.349	95.94
359.576	78.94
359.802	88.94
360.029	96.94
360.256	109.94
360.483	96.94
360.709	84.94
360.936	102.94
361.163	89.94
361.39	84.94
361.616	99.94
361.843	83.94
362.07	90.94
362.296	92.94
362.523	95.94
362.749	84.94
362.976	76.94
363.203	85.94
363.429	87.94
363.656	92.94
363.882	103.94
364.109	89.94
364.335	78.94
364.562	89.94
364.788	95.94
365.015	92.94
365.241	90.94
365.468	100.94
365.694	108.94
365.92	98.94
366.147	86.94
366.373	84.94
366.599	88.94
366.826	81.94
367.052	84.94
367.278	83.94
367.505	97.94
367.731	95.94
367.957	93.94
368.184	97.94
368.41	91.94
368.636	106.94
368.862	113.94
369.089	93.94
369.315	97.94
369.541	100.94
369.767	96.94
369.993	92.94
370.219	101.94
370.445	91.94
370.672	88.94
370.898	92.94
371.124	99.94
371.35	84.94
371.576	70.94
371.802	92.94
372.028	89.94
372.254	94.94
372.48	89.94
372.706	84.94
372.932	93.94
373.158	87.94
373.384	77.94
373.61	84.94
373.835	73.94
374.061	88.94
374.287	90.94
374.513	84.94
374.739	93.94
374.965	82.94
375.191	91.94
375.416	79.94
375.642	78.94
375.868	92.94
376.094	76.94
376.319	75.94
376.545	81.94
376.771	87.94
376.997	95.94
377.222	101.94
377.448	96.94
377.674	78.94
377.899	97.94
378.125	83.94
378.35	86.94
378.576	98.94
378.802	88.94
379.027	97.94
379.253	81.94
379.478	85.94
379.704	89.94
379.929	97.94
380.155	86.94
380.38	76.94
380.606	95.94
380.831	96.94
381.057	102.94
381.282	104.94
381.507	92.94
381.733	88.94
381.958	94.94
382.184	109.94
382.409	97.94
382.634	94.94
382.86	103.94
383.085	92.94
383.31	90.94
383.535	90.94
383.761	86.94
383.986	98.94
384.211	91.94
384.436	95.94
384.662	101.94
384.887	101.94
385.112	89.94
385.337	97.94
385.562	90.94
385.787	104.94
386.013	108.94
386.238	100.94
386.463	101.94
386.688	107.94
386.913	88.94
387.138	91.94
387.363	85.94
387.588	89.94
387.813	89.94
388.038	97.94
388.263	114.94
388.488	103.94
388.713	71.94
388.938	86.94
389.163	97.94
389.387	86.94
389.612	91.94
389.837	87.94
390.062	88.94
390.287	95.94
390.512	79.94
390.736	94.94
390.961	91.94
391.186	100.94
391.411	93.94
391.636	86.94
391.86	81.94
392.085	74.94
392.31	89.94
392.534	80.94
392.759	80.94
392.984	83.94
393.208	75.94
393.433	75.94
393.658	91.94
393.882	92.94
394.107	85.94
394.331	81.94
394.556	87.94
394.78	88.94
395.005	100.94
395.229	82.94
395.454	91.94
395.678	83.94
395.903	103.94
396.127	85.94
396.352	86.94
396.576	96.94
396.801	63.94
397.025	71.94
397.249	88.94
397.474	84.94
397.698	86.94
397.922	91.94
398.147	77.94
398.371	87.94
398.595	71.94
398.82	79.94
399.044	98.94
399.268	97.94
399.492	90.94
399.717	87.94
399.941	85.94
400.165	83.94
400.389	91.94
400.613	86.94
400.837	89.94
401.062	81.94
401.286	78.94
401.51	94.94
401.734	83.94
401.958	93.94
402.182	98.94
402.406	148.94
402.63	117.94
402.854	90.94
403.078	95.94
403.302	92.94
403.526	81.94
403.75	93.94
403.974	84.94
404.198	85.94
404.422	79.94
404.645	83.94
404.869	84.94
405.093	100.94
405.317	96.94
405.541	89.94
405.765	106.94
405.988	116.94
406.212	157.94
406.436	214.94
406.66	135.94
406.883	102.94
407.107	96.94
407.331	86.94
407.555	103.94
407.778	99.94
408.002	86.94
408.226	90.94
408.449	97.94
408.673	86.94
408.896	94.94
409.12	93.94
409.344	100.94
409.567	80.94
409.791	81.94
410.014	96.94
410.238	89.94
410.461	87.94
410.685	101.94
410.908	95.94
411.132	100.94
411.355	107.94
411.578	97.94
411.802	95.94
412.025	90.94
412.249	108.94
412.472	87.94
412.695	90.94
412.919	89.94
413.142	86.94
413.365	95.94
413.589	79.94
413.812	77.94
414.035	91.94
414.258	92.94
414.482	78.94
414.705	87.94
414.928	79.94
415.151	86.94
415.374	75.94
415.597	106.94
415.821	99.94
416.044	96.94
416.267	79.94
416.49	81.94
416.713	94.94
416.936	88.94
417.159	83.94
417.382	78.94
417.605	86.94
417.828	95.94
418.051	94.94
418.274	93.94
418.497	95.94
418.72	87.94
418.943	79.94
419.166	84.94
419.389	88.94
419.611	80.94
419.834	92.94
420.057	91.94
420.28	94.94
420.503	80.94
420.726	84.94
420.948	89.94
421.171	88.94
421.394	82.94
421.617	85.94
421.839	84.94
422.062	85.94
422.285	103.94
422.507	102.94
422.73	94.94
422.953	98.94
423.175	86.94
423.398	96.94
423.621	83.94
423.843	83.94
424.066	100.94
424.288	95.94
424.511	91.94
424.733	92.94
424.956	109.94
425.178	91.94
425.401	97.94
425.623	96.94
425.846	90.94
426.068	108.94
426.291	100.94
426.513	92.94
426.735	83.94
426.958	101.94
427.18	100.94
427.402	129.94
427.625	154.94
427.847	151.94
428.069	119.94
428.292	103.94
428.514	99.94
428.736	75.94
428.958	85.94
429.181	77.94
429.403	97.94
429.625	89.94
429.847	96.94
430.069	106.94
430.292	101.94
430.514	87.94
430.736	74.94
430.958	90.94
431.18	77.94
431.402	87.94
431.624	67.94
431.846	91.94
432.068	101.94
432.29	86.94
432.512	100.94
432.734	87.94
432.956	83.94
433.178	93.94
433.4	104.94
433.622	88.94
433.844	92.94
434.066	90.94
434.287	84.94
434.509	86.94
434.731	86.94
434.953	87.94
435.175	86.94
435.397	92.94
435.618	95.94
435.84	99.94
436.062	128.94
436.284	110.94
436.505	101.94
436.727	93.94
436.949	91.94
437.17	80.94
437.392	87.94
437.614	97.94
437.835	98.94
438.057	114.94
438.278	92.94
438.5	111.94
438.721	117.94
438.943	104.94
439.165	93.94
439.386	87.94
439.608	90.94
439.829	101.94
440.05	108.94
440.272	149.94
440.493	90.94
440.715	90.94
440.936	91.94
441.158	83.94
441.379	100.94
441.6	81.94
441.822	95.94
442.043	87.94
442.264	99.94
442.486	78.94
442.707	87.94
442.928	97.94
443.149	131.94
443.371	113.94
443.592	113.94
443.813	106.94
444.034	98.94
444.255	87.94
444.476	86.94
444.698	89.94
444.919	94.94
445.14	139.94
445.361	127.94
445.582	108.94
445.803	135.94
446.024	133.94
446.245	131.94
446.466	98.94
446.687	89.94
446.908	88.94
447.129	98.94
447.35	86.94
447.571	98.94
447.792	84.94
448.013	97.94
448.234	105.94
448.455	97.94
448.675	98.94
448.896	117.94
449.117	101.94
449.338	107.94
449.559	140.94
449.779	133.94
450	81.94
450.221	81.94
450.442	78.94
450.662	96.94
450.883	94.94
451.104	110.94
451.324	91.94
451.545	77.94
451.766	81.94
451.986	81.94
452.207	84.94
452.428	97.94
452.648	96.94
452.869	87.94
453.089	106.94
453.31	92.94
453.53	91.94
453.751	93.94
453.971	106.94
454.192	103.94
454.412	93.94
454.633	101.94
454.853	89.94
455.073	88.94
455.294	85.94
455.514	89.94
455.734	81.94
455.955	86.94
456.175	79.94
456.395	77.94
456.616	86.94
456.836	87.94
457.056	98.94
457.276	87.94
457.497	80.94
457.717	91.94
457.937	84.94
458.157	81.94
458.377	86.94
458.598	102.94
458.818	144.94
459.038	146.94
459.258	120.94
459.478	97.94
459.698	85.94
459.918	76.94
460.138	83.94
460.358	85.94
460.578	80.94
460.798	86.94
461.018	98.94
461.238	73.94
461.458	92.94
461.678	77.94
461.898	84.94
462.118	75.94
462.338	86.94
462.558	94.94
462.777	99.94
462.997	79.94
463.217	91.94
463.437	89.94
463.657	81.94
463.876	78.94
464.096	107.94
464.316	82.94
464.536	84.94
464.755	89.94
464.975	99.94
465.195	143.94
465.414	129.94
465.634	88.94
465.854	100.94
466.073	91.94
466.293	79.94
466.512	84.94
466.732	84.94
466.951	79.94
467.171	84.94
467.391	97.94
467.61	92.94
467.829	107.94
468.049	106.94
468.268	131.94
468.488	83.94
468.707	82.94
468.927	83.94
469.146	99.94
469.365	86.94
469.585	82.94
469.804	87.94
470.023	89.94
470.243	98.94
470.462	98.94
470.681	105.94
470.901	96.94
471.12	89.94
471.339	84.94
471.558	78.94
471.777	79.94
471.997	102.94
472.216	152.94
472.435	225.94
472.654	115.94
472.873	91.94
473.092	107.94
473.311	79.94
473.53	100.94
473.749	101.94
473.968	90.94
474.187	98.94
474.406	97.94
474.625	85.94
474.844	83.94
475.063	93.94
475.282	77.94
475.501	84.94
475.72	87.94
475.939	72.94
476.158	93.94
476.377	78.94
476.596	83.94
476.814	90.94
477.033	95.94
477.252	98.94
477.471	89.94
477.69	85.94
477.908	82.94
478.127	93.94
478.346	85.94
478.564	89.94
478.783	83.94
479.002	89.94
479.22	86.94
479.439	98.94
479.658	104.94
479.876	97.94
480.095	82.94
480.313	96.94
480.532	102.94
480.751	116.94
480.969	157.94
481.188	325.94
481.406	247.94
481.624	102.94
481.843	85.94
482.061	90.94
482.28	78.94
482.498	90.94
482.717	85.94
482.935	87.94
483.153	94.94
483.372	87.94
483.59	90.94
483.808	100.94
484.027	97.94
484.245	79.94
484.463	85.94
484.681	92.94
484.9	94.94
485.118	104.94
485.336	91.94
485.554	82.94
485.772	88.94
485.99	92.94
486.209	103.94
486.427	93.94
486.645	103.94
486.863	101.94
487.081	97.94
487.299	92.94
487.517	77.94
487.735	78.94
487.953	93.94
488.171	94.94
488.389	104.94
488.607	86.94
488.825	108.94
489.043	87.94
489.261	98.94
489.479	89.94
489.696	80.94
489.914	76.94
490.132	91.94
490.35	88.94
490.568	96.94
490.786	89.94
491.003	99.94
491.221	91.94
491.439	77.94
491.657	91.94
491.874	84.94
492.092	91.94
492.31	84.94
492.527	80.94
492.745	88.94
492.963	79.94
493.18	80.94
493.398	71.94
493.615	95.94
493.833	93.94
494.05	98.94
494.268	94.94
494.485	106.94
494.703	72.94
494.92	91.94
495.138	87.94
495.355	78.94
495.573	80.94
495.79	77.94
496.008	101.94
496.225	85.94
496.442	85.94
496.66	98.94
496.877	100.94
497.094	95.94
497.312	78.94
497.529	101.94
497.746	86.94
497.963	89.94
498.181	88.94
498.398	98.94
498.615	96.94
498.832	105.94
499.049	84.94
499.267	97.94
499.484	78.94
499.701	103.94
499.918	85.94
500.135	109.94
500.352	110.94
500.569	87.94
500.786	82.94
501.003	97.94
501.22	79.94
501.437	95.94
501.654	111.94
501.871	101.94
502.088	80.94
502.305	109.94
502.522	77.94
502.739	87.94
502.956	86.94
503.172	86.94
503.389	108.94
503.606	101.94
503.823	87.94
504.04	97.94
504.256	100.94
504.473	95.94
504.69	86.94
504.907	82.94
505.123	79.94
505.34	78.94
505.557	79.94
505.773	91.94
505.99	105.94
506.207	83.94
506.423	93.94
506.64	94.94
506.856	92.94
507.073	87.94
507.289	100.94
507.506	94.94
507.722	105.94
507.939	94.94
508.155	75.94
508.372	85.94
508.588	97.94
508.805	99.94
509.021	85.94
509.238	104.94
509.454	88.94
509.67	111.94
509.887	104.94
510.103	104.94
510.319	180.94
510.536	660.94
510.752	2032.94
510.968	606.94
511.184	147.94
511.401	113.94
511.617	93.94
511.833	87.94
512.049	92.94
512.265	88.94
512.481	90.94
512.698	96.94
512.914	90.94
513.13	99.94
513.346	93.94
513.562	88.94
513.778	93.94
513.994	94.94
514.21	92.94
514.426	123.94
514.642	132.94
514.858	124.94
515.074	149.94
515.29	385.94
515.506	1250.94
515.721	505.94
515.937	155.94
