Data from Circ_2011_H10_HRD10591_00029.txt Node
Date: Wed Jan 03 10:08:04 EST 2024
User: Yrep
Spectrometer: HR+D1059
Trigger mode: 1
Integration Time (sec): 1.000000E-1
Scans to average: 1
Electric dark correction enabled: true
Nonlinearity correction enabled: false
Boxcar width: 0
XAxis mode: Wavelengths
Number of Pixels in Spectrum: 2048
>>>>>Begin Spectral Data<<<<<
223.165	-17.25
223.4	-17.25
223.635	-17.25
223.869	-32.25
224.104	-21.25
224.338	-12.25
224.573	-8.25
224.808	-10.25
225.042	-17.25
225.277	-5.25
225.511	-1.25
225.746	9.75
225.98	2.75
226.215	4.75
226.449	24.75
226.683	20.75
226.918	31.75
227.152	30.75
227.387	41.75
227.621	41.75
227.856	46.75
228.09	45.75
228.324	50.75
228.559	68.75
228.793	49.75
229.027	58.75
229.262	67.75
229.496	73.75
229.73	85.75
229.964	69.75
230.199	78.75
230.433	66.75
230.667	79.75
230.901	82.75
231.136	70.75
231.37	75.75
231.604	87.75
231.838	77.75
232.072	88.75
232.306	87.75
232.541	75.75
232.775	71.75
233.009	69.75
233.243	71.75
233.477	81.75
233.711	83.75
233.945	64.75
234.179	79.75
234.413	67.75
234.647	69.75
234.881	78.75
235.115	83.75
235.349	78.75
235.583	79.75
235.817	85.75
236.051	69.75
236.285	70.75
236.519	83.75
236.753	77.75
236.987	75.75
237.221	97.75
237.455	100.75
237.689	75.75
237.922	80.75
238.156	80.75
238.39	79.75
238.624	88.75
238.858	84.75
239.091	102.75
239.325	76.75
239.559	90.75
239.793	80.75
240.027	81.75
240.26	66.75
240.494	93.75
240.728	83.75
240.961	78.75
241.195	69.75
241.429	81.75
241.662	79.75
241.896	66.75
242.13	80.75
242.363	71.75
242.597	83.75
242.83	89.75
243.064	76.75
243.298	89.75
243.531	72.75
243.765	83.75
243.998	77.75
244.232	86.75
244.465	89.75
244.699	91.75
244.932	79.75
245.166	91.75
245.399	93.75
245.633	89.75
245.866	83.75
246.099	85.75
246.333	78.75
246.566	82.75
246.8	69.75
247.033	93.75
247.266	81.75
247.5	82.75
247.733	83.75
247.966	89.75
248.2	86.75
248.433	78.75
248.666	94.75
248.899	80.75
249.133	83.75
249.366	98.75
249.599	111.75
249.832	74.75
250.066	97.75
250.299	91.75
250.532	81.75
250.765	88.75
250.998	86.75
251.231	76.75
251.465	83.75
251.698	69.75
251.931	88.75
252.164	76.75
252.397	92.75
252.63	88.75
252.863	90.75
253.096	95.75
253.329	86.75
253.562	78.75
253.795	87.75
254.028	76.75
254.261	91.75
254.494	75.75
254.727	73.75
254.96	86.75
255.193	77.75
255.426	85.75
255.659	90.75
255.892	81.75
256.124	72.75
256.357	86.75
256.59	83.75
256.823	101.75
257.056	67.75
257.289	91.75
257.521	86.75
257.754	86.75
257.987	80.75
258.22	91.75
258.452	89.75
258.685	67.75
258.918	94.75
259.151	79.75
259.383	85.75
259.616	76.75
259.849	85.75
260.081	93.75
260.314	87.75
260.547	93.75
260.779	85.75
261.012	80.75
261.244	76.75
261.477	91.75
261.71	106.75
261.942	119.75
262.175	120.75
262.407	98.75
262.64	90.75
262.872	89.75
263.105	78.75
263.337	86.75
263.57	84.75
263.802	81.75
264.035	73.75
264.267	90.75
264.499	85.75
264.732	89.75
264.964	89.75
265.197	92.75
265.429	81.75
265.661	85.75
265.894	82.75
266.126	92.75
266.358	77.75
266.591	82.75
266.823	84.75
267.055	75.75
267.287	78.75
267.52	79.75
267.752	93.75
267.984	92.75
268.216	78.75
268.448	95.75
268.681	82.75
268.913	91.75
269.145	92.75
269.377	92.75
269.609	94.75
269.841	97.75
270.073	96.75
270.306	88.75
270.538	84.75
270.77	92.75
271.002	96.75
271.234	93.75
271.466	95.75
271.698	89.75
271.93	94.75
272.162	78.75
272.394	95.75
272.626	87.75
272.858	96.75
273.09	98.75
273.322	97.75
273.553	82.75
273.785	95.75
274.017	83.75
274.249	77.75
274.481	85.75
274.713	81.75
274.945	92.75
275.176	91.75
275.408	101.75
275.64	95.75
275.872	87.75
276.104	90.75
276.335	86.75
276.567	105.75
276.799	101.75
277.031	115.75
277.262	98.75
277.494	89.75
277.726	82.75
277.957	102.75
278.189	99.75
278.421	93.75
278.652	78.75
278.884	76.75
279.115	79.75
279.347	88.75
279.579	90.75
279.81	91.75
280.042	86.75
280.273	96.75
280.505	109.75
280.736	102.75
280.968	90.75
281.199	81.75
281.431	87.75
281.662	76.75
281.894	92.75
282.125	95.75
282.356	130.75
282.588	137.75
282.819	120.75
283.051	108.75
283.282	93.75
283.513	87.75
283.745	101.75
283.976	80.75
284.207	81.75
284.439	97.75
284.67	95.75
284.901	82.75
285.132	96.75
285.364	83.75
285.595	97.75
285.826	89.75
286.057	78.75
286.288	89.75
286.52	87.75
286.751	88.75
286.982	87.75
287.213	93.75
287.444	78.75
287.675	92.75
287.906	87.75
288.138	92.75
288.369	92.75
288.6	94.75
288.831	95.75
289.062	97.75
289.293	95.75
289.524	94.75
289.755	95.75
289.986	85.75
290.217	89.75
290.448	96.75
290.679	87.75
290.91	88.75
291.141	90.75
291.371	107.75
291.602	90.75
291.833	92.75
292.064	72.75
292.295	105.75
292.526	98.75
292.757	95.75
292.987	81.75
293.218	94.75
293.449	96.75
293.68	96.75
293.91	75.75
294.141	94.75
294.372	83.75
294.603	94.75
294.833	92.75
295.064	95.75
295.295	92.75
295.525	96.75
295.756	103.75
295.987	116.75
296.217	145.75
296.448	133.75
296.679	93.75
296.909	88.75
297.14	78.75
297.37	95.75
297.601	90.75
297.831	100.75
298.062	96.75
298.292	90.75
298.523	92.75
298.753	91.75
298.984	86.75
299.214	98.75
299.445	95.75
299.675	97.75
299.905	108.75
300.136	92.75
300.366	79.75
300.597	90.75
300.827	105.75
301.057	87.75
301.288	101.75
301.518	87.75
301.748	80.75
301.979	92.75
302.209	91.75
302.439	89.75
302.669	96.75
302.9	89.75
303.13	101.75
303.36	102.75
303.59	103.75
303.82	109.75
304.051	108.75
304.281	99.75
304.511	96.75
304.741	85.75
304.971	99.75
305.201	99.75
305.431	82.75
305.661	94.75
305.891	91.75
306.121	91.75
306.352	94.75
306.582	95.75
306.812	81.75
307.042	93.75
307.272	90.75
307.502	105.75
307.731	99.75
307.961	84.75
308.191	82.75
308.421	81.75
308.651	85.75
308.881	100.75
309.111	91.75
309.341	82.75
309.571	96.75
309.8	99.75
310.03	103.75
310.26	106.75
310.49	95.75
310.72	105.75
310.949	93.75
311.179	94.75
311.409	95.75
311.639	94.75
311.868	99.75
312.098	92.75
312.328	95.75
312.557	95.75
312.787	113.75
313.017	98.75
313.246	101.75
313.476	99.75
313.706	79.75
313.935	98.75
314.165	103.75
314.394	107.75
314.624	91.75
314.853	103.75
315.083	103.75
315.312	93.75
315.542	100.75
315.771	96.75
316.001	86.75
316.23	92.75
316.46	84.75
316.689	95.75
316.919	104.75
317.148	108.75
317.377	106.75
317.607	100.75
317.836	91.75
318.065	76.75
318.295	87.75
318.524	107.75
318.753	88.75
318.983	104.75
319.212	114.75
319.441	112.75
319.67	111.75
319.9	100.75
320.129	98.75
320.358	105.75
320.587	111.75
320.816	107.75
321.046	121.75
321.275	111.75
321.504	99.75
321.733	103.75
321.962	109.75
322.191	99.75
322.42	106.75
322.649	120.75
322.878	122.75
323.108	135.75
323.337	125.75
323.566	151.75
323.795	163.75
324.024	215.75
324.253	455.75
324.482	937.75
324.71	1903.75
324.939	2571.75
325.168	938.75
325.397	258.75
325.626	163.75
325.855	132.75
326.084	136.75
326.313	147.75
326.542	174.75
326.77	263.75
326.999	517.75
327.228	1062.75
327.457	1967.75
327.686	1582.75
327.914	422.75
328.143	227.75
328.372	201.75
328.6	161.75
328.829	127.75
329.058	131.75
329.287	127.75
329.515	121.75
329.744	121.75
329.972	134.75
330.201	207.75
330.43	232.75
330.658	175.75
330.887	161.75
331.115	121.75
331.344	105.75
331.572	111.75
331.801	117.75
332.03	105.75
332.258	122.75
332.486	102.75
332.715	95.75
332.943	96.75
333.172	92.75
333.4	91.75
333.629	121.75
333.857	115.75
334.085	149.75
334.314	173.75
334.542	292.75
334.771	251.75
334.999	136.75
335.227	113.75
335.455	104.75
335.684	101.75
335.912	94.75
336.14	96.75
336.369	95.75
336.597	111.75
336.825	95.75
337.053	100.75
337.281	89.75
337.51	84.75
337.738	86.75
337.966	96.75
338.194	103.75
338.422	99.75
338.65	97.75
338.878	102.75
339.106	99.75
339.334	106.75
339.562	92.75
339.79	92.75
340.018	94.75
340.246	88.75
340.474	95.75
340.702	105.75
340.93	85.75
341.158	91.75
341.386	105.75
341.614	105.75
341.842	100.75
342.07	102.75
342.298	92.75
342.526	85.75
342.754	87.75
342.981	107.75
343.209	95.75
343.437	111.75
343.665	87.75
343.893	97.75
344.12	89.75
344.348	103.75
344.576	109.75
344.804	94.75
345.031	92.75
345.259	98.75
345.487	87.75
345.714	90.75
345.942	90.75
346.17	91.75
346.397	99.75
346.625	93.75
346.853	95.75
347.08	92.75
347.308	103.75
347.535	97.75
347.763	115.75
347.99	100.75
348.218	102.75
348.445	107.75
348.673	89.75
348.9	97.75
349.128	92.75
349.355	93.75
349.583	82.75
349.81	101.75
350.037	101.75
350.265	106.75
350.492	94.75
350.72	93.75
350.947	99.75
351.174	121.75
351.402	121.75
351.629	120.75
351.856	106.75
352.083	98.75
352.311	112.75
352.538	105.75
352.765	128.75
352.992	121.75
353.22	95.75
353.447	102.75
353.674	101.75
353.901	99.75
354.128	94.75
354.355	92.75
354.583	99.75
354.81	103.75
355.037	102.75
355.264	98.75
355.491	99.75
355.718	103.75
355.945	92.75
356.172	101.75
356.399	96.75
356.626	87.75
356.853	99.75
357.08	91.75
357.307	91.75
357.534	87.75
357.761	97.75
357.988	94.75
358.215	105.75
358.441	92.75
358.668	95.75
358.895	97.75
359.122	98.75
359.349	98.75
359.576	105.75
359.802	97.75
360.029	110.75
360.256	106.75
360.483	101.75
360.709	82.75
360.936	110.75
361.163	92.75
361.39	88.75
361.616	92.75
361.843	99.75
362.07	104.75
362.296	95.75
362.523	93.75
362.749	96.75
362.976	105.75
363.203	101.75
363.429	102.75
363.656	89.75
363.882	88.75
364.109	98.75
364.335	85.75
364.562	93.75
364.788	78.75
365.015	102.75
365.241	93.75
365.468	100.75
365.694	107.75
365.92	104.75
366.147	105.75
366.373	95.75
366.599	90.75
366.826	83.75
367.052	98.75
367.278	98.75
367.505	93.75
367.731	98.75
367.957	91.75
368.184	98.75
368.41	87.75
368.636	122.75
368.862	124.75
369.089	118.75
369.315	89.75
369.541	87.75
369.767	100.75
369.993	91.75
370.219	97.75
370.445	94.75
370.672	93.75
370.898	89.75
371.124	89.75
371.35	94.75
371.576	99.75
371.802	85.75
372.028	93.75
372.254	88.75
372.48	94.75
372.706	83.75
372.932	94.75
373.158	89.75
373.384	92.75
373.61	102.75
373.835	102.75
374.061	93.75
374.287	98.75
374.513	84.75
374.739	88.75
374.965	95.75
375.191	91.75
375.416	85.75
375.642	96.75
375.868	100.75
376.094	98.75
376.319	95.75
376.545	98.75
376.771	88.75
376.997	107.75
377.222	97.75
377.448	105.75
377.674	99.75
377.899	90.75
378.125	81.75
378.35	103.75
378.576	96.75
378.802	96.75
379.027	83.75
379.253	85.75
379.478	86.75
379.704	77.75
379.929	95.75
380.155	89.75
380.38	88.75
380.606	93.75
380.831	92.75
381.057	101.75
381.282	96.75
381.507	102.75
381.733	91.75
381.958	93.75
382.184	92.75
382.409	92.75
382.634	97.75
382.86	94.75
383.085	120.75
383.31	102.75
383.535	82.75
383.761	90.75
383.986	90.75
384.211	92.75
384.436	97.75
384.662	97.75
384.887	94.75
385.112	94.75
385.337	103.75
385.562	98.75
385.787	107.75
386.013	114.75
386.238	107.75
386.463	104.75
386.688	102.75
386.913	104.75
387.138	103.75
387.363	103.75
387.588	97.75
387.813	98.75
388.038	88.75
388.263	95.75
388.488	104.75
388.713	97.75
388.938	97.75
389.163	106.75
389.387	98.75
389.612	110.75
389.837	96.75
390.062	87.75
390.287	94.75
390.512	96.75
390.736	78.75
390.961	113.75
391.186	93.75
391.411	96.75
391.636	99.75
391.86	94.75
392.085	86.75
392.31	95.75
392.534	95.75
392.759	91.75
392.984	86.75
393.208	77.75
393.433	94.75
393.658	98.75
393.882	83.75
394.107	87.75
394.331	93.75
394.556	78.75
394.78	99.75
395.005	105.75
395.229	93.75
395.454	84.75
395.678	87.75
395.903	93.75
396.127	110.75
396.352	106.75
396.576	100.75
396.801	92.75
397.025	83.75
397.249	86.75
397.474	76.75
397.698	83.75
397.922	87.75
398.147	83.75
398.371	83.75
398.595	92.75
398.82	98.75
399.044	82.75
399.268	84.75
399.492	72.75
399.717	107.75
399.941	91.75
400.165	91.75
400.389	92.75
400.613	100.75
400.837	97.75
401.062	95.75
401.286	89.75
401.51	88.75
401.734	88.75
401.958	95.75
402.182	125.75
402.406	170.75
402.63	115.75
402.854	105.75
403.078	92.75
403.302	83.75
403.526	85.75
403.75	81.75
403.974	96.75
404.198	89.75
404.422	92.75
404.645	101.75
404.869	84.75
405.093	102.75
405.317	117.75
405.541	101.75
405.765	104.75
405.988	113.75
406.212	186.75
406.436	241.75
406.66	147.75
406.883	111.75
407.107	66.75
407.331	94.75
407.555	94.75
407.778	100.75
408.002	96.75
408.226	85.75
408.449	95.75
408.673	89.75
408.896	83.75
409.12	93.75
409.344	83.75
409.567	86.75
409.791	101.75
410.014	83.75
410.238	91.75
410.461	94.75
410.685	88.75
410.908	97.75
411.132	106.75
411.355	98.75
411.578	95.75
411.802	99.75
412.025	70.75
412.249	94.75
412.472	102.75
412.695	105.75
412.919	93.75
413.142	94.75
413.365	93.75
413.589	97.75
413.812	97.75
414.035	93.75
414.258	103.75
414.482	83.75
414.705	85.75
414.928	86.75
415.151	94.75
415.374	97.75
415.597	90.75
415.821	81.75
416.044	94.75
416.267	94.75
416.49	87.75
416.713	74.75
416.936	71.75
417.159	89.75
417.382	80.75
417.605	92.75
417.828	113.75
418.051	97.75
418.274	82.75
418.497	96.75
418.72	98.75
418.943	87.75
419.166	81.75
419.389	91.75
419.611	92.75
419.834	102.75
420.057	98.75
420.28	90.75
420.503	81.75
420.726	80.75
420.948	102.75
421.171	97.75
421.394	97.75
421.617	95.75
421.839	83.75
422.062	77.75
422.285	84.75
422.507	94.75
422.73	94.75
422.953	104.75
423.175	98.75
423.398	89.75
423.621	78.75
423.843	98.75
424.066	82.75
424.288	83.75
424.511	88.75
424.733	90.75
424.956	110.75
425.178	97.75
425.401	94.75
425.623	102.75
425.846	96.75
426.068	97.75
426.291	85.75
426.513	84.75
426.735	76.75
426.958	86.75
427.18	123.75
427.402	133.75
427.625	193.75
427.847	159.75
428.069	130.75
428.292	103.75
428.514	85.75
428.736	79.75
428.958	92.75
429.181	86.75
429.403	104.75
429.625	102.75
429.847	83.75
430.069	84.75
430.292	101.75
430.514	86.75
430.736	90.75
430.958	104.75
431.18	84.75
431.402	103.75
431.624	85.75
431.846	89.75
432.068	95.75
432.29	66.75
432.512	96.75
432.734	94.75
432.956	82.75
433.178	96.75
433.4	116.75
433.622	83.75
433.844	99.75
434.066	95.75
434.287	83.75
434.509	82.75
434.731	88.75
434.953	96.75
435.175	92.75
435.397	94.75
435.618	106.75
435.84	111.75
436.062	141.75
436.284	130.75
436.505	94.75
436.727	89.75
436.949	88.75
437.17	82.75
437.392	89.75
437.614	89.75
437.835	114.75
438.057	133.75
438.278	132.75
438.5	110.75
438.721	122.75
438.943	101.75
439.165	99.75
439.386	96.75
439.608	80.75
439.829	93.75
440.05	119.75
440.272	137.75
440.493	102.75
440.715	98.75
440.936	99.75
441.158	80.75
441.379	84.75
441.6	100.75
441.822	100.75
442.043	89.75
442.264	103.75
442.486	103.75
442.707	90.75
442.928	109.75
443.149	155.75
443.371	131.75
443.592	110.75
443.813	118.75
444.034	107.75
444.255	103.75
444.476	88.75
444.698	90.75
444.919	82.75
445.14	113.75
445.361	112.75
445.582	124.75
445.803	145.75
446.024	154.75
446.245	145.75
446.466	120.75
446.687	91.75
446.908	89.75
447.129	89.75
447.35	100.75
447.571	87.75
447.792	101.75
448.013	101.75
448.234	108.75
448.455	105.75
448.675	118.75
448.896	135.75
449.117	111.75
449.338	91.75
449.559	139.75
449.779	147.75
450	106.75
450.221	92.75
450.442	80.75
450.662	103.75
450.883	106.75
451.104	106.75
451.324	86.75
451.545	91.75
451.766	89.75
451.986	81.75
452.207	85.75
452.428	80.75
452.648	99.75
452.869	107.75
453.089	102.75
453.31	102.75
453.53	101.75
453.751	98.75
453.971	109.75
454.192	118.75
454.412	90.75
454.633	82.75
454.853	95.75
455.073	95.75
455.294	92.75
455.514	115.75
455.734	104.75
455.955	93.75
456.175	82.75
456.395	84.75
456.616	82.75
456.836	82.75
457.056	93.75
457.276	80.75
457.497	87.75
457.717	86.75
457.937	85.75
458.157	87.75
458.377	103.75
458.598	119.75
458.818	142.75
459.038	171.75
459.258	146.75
459.478	103.75
459.698	106.75
459.918	81.75
460.138	99.75
460.358	93.75
460.578	97.75
460.798	96.75
461.018	88.75
461.238	91.75
461.458	86.75
461.678	89.75
461.898	84.75
462.118	96.75
462.338	96.75
462.558	70.75
462.777	86.75
462.997	88.75
463.217	88.75
463.437	92.75
463.657	81.75
463.876	82.75
464.096	89.75
464.316	103.75
464.536	99.75
464.755	78.75
464.975	106.75
465.195	176.75
465.414	167.75
465.634	101.75
465.854	77.75
466.073	88.75
466.293	85.75
466.512	89.75
466.732	73.75
466.951	88.75
467.171	85.75
467.391	90.75
467.61	104.75
467.829	118.75
468.049	133.75
468.268	156.75
468.488	96.75
468.707	95.75
468.927	78.75
469.146	79.75
469.365	92.75
469.585	91.75
469.804	97.75
470.023	87.75
470.243	86.75
470.462	97.75
470.681	120.75
470.901	91.75
471.12	93.75
471.339	84.75
471.558	90.75
471.777	105.75
471.997	114.75
472.216	195.75
472.435	322.75
472.654	125.75
472.873	117.75
473.092	102.75
473.311	89.75
473.53	89.75
473.749	77.75
473.968	99.75
474.187	105.75
474.406	86.75
474.625	90.75
474.844	87.75
475.063	86.75
475.282	83.75
475.501	75.75
475.72	88.75
475.939	87.75
476.158	96.75
476.377	98.75
476.596	99.75
476.814	107.75
477.033	99.75
477.252	90.75
477.471	91.75
477.69	103.75
477.908	97.75
478.127	101.75
478.346	93.75
478.564	99.75
478.783	103.75
479.002	99.75
479.22	91.75
479.439	100.75
479.658	98.75
479.876	92.75
480.095	89.75
480.313	93.75
480.532	111.75
480.751	106.75
480.969	203.75
481.188	537.75
481.406	353.75
481.624	134.75
481.843	97.75
482.061	95.75
482.28	91.75
482.498	91.75
482.717	76.75
482.935	95.75
483.153	82.75
483.372	98.75
483.59	83.75
483.808	87.75
484.027	96.75
484.245	117.75
484.463	97.75
484.681	86.75
484.9	99.75
485.118	96.75
485.336	97.75
485.554	107.75
485.772	89.75
485.99	105.75
486.209	115.75
486.427	107.75
486.645	107.75
486.863	105.75
487.081	101.75
487.299	95.75
487.517	91.75
487.735	86.75
487.953	102.75
488.171	118.75
488.389	107.75
488.607	96.75
488.825	81.75
489.043	100.75
489.261	89.75
489.479	92.75
489.696	90.75
489.914	89.75
490.132	103.75
490.35	101.75
490.568	80.75
490.786	79.75
491.003	87.75
491.221	77.75
491.439	95.75
491.657	97.75
491.874	90.75
492.092	86.75
492.31	92.75
492.527	89.75
492.745	105.75
492.963	98.75
493.18	95.75
493.398	89.75
493.615	94.75
493.833	95.75
494.05	95.75
494.268	100.75
494.485	86.75
494.703	89.75
494.92	104.75
495.138	81.75
495.355	90.75
495.573	109.75
495.79	97.75
496.008	90.75
496.225	107.75
496.442	99.75
496.66	97.75
496.877	82.75
497.094	105.75
497.312	97.75
497.529	77.75
497.746	83.75
497.963	74.75
498.181	100.75
498.398	85.75
498.615	105.75
498.832	112.75
499.049	89.75
499.267	92.75
499.484	92.75
499.701	90.75
499.918	96.75
500.135	90.75
500.352	89.75
500.569	89.75
500.786	98.75
501.003	99.75
501.22	95.75
501.437	103.75
501.654	99.75
501.871	106.75
502.088	91.75
502.305	93.75
502.522	86.75
502.739	90.75
502.956	111.75
503.172	77.75
503.389	95.75
503.606	109.75
503.823	99.75
504.04	102.75
504.256	94.75
504.473	93.75
504.69	87.75
504.907	104.75
505.123	80.75
505.34	85.75
505.557	96.75
505.773	88.75
505.99	94.75
506.207	109.75
506.423	82.75
506.64	81.75
506.856	85.75
507.073	89.75
507.289	104.75
507.506	110.75
507.722	109.75
507.939	117.75
508.155	86.75
508.372	85.75
508.588	95.75
508.805	90.75
509.021	102.75
509.238	81.75
509.454	92.75
509.67	98.75
509.887	116.75
510.103	139.75
510.319	225.75
510.536	757.75
510.752	2425.75
510.968	675.75
511.184	146.75
511.401	122.75
511.617	97.75
511.833	97.75
512.049	94.75
512.265	89.75
512.481	98.75
512.698	103.75
512.914	94.75
513.13	100.75
513.346	91.75
513.562	86.75
513.778	87.75
513.994	107.75
514.21	101.75
514.426	123.75
514.642	127.75
