Data from Circ_2011_H10_HRD10591_00020.txt Node
Date: Wed Jan 03 10:08:03 EST 2024
User: Yrep
Spectrometer: HR+D1059
Trigger mode: 1
Integration Time (sec): 1.000000E-1
Scans to average: 1
Electric dark correction enabled: true
Nonlinearity correction enabled: false
Boxcar width: 0
XAxis mode: Wavelengths
Number of Pixels in Spectrum: 2048
>>>>>Begin Spectral Data<<<<<
223.165	-20.12
223.4	-20.12
223.635	-20.12
223.869	-17.12
224.104	-8.12
224.338	-10.12
224.573	-23.12
224.808	-26.12
225.042	-9.12
225.277	1.88
225.511	4.88
225.746	10.88
225.98	3.88
226.215	4.88
226.449	11.88
226.683	29.88
226.918	20.88
227.152	24.88
227.387	34.88
227.621	49.88
227.856	53.88
228.09	48.88
228.324	46.88
228.559	61.88
228.793	71.88
229.027	79.88
229.262	71.88
229.496	68.88
229.73	85.88
229.964	96.88
230.199	77.88
230.433	76.88
230.667	92.88
230.901	80.88
231.136	79.88
231.37	98.88
231.604	73.88
231.838	82.88
232.072	94.88
232.306	86.88
232.541	78.88
232.775	99.88
233.009	84.88
233.243	87.88
233.477	84.88
233.711	88.88
233.945	94.88
234.179	67.88
234.413	93.88
234.647	97.88
234.881	89.88
235.115	85.88
235.349	75.88
235.583	81.88
235.817	81.88
236.051	88.88
236.285	78.88
236.519	78.88
236.753	88.88
236.987	67.88
237.221	95.88
237.455	97.88
237.689	80.88
237.922	72.88
238.156	81.88
238.39	68.88
238.624	80.88
238.858	64.88
239.091	70.88
239.325	85.88
239.559	89.88
239.793	94.88
240.027	61.88
240.26	66.88
240.494	86.88
240.728	85.88
240.961	88.88
241.195	84.88
241.429	84.88
241.662	69.88
241.896	69.88
242.13	80.88
242.363	74.88
242.597	90.88
242.83	68.88
243.064	83.88
243.298	91.88
243.531	82.88
243.765	81.88
243.998	80.88
244.232	82.88
244.465	96.88
244.699	70.88
244.932	70.88
245.166	81.88
245.399	70.88
245.633	76.88
245.866	92.88
246.099	80.88
246.333	74.88
246.566	69.88
246.8	67.88
247.033	83.88
247.266	84.88
247.5	97.88
247.733	85.88
247.966	80.88
248.2	81.88
248.433	76.88
248.666	83.88
248.899	83.88
249.133	86.88
249.366	99.88
249.599	99.88
249.832	91.88
250.066	83.88
250.299	81.88
250.532	88.88
250.765	92.88
250.998	91.88
251.231	77.88
251.465	90.88
251.698	87.88
251.931	90.88
252.164	84.88
252.397	68.88
252.63	73.88
252.863	85.88
253.096	100.88
253.329	81.88
253.562	76.88
253.795	97.88
254.028	90.88
254.261	84.88
254.494	88.88
254.727	84.88
254.96	85.88
255.193	75.88
255.426	88.88
255.659	83.88
255.892	97.88
256.124	89.88
256.357	89.88
256.59	89.88
256.823	72.88
257.056	59.88
257.289	80.88
257.521	94.88
257.754	88.88
257.987	92.88
258.22	86.88
258.452	92.88
258.685	96.88
258.918	84.88
259.151	94.88
259.383	92.88
259.616	83.88
259.849	86.88
260.081	92.88
260.314	85.88
260.547	94.88
260.779	86.88
261.012	92.88
261.244	85.88
261.477	107.88
261.71	89.88
261.942	106.88
262.175	105.88
262.407	93.88
262.64	81.88
262.872	93.88
263.105	80.88
263.337	85.88
263.57	84.88
263.802	99.88
264.035	85.88
264.267	102.88
264.499	94.88
264.732	89.88
264.964	97.88
265.197	76.88
265.429	82.88
265.661	79.88
265.894	84.88
266.126	76.88
266.358	88.88
266.591	90.88
266.823	94.88
267.055	81.88
267.287	84.88
267.52	91.88
267.752	82.88
267.984	100.88
268.216	84.88
268.448	80.88
268.681	88.88
268.913	85.88
269.145	92.88
269.377	101.88
269.609	95.88
269.841	82.88
270.073	98.88
270.306	99.88
270.538	82.88
270.77	94.88
271.002	85.88
271.234	82.88
271.466	93.88
271.698	80.88
271.93	83.88
272.162	93.88
272.394	74.88
272.626	88.88
272.858	93.88
273.09	86.88
273.322	90.88
273.553	89.88
273.785	90.88
274.017	81.88
274.249	90.88
274.481	93.88
274.713	76.88
274.945	97.88
275.176	92.88
275.408	97.88
275.64	98.88
275.872	89.88
276.104	105.88
276.335	93.88
276.567	107.88
276.799	101.88
277.031	100.88
277.262	95.88
277.494	100.88
277.726	100.88
277.957	94.88
278.189	78.88
278.421	83.88
278.652	86.88
278.884	83.88
279.115	89.88
279.347	71.88
279.579	92.88
279.81	92.88
280.042	96.88
280.273	87.88
280.505	102.88
280.736	94.88
280.968	101.88
281.199	80.88
281.431	96.88
281.662	91.88
281.894	104.88
282.125	104.88
282.356	112.88
282.588	126.88
282.819	109.88
283.051	100.88
283.282	94.88
283.513	99.88
283.745	106.88
283.976	90.88
284.207	98.88
284.439	100.88
284.67	87.88
284.901	94.88
285.132	90.88
285.364	92.88
285.595	101.88
285.826	85.88
286.057	84.88
286.288	99.88
286.52	94.88
286.751	88.88
286.982	83.88
287.213	80.88
287.444	95.88
287.675	91.88
287.906	95.88
288.138	93.88
288.369	99.88
288.6	95.88
288.831	97.88
289.062	83.88
289.293	96.88
289.524	97.88
289.755	85.88
289.986	91.88
290.217	92.88
290.448	87.88
290.679	97.88
290.91	92.88
291.141	106.88
291.371	105.88
291.602	93.88
291.833	94.88
292.064	83.88
292.295	91.88
292.526	71.88
292.757	93.88
292.987	76.88
293.218	80.88
293.449	88.88
293.68	104.88
293.91	98.88
294.141	96.88
294.372	88.88
294.603	92.88
294.833	86.88
295.064	83.88
295.295	89.88
295.525	104.88
295.756	101.88
295.987	115.88
296.217	120.88
296.448	122.88
296.679	101.88
296.909	94.88
297.14	81.88
297.37	91.88
297.601	93.88
297.831	82.88
298.062	96.88
298.292	77.88
298.523	107.88
298.753	97.88
298.984	91.88
299.214	100.88
299.445	108.88
299.675	86.88
299.905	95.88
300.136	109.88
300.366	105.88
300.597	109.88
300.827	94.88
301.057	94.88
301.288	103.88
301.518	92.88
301.748	92.88
301.979	101.88
302.209	92.88
302.439	88.88
302.669	95.88
302.9	94.88
303.13	101.88
303.36	91.88
303.59	104.88
303.82	115.88
304.051	99.88
304.281	81.88
304.511	100.88
304.741	85.88
304.971	85.88
305.201	94.88
305.431	95.88
305.661	100.88
305.891	93.88
306.121	92.88
306.352	92.88
306.582	99.88
306.812	96.88
307.042	89.88
307.272	106.88
307.502	103.88
307.731	103.88
307.961	87.88
308.191	97.88
308.421	92.88
308.651	81.88
308.881	98.88
309.111	108.88
309.341	96.88
309.571	88.88
309.8	94.88
310.03	93.88
310.26	104.88
310.49	93.88
310.72	93.88
310.949	106.88
311.179	105.88
311.409	85.88
311.639	105.88
311.868	109.88
312.098	97.88
312.328	94.88
312.557	98.88
312.787	109.88
313.017	87.88
313.246	84.88
313.476	98.88
313.706	97.88
313.935	88.88
314.165	92.88
314.394	106.88
314.624	92.88
314.853	108.88
315.083	88.88
315.312	97.88
315.542	106.88
315.771	87.88
316.001	102.88
316.23	102.88
316.46	85.88
316.689	76.88
316.919	84.88
317.148	115.88
317.377	103.88
317.607	96.88
317.836	87.88
318.065	93.88
318.295	104.88
318.524	98.88
318.753	112.88
318.983	104.88
319.212	116.88
319.441	108.88
319.67	112.88
319.9	86.88
320.129	78.88
320.358	105.88
320.587	100.88
320.816	114.88
321.046	112.88
321.275	99.88
321.504	108.88
321.733	83.88
321.962	109.88
322.191	96.88
322.42	99.88
322.649	117.88
322.878	121.88
323.108	130.88
323.337	125.88
323.566	117.88
323.795	130.88
324.024	203.88
324.253	398.88
324.482	826.88
324.71	1683.88
324.939	2213.88
325.168	821.88
325.397	255.88
325.626	136.88
325.855	140.88
326.084	146.88
326.313	139.88
326.542	159.88
326.77	238.88
326.999	490.88
327.228	945.88
327.457	1738.88
327.686	1374.88
327.914	353.88
328.143	190.88
328.372	176.88
328.6	139.88
328.829	117.88
329.058	122.88
329.287	140.88
329.515	104.88
329.744	121.88
329.972	120.88
330.201	172.88
330.43	191.88
330.658	128.88
330.887	148.88
331.115	127.88
331.344	107.88
331.572	96.88
331.801	106.88
332.03	88.88
332.258	107.88
332.486	96.88
332.715	99.88
332.943	95.88
333.172	104.88
333.4	101.88
333.629	101.88
333.857	129.88
334.085	131.88
334.314	159.88
334.542	207.88
334.771	211.88
334.999	109.88
335.227	104.88
335.455	101.88
335.684	91.88
335.912	98.88
336.14	92.88
336.369	92.88
336.597	99.88
336.825	104.88
337.053	81.88
337.281	102.88
337.51	99.88
337.738	91.88
337.966	109.88
338.194	94.88
338.422	102.88
338.65	101.88
338.878	106.88
339.106	88.88
339.334	99.88
339.562	98.88
339.79	97.88
340.018	101.88
340.246	105.88
340.474	109.88
340.702	90.88
340.93	97.88
341.158	92.88
341.386	100.88
341.614	92.88
341.842	79.88
342.07	99.88
342.298	98.88
342.526	105.88
342.754	94.88
342.981	100.88
343.209	89.88
343.437	95.88
343.665	86.88
343.893	98.88
344.12	102.88
344.348	100.88
344.576	106.88
344.804	104.88
345.031	94.88
345.259	92.88
345.487	92.88
345.714	111.88
345.942	97.88
346.17	95.88
346.397	106.88
346.625	81.88
346.853	90.88
347.08	98.88
347.308	104.88
347.535	97.88
347.763	93.88
347.99	100.88
348.218	108.88
348.445	97.88
348.673	108.88
348.9	91.88
349.128	93.88
349.355	100.88
349.583	90.88
349.81	108.88
350.037	109.88
350.265	86.88
350.492	105.88
350.72	104.88
350.947	102.88
351.174	106.88
351.402	104.88
351.629	97.88
351.856	109.88
352.083	96.88
352.311	118.88
352.538	104.88
352.765	111.88
352.992	111.88
353.22	109.88
353.447	94.88
353.674	107.88
353.901	88.88
354.128	101.88
354.355	108.88
354.583	104.88
354.81	108.88
355.037	103.88
355.264	93.88
355.491	103.88
355.718	108.88
355.945	104.88
356.172	111.88
356.399	101.88
356.626	93.88
356.853	96.88
357.08	97.88
357.307	84.88
357.534	96.88
357.761	103.88
357.988	108.88
358.215	92.88
358.441	96.88
358.668	88.88
358.895	86.88
359.122	98.88
359.349	75.88
359.576	97.88
359.802	101.88
360.029	106.88
360.256	107.88
360.483	113.88
360.709	102.88
360.936	101.88
361.163	91.88
361.39	93.88
361.616	94.88
361.843	93.88
362.07	97.88
362.296	98.88
362.523	106.88
362.749	90.88
362.976	94.88
363.203	97.88
363.429	93.88
363.656	95.88
363.882	92.88
364.109	105.88
364.335	98.88
364.562	90.88
364.788	92.88
365.015	84.88
365.241	105.88
365.468	91.88
365.694	108.88
365.92	87.88
366.147	96.88
366.373	90.88
366.599	108.88
366.826	77.88
367.052	90.88
367.278	94.88
367.505	84.88
367.731	92.88
367.957	91.88
368.184	89.88
368.41	96.88
368.636	108.88
368.862	124.88
369.089	96.88
369.315	93.88
369.541	104.88
369.767	90.88
369.993	99.88
370.219	86.88
370.445	96.88
370.672	93.88
370.898	80.88
371.124	72.88
371.35	90.88
371.576	83.88
371.802	105.88
372.028	96.88
372.254	93.88
372.48	85.88
372.706	96.88
372.932	95.88
373.158	94.88
373.384	90.88
373.61	86.88
373.835	96.88
374.061	103.88
374.287	86.88
374.513	96.88
374.739	98.88
374.965	102.88
375.191	85.88
375.416	90.88
375.642	93.88
375.868	85.88
376.094	100.88
376.319	86.88
376.545	85.88
376.771	99.88
376.997	105.88
377.222	85.88
377.448	89.88
377.674	84.88
377.899	105.88
378.125	102.88
378.35	92.88
378.576	93.88
378.802	95.88
379.027	95.88
379.253	110.88
379.478	101.88
379.704	101.88
379.929	97.88
380.155	95.88
380.38	92.88
380.606	89.88
380.831	84.88
381.057	97.88
381.282	104.88
381.507	107.88
381.733	92.88
381.958	109.88
382.184	98.88
382.409	106.88
382.634	87.88
382.86	109.88
383.085	87.88
383.31	98.88
383.535	93.88
383.761	98.88
383.986	95.88
384.211	97.88
384.436	113.88
384.662	93.88
384.887	100.88
385.112	107.88
385.337	110.88
385.562	106.88
385.787	95.88
386.013	101.88
386.238	115.88
386.463	91.88
386.688	115.88
386.913	90.88
387.138	108.88
387.363	112.88
387.588	103.88
387.813	99.88
388.038	101.88
388.263	98.88
388.488	112.88
388.713	108.88
388.938	108.88
389.163	92.88
389.387	90.88
389.612	89.88
389.837	106.88
390.062	97.88
390.287	98.88
390.512	86.88
390.736	97.88
390.961	95.88
391.186	102.88
391.411	110.88
391.636	100.88
391.86	90.88
392.085	82.88
392.31	92.88
392.534	96.88
392.759	88.88
392.984	104.88
393.208	82.88
393.433	79.88
393.658	98.88
393.882	100.88
394.107	76.88
394.331	81.88
394.556	96.88
394.78	95.88
395.005	104.88
395.229	101.88
395.454	110.88
395.678	100.88
395.903	97.88
396.127	97.88
396.352	97.88
396.576	92.88
396.801	89.88
397.025	95.88
397.249	99.88
397.474	102.88
397.698	86.88
397.922	92.88
398.147	87.88
398.371	89.88
398.595	91.88
398.82	80.88
399.044	96.88
399.268	89.88
399.492	94.88
399.717	88.88
399.941	88.88
400.165	104.88
400.389	97.88
400.613	93.88
400.837	105.88
401.062	96.88
401.286	88.88
401.51	73.88
401.734	92.88
401.958	95.88
402.182	125.88
402.406	139.88
402.63	112.88
402.854	101.88
403.078	104.88
403.302	94.88
403.526	89.88
403.75	85.88
403.974	86.88
404.198	94.88
404.422	91.88
404.645	95.88
404.869	85.88
405.093	100.88
405.317	106.88
405.541	111.88
405.765	110.88
405.988	107.88
406.212	156.88
406.436	201.88
406.66	140.88
406.883	108.88
407.107	94.88
407.331	79.88
407.555	103.88
407.778	103.88
408.002	85.88
408.226	77.88
408.449	94.88
408.673	97.88
408.896	94.88
409.12	101.88
409.344	91.88
409.567	96.88
409.791	92.88
410.014	86.88
410.238	94.88
410.461	91.88
410.685	100.88
410.908	96.88
411.132	103.88
411.355	106.88
411.578	114.88
411.802	99.88
412.025	101.88
412.249	94.88
412.472	107.88
412.695	116.88
412.919	102.88
413.142	97.88
413.365	105.88
413.589	91.88
413.812	86.88
414.035	80.88
414.258	89.88
414.482	89.88
414.705	105.88
414.928	97.88
415.151	103.88
415.374	97.88
415.597	86.88
415.821	95.88
416.044	85.88
416.267	95.88
416.49	86.88
416.713	90.88
416.936	112.88
417.159	94.88
417.382	86.88
417.605	96.88
417.828	104.88
418.051	100.88
418.274	95.88
418.497	84.88
418.72	105.88
418.943	99.88
419.166	85.88
419.389	98.88
419.611	81.88
419.834	98.88
420.057	89.88
420.28	86.88
420.503	86.88
420.726	95.88
420.948	86.88
421.171	90.88
421.394	97.88
421.617	93.88
421.839	99.88
422.062	89.88
422.285	93.88
422.507	109.88
422.73	100.88
422.953	90.88
423.175	99.88
423.398	83.88
423.621	92.88
423.843	112.88
424.066	97.88
424.288	85.88
424.511	98.88
424.733	96.88
424.956	109.88
425.178	102.88
425.401	96.88
425.623	100.88
425.846	96.88
426.068	95.88
426.291	84.88
426.513	100.88
426.735	99.88
426.958	103.88
427.18	109.88
427.402	140.88
427.625	167.88
427.847	136.88
428.069	122.88
428.292	93.88
428.514	95.88
428.736	91.88
428.958	93.88
429.181	99.88
429.403	89.88
429.625	100.88
429.847	112.88
430.069	101.88
430.292	85.88
430.514	84.88
430.736	101.88
430.958	97.88
431.18	97.88
431.402	102.88
431.624	92.88
431.846	83.88
432.068	91.88
432.29	82.88
432.512	91.88
432.734	97.88
432.956	92.88
433.178	97.88
433.4	86.88
433.622	100.88
433.844	97.88
434.066	99.88
434.287	94.88
434.509	94.88
434.731	92.88
434.953	94.88
435.175	87.88
435.397	87.88
435.618	108.88
435.84	96.88
436.062	120.88
436.284	118.88
436.505	104.88
436.727	116.88
436.949	96.88
437.17	78.88
437.392	88.88
437.614	91.88
437.835	116.88
438.057	96.88
438.278	114.88
438.5	106.88
438.721	115.88
438.943	108.88
439.165	103.88
439.386	95.88
439.608	93.88
439.829	100.88
440.05	122.88
440.272	139.88
440.493	96.88
440.715	89.88
440.936	81.88
441.158	82.88
441.379	86.88
441.6	99.88
441.822	83.88
442.043	90.88
442.264	101.88
442.486	97.88
442.707	112.88
442.928	100.88
443.149	134.88
443.371	131.88
443.592	105.88
443.813	112.88
444.034	109.88
444.255	96.88
444.476	93.88
444.698	95.88
444.919	96.88
445.14	123.88
445.361	124.88
445.582	122.88
445.803	139.88
446.024	137.88
446.245	145.88
446.466	111.88
446.687	85.88
446.908	87.88
447.129	80.88
447.35	96.88
447.571	108.88
447.792	104.88
448.013	96.88
448.234	103.88
448.455	105.88
448.675	94.88
448.896	104.88
449.117	103.88
449.338	101.88
449.559	130.88
449.779	141.88
450	94.88
450.221	78.88
450.442	94.88
450.662	98.88
450.883	105.88
451.104	109.88
451.324	91.88
451.545	91.88
451.766	106.88
451.986	85.88
452.207	88.88
452.428	99.88
452.648	102.88
452.869	117.88
453.089	104.88
453.31	109.88
453.53	86.88
453.751	81.88
453.971	107.88
454.192	106.88
454.412	104.88
454.633	89.88
454.853	86.88
455.073	91.88
455.294	94.88
455.514	88.88
455.734	98.88
455.955	91.88
456.175	98.88
456.395	99.88
456.616	81.88
456.836	74.88
457.056	84.88
457.276	74.88
457.497	97.88
457.717	98.88
457.937	84.88
458.157	81.88
458.377	82.88
458.598	109.88
458.818	150.88
459.038	149.88
459.258	102.88
459.478	105.88
459.698	96.88
459.918	83.88
460.138	93.88
460.358	88.88
460.578	81.88
460.798	80.88
461.018	85.88
461.238	88.88
461.458	91.88
461.678	67.88
461.898	92.88
462.118	95.88
462.338	91.88
462.558	90.88
462.777	92.88
462.997	100.88
463.217	92.88
463.437	98.88
463.657	99.88
463.876	93.88
464.096	105.88
464.316	98.88
464.536	88.88
464.755	96.88
464.975	112.88
465.195	166.88
465.414	158.88
465.634	100.88
465.854	99.88
466.073	105.88
466.293	99.88
466.512	83.88
466.732	88.88
466.951	89.88
467.171	97.88
467.391	96.88
467.61	108.88
467.829	99.88
468.049	113.88
468.268	128.88
468.488	92.88
468.707	86.88
468.927	96.88
469.146	93.88
469.365	102.88
469.585	88.88
469.804	95.88
470.023	99.88
470.243	94.88
470.462	81.88
470.681	118.88
470.901	97.88
471.12	70.88
471.339	92.88
471.558	94.88
471.777	90.88
471.997	104.88
472.216	161.88
472.435	248.88
472.654	113.88
472.873	101.88
473.092	77.88
473.311	105.88
473.53	100.88
473.749	93.88
473.968	90.88
474.187	114.88
474.406	95.88
474.625	96.88
474.844	91.88
475.063	86.88
475.282	92.88
475.501	76.88
475.72	95.88
475.939	90.88
476.158	97.88
476.377	76.88
476.596	91.88
476.814	91.88
477.033	98.88
477.252	92.88
477.471	75.88
477.69	86.88
477.908	95.88
478.127	91.88
478.346	86.88
478.564	84.88
478.783	99.88
479.002	88.88
479.22	100.88
479.439	106.88
479.658	95.88
479.876	92.88
480.095	93.88
480.313	94.88
480.532	104.88
480.751	91.88
480.969	159.88
481.188	384.88
481.406	260.88
481.624	101.88
481.843	90.88
482.061	79.88
482.28	100.88
482.498	93.88
482.717	92.88
482.935	105.88
483.153	96.88
483.372	90.88
483.59	101.88
483.808	81.88
484.027	89.88
484.245	89.88
484.463	105.88
484.681	94.88
484.9	102.88
485.118	112.88
485.336	114.88
485.554	112.88
485.772	93.88
485.99	101.88
486.209	115.88
486.427	96.88
486.645	104.88
486.863	110.88
487.081	95.88
487.299	99.88
487.517	107.88
487.735	89.88
487.953	89.88
488.171	100.88
488.389	99.88
488.607	94.88
488.825	109.88
489.043	101.88
489.261	86.88
489.479	100.88
489.696	104.88
489.914	104.88
490.132	93.88
490.35	90.88
490.568	109.88
490.786	97.88
491.003	97.88
491.221	74.88
491.439	79.88
491.657	101.88
491.874	95.88
492.092	91.88
492.31	112.88
492.527	96.88
492.745	102.88
492.963	108.88
493.18	80.88
493.398	84.88
493.615	78.88
493.833	91.88
494.05	93.88
494.268	84.88
494.485	94.88
494.703	92.88
494.92	100.88
495.138	85.88
495.355	91.88
495.573	95.88
495.79	96.88
496.008	102.88
496.225	94.88
496.442	100.88
496.66	94.88
496.877	102.88
497.094	87.88
497.312	89.88
497.529	97.88
497.746	88.88
497.963	93.88
498.181	112.88
498.398	104.88
498.615	111.88
498.832	108.88
499.049	84.88
499.267	83.88
499.484	93.88
499.701	92.88
499.918	91.88
500.135	108.88
500.352	93.88
500.569	86.88
500.786	89.88
501.003	106.88
501.22	102.88
501.437	95.88
501.654	113.88
501.871	113.88
502.088	97.88
502.305	101.88
502.522	93.88
502.739	87.88
502.956	93.88
503.172	97.88
503.389	101.88
503.606	110.88
503.823	103.88
504.04	93.88
504.256	105.88
504.473	90.88
504.69	92.88
504.907	84.88
505.123	88.88
505.34	97.88
505.557	103.88
505.773	97.88
505.99	102.88
506.207	92.88
506.423	90.88
506.64	94.88
506.856	89.88
507.073	95.88
507.289	96.88
507.506	103.88
507.722	111.88
507.939	99.88
508.155	102.88
508.372	97.88
508.588	91.88
508.805	113.88
509.021	96.88
509.238	93.88
509.454	104.88
509.67	101.88
509.887	99.88
510.103	110.88
510.319	185.88
510.536	635.88
510.752	1978.88
510.968	613.88
511.184	128.88
511.401	123.88
511.617	108.88
511.833	94.88
512.049	96.88
512.265	99.88
512.481	94.88
512.698	101.88
512.914	96.88
513.13	102.88
513.346	91.88
513.562	103.88
513.778	101.88
513.994	91.88
