Data from Circ_2011_H10_HRD10591_00082.txt Node
Date: Wed Jan 03 10:08:15 EST 2024
User: Yrep
Spectrometer: HR+D1059
Trigger mode: 1
Integration Time (sec): 1.000000E-1
Scans to average: 1
Electric dark correction enabled: true
Nonlinearity correction enabled: false
Boxcar width: 0
XAxis mode: Wavelengths
Number of Pixels in Spectrum: 2048
>>>>>Begin Spectral Data<<<<<
223.165	-14.69
223.4	-14.69
223.635	-14.69
223.869	0.31
224.104	-26.69
224.338	-11.69
224.573	-10.69
224.808	-13.69
225.042	-6.69
225.277	1.31
225.511	-11.69
225.746	-0.69
225.98	11.31
226.215	-6.69
226.449	14.31
226.683	23.31
226.918	29.31
227.152	23.31
227.387	43.31
227.621	42.31
227.856	46.31
228.09	68.31
228.324	48.31
228.559	55.31
228.793	67.31
229.027	79.31
229.262	76.31
229.496	82.31
229.73	74.31
229.964	79.31
230.199	77.31
230.433	83.31
230.667	69.31
230.901	95.31
231.136	76.31
231.37	80.31
231.604	75.31
231.838	81.31
232.072	76.31
232.306	80.31
232.541	79.31
232.775	73.31
233.009	87.31
233.243	79.31
233.477	81.31
233.711	89.31
233.945	83.31
234.179	81.31
234.413	85.31
234.647	79.31
234.881	75.31
235.115	75.31
235.349	86.31
235.583	71.31
235.817	85.31
236.051	71.31
236.285	80.31
236.519	77.31
236.753	77.31
236.987	77.31
237.221	90.31
237.455	99.31
237.689	65.31
237.922	74.31
238.156	76.31
238.39	63.31
238.624	67.31
238.858	86.31
239.091	69.31
239.325	80.31
239.559	73.31
239.793	78.31
240.027	70.31
240.26	81.31
240.494	67.31
240.728	77.31
240.961	71.31
241.195	81.31
241.429	79.31
241.662	80.31
241.896	78.31
242.13	76.31
242.363	70.31
242.597	80.31
242.83	78.31
243.064	81.31
243.298	90.31
243.531	67.31
243.765	64.31
243.998	79.31
244.232	76.31
244.465	94.31
244.699	76.31
244.932	84.31
245.166	78.31
245.399	81.31
245.633	86.31
245.866	81.31
246.099	95.31
246.333	78.31
246.566	73.31
246.8	90.31
247.033	71.31
247.266	81.31
247.5	90.31
247.733	86.31
247.966	74.31
248.2	87.31
248.433	80.31
248.666	72.31
248.899	83.31
249.133	74.31
249.366	108.31
249.599	101.31
249.832	90.31
250.066	81.31
250.299	80.31
250.532	81.31
250.765	88.31
250.998	85.31
251.231	79.31
251.465	80.31
251.698	80.31
251.931	83.31
252.164	85.31
252.397	71.31
252.63	85.31
252.863	74.31
253.096	79.31
253.329	86.31
253.562	87.31
253.795	81.31
254.028	85.31
254.261	88.31
254.494	83.31
254.727	90.31
254.96	95.31
255.193	84.31
255.426	82.31
255.659	68.31
255.892	79.31
256.124	79.31
256.357	94.31
256.59	77.31
256.823	91.31
257.056	89.31
257.289	91.31
257.521	89.31
257.754	81.31
257.987	94.31
258.22	84.31
258.452	80.31
258.685	88.31
258.918	96.31
259.151	93.31
259.383	79.31
259.616	92.31
259.849	88.31
260.081	76.31
260.314	93.31
260.547	92.31
260.779	100.31
261.012	90.31
261.244	94.31
261.477	86.31
261.71	83.31
261.942	107.31
262.175	120.31
262.407	95.31
262.64	84.31
262.872	87.31
263.105	72.31
263.337	78.31
263.57	89.31
263.802	80.31
264.035	86.31
264.267	88.31
264.499	77.31
264.732	88.31
264.964	78.31
265.197	67.31
265.429	80.31
265.661	90.31
265.894	82.31
266.126	77.31
266.358	86.31
266.591	93.31
266.823	83.31
267.055	75.31
267.287	87.31
267.52	87.31
267.752	79.31
267.984	74.31
268.216	82.31
268.448	89.31
268.681	88.31
268.913	109.31
269.145	86.31
269.377	95.31
269.609	79.31
269.841	91.31
270.073	69.31
270.306	92.31
270.538	95.31
270.77	68.31
271.002	94.31
271.234	95.31
271.466	93.31
271.698	76.31
271.93	81.31
272.162	96.31
272.394	96.31
272.626	91.31
272.858	80.31
273.09	84.31
273.322	96.31
273.553	87.31
273.785	87.31
274.017	100.31
274.249	88.31
274.481	85.31
274.713	88.31
274.945	84.31
275.176	93.31
275.408	92.31
275.64	83.31
275.872	81.31
276.104	91.31
276.335	85.31
276.567	111.31
276.799	97.31
277.031	114.31
277.262	101.31
277.494	96.31
277.726	86.31
277.957	83.31
278.189	80.31
278.421	87.31
278.652	92.31
278.884	86.31
279.115	88.31
279.347	79.31
279.579	100.31
279.81	86.31
280.042	85.31
280.273	115.31
280.505	95.31
280.736	94.31
280.968	92.31
281.199	97.31
281.431	88.31
281.662	86.31
281.894	94.31
282.125	96.31
282.356	129.31
282.588	144.31
282.819	111.31
283.051	97.31
283.282	79.31
283.513	85.31
283.745	84.31
283.976	96.31
284.207	76.31
284.439	87.31
284.67	77.31
284.901	96.31
285.132	81.31
285.364	85.31
285.595	93.31
285.826	83.31
286.057	86.31
286.288	87.31
286.52	93.31
286.751	89.31
286.982	88.31
287.213	83.31
287.444	82.31
287.675	85.31
287.906	91.31
288.138	89.31
288.369	96.31
288.6	101.31
288.831	93.31
289.062	81.31
289.293	93.31
289.524	104.31
289.755	87.31
289.986	86.31
290.217	89.31
290.448	88.31
290.679	112.31
290.91	96.31
291.141	87.31
291.371	86.31
291.602	93.31
291.833	109.31
292.064	82.31
292.295	99.31
292.526	85.31
292.757	78.31
292.987	81.31
293.218	85.31
293.449	81.31
293.68	87.31
293.91	91.31
294.141	83.31
294.372	84.31
294.603	84.31
294.833	98.31
295.064	95.31
295.295	99.31
295.525	84.31
295.756	94.31
295.987	113.31
296.217	142.31
296.448	115.31
296.679	91.31
296.909	96.31
297.14	88.31
297.37	85.31
297.601	90.31
297.831	108.31
298.062	98.31
298.292	106.31
298.523	77.31
298.753	77.31
298.984	87.31
299.214	96.31
299.445	96.31
299.675	79.31
299.905	86.31
300.136	81.31
300.366	80.31
300.597	86.31
300.827	102.31
301.057	108.31
301.288	112.31
301.518	97.31
301.748	98.31
301.979	101.31
302.209	93.31
302.439	101.31
302.669	100.31
302.9	92.31
303.13	94.31
303.36	96.31
303.59	101.31
303.82	100.31
304.051	94.31
304.281	93.31
304.511	92.31
304.741	104.31
304.971	77.31
305.201	96.31
305.431	86.31
305.661	85.31
305.891	95.31
306.121	87.31
306.352	93.31
306.582	109.31
306.812	96.31
307.042	102.31
307.272	84.31
307.502	109.31
307.731	106.31
307.961	94.31
308.191	95.31
308.421	104.31
308.651	104.31
308.881	95.31
309.111	89.31
309.341	108.31
309.571	99.31
309.8	92.31
310.03	89.31
310.26	99.31
310.49	87.31
310.72	94.31
310.949	121.31
311.179	120.31
311.409	93.31
311.639	93.31
311.868	89.31
312.098	86.31
312.328	104.31
312.557	104.31
312.787	124.31
313.017	110.31
313.246	99.31
313.476	91.31
313.706	87.31
313.935	96.31
314.165	102.31
314.394	107.31
314.624	107.31
314.853	100.31
315.083	105.31
315.312	90.31
315.542	105.31
315.771	109.31
316.001	92.31
316.23	101.31
316.46	85.31
316.689	96.31
316.919	95.31
317.148	95.31
317.377	98.31
317.607	98.31
317.836	100.31
318.065	94.31
318.295	82.31
318.524	111.31
318.753	87.31
318.983	96.31
319.212	104.31
319.441	97.31
319.67	123.31
319.9	92.31
320.129	88.31
320.358	86.31
320.587	99.31
320.816	108.31
321.046	108.31
321.275	95.31
321.504	106.31
321.733	111.31
321.962	111.31
322.191	102.31
322.42	113.31
322.649	103.31
322.878	112.31
323.108	124.31
323.337	130.31
323.566	149.31
323.795	166.31
324.024	221.31
324.253	446.31
324.482	995.31
324.71	2084.31
324.939	2757.31
325.168	982.31
325.397	267.31
325.626	166.31
325.855	132.31
326.084	141.31
326.313	135.31
326.542	177.31
326.77	261.31
326.999	525.31
327.228	1126.31
327.457	2046.31
327.686	1622.31
327.914	452.31
328.143	256.31
328.372	245.31
328.6	186.31
328.829	121.31
329.058	139.31
329.287	137.31
329.515	110.31
329.744	133.31
329.972	171.31
330.201	255.31
330.43	336.31
330.658	202.31
330.887	165.31
331.115	119.31
331.344	112.31
331.572	115.31
331.801	104.31
332.03	100.31
332.258	94.31
332.486	84.31
332.715	96.31
332.943	100.31
333.172	102.31
333.4	98.31
333.629	106.31
333.857	133.31
334.085	163.31
334.314	260.31
334.542	385.31
334.771	408.31
334.999	155.31
335.227	120.31
335.455	102.31
335.684	89.31
335.912	113.31
336.14	104.31
336.369	88.31
336.597	96.31
336.825	107.31
337.053	90.31
337.281	110.31
337.51	99.31
337.738	100.31
337.966	87.31
338.194	104.31
338.422	98.31
338.65	93.31
338.878	91.31
339.106	85.31
339.334	99.31
339.562	101.31
339.79	91.31
340.018	91.31
340.246	88.31
340.474	105.31
340.702	95.31
340.93	92.31
341.158	96.31
341.386	77.31
341.614	100.31
341.842	87.31
342.07	86.31
342.298	92.31
342.526	87.31
342.754	83.31
342.981	93.31
343.209	88.31
343.437	97.31
343.665	81.31
343.893	101.31
344.12	86.31
344.348	100.31
344.576	95.31
344.804	89.31
345.031	96.31
345.259	101.31
345.487	93.31
345.714	99.31
345.942	108.31
346.17	99.31
346.397	95.31
346.625	88.31
346.853	100.31
347.08	87.31
347.308	102.31
347.535	83.31
347.763	94.31
347.99	105.31
348.218	116.31
348.445	126.31
348.673	92.31
348.9	104.31
349.128	101.31
349.355	100.31
349.583	88.31
349.81	91.31
350.037	88.31
350.265	102.31
350.492	108.31
350.72	94.31
350.947	106.31
351.174	109.31
351.402	106.31
351.629	100.31
351.856	86.31
352.083	103.31
352.311	105.31
352.538	100.31
352.765	119.31
352.992	121.31
353.22	105.31
353.447	97.31
353.674	97.31
353.901	93.31
354.128	102.31
354.355	103.31
354.583	101.31
354.81	101.31
355.037	93.31
355.264	89.31
355.491	94.31
355.718	92.31
355.945	99.31
356.172	83.31
356.399	89.31
356.626	92.31
356.853	83.31
357.08	88.31
357.307	92.31
357.534	85.31
357.761	94.31
357.988	103.31
358.215	104.31
358.441	95.31
358.668	85.31
358.895	80.31
359.122	81.31
359.349	89.31
359.576	99.31
359.802	108.31
360.029	129.31
360.256	119.31
360.483	102.31
360.709	80.31
360.936	82.31
361.163	101.31
361.39	92.31
361.616	104.31
361.843	81.31
362.07	101.31
362.296	98.31
362.523	90.31
362.749	101.31
362.976	99.31
363.203	101.31
363.429	97.31
363.656	103.31
363.882	91.31
364.109	93.31
364.335	81.31
364.562	99.31
364.788	88.31
365.015	95.31
365.241	93.31
365.468	112.31
365.694	102.31
365.92	90.31
366.147	103.31
366.373	92.31
366.599	112.31
366.826	101.31
367.052	92.31
367.278	100.31
367.505	94.31
367.731	92.31
367.957	94.31
368.184	85.31
368.41	110.31
368.636	112.31
368.862	118.31
369.089	110.31
369.315	103.31
369.541	102.31
369.767	102.31
369.993	101.31
370.219	103.31
370.445	79.31
370.672	94.31
370.898	90.31
371.124	94.31
371.35	84.31
371.576	85.31
371.802	88.31
372.028	83.31
372.254	91.31
372.48	96.31
372.706	89.31
372.932	90.31
373.158	86.31
373.384	94.31
373.61	106.31
373.835	100.31
374.061	99.31
374.287	103.31
374.513	91.31
374.739	92.31
374.965	94.31
375.191	83.31
375.416	90.31
375.642	88.31
375.868	81.31
376.094	89.31
376.319	99.31
376.545	83.31
376.771	87.31
376.997	87.31
377.222	101.31
377.448	110.31
377.674	88.31
377.899	93.31
378.125	88.31
378.35	91.31
378.576	95.31
378.802	87.31
379.027	95.31
379.253	93.31
379.478	93.31
379.704	85.31
379.929	97.31
380.155	95.31
380.38	101.31
380.606	100.31
380.831	91.31
381.057	94.31
381.282	100.31
381.507	100.31
381.733	93.31
381.958	90.31
382.184	93.31
382.409	86.31
382.634	87.31
382.86	95.31
383.085	93.31
383.31	103.31
383.535	95.31
383.761	77.31
383.986	95.31
384.211	98.31
384.436	99.31
384.662	100.31
384.887	96.31
385.112	100.31
385.337	92.31
385.562	98.31
385.787	105.31
386.013	118.31
386.238	109.31
386.463	85.31
386.688	104.31
386.913	95.31
387.138	95.31
387.363	93.31
387.588	104.31
387.813	102.31
388.038	89.31
388.263	99.31
388.488	107.31
388.713	95.31
388.938	97.31
389.163	92.31
389.387	102.31
389.612	96.31
389.837	90.31
390.062	93.31
390.287	91.31
390.512	99.31
390.736	91.31
390.961	92.31
391.186	95.31
391.411	91.31
391.636	99.31
391.86	88.31
392.085	89.31
392.31	88.31
392.534	84.31
392.759	81.31
392.984	85.31
393.208	86.31
393.433	81.31
393.658	80.31
393.882	89.31
394.107	88.31
394.331	97.31
394.556	74.31
394.78	101.31
395.005	96.31
395.229	87.31
395.454	93.31
395.678	85.31
395.903	87.31
396.127	97.31
396.352	90.31
396.576	90.31
396.801	93.31
397.025	77.31
397.249	65.31
397.474	93.31
397.698	87.31
397.922	95.31
398.147	78.31
398.371	85.31
398.595	85.31
398.82	81.31
399.044	92.31
399.268	82.31
399.492	69.31
399.717	76.31
399.941	80.31
400.165	93.31
400.389	102.31
400.613	79.31
400.837	85.31
401.062	86.31
401.286	85.31
401.51	98.31
401.734	105.31
401.958	100.31
402.182	138.31
402.406	179.31
402.63	117.31
402.854	104.31
403.078	71.31
403.302	78.31
403.526	86.31
403.75	72.31
403.974	80.31
404.198	87.31
404.422	84.31
404.645	91.31
404.869	93.31
405.093	108.31
405.317	120.31
405.541	119.31
405.765	100.31
405.988	129.31
406.212	188.31
406.436	236.31
406.66	143.31
406.883	89.31
407.107	95.31
407.331	87.31
407.555	117.31
407.778	103.31
408.002	106.31
408.226	91.31
408.449	89.31
408.673	103.31
408.896	90.31
409.12	97.31
409.344	95.31
409.567	94.31
409.791	108.31
410.014	88.31
410.238	78.31
410.461	92.31
410.685	101.31
410.908	99.31
411.132	104.31
411.355	104.31
411.578	88.31
411.802	86.31
412.025	88.31
412.249	94.31
412.472	105.31
412.695	117.31
412.919	91.31
413.142	80.31
413.365	105.31
413.589	87.31
413.812	90.31
414.035	106.31
414.258	91.31
414.482	94.31
414.705	86.31
414.928	105.31
415.151	93.31
415.374	97.31
415.597	96.31
415.821	91.31
416.044	94.31
416.267	93.31
416.49	91.31
416.713	89.31
416.936	98.31
417.159	83.31
417.382	81.31
417.605	87.31
417.828	92.31
418.051	98.31
418.274	72.31
418.497	79.31
418.72	87.31
418.943	91.31
419.166	85.31
419.389	79.31
419.611	109.31
419.834	74.31
420.057	84.31
420.28	105.31
420.503	89.31
420.726	86.31
420.948	88.31
421.171	97.31
421.394	94.31
421.617	88.31
421.839	97.31
422.062	87.31
422.285	85.31
422.507	88.31
422.73	88.31
422.953	108.31
423.175	91.31
423.398	94.31
423.621	96.31
423.843	88.31
424.066	87.31
424.288	86.31
424.511	96.31
424.733	115.31
424.956	134.31
425.178	104.31
425.401	100.31
425.623	104.31
425.846	91.31
426.068	97.31
426.291	85.31
426.513	75.31
426.735	79.31
426.958	92.31
427.18	111.31
427.402	160.31
427.625	192.31
427.847	155.31
428.069	134.31
428.292	91.31
428.514	71.31
428.736	86.31
428.958	85.31
429.181	78.31
429.403	80.31
429.625	89.31
429.847	86.31
430.069	108.31
430.292	95.31
430.514	95.31
430.736	91.31
430.958	81.31
431.18	77.31
431.402	89.31
431.624	101.31
431.846	83.31
432.068	101.31
432.29	92.31
432.512	94.31
432.734	90.31
432.956	77.31
433.178	103.31
433.4	109.31
433.622	96.31
433.844	107.31
434.066	95.31
434.287	97.31
434.509	103.31
434.731	85.31
434.953	96.31
435.175	108.31
435.397	99.31
435.618	96.31
435.84	101.31
436.062	115.31
436.284	127.31
436.505	102.31
436.727	115.31
436.949	89.31
437.17	94.31
437.392	99.31
437.614	103.31
437.835	111.31
438.057	119.31
438.278	127.31
438.5	122.31
438.721	128.31
438.943	108.31
439.165	87.31
439.386	85.31
439.608	90.31
439.829	102.31
440.05	118.31
440.272	167.31
440.493	105.31
440.715	79.31
440.936	96.31
441.158	88.31
441.379	81.31
441.6	93.31
441.822	90.31
442.043	90.31
442.264	112.31
442.486	117.31
442.707	108.31
442.928	108.31
443.149	146.31
443.371	143.31
443.592	123.31
443.813	121.31
444.034	115.31
444.255	88.31
444.476	86.31
444.698	91.31
444.919	87.31
445.14	140.31
445.361	121.31
445.582	133.31
445.803	155.31
446.024	161.31
446.245	155.31
446.466	120.31
446.687	93.31
446.908	95.31
447.129	90.31
447.35	86.31
447.571	91.31
447.792	102.31
448.013	102.31
448.234	104.31
448.455	100.31
448.675	128.31
448.896	122.31
449.117	97.31
449.338	94.31
449.559	138.31
449.779	147.31
450	106.31
450.221	97.31
450.442	104.31
450.662	102.31
450.883	113.31
451.104	122.31
451.324	100.31
451.545	90.31
451.766	92.31
451.986	82.31
452.207	83.31
452.428	89.31
452.648	100.31
452.869	122.31
453.089	109.31
453.31	115.31
453.53	92.31
453.751	95.31
453.971	107.31
454.192	111.31
454.412	109.31
454.633	91.31
454.853	91.31
455.073	78.31
455.294	84.31
455.514	109.31
455.734	79.31
455.955	75.31
456.175	77.31
456.395	82.31
456.616	82.31
456.836	85.31
457.056	79.31
457.276	91.31
457.497	84.31
457.717	86.31
457.937	85.31
458.157	89.31
458.377	98.31
458.598	110.31
458.818	159.31
459.038	190.31
459.258	129.31
459.478	94.31
459.698	99.31
459.918	90.31
460.138	75.31
460.358	91.31
460.578	80.31
460.798	94.31
461.018	89.31
461.238	81.31
461.458	92.31
461.678	81.31
461.898	92.31
462.118	84.31
462.338	88.31
462.558	68.31
462.777	89.31
462.997	87.31
463.217	94.31
463.437	99.31
463.657	103.31
463.876	85.31
464.096	85.31
464.316	101.31
464.536	104.31
464.755	92.31
464.975	127.31
465.195	169.31
465.414	185.31
465.634	95.31
465.854	92.31
466.073	84.31
466.293	98.31
466.512	85.31
466.732	85.31
466.951	88.31
467.171	100.31
467.391	93.31
467.61	101.31
467.829	99.31
468.049	161.31
468.268	208.31
468.488	92.31
468.707	92.31
468.927	85.31
469.146	80.31
469.365	94.31
469.585	103.31
469.804	101.31
470.023	101.31
470.243	83.31
470.462	107.31
470.681	112.31
470.901	100.31
471.12	86.31
471.339	76.31
471.558	99.31
471.777	95.31
471.997	119.31
472.216	266.31
472.435	500.31
472.654	172.31
472.873	106.31
473.092	88.31
473.311	99.31
473.53	77.31
473.749	83.31
473.968	100.31
474.187	102.31
474.406	108.31
474.625	88.31
474.844	86.31
475.063	90.31
475.282	86.31
475.501	78.31
475.72	95.31
475.939	87.31
476.158	81.31
476.377	99.31
476.596	93.31
476.814	96.31
477.033	103.31
477.252	98.31
477.471	85.31
477.69	93.31
477.908	89.31
478.127	99.31
478.346	96.31
478.564	88.31
478.783	92.31
479.002	104.31
479.22	84.31
479.439	104.31
479.658	102.31
479.876	91.31
480.095	90.31
480.313	103.31
480.532	115.31
480.751	133.31
480.969	271.31
481.188	859.31
481.406	585.31
481.624	146.31
481.843	99.31
482.061	83.31
482.28	91.31
482.498	95.31
482.717	85.31
482.935	85.31
483.153	90.31
483.372	93.31
483.59	85.31
483.808	84.31
484.027	103.31
484.245	83.31
484.463	94.31
484.681	105.31
484.9	100.31
485.118	109.31
485.336	89.31
485.554	88.31
485.772	106.31
485.99	89.31
486.209	98.31
486.427	106.31
486.645	99.31
486.863	109.31
487.081	92.31
487.299	88.31
487.517	94.31
487.735	90.31
487.953	102.31
488.171	103.31
488.389	89.31
488.607	100.31
488.825	96.31
489.043	100.31
489.261	93.31
489.479	92.31
489.696	89.31
489.914	87.31
490.132	88.31
490.35	89.31
490.568	92.31
490.786	94.31
491.003	81.31
491.221	83.31
491.439	97.31
491.657	97.31
491.874	86.31
492.092	106.31
492.31	105.31
492.527	82.31
492.745	86.31
492.963	94.31
493.18	79.31
493.398	89.31
493.615	103.31
493.833	94.31
494.05	94.31
494.268	90.31
494.485	99.31
494.703	83.31
494.92	87.31
495.138	98.31
495.355	80.31
495.573	95.31
495.79	81.31
496.008	96.31
496.225	87.31
496.442	96.31
496.66	90.31
496.877	86.31
497.094	91.31
497.312	90.31
497.529	77.31
497.746	90.31
497.963	82.31
498.181	79.31
498.398	106.31
498.615	106.31
498.832	105.31
499.049	86.31
499.267	89.31
499.484	95.31
499.701	90.31
499.918	71.31
500.135	91.31
500.352	95.31
500.569	99.31
500.786	93.31
501.003	101.31
501.22	101.31
501.437	89.31
501.654	105.31
501.871	103.31
502.088	89.31
502.305	81.31
502.522	93.31
502.739	90.31
502.956	87.31
503.172	86.31
503.389	99.31
503.606	111.31
503.823	102.31
504.04	92.31
504.256	100.31
504.473	83.31
504.69	86.31
504.907	103.31
505.123	84.31
505.34	105.31
505.557	98.31
505.773	81.31
505.99	77.31
506.207	90.31
506.423	87.31
506.64	81.31
506.856	84.31
507.073	96.31
507.289	95.31
507.506	104.31
507.722	119.31
507.939	117.31
508.155	99.31
508.372	99.31
508.588	86.31
508.805	94.31
509.021	93.31
509.238	86.31
509.454	95.31
509.67	101.31
509.887	102.31
510.103	141.31
510.319	212.31
510.536	760.31
510.752	2519.31
510.968	713.31
511.184	166.31
511.401	112.31
511.617	95.31
511.833	91.31
512.049	95.31
512.265	97.31
512.481	87.31
512.698	93.31
512.914	96.31
513.13	96.31
513.346	76.31
513.562	88.31
513.778	95.31
513.994	96.31
514.21	95.31
514.426	122.31
514.642	149.31
