Data from Circ_2011_H10_HRD10591_00038.txt Node
Date: Wed Jan 03 10:08:06 EST 2024
User: Yrep
Spectrometer: HR+D1059
Trigger mode: 1
Integration Time (sec): 1.000000E-1
Scans to average: 1
Electric dark correction enabled: true
Nonlinearity correction enabled: false
Boxcar width: 0
XAxis mode: Wavelengths
Number of Pixels in Spectrum: 2048
>>>>>Begin Spectral Data<<<<<
223.165	-24.56
223.4	-24.56
223.635	-24.56
223.869	-29.56
224.104	-19.56
224.338	-10.56
224.573	-19.56
224.808	-8.56
225.042	-17.56
225.277	3.44
225.511	7.44
225.746	18.44
225.98	-1.56
226.215	1.44
226.449	13.44
226.683	30.44
226.918	29.44
227.152	27.44
227.387	45.44
227.621	40.44
227.856	24.44
228.09	51.44
228.324	57.44
228.559	63.44
228.793	58.44
229.027	72.44
229.262	63.44
229.496	59.44
229.73	62.44
229.964	71.44
230.199	61.44
230.433	58.44
230.667	70.44
230.901	71.44
231.136	74.44
231.37	76.44
231.604	83.44
231.838	82.44
232.072	76.44
232.306	65.44
232.541	74.44
232.775	80.44
233.009	93.44
233.243	96.44
233.477	90.44
233.711	80.44
233.945	75.44
234.179	82.44
234.413	74.44
234.647	80.44
234.881	69.44
235.115	86.44
235.349	77.44
235.583	85.44
235.817	70.44
236.051	67.44
236.285	69.44
236.519	92.44
236.753	72.44
236.987	84.44
237.221	94.44
237.455	80.44
237.689	71.44
237.922	69.44
238.156	78.44
238.39	65.44
238.624	73.44
238.858	71.44
239.091	80.44
239.325	80.44
239.559	78.44
239.793	72.44
240.027	78.44
240.26	69.44
240.494	68.44
240.728	84.44
240.961	77.44
241.195	83.44
241.429	89.44
241.662	80.44
241.896	79.44
242.13	78.44
242.363	74.44
242.597	84.44
242.83	73.44
243.064	73.44
243.298	83.44
243.531	80.44
243.765	80.44
243.998	85.44
244.232	80.44
244.465	81.44
244.699	89.44
244.932	76.44
245.166	73.44
245.399	73.44
245.633	80.44
245.866	84.44
246.099	70.44
246.333	85.44
246.566	81.44
246.8	83.44
247.033	84.44
247.266	80.44
247.5	69.44
247.733	92.44
247.966	96.44
248.2	78.44
248.433	76.44
248.666	80.44
248.899	80.44
249.133	88.44
249.366	110.44
249.599	91.44
249.832	82.44
250.066	85.44
250.299	75.44
250.532	91.44
250.765	67.44
250.998	79.44
251.231	73.44
251.465	87.44
251.698	80.44
251.931	87.44
252.164	86.44
252.397	85.44
252.63	79.44
252.863	85.44
253.096	71.44
253.329	74.44
253.562	74.44
253.795	77.44
254.028	79.44
254.261	83.44
254.494	74.44
254.727	85.44
254.96	75.44
255.193	84.44
255.426	78.44
255.659	75.44
255.892	77.44
256.124	63.44
256.357	71.44
256.59	91.44
256.823	77.44
257.056	90.44
257.289	88.44
257.521	79.44
257.754	71.44
257.987	80.44
258.22	95.44
258.452	74.44
258.685	75.44
258.918	86.44
259.151	87.44
259.383	79.44
259.616	72.44
259.849	70.44
260.081	74.44
260.314	82.44
260.547	78.44
260.779	85.44
261.012	79.44
261.244	81.44
261.477	99.44
261.71	93.44
261.942	115.44
262.175	119.44
262.407	80.44
262.64	74.44
262.872	86.44
263.105	90.44
263.337	78.44
263.57	83.44
263.802	81.44
264.035	82.44
264.267	92.44
264.499	81.44
264.732	77.44
264.964	78.44
265.197	79.44
265.429	79.44
265.661	93.44
265.894	76.44
266.126	81.44
266.358	77.44
266.591	77.44
266.823	88.44
267.055	70.44
267.287	86.44
267.52	80.44
267.752	66.44
267.984	79.44
268.216	82.44
268.448	93.44
268.681	91.44
268.913	88.44
269.145	85.44
269.377	94.44
269.609	96.44
269.841	90.44
270.073	81.44
270.306	64.44
270.538	89.44
270.77	85.44
271.002	94.44
271.234	96.44
271.466	82.44
271.698	95.44
271.93	79.44
272.162	88.44
272.394	90.44
272.626	94.44
272.858	79.44
273.09	86.44
273.322	97.44
273.553	93.44
273.785	84.44
274.017	58.44
274.249	88.44
274.481	78.44
274.713	94.44
274.945	81.44
275.176	99.44
275.408	89.44
275.64	80.44
275.872	93.44
276.104	88.44
276.335	88.44
276.567	84.44
276.799	108.44
277.031	123.44
277.262	104.44
277.494	75.44
277.726	84.44
277.957	100.44
278.189	71.44
278.421	93.44
278.652	80.44
278.884	81.44
279.115	100.44
279.347	96.44
279.579	89.44
279.81	86.44
280.042	79.44
280.273	92.44
280.505	88.44
280.736	90.44
280.968	91.44
281.199	87.44
281.431	87.44
281.662	68.44
281.894	73.44
282.125	100.44
282.356	119.44
282.588	116.44
282.819	106.44
283.051	98.44
283.282	87.44
283.513	78.44
283.745	90.44
283.976	79.44
284.207	78.44
284.439	90.44
284.67	98.44
284.901	79.44
285.132	87.44
285.364	83.44
285.595	80.44
285.826	95.44
286.057	77.44
286.288	89.44
286.52	93.44
286.751	74.44
286.982	81.44
287.213	101.44
287.444	79.44
287.675	82.44
287.906	83.44
288.138	89.44
288.369	96.44
288.6	87.44
288.831	80.44
289.062	92.44
289.293	89.44
289.524	83.44
289.755	100.44
289.986	86.44
290.217	79.44
290.448	84.44
290.679	83.44
290.91	87.44
291.141	85.44
291.371	103.44
291.602	86.44
291.833	102.44
292.064	87.44
292.295	76.44
292.526	84.44
292.757	100.44
292.987	100.44
293.218	99.44
293.449	84.44
293.68	86.44
293.91	77.44
294.141	99.44
294.372	89.44
294.603	83.44
294.833	77.44
295.064	88.44
295.295	94.44
295.525	82.44
295.756	95.44
295.987	115.44
296.217	140.44
296.448	136.44
296.679	88.44
296.909	92.44
297.14	88.44
297.37	88.44
297.601	90.44
297.831	88.44
298.062	94.44
298.292	81.44
298.523	102.44
298.753	98.44
298.984	86.44
299.214	88.44
299.445	94.44
299.675	97.44
299.905	94.44
300.136	82.44
300.366	78.44
300.597	90.44
300.827	112.44
301.057	97.44
301.288	104.44
301.518	95.44
301.748	89.44
301.979	90.44
302.209	98.44
302.439	80.44
302.669	99.44
302.9	96.44
303.13	102.44
303.36	112.44
303.59	95.44
303.82	108.44
304.051	88.44
304.281	80.44
304.511	87.44
304.741	88.44
304.971	92.44
305.201	79.44
305.431	92.44
305.661	97.44
305.891	92.44
306.121	99.44
306.352	103.44
306.582	94.44
306.812	94.44
307.042	88.44
307.272	112.44
307.502	101.44
307.731	99.44
307.961	92.44
308.191	81.44
308.421	93.44
308.651	96.44
308.881	115.44
309.111	87.44
309.341	84.44
309.571	99.44
309.8	98.44
310.03	108.44
310.26	102.44
310.49	90.44
310.72	103.44
310.949	106.44
311.179	94.44
311.409	92.44
311.639	80.44
311.868	91.44
312.098	96.44
312.328	76.44
312.557	112.44
312.787	109.44
313.017	113.44
313.246	100.44
313.476	100.44
313.706	82.44
313.935	90.44
314.165	88.44
314.394	92.44
314.624	104.44
314.853	117.44
315.083	88.44
315.312	89.44
315.542	87.44
315.771	87.44
316.001	104.44
316.23	88.44
316.46	94.44
316.689	96.44
316.919	87.44
317.148	98.44
317.377	102.44
317.607	97.44
317.836	97.44
318.065	85.44
318.295	72.44
318.524	90.44
318.753	89.44
318.983	88.44
319.212	96.44
319.441	115.44
319.67	87.44
319.9	93.44
320.129	102.44
320.358	94.44
320.587	81.44
320.816	94.44
321.046	104.44
321.275	94.44
321.504	89.44
321.733	106.44
321.962	96.44
322.191	100.44
322.42	111.44
322.649	116.44
322.878	120.44
323.108	116.44
323.337	139.44
323.566	136.44
323.795	175.44
324.024	221.44
324.253	486.44
324.482	1024.44
324.71	2179.44
324.939	2827.44
325.168	1006.44
325.397	280.44
325.626	160.44
325.855	139.44
326.084	143.44
326.313	142.44
326.542	157.44
326.77	271.44
326.999	551.44
327.228	1205.44
327.457	2211.44
327.686	1713.44
327.914	445.44
328.143	232.44
328.372	183.44
328.6	154.44
328.829	134.44
329.058	147.44
329.287	124.44
329.515	112.44
329.744	127.44
329.972	137.44
330.201	176.44
330.43	245.44
330.658	171.44
330.887	159.44
331.115	142.44
331.344	100.44
331.572	94.44
331.801	85.44
332.03	115.44
332.258	100.44
332.486	93.44
332.715	94.44
332.943	90.44
333.172	81.44
333.4	88.44
333.629	104.44
333.857	95.44
334.085	133.44
334.314	183.44
334.542	255.44
334.771	256.44
334.999	118.44
335.227	92.44
335.455	95.44
335.684	102.44
335.912	107.44
336.14	104.44
336.369	91.44
336.597	94.44
336.825	92.44
337.053	85.44
337.281	102.44
337.51	97.44
337.738	86.44
337.966	87.44
338.194	92.44
338.422	96.44
338.65	88.44
338.878	79.44
339.106	85.44
339.334	80.44
339.562	78.44
339.79	100.44
340.018	105.44
340.246	95.44
340.474	101.44
340.702	75.44
340.93	99.44
341.158	96.44
341.386	101.44
341.614	98.44
341.842	83.44
342.07	79.44
342.298	96.44
342.526	97.44
342.754	87.44
342.981	93.44
343.209	73.44
343.437	97.44
343.665	103.44
343.893	87.44
344.12	81.44
344.348	68.44
344.576	96.44
344.804	81.44
345.031	93.44
345.259	102.44
345.487	80.44
345.714	95.44
345.942	95.44
346.17	91.44
346.397	86.44
346.625	87.44
346.853	99.44
347.08	103.44
347.308	90.44
347.535	88.44
347.763	101.44
347.99	87.44
348.218	94.44
348.445	103.44
348.673	81.44
348.9	84.44
349.128	96.44
349.355	92.44
349.583	96.44
349.81	82.44
350.037	99.44
350.265	85.44
350.492	101.44
350.72	90.44
350.947	106.44
351.174	91.44
351.402	100.44
351.629	107.44
351.856	108.44
352.083	95.44
352.311	104.44
352.538	112.44
352.765	96.44
352.992	118.44
353.22	106.44
353.447	103.44
353.674	96.44
353.901	96.44
354.128	88.44
354.355	76.44
354.583	105.44
354.81	100.44
355.037	92.44
355.264	98.44
355.491	87.44
355.718	79.44
355.945	93.44
356.172	92.44
356.399	87.44
356.626	86.44
356.853	83.44
357.08	99.44
357.307	94.44
357.534	96.44
357.761	91.44
357.988	93.44
358.215	97.44
358.441	92.44
358.668	95.44
358.895	94.44
359.122	94.44
359.349	88.44
359.576	86.44
359.802	109.44
360.029	115.44
360.256	115.44
360.483	101.44
360.709	88.44
360.936	84.44
361.163	77.44
361.39	87.44
361.616	90.44
361.843	93.44
362.07	87.44
362.296	90.44
362.523	93.44
362.749	87.44
362.976	82.44
363.203	79.44
363.429	95.44
363.656	97.44
363.882	93.44
364.109	103.44
364.335	76.44
364.562	80.44
364.788	76.44
365.015	103.44
365.241	107.44
365.468	99.44
365.694	101.44
365.92	104.44
366.147	99.44
366.373	92.44
366.599	94.44
366.826	90.44
367.052	91.44
367.278	98.44
367.505	85.44
367.731	94.44
367.957	102.44
368.184	101.44
368.41	85.44
368.636	96.44
368.862	108.44
369.089	102.44
369.315	84.44
369.541	87.44
369.767	89.44
369.993	94.44
370.219	94.44
370.445	88.44
370.672	91.44
370.898	97.44
371.124	78.44
371.35	94.44
371.576	82.44
371.802	95.44
372.028	73.44
372.254	100.44
372.48	77.44
372.706	87.44
372.932	93.44
373.158	91.44
373.384	88.44
373.61	75.44
373.835	86.44
374.061	79.44
374.287	100.44
374.513	90.44
374.739	90.44
374.965	86.44
375.191	83.44
375.416	90.44
375.642	89.44
375.868	90.44
376.094	91.44
376.319	93.44
376.545	72.44
376.771	80.44
376.997	109.44
377.222	65.44
377.448	92.44
377.674	98.44
377.899	95.44
378.125	76.44
378.35	88.44
378.576	103.44
378.802	87.44
379.027	103.44
379.253	81.44
379.478	78.44
379.704	90.44
379.929	92.44
380.155	83.44
380.38	91.44
380.606	92.44
380.831	96.44
381.057	90.44
381.282	82.44
381.507	82.44
381.733	85.44
381.958	99.44
382.184	91.44
382.409	96.44
382.634	101.44
382.86	91.44
383.085	81.44
383.31	106.44
383.535	95.44
383.761	102.44
383.986	91.44
384.211	99.44
384.436	84.44
384.662	92.44
384.887	85.44
385.112	98.44
385.337	100.44
385.562	112.44
385.787	79.44
386.013	112.44
386.238	117.44
386.463	97.44
386.688	106.44
386.913	93.44
387.138	99.44
387.363	87.44
387.588	90.44
387.813	80.44
388.038	81.44
388.263	97.44
388.488	84.44
388.713	86.44
388.938	101.44
389.163	95.44
389.387	99.44
389.612	71.44
389.837	86.44
390.062	84.44
390.287	92.44
390.512	91.44
390.736	89.44
390.961	86.44
391.186	92.44
391.411	81.44
391.636	92.44
391.86	69.44
392.085	85.44
392.31	87.44
392.534	91.44
392.759	84.44
392.984	94.44
393.208	81.44
393.433	93.44
393.658	80.44
393.882	85.44
394.107	89.44
394.331	96.44
394.556	87.44
394.78	92.44
395.005	91.44
395.229	78.44
395.454	92.44
395.678	90.44
395.903	79.44
396.127	87.44
396.352	87.44
396.576	78.44
396.801	104.44
397.025	83.44
397.249	87.44
397.474	92.44
397.698	87.44
397.922	94.44
398.147	75.44
398.371	86.44
398.595	76.44
398.82	80.44
399.044	90.44
399.268	81.44
399.492	72.44
399.717	92.44
399.941	87.44
400.165	93.44
400.389	100.44
400.613	87.44
400.837	92.44
401.062	98.44
401.286	97.44
401.51	80.44
401.734	91.44
401.958	106.44
402.182	137.44
402.406	156.44
402.63	133.44
402.854	102.44
403.078	95.44
403.302	79.44
403.526	96.44
403.75	88.44
403.974	88.44
404.198	89.44
404.422	98.44
404.645	98.44
404.869	96.44
405.093	94.44
405.317	95.44
405.541	117.44
405.765	118.44
405.988	128.44
406.212	167.44
406.436	231.44
406.66	164.44
406.883	115.44
407.107	87.44
407.331	96.44
407.555	100.44
407.778	95.44
408.002	92.44
408.226	88.44
408.449	72.44
408.673	91.44
408.896	103.44
409.12	89.44
409.344	85.44
409.567	92.44
409.791	81.44
410.014	86.44
410.238	94.44
410.461	93.44
410.685	90.44
410.908	102.44
411.132	92.44
411.355	110.44
411.578	90.44
411.802	103.44
412.025	87.44
412.249	78.44
412.472	102.44
412.695	99.44
412.919	81.44
413.142	86.44
413.365	81.44
413.589	87.44
413.812	74.44
414.035	88.44
414.258	88.44
414.482	93.44
414.705	91.44
414.928	91.44
415.151	99.44
415.374	90.44
415.597	89.44
415.821	98.44
416.044	87.44
416.267	76.44
416.49	79.44
416.713	95.44
416.936	90.44
417.159	91.44
417.382	79.44
417.605	92.44
417.828	91.44
418.051	89.44
418.274	87.44
418.497	85.44
418.72	76.44
418.943	80.44
419.166	87.44
419.389	84.44
419.611	79.44
419.834	86.44
420.057	83.44
420.28	93.44
420.503	80.44
420.726	99.44
420.948	88.44
421.171	96.44
421.394	85.44
421.617	94.44
421.839	98.44
422.062	88.44
422.285	83.44
422.507	106.44
422.73	102.44
422.953	84.44
423.175	83.44
423.398	85.44
423.621	86.44
423.843	87.44
424.066	85.44
424.288	76.44
424.511	75.44
424.733	95.44
424.956	109.44
425.178	102.44
425.401	114.44
425.623	113.44
425.846	91.44
426.068	92.44
426.291	89.44
426.513	77.44
426.735	94.44
426.958	100.44
427.18	109.44
427.402	156.44
427.625	190.44
427.847	156.44
428.069	143.44
428.292	93.44
428.514	94.44
428.736	84.44
428.958	83.44
429.181	90.44
429.403	94.44
429.625	96.44
429.847	100.44
430.069	93.44
430.292	89.44
430.514	93.44
430.736	75.44
430.958	104.44
431.18	81.44
431.402	100.44
431.624	89.44
431.846	76.44
432.068	83.44
432.29	83.44
432.512	93.44
432.734	79.44
432.956	86.44
433.178	108.44
433.4	119.44
433.622	106.44
433.844	76.44
434.066	88.44
434.287	103.44
434.509	90.44
434.731	93.44
434.953	102.44
435.175	97.44
435.397	86.44
435.618	107.44
435.84	93.44
436.062	118.44
436.284	136.44
436.505	105.44
436.727	88.44
436.949	99.44
437.17	105.44
437.392	96.44
437.614	94.44
437.835	115.44
438.057	120.44
438.278	121.44
438.5	112.44
438.721	115.44
438.943	103.44
439.165	75.44
439.386	92.44
439.608	96.44
439.829	103.44
440.05	134.44
440.272	160.44
440.493	101.44
440.715	89.44
440.936	101.44
441.158	99.44
441.379	83.44
441.6	97.44
441.822	95.44
442.043	90.44
442.264	116.44
442.486	100.44
442.707	71.44
442.928	113.44
443.149	144.44
443.371	139.44
443.592	116.44
443.813	118.44
444.034	118.44
444.255	107.44
444.476	103.44
444.698	84.44
444.919	102.44
445.14	139.44
445.361	129.44
445.582	110.44
445.803	127.44
446.024	154.44
446.245	132.44
446.466	119.44
446.687	85.44
446.908	99.44
447.129	78.44
447.35	88.44
447.571	92.44
447.792	96.44
448.013	109.44
448.234	104.44
448.455	118.44
448.675	127.44
448.896	125.44
449.117	101.44
449.338	94.44
449.559	124.44
449.779	151.44
450	90.44
450.221	90.44
450.442	92.44
450.662	107.44
450.883	99.44
451.104	108.44
451.324	90.44
451.545	85.44
451.766	81.44
451.986	96.44
452.207	87.44
452.428	98.44
452.648	96.44
452.869	103.44
453.089	108.44
453.31	112.44
453.53	101.44
453.751	98.44
453.971	116.44
454.192	104.44
454.412	82.44
454.633	81.44
454.853	78.44
455.073	84.44
455.294	81.44
455.514	108.44
455.734	99.44
455.955	90.44
456.175	80.44
456.395	90.44
456.616	87.44
456.836	92.44
457.056	82.44
457.276	94.44
457.497	91.44
457.717	87.44
457.937	94.44
458.157	79.44
458.377	88.44
458.598	122.44
458.818	152.44
459.038	168.44
459.258	118.44
459.478	107.44
459.698	91.44
459.918	88.44
460.138	79.44
460.358	74.44
460.578	91.44
460.798	89.44
461.018	81.44
461.238	86.44
461.458	83.44
461.678	74.44
461.898	95.44
462.118	84.44
462.338	95.44
462.558	76.44
462.777	82.44
462.997	83.44
463.217	77.44
463.437	84.44
463.657	73.44
463.876	78.44
464.096	92.44
464.316	102.44
464.536	89.44
464.755	98.44
464.975	110.44
465.195	179.44
465.414	168.44
465.634	81.44
465.854	82.44
466.073	104.44
466.293	80.44
466.512	85.44
466.732	77.44
466.951	86.44
467.171	95.44
467.391	100.44
467.61	118.44
467.829	95.44
468.049	144.44
468.268	141.44
468.488	95.44
468.707	81.44
468.927	91.44
469.146	85.44
469.365	85.44
469.585	92.44
469.804	96.44
470.023	103.44
470.243	81.44
470.462	107.44
470.681	121.44
470.901	91.44
471.12	87.44
471.339	81.44
471.558	95.44
471.777	77.44
471.997	102.44
472.216	205.44
472.435	305.44
472.654	137.44
472.873	90.44
473.092	86.44
473.311	69.44
473.53	78.44
473.749	90.44
473.968	89.44
474.187	115.44
474.406	97.44
474.625	91.44
474.844	85.44
475.063	87.44
475.282	73.44
475.501	95.44
475.72	78.44
475.939	88.44
476.158	76.44
476.377	73.44
476.596	90.44
476.814	85.44
477.033	97.44
477.252	86.44
477.471	92.44
477.69	83.44
477.908	85.44
478.127	85.44
478.346	93.44
478.564	79.44
478.783	92.44
479.002	94.44
479.22	78.44
479.439	111.44
479.658	105.44
479.876	125.44
480.095	95.44
480.313	110.44
480.532	87.44
480.751	99.44
480.969	205.44
481.188	539.44
481.406	360.44
481.624	123.44
481.843	102.44
482.061	91.44
482.28	98.44
482.498	91.44
482.717	73.44
482.935	106.44
483.153	92.44
483.372	92.44
483.59	87.44
483.808	87.44
484.027	95.44
484.245	84.44
484.463	90.44
484.681	84.44
484.9	88.44
485.118	86.44
485.336	102.44
485.554	108.44
485.772	102.44
485.99	105.44
486.209	115.44
486.427	92.44
486.645	105.44
486.863	112.44
487.081	104.44
487.299	83.44
487.517	104.44
487.735	92.44
487.953	100.44
488.171	89.44
488.389	98.44
488.607	96.44
488.825	77.44
489.043	85.44
489.261	98.44
489.479	91.44
489.696	92.44
489.914	80.44
490.132	88.44
490.35	88.44
490.568	71.44
490.786	94.44
491.003	83.44
491.221	87.44
491.439	95.44
491.657	86.44
491.874	96.44
492.092	90.44
492.31	94.44
492.527	92.44
492.745	84.44
492.963	84.44
493.18	85.44
493.398	97.44
493.615	94.44
493.833	82.44
494.05	79.44
494.268	81.44
494.485	90.44
494.703	76.44
494.92	79.44
495.138	92.44
495.355	72.44
495.573	85.44
495.79	77.44
496.008	82.44
496.225	95.44
496.442	90.44
496.66	108.44
496.877	102.44
497.094	93.44
497.312	87.44
497.529	87.44
497.746	92.44
497.963	79.44
498.181	89.44
498.398	98.44
498.615	95.44
498.832	100.44
499.049	98.44
499.267	73.44
499.484	79.44
499.701	93.44
499.918	92.44
500.135	92.44
500.352	96.44
500.569	86.44
500.786	78.44
501.003	84.44
501.22	95.44
501.437	95.44
501.654	92.44
501.871	111.44
502.088	98.44
502.305	81.44
502.522	88.44
502.739	104.44
502.956	91.44
503.172	89.44
503.389	96.44
503.606	104.44
503.823	83.44
504.04	85.44
504.256	86.44
504.473	91.44
504.69	91.44
504.907	97.44
505.123	89.44
505.34	96.44
505.557	97.44
505.773	92.44
505.99	80.44
506.207	90.44
506.423	90.44
506.64	80.44
506.856	103.44
507.073	79.44
507.289	96.44
507.506	97.44
507.722	112.44
507.939	124.44
508.155	110.44
508.372	93.44
508.588	111.44
508.805	95.44
509.021	98.44
509.238	91.44
509.454	88.44
509.67	91.44
509.887	93.44
510.103	133.44
510.319	210.44
510.536	697.44
510.752	2288.44
510.968	649.44
511.184	143.44
511.401	121.44
511.617	90.44
511.833	101.44
512.049	92.44
512.265	97.44
512.481	90.44
512.698	99.44
512.914	96.44
513.13	91.44
513.346	78.44
513.562	85.44
513.778	81.44
513.994	107.44
514.21	100.44
514.426	116.44
514.642	139.44
514.858	133.44
515.074	176.44
515.29	442.44
515.506	1496.44
515.721	567.44
