Data from Circ_2011_H10_HRD10591_00032.txt Node
Date: Wed Jan 03 10:08:05 EST 2024
User: Yrep
Spectrometer: HR+D1059
Trigger mode: 1
Integration Time (sec): 1.000000E-1
Scans to average: 1
Electric dark correction enabled: true
Nonlinearity correction enabled: false
Boxcar width: 0
XAxis mode: Wavelengths
Number of Pixels in Spectrum: 2048
>>>>>Begin Spectral Data<<<<<
223.165	-15
223.4	-15
223.635	-15
223.869	-17
224.104	-25
224.338	-11
224.573	-23
224.808	-18
225.042	-18
225.277	-19
225.511	3
225.746	1
225.98	14
226.215	13
226.449	21
226.683	26
226.918	30
227.152	38
227.387	41
227.621	35
227.856	46
228.09	51
228.324	46
228.559	67
228.793	67
229.027	56
229.262	63
229.496	74
229.73	75
229.964	88
230.199	90
230.433	79
230.667	70
230.901	90
231.136	91
231.37	74
231.604	72
231.838	99
232.072	85
232.306	77
232.541	78
232.775	69
233.009	95
233.243	74
233.477	84
233.711	71
233.945	71
234.179	78
234.413	68
234.647	73
234.881	87
235.115	91
235.349	75
235.583	87
235.817	80
236.051	79
236.285	75
236.519	78
236.753	62
236.987	51
237.221	83
237.455	78
237.689	76
237.922	67
238.156	80
238.39	80
238.624	76
238.858	72
239.091	67
239.325	76
239.559	73
239.793	96
240.027	75
240.26	86
240.494	74
240.728	71
240.961	87
241.195	71
241.429	68
241.662	84
241.896	79
242.13	77
242.363	88
242.597	69
242.83	87
243.064	86
243.298	66
243.531	75
243.765	80
243.998	75
244.232	74
244.465	75
244.699	74
244.932	71
245.166	80
245.399	85
245.633	75
245.866	75
246.099	77
246.333	101
246.566	66
246.8	72
247.033	58
247.266	76
247.5	68
247.733	76
247.966	78
248.2	70
248.433	80
248.666	78
248.899	73
249.133	78
249.366	97
249.599	103
249.832	85
250.066	82
250.299	88
250.532	96
250.765	88
250.998	83
251.231	90
251.465	76
251.698	90
251.931	69
252.164	84
252.397	84
252.63	74
252.863	84
253.096	83
253.329	80
253.562	83
253.795	89
254.028	92
254.261	83
254.494	81
254.727	79
254.96	69
255.193	81
255.426	87
255.659	71
255.892	87
256.124	96
256.357	76
256.59	79
256.823	81
257.056	68
257.289	92
257.521	90
257.754	79
257.987	80
258.22	94
258.452	81
258.685	87
258.918	84
259.151	94
259.383	78
259.616	71
259.849	88
260.081	95
260.314	94
260.547	71
260.779	80
261.012	84
261.244	82
261.477	92
261.71	102
261.942	116
262.175	115
262.407	103
262.64	91
262.872	83
263.105	98
263.337	86
263.57	100
263.802	91
264.035	89
264.267	72
264.499	78
264.732	73
264.964	91
265.197	88
265.429	86
265.661	87
265.894	78
266.126	95
266.358	80
266.591	85
266.823	85
267.055	80
267.287	80
267.52	88
267.752	85
267.984	89
268.216	96
268.448	63
268.681	92
268.913	83
269.145	69
269.377	80
269.609	82
269.841	87
270.073	78
270.306	89
270.538	98
270.77	78
271.002	89
271.234	86
271.466	93
271.698	87
271.93	78
272.162	93
272.394	99
272.626	76
272.858	82
273.09	89
273.322	90
273.553	80
273.785	74
274.017	89
274.249	99
274.481	83
274.713	80
274.945	93
275.176	88
275.408	102
275.64	86
275.872	89
276.104	100
276.335	95
276.567	99
276.799	127
277.031	100
277.262	92
277.494	103
277.726	91
277.957	84
278.189	92
278.421	79
278.652	87
278.884	78
279.115	83
279.347	103
279.579	87
279.81	82
280.042	79
280.273	86
280.505	87
280.736	88
280.968	84
281.199	84
281.431	85
281.662	85
281.894	88
282.125	99
282.356	108
282.588	141
282.819	109
283.051	85
283.282	86
283.513	88
283.745	102
283.976	107
284.207	92
284.439	83
284.67	90
284.901	94
285.132	85
285.364	89
285.595	73
285.826	88
286.057	85
286.288	88
286.52	87
286.751	85
286.982	64
287.213	69
287.444	84
287.675	75
287.906	91
288.138	97
288.369	87
288.6	85
288.831	100
289.062	82
289.293	74
289.524	69
289.755	92
289.986	73
290.217	86
290.448	87
290.679	68
290.91	98
291.141	93
291.371	95
291.602	88
291.833	89
292.064	88
292.295	99
292.526	86
292.757	81
292.987	81
293.218	98
293.449	83
293.68	93
293.91	89
294.141	92
294.372	90
294.603	90
294.833	91
295.064	86
295.295	100
295.525	105
295.756	104
295.987	116
296.217	138
296.448	123
296.679	100
296.909	91
297.14	88
297.37	83
297.601	89
297.831	92
298.062	96
298.292	98
298.523	99
298.753	76
298.984	75
299.214	93
299.445	81
299.675	94
299.905	102
300.136	90
300.366	88
300.597	97
300.827	110
301.057	89
301.288	106
301.518	91
301.748	87
301.979	84
302.209	98
302.439	82
302.669	105
302.9	92
303.13	91
303.36	93
303.59	106
303.82	99
304.051	87
304.281	82
304.511	92
304.741	78
304.971	79
305.201	93
305.431	80
305.661	92
305.891	85
306.121	94
306.352	103
306.582	113
306.812	76
307.042	95
307.272	100
307.502	98
307.731	100
307.961	105
308.191	97
308.421	101
308.651	87
308.881	85
309.111	75
309.341	106
309.571	100
309.8	106
310.03	112
310.26	99
310.49	80
310.72	95
310.949	96
311.179	99
311.409	81
311.639	107
311.868	96
312.098	91
312.328	100
312.557	83
312.787	110
313.017	97
313.246	88
313.476	93
313.706	81
313.935	92
314.165	104
314.394	89
314.624	91
314.853	94
315.083	91
315.312	99
315.542	103
315.771	99
316.001	95
316.23	93
316.46	89
316.689	85
316.919	84
317.148	98
317.377	99
317.607	97
317.836	94
318.065	94
318.295	80
318.524	87
318.753	84
318.983	95
319.212	90
319.441	99
319.67	112
319.9	96
320.129	92
320.358	80
320.587	104
320.816	103
321.046	102
321.275	96
321.504	97
321.733	87
321.962	102
322.191	97
322.42	99
322.649	97
322.878	112
323.108	105
323.337	117
323.566	127
323.795	156
324.024	201
324.253	416
324.482	876
324.71	1887
324.939	2454
325.168	894
325.397	249
325.626	152
325.855	135
326.084	146
326.313	132
326.542	147
326.77	228
326.999	490
327.228	1041
327.457	1910
327.686	1527
327.914	389
328.143	198
328.372	176
328.6	136
328.829	126
329.058	120
329.287	150
329.515	120
329.744	121
329.972	125
330.201	182
330.43	219
330.658	175
330.887	134
331.115	130
331.344	108
331.572	99
331.801	115
332.03	106
332.258	88
332.486	84
332.715	81
332.943	97
333.172	84
333.4	102
333.629	103
333.857	116
334.085	125
334.314	165
334.542	255
334.771	229
334.999	121
335.227	110
335.455	102
335.684	92
335.912	110
336.14	87
336.369	87
336.597	91
336.825	99
337.053	89
337.281	96
337.51	87
337.738	88
337.966	99
338.194	102
338.422	97
338.65	86
338.878	99
339.106	94
339.334	85
339.562	91
339.79	87
340.018	76
340.246	81
340.474	93
340.702	102
340.93	101
341.158	101
341.386	81
341.614	90
341.842	97
342.07	87
342.298	95
342.526	98
342.754	95
342.981	89
343.209	84
343.437	93
343.665	96
343.893	98
344.12	103
344.348	91
344.576	90
344.804	81
345.031	95
345.259	98
345.487	96
345.714	80
345.942	91
346.17	95
346.397	75
346.625	96
346.853	90
347.08	86
347.308	94
347.535	104
347.763	92
347.99	103
348.218	115
348.445	106
348.673	99
348.9	95
349.128	95
349.355	83
349.583	105
349.81	87
350.037	88
350.265	86
350.492	80
350.72	90
350.947	91
351.174	108
351.402	107
351.629	112
351.856	80
352.083	104
352.311	116
352.538	110
352.765	105
352.992	109
353.22	116
353.447	110
353.674	88
353.901	99
354.128	90
354.355	89
354.583	93
354.81	89
355.037	96
355.264	88
355.491	86
355.718	90
355.945	91
356.172	82
356.399	105
356.626	95
356.853	101
357.08	98
357.307	95
357.534	89
357.761	99
357.988	86
358.215	99
358.441	88
358.668	76
358.895	89
359.122	74
359.349	85
359.576	92
359.802	100
360.029	112
360.256	121
360.483	107
360.709	95
360.936	93
361.163	86
361.39	91
361.616	94
361.843	85
362.07	94
362.296	102
362.523	96
362.749	92
362.976	94
363.203	96
363.429	91
363.656	90
363.882	87
364.109	110
364.335	84
364.562	79
364.788	99
365.015	91
365.241	103
365.468	119
365.694	105
365.92	91
366.147	83
366.373	94
366.599	98
366.826	86
367.052	82
367.278	86
367.505	89
367.731	93
367.957	90
368.184	98
368.41	103
368.636	108
368.862	115
369.089	110
369.315	93
369.541	94
369.767	87
369.993	80
370.219	95
370.445	92
370.672	94
370.898	89
371.124	95
371.35	81
371.576	85
371.802	92
372.028	92
372.254	90
372.48	94
372.706	97
372.932	96
373.158	92
373.384	92
373.61	87
373.835	75
374.061	82
374.287	87
374.513	83
374.739	87
374.965	87
375.191	97
375.416	92
375.642	91
375.868	83
376.094	94
376.319	92
376.545	92
376.771	92
376.997	70
377.222	89
377.448	94
377.674	92
377.899	79
378.125	87
378.35	80
378.576	98
378.802	89
379.027	90
379.253	89
379.478	93
379.704	77
379.929	94
380.155	87
380.38	85
380.606	89
380.831	90
381.057	81
381.282	90
381.507	92
381.733	96
381.958	88
382.184	98
382.409	91
382.634	102
382.86	104
383.085	100
383.31	95
383.535	105
383.761	104
383.986	98
384.211	104
384.436	104
384.662	105
384.887	92
385.112	101
385.337	86
385.562	104
385.787	94
386.013	96
386.238	93
386.463	92
386.688	120
386.913	103
387.138	102
387.363	102
387.588	86
387.813	94
388.038	94
388.263	100
388.488	106
388.713	101
388.938	97
389.163	108
389.387	102
389.612	111
389.837	91
390.062	84
390.287	89
390.512	83
390.736	75
390.961	102
391.186	81
391.411	103
391.636	90
391.86	87
392.085	80
392.31	89
392.534	92
392.759	87
392.984	84
393.208	84
393.433	85
393.658	79
393.882	86
394.107	102
394.331	82
394.556	86
394.78	80
395.005	83
395.229	79
395.454	95
395.678	88
395.903	81
396.127	81
396.352	79
396.576	94
396.801	84
397.025	79
397.249	81
397.474	76
397.698	91
397.922	86
398.147	90
398.371	79
398.595	92
398.82	86
399.044	89
399.268	93
399.492	103
399.717	87
399.941	92
400.165	81
400.389	79
400.613	84
400.837	69
401.062	73
401.286	93
401.51	80
401.734	108
401.958	115
402.182	138
402.406	168
402.63	106
402.854	91
403.078	87
403.302	89
403.526	99
403.75	87
403.974	92
404.198	80
404.422	82
404.645	78
404.869	96
405.093	95
405.317	102
405.541	108
405.765	103
405.988	116
406.212	159
406.436	204
406.66	141
406.883	100
407.107	87
407.331	99
407.555	101
407.778	94
408.002	93
408.226	90
408.449	77
408.673	77
408.896	93
409.12	107
409.344	97
409.567	81
409.791	92
410.014	100
410.238	91
410.461	92
410.685	81
410.908	99
411.132	96
411.355	100
411.578	93
411.802	95
412.025	93
412.249	86
412.472	85
412.695	102
412.919	99
413.142	79
413.365	104
413.589	86
413.812	90
414.035	100
414.258	85
414.482	96
414.705	84
414.928	85
415.151	104
415.374	91
415.597	76
415.821	82
416.044	80
416.267	89
416.49	81
416.713	83
416.936	83
417.159	93
417.382	85
417.605	94
417.828	90
418.051	88
418.274	100
418.497	96
418.72	80
418.943	85
419.166	94
419.389	88
419.611	81
419.834	80
420.057	91
420.28	70
420.503	73
420.726	89
420.948	88
421.171	93
421.394	99
421.617	87
421.839	92
422.062	83
422.285	92
422.507	101
422.73	103
422.953	101
423.175	97
423.398	86
423.621	84
423.843	76
424.066	83
424.288	96
424.511	99
424.733	97
424.956	96
425.178	96
425.401	102
425.623	90
425.846	91
426.068	97
426.291	87
426.513	96
426.735	96
426.958	84
427.18	108
427.402	135
427.625	189
427.847	151
428.069	124
428.292	103
428.514	80
428.736	79
428.958	77
429.181	72
429.403	79
429.625	95
429.847	95
430.069	99
430.292	94
430.514	83
430.736	86
430.958	85
431.18	77
431.402	78
431.624	101
431.846	77
432.068	95
432.29	87
432.512	79
432.734	93
432.956	94
433.178	105
433.4	92
433.622	86
433.844	101
434.066	97
434.287	96
434.509	76
434.731	99
434.953	91
435.175	88
435.397	101
435.618	74
435.84	100
436.062	133
436.284	123
436.505	102
436.727	116
436.949	88
437.17	86
437.392	84
437.614	90
437.835	107
438.057	116
438.278	123
438.5	104
438.721	117
438.943	104
439.165	93
439.386	88
439.608	85
439.829	95
440.05	119
440.272	150
440.493	94
440.715	67
440.936	81
441.158	81
441.379	87
441.6	87
441.822	93
442.043	83
442.264	100
442.486	96
442.707	97
442.928	95
443.149	132
443.371	124
443.592	115
443.813	111
444.034	101
444.255	92
444.476	109
444.698	79
444.919	87
445.14	145
445.361	125
445.582	114
445.803	114
446.024	135
446.245	139
446.466	123
446.687	78
446.908	94
447.129	89
447.35	83
447.571	98
447.792	86
448.013	88
448.234	91
448.455	119
448.675	133
448.896	117
449.117	105
449.338	112
449.559	132
449.779	134
450	108
450.221	111
450.442	92
450.662	96
450.883	99
451.104	105
451.324	88
451.545	99
451.766	99
451.986	91
452.207	95
452.428	94
452.648	87
452.869	114
453.089	114
453.31	122
453.53	90
453.751	83
453.971	100
454.192	104
454.412	103
454.633	92
454.853	76
455.073	92
455.294	96
455.514	100
455.734	101
455.955	77
456.175	96
456.395	82
456.616	103
456.836	84
457.056	88
457.276	82
457.497	94
457.717	78
457.937	90
458.157	90
458.377	92
458.598	97
458.818	148
459.038	135
459.258	124
459.478	85
459.698	81
459.918	84
460.138	87
460.358	84
460.578	91
460.798	89
461.018	96
461.238	95
461.458	87
461.678	96
461.898	79
462.118	88
462.338	80
462.558	99
462.777	82
462.997	100
463.217	89
463.437	77
463.657	93
463.876	71
464.096	98
464.316	100
464.536	95
464.755	103
464.975	101
465.195	172
465.414	157
465.634	76
465.854	84
466.073	92
466.293	103
466.512	79
466.732	78
466.951	80
467.171	71
467.391	93
467.61	106
467.829	104
468.049	112
468.268	157
468.488	99
468.707	99
468.927	76
469.146	101
469.365	88
469.585	86
469.804	90
470.023	90
470.243	109
470.462	102
470.681	103
470.901	94
471.12	88
471.339	96
471.558	95
471.777	93
471.997	100
472.216	195
472.435	295
472.654	135
472.873	107
473.092	92
473.311	94
473.53	91
473.749	91
473.968	101
474.187	120
474.406	100
474.625	92
474.844	90
475.063	82
475.282	77
475.501	89
475.72	79
475.939	92
476.158	94
476.377	80
476.596	84
476.814	82
477.033	89
477.252	91
477.471	89
477.69	89
477.908	85
478.127	79
478.346	86
478.564	92
478.783	96
479.002	89
479.22	88
479.439	97
479.658	99
479.876	107
480.095	81
480.313	87
480.532	97
480.751	120
480.969	176
481.188	472
481.406	313
481.624	109
481.843	88
482.061	76
482.28	89
482.498	99
482.717	79
482.935	80
483.153	85
483.372	85
483.59	95
483.808	97
484.027	87
484.245	96
484.463	94
484.681	84
484.9	81
485.118	103
485.336	97
485.554	81
485.772	86
485.99	87
486.209	96
486.427	96
486.645	95
486.863	111
487.081	103
487.299	86
487.517	97
487.735	92
487.953	82
488.171	90
488.389	101
488.607	93
488.825	82
489.043	79
489.261	93
489.479	86
489.696	98
489.914	91
490.132	91
490.35	89
490.568	99
490.786	95
491.003	90
491.221	72
491.439	85
491.657	92
491.874	88
492.092	77
492.31	94
492.527	96
492.745	80
492.963	92
493.18	80
493.398	99
493.615	95
493.833	93
494.05	83
494.268	99
494.485	104
494.703	82
494.92	94
495.138	92
495.355	64
495.573	89
495.79	91
496.008	86
496.225	78
496.442	104
496.66	99
496.877	79
497.094	93
497.312	87
497.529	95
497.746	100
497.963	93
498.181	96
498.398	95
498.615	113
498.832	94
499.049	95
499.267	83
499.484	84
499.701	91
499.918	87
500.135	82
500.352	101
500.569	98
500.786	87
501.003	84
501.22	70
501.437	103
501.654	94
501.871	104
502.088	94
502.305	88
502.522	90
502.739	100
502.956	99
503.172	87
503.389	89
503.606	106
503.823	106
504.04	92
504.256	85
504.473	91
504.69	91
504.907	94
505.123	87
505.34	90
505.557	105
505.773	103
505.99	94
506.207	89
506.423	107
506.64	74
506.856	91
507.073	105
507.289	89
507.506	80
507.722	107
507.939	103
508.155	85
508.372	99
508.588	94
508.805	89
509.021	79
509.238	93
509.454	111
509.67	101
509.887	100
510.103	117
510.319	199
510.536	714
510.752	2238
510.968	657
511.184	158
511.401	101
511.617	108
511.833	89
512.049	96
512.265	89
512.481	101
512.698	103
512.914	91
513.13	104
513.346	95
513.562	98
513.778	87
513.994	86
514.21	98
514.426	117
514.642	140
514.858	121
515.074	154
515.29	426
515.506	1449
515.721	565
515.937	158
516.153	107
516.369	107
516.585	98
516.801	93
517.016	94
517.232	96
517.448	89
517.664	84
517.879	110
518.095	90
518.311	88
518.527	100
518.742	91
518.958	86
519.173	87
519.389	105
519.605	96
519.82	94
520.036	101
520.251	122
520.467	124
520.682	100
520.898	117
521.113	106
521.329	149
521.544	195
521.76	534
521.975	2393
522.19	1466
522.406	333
522.621	118
522.836	98
523.052	107
523.267	88
523.482	99
523.698	96
523.913	96
524.128	99
524.343	111
524.559	86
524.774	87
524.989	95
525.204	88
525.419	88
525.634	94
525.849	84
526.064	91
526.28	89
526.495	88
526.71	103
526.925	94
527.14	81
527.355	91
527.57	85
527.785	81
527.999	78
528.214	81
528.429	100
528.644	94
528.859	98
529.074	95
529.289	118
529.503	189
529.718	120
529.933	90
530.148	98
530.363	76
530.577	97
530.792	108
531.007	99
531.221	83
531.436	94
531.651	85
531.865	92
532.08	80
532.295	97
532.509	87
532.724	101
532.938	91
533.153	99
533.367	97
533.582	96
533.796	105
534.011	91
534.225	86
534.44	94
534.654	96
534.868	87
535.083	89
535.297	96
535.511	107
535.726	105
535.94	90
536.154	92
536.369	86
536.583	79
536.797	89
537.011	86
537.225	72
537.44	96
537.654	96
537.868	94
538.082	100
538.296	93
538.51	92
538.724	92
538.938	88
539.153	102
539.367	101
539.581	95
539.795	94
540.009	97
540.222	86
540.436	97
540.65	95
540.864	84
541.078	91
541.292	97
541.506	87
541.72	84
541.934	78
542.147	88
542.361	94
542.575	83
542.789	91
543.002	85
543.216	95
543.43	93
543.644	87
543.857	88
544.071	88
544.285	108
544.498	85
544.712	92
544.925	90
545.139	78
545.352	79
545.566	88
545.779	88
545.993	81
546.206	80
546.42	82
546.633	91
546.847	94
547.06	93
547.274	87
547.487	93
547.7	103
547.914	85
548.127	93
548.34	81
548.554	87
548.767	101
548.98	100
549.193	87
549.407	91
549.62	91
549.833	114
550.046	93
550.259	98
550.473	82
550.686	94
550.899	89
551.112	92
551.325	87
551.538	91
551.751	96
551.964	105
552.177	84
552.39	87
552.603	85
552.816	83
553.029	85
553.242	101
553.455	108
553.667	102
553.88	97
554.093	92
554.306	81
554.519	100
554.732	86
554.944	105
555.157	87
555.37	104
555.583	92
555.795	87
556.008	92
556.221	89
556.433	95
556.646	96
556.859	82
557.071	80
557.284	79
557.496	97
557.709	99
557.921	91
558.134	90
558.346	78
558.559	86
558.771	76
558.984	86
559.196	89
559.409	79
559.621	77
559.833	93
560.046	80
560.258	94
560.47	97
560.683	94
560.895	88
561.107	82
561.32	80
561.532	89
561.744	84
561.956	86
562.168	81
562.381	84
562.593	94
562.805	93
563.017	86
563.229	95
563.441	77
563.653	95
563.865	80
564.077	87
564.289	87
564.501	87
564.713	93
564.925	102
565.137	88
565.349	90
565.561	87
565.773	86
565.985	80
566.197	90
566.408	90
566.62	90
566.832	99
567.044	96
567.255	83
567.467	81
567.679	93
567.891	70
568.102	79
568.314	92
568.526	84
568.737	88
568.949	77
569.161	87
569.372	86
569.584	83
569.795	80
570.007	106
570.218	252
570.43	127
570.641	95
570.853	83
571.064	88
571.276	92
571.487	87
571.698	106
571.91	83
572.121	87
572.333	81
572.544	88
572.755	98
572.966	91
573.178	87
573.389	85
573.6	86
573.811	83
574.023	89
574.234	88
574.445	97
574.656	97
574.867	84
575.078	81
575.289	91
575.501	83
575.712	77
575.923	81
576.134	87
576.345	86
576.556	84
576.767	97
576.978	90
577.188	85
577.399	87
577.61	94
577.821	107
578.032	117
578.243	251
578.454	720
578.665	211
578.875	120
579.086	92
579.297	96
579.508	89
579.718	101
579.929	84
580.14	82
580.35	85
580.561	106
580.772	74
580.982	86
581.193	88
581.403	82
581.614	95
581.825	94
582.035	79
582.246	72
582.456	99
582.667	93
582.877	88
583.087	94
583.298	82
583.508	70
583.719	82
583.929	89
584.139	83
