Data from Circ_2011_H10_HRD10591_00088.txt Node
Date: Wed Jan 03 10:08:16 EST 2024
User: Yrep
Spectrometer: HR+D1059
Trigger mode: 1
Integration Time (sec): 1.000000E-1
Scans to average: 1
Electric dark correction enabled: true
Nonlinearity correction enabled: false
Boxcar width: 0
XAxis mode: Wavelengths
Number of Pixels in Spectrum: 2048
>>>>>Begin Spectral Data<<<<<
223.165	-13.19
223.4	-13.19
223.635	-13.19
223.869	-19.19
224.104	-4.19
224.338	-13.19
224.573	-18.19
224.808	-17.19
225.042	-12.19
225.277	-20.19
225.511	-11.19
225.746	-9.19
225.98	14.81
226.215	16.81
226.449	22.81
226.683	22.81
226.918	25.81
227.152	34.81
227.387	31.81
227.621	36.81
227.856	38.81
228.09	53.81
228.324	50.81
228.559	49.81
228.793	52.81
229.027	68.81
229.262	73.81
229.496	76.81
229.73	87.81
229.964	80.81
230.199	71.81
230.433	76.81
230.667	76.81
230.901	65.81
231.136	76.81
231.37	70.81
231.604	80.81
231.838	90.81
232.072	86.81
232.306	85.81
232.541	75.81
232.775	79.81
233.009	73.81
233.243	84.81
233.477	79.81
233.711	72.81
233.945	88.81
234.179	74.81
234.413	83.81
234.647	70.81
234.881	71.81
235.115	59.81
235.349	84.81
235.583	77.81
235.817	80.81
236.051	86.81
236.285	74.81
236.519	64.81
236.753	73.81
236.987	87.81
237.221	85.81
237.455	102.81
237.689	79.81
237.922	68.81
238.156	82.81
238.39	58.81
238.624	79.81
238.858	74.81
239.091	65.81
239.325	74.81
239.559	75.81
239.793	95.81
240.027	97.81
240.26	80.81
240.494	81.81
240.728	80.81
240.961	80.81
241.195	75.81
241.429	82.81
241.662	75.81
241.896	80.81
242.13	72.81
242.363	84.81
242.597	77.81
242.83	86.81
243.064	73.81
243.298	69.81
243.531	54.81
243.765	76.81
243.998	74.81
244.232	72.81
244.465	80.81
244.699	83.81
244.932	65.81
245.166	74.81
245.399	77.81
245.633	83.81
245.866	69.81
246.099	72.81
246.333	66.81
246.566	83.81
246.8	68.81
247.033	76.81
247.266	74.81
247.5	80.81
247.733	84.81
247.966	81.81
248.2	84.81
248.433	72.81
248.666	85.81
248.899	73.81
249.133	69.81
249.366	87.81
249.599	94.81
249.832	79.81
250.066	76.81
250.299	75.81
250.532	68.81
250.765	74.81
250.998	64.81
251.231	63.81
251.465	72.81
251.698	81.81
251.931	81.81
252.164	80.81
252.397	84.81
252.63	68.81
252.863	68.81
253.096	77.81
253.329	79.81
253.562	75.81
253.795	88.81
254.028	80.81
254.261	74.81
254.494	66.81
254.727	82.81
254.96	75.81
255.193	76.81
255.426	72.81
255.659	82.81
255.892	81.81
256.124	79.81
256.357	67.81
256.59	85.81
256.823	68.81
257.056	62.81
257.289	85.81
257.521	82.81
257.754	74.81
257.987	85.81
258.22	83.81
258.452	68.81
258.685	96.81
258.918	78.81
259.151	82.81
259.383	73.81
259.616	72.81
259.849	67.81
260.081	83.81
260.314	81.81
260.547	78.81
260.779	81.81
261.012	83.81
261.244	91.81
261.477	93.81
261.71	91.81
261.942	119.81
262.175	121.81
262.407	67.81
262.64	81.81
262.872	72.81
263.105	83.81
263.337	76.81
263.57	80.81
263.802	85.81
264.035	87.81
264.267	70.81
264.499	83.81
264.732	74.81
264.964	59.81
265.197	74.81
265.429	72.81
265.661	81.81
265.894	75.81
266.126	85.81
266.358	92.81
266.591	85.81
266.823	86.81
267.055	76.81
267.287	85.81
267.52	92.81
267.752	89.81
267.984	85.81
268.216	81.81
268.448	83.81
268.681	75.81
268.913	92.81
269.145	76.81
269.377	84.81
269.609	77.81
269.841	75.81
270.073	81.81
270.306	71.81
270.538	78.81
270.77	71.81
271.002	75.81
271.234	80.81
271.466	81.81
271.698	82.81
271.93	84.81
272.162	89.81
272.394	91.81
272.626	87.81
272.858	77.81
273.09	82.81
273.322	88.81
273.553	77.81
273.785	85.81
274.017	77.81
274.249	95.81
274.481	87.81
274.713	76.81
274.945	76.81
275.176	76.81
275.408	75.81
275.64	82.81
275.872	83.81
276.104	90.81
276.335	88.81
276.567	93.81
276.799	96.81
277.031	109.81
277.262	101.81
277.494	89.81
277.726	87.81
277.957	80.81
278.189	88.81
278.421	79.81
278.652	87.81
278.884	87.81
279.115	81.81
279.347	81.81
279.579	96.81
279.81	92.81
280.042	88.81
280.273	109.81
280.505	92.81
280.736	76.81
280.968	83.81
281.199	77.81
281.431	79.81
281.662	76.81
281.894	85.81
282.125	96.81
282.356	107.81
282.588	129.81
282.819	114.81
283.051	94.81
283.282	95.81
283.513	86.81
283.745	82.81
283.976	88.81
284.207	63.81
284.439	85.81
284.67	71.81
284.901	66.81
285.132	82.81
285.364	77.81
285.595	93.81
285.826	83.81
286.057	86.81
286.288	80.81
286.52	86.81
286.751	71.81
286.982	76.81
287.213	90.81
287.444	92.81
287.675	92.81
287.906	90.81
288.138	87.81
288.369	93.81
288.6	81.81
288.831	75.81
289.062	83.81
289.293	68.81
289.524	70.81
289.755	79.81
289.986	80.81
290.217	78.81
290.448	87.81
290.679	75.81
290.91	79.81
291.141	82.81
291.371	84.81
291.602	92.81
291.833	98.81
292.064	77.81
292.295	84.81
292.526	82.81
292.757	77.81
292.987	88.81
293.218	63.81
293.449	89.81
293.68	92.81
293.91	92.81
294.141	96.81
294.372	103.81
294.603	84.81
294.833	71.81
295.064	88.81
295.295	96.81
295.525	95.81
295.756	102.81
295.987	100.81
296.217	134.81
296.448	125.81
296.679	97.81
296.909	111.81
297.14	97.81
297.37	90.81
297.601	93.81
297.831	85.81
298.062	91.81
298.292	92.81
298.523	75.81
298.753	92.81
298.984	72.81
299.214	99.81
299.445	93.81
299.675	86.81
299.905	84.81
300.136	82.81
300.366	96.81
300.597	86.81
300.827	92.81
301.057	85.81
301.288	94.81
301.518	95.81
301.748	84.81
301.979	91.81
302.209	81.81
302.439	88.81
302.669	82.81
302.9	91.81
303.13	87.81
303.36	91.81
303.59	103.81
303.82	97.81
304.051	75.81
304.281	88.81
304.511	80.81
304.741	75.81
304.971	82.81
305.201	71.81
305.431	81.81
305.661	92.81
305.891	93.81
306.121	83.81
306.352	95.81
306.582	96.81
306.812	93.81
307.042	114.81
307.272	89.81
307.502	100.81
307.731	102.81
307.961	95.81
308.191	99.81
308.421	84.81
308.651	82.81
308.881	77.81
309.111	78.81
309.341	97.81
309.571	89.81
309.8	79.81
310.03	89.81
310.26	83.81
310.49	90.81
310.72	106.81
310.949	99.81
311.179	106.81
311.409	90.81
311.639	103.81
311.868	97.81
312.098	89.81
312.328	84.81
312.557	100.81
312.787	114.81
313.017	100.81
313.246	84.81
313.476	93.81
313.706	101.81
313.935	80.81
314.165	102.81
314.394	88.81
314.624	90.81
314.853	89.81
315.083	88.81
315.312	103.81
315.542	112.81
315.771	104.81
316.001	86.81
316.23	80.81
316.46	91.81
316.689	88.81
316.919	79.81
317.148	102.81
317.377	97.81
317.607	97.81
317.836	84.81
318.065	77.81
318.295	81.81
318.524	89.81
318.753	83.81
318.983	104.81
319.212	103.81
319.441	96.81
319.67	96.81
319.9	75.81
320.129	83.81
320.358	93.81
320.587	91.81
320.816	91.81
321.046	93.81
321.275	98.81
321.504	92.81
321.733	90.81
321.962	80.81
322.191	103.81
322.42	102.81
322.649	105.81
322.878	105.81
323.108	120.81
323.337	131.81
323.566	120.81
323.795	157.81
324.024	230.81
324.253	427.81
324.482	968.81
324.71	1946.81
324.939	2589.81
325.168	950.81
325.397	253.81
325.626	147.81
325.855	123.81
326.084	147.81
326.313	135.81
326.542	165.81
326.77	241.81
326.999	537.81
327.228	1098.81
327.457	1953.81
327.686	1570.81
327.914	424.81
328.143	261.81
328.372	229.81
328.6	145.81
328.829	122.81
329.058	156.81
329.287	146.81
329.515	120.81
329.744	131.81
329.972	168.81
330.201	257.81
330.43	338.81
330.658	209.81
330.887	167.81
331.115	142.81
331.344	101.81
331.572	98.81
331.801	111.81
332.03	108.81
332.258	99.81
332.486	91.81
332.715	94.81
332.943	85.81
333.172	106.81
333.4	102.81
333.629	103.81
333.857	139.81
334.085	172.81
334.314	246.81
334.542	447.81
334.771	411.81
334.999	153.81
335.227	98.81
335.455	98.81
335.684	86.81
335.912	96.81
336.14	108.81
336.369	83.81
336.597	95.81
336.825	83.81
337.053	96.81
337.281	83.81
337.51	91.81
337.738	94.81
337.966	95.81
338.194	92.81
338.422	84.81
338.65	88.81
338.878	75.81
339.106	91.81
339.334	77.81
339.562	89.81
339.79	102.81
340.018	91.81
340.246	87.81
340.474	93.81
340.702	74.81
340.93	81.81
341.158	96.81
341.386	88.81
341.614	111.81
341.842	87.81
342.07	85.81
342.298	104.81
342.526	86.81
342.754	84.81
342.981	80.81
343.209	74.81
343.437	115.81
343.665	78.81
343.893	94.81
344.12	92.81
344.348	82.81
344.576	73.81
344.804	84.81
345.031	91.81
345.259	103.81
345.487	103.81
345.714	82.81
345.942	100.81
346.17	79.81
346.397	97.81
346.625	81.81
346.853	75.81
347.08	95.81
347.308	93.81
347.535	91.81
347.763	92.81
347.99	102.81
348.218	94.81
348.445	104.81
348.673	112.81
348.9	106.81
349.128	102.81
349.355	104.81
349.583	90.81
349.81	80.81
350.037	101.81
350.265	85.81
350.492	88.81
350.72	103.81
350.947	101.81
351.174	105.81
351.402	112.81
351.629	106.81
351.856	96.81
352.083	97.81
352.311	109.81
352.538	103.81
352.765	106.81
352.992	107.81
353.22	103.81
353.447	93.81
353.674	92.81
353.901	88.81
354.128	92.81
354.355	84.81
354.583	97.81
354.81	95.81
355.037	84.81
355.264	89.81
355.491	104.81
355.718	87.81
355.945	91.81
356.172	83.81
356.399	95.81
356.626	82.81
356.853	94.81
357.08	88.81
357.307	73.81
357.534	80.81
357.761	88.81
357.988	89.81
358.215	83.81
358.441	88.81
358.668	99.81
358.895	95.81
359.122	103.81
359.349	87.81
359.576	88.81
359.802	111.81
360.029	90.81
360.256	127.81
360.483	85.81
360.709	84.81
360.936	94.81
361.163	84.81
361.39	87.81
361.616	85.81
361.843	80.81
362.07	83.81
362.296	81.81
362.523	93.81
362.749	101.81
362.976	89.81
363.203	84.81
363.429	98.81
363.656	89.81
363.882	84.81
364.109	90.81
364.335	88.81
364.562	83.81
364.788	81.81
365.015	97.81
365.241	114.81
365.468	96.81
365.694	98.81
365.92	97.81
366.147	100.81
366.373	71.81
366.599	85.81
366.826	79.81
367.052	91.81
367.278	79.81
367.505	92.81
367.731	69.81
367.957	76.81
368.184	102.81
368.41	91.81
368.636	124.81
368.862	116.81
369.089	98.81
369.315	93.81
369.541	77.81
369.767	93.81
369.993	89.81
370.219	86.81
370.445	74.81
370.672	89.81
370.898	95.81
371.124	89.81
371.35	84.81
371.576	91.81
371.802	88.81
372.028	82.81
372.254	100.81
372.48	79.81
372.706	95.81
372.932	96.81
373.158	85.81
373.384	75.81
373.61	88.81
373.835	87.81
374.061	84.81
374.287	82.81
374.513	82.81
374.739	95.81
374.965	87.81
375.191	73.81
375.416	68.81
375.642	91.81
375.868	83.81
376.094	82.81
376.319	91.81
376.545	86.81
376.771	83.81
376.997	86.81
377.222	84.81
377.448	86.81
377.674	82.81
377.899	70.81
378.125	64.81
378.35	82.81
378.576	73.81
378.802	92.81
379.027	85.81
379.253	90.81
379.478	83.81
379.704	87.81
379.929	105.81
380.155	78.81
380.38	94.81
380.606	92.81
380.831	91.81
381.057	85.81
381.282	88.81
381.507	96.81
381.733	81.81
381.958	96.81
382.184	82.81
382.409	94.81
382.634	104.81
382.86	80.81
383.085	71.81
383.31	98.81
383.535	88.81
383.761	91.81
383.986	87.81
384.211	88.81
384.436	81.81
384.662	88.81
384.887	92.81
385.112	97.81
385.337	107.81
385.562	78.81
385.787	97.81
386.013	114.81
386.238	102.81
386.463	101.81
386.688	98.81
386.913	88.81
387.138	96.81
387.363	84.81
387.588	91.81
387.813	88.81
388.038	98.81
388.263	112.81
388.488	95.81
388.713	80.81
388.938	85.81
389.163	83.81
389.387	96.81
389.612	90.81
389.837	85.81
390.062	93.81
390.287	83.81
390.512	77.81
390.736	77.81
390.961	85.81
391.186	89.81
391.411	78.81
391.636	89.81
391.86	90.81
392.085	94.81
392.31	79.81
392.534	80.81
392.759	84.81
392.984	77.81
393.208	75.81
393.433	71.81
393.658	87.81
393.882	71.81
394.107	88.81
394.331	83.81
394.556	70.81
394.78	93.81
395.005	75.81
395.229	80.81
395.454	74.81
395.678	81.81
395.903	93.81
396.127	83.81
396.352	86.81
396.576	89.81
396.801	92.81
397.025	89.81
397.249	75.81
397.474	98.81
397.698	77.81
397.922	88.81
398.147	80.81
398.371	90.81
398.595	71.81
398.82	81.81
399.044	83.81
399.268	83.81
399.492	88.81
399.717	89.81
399.941	91.81
400.165	90.81
400.389	86.81
400.613	86.81
400.837	82.81
401.062	91.81
401.286	96.81
401.51	101.81
401.734	93.81
401.958	96.81
402.182	115.81
402.406	145.81
402.63	112.81
402.854	81.81
403.078	90.81
403.302	80.81
403.526	88.81
403.75	91.81
403.974	101.81
404.198	77.81
404.422	71.81
404.645	97.81
404.869	104.81
405.093	111.81
405.317	117.81
405.541	114.81
405.765	87.81
405.988	109.81
406.212	172.81
406.436	233.81
406.66	145.81
406.883	105.81
407.107	91.81
407.331	101.81
407.555	104.81
407.778	100.81
408.002	92.81
408.226	84.81
408.449	88.81
408.673	72.81
408.896	95.81
409.12	86.81
409.344	109.81
409.567	76.81
409.791	95.81
410.014	92.81
410.238	86.81
410.461	83.81
410.685	89.81
410.908	102.81
411.132	107.81
411.355	85.81
411.578	86.81
411.802	82.81
412.025	71.81
412.249	91.81
412.472	103.81
412.695	104.81
412.919	89.81
413.142	97.81
413.365	76.81
413.589	101.81
413.812	98.81
414.035	90.81
414.258	73.81
414.482	77.81
414.705	87.81
414.928	87.81
415.151	69.81
415.374	94.81
415.597	79.81
415.821	86.81
416.044	84.81
416.267	80.81
416.49	91.81
416.713	65.81
416.936	80.81
417.159	92.81
417.382	73.81
417.605	86.81
417.828	102.81
418.051	71.81
418.274	72.81
418.497	85.81
418.72	78.81
418.943	67.81
419.166	71.81
419.389	86.81
419.611	94.81
419.834	92.81
420.057	81.81
420.28	87.81
420.503	77.81
420.726	89.81
420.948	93.81
421.171	93.81
421.394	102.81
421.617	89.81
421.839	77.81
422.062	88.81
422.285	88.81
422.507	93.81
422.73	112.81
422.953	95.81
423.175	86.81
423.398	80.81
423.621	83.81
423.843	92.81
424.066	77.81
424.288	86.81
424.511	81.81
424.733	100.81
424.956	118.81
425.178	96.81
425.401	94.81
425.623	119.81
425.846	87.81
426.068	98.81
426.291	83.81
426.513	94.81
426.735	91.81
426.958	86.81
427.18	104.81
427.402	143.81
427.625	171.81
427.847	163.81
428.069	141.81
428.292	104.81
428.514	81.81
428.736	91.81
428.958	84.81
429.181	84.81
429.403	71.81
429.625	78.81
429.847	90.81
430.069	104.81
430.292	104.81
430.514	85.81
430.736	83.81
430.958	76.81
431.18	73.81
431.402	87.81
431.624	97.81
431.846	85.81
432.068	81.81
432.29	80.81
432.512	76.81
432.734	93.81
432.956	93.81
433.178	105.81
433.4	92.81
433.622	99.81
433.844	76.81
434.066	89.81
434.287	87.81
434.509	72.81
434.731	75.81
434.953	72.81
435.175	100.81
435.397	82.81
435.618	96.81
435.84	115.81
436.062	135.81
436.284	121.81
436.505	97.81
436.727	108.81
436.949	92.81
437.17	86.81
437.392	77.81
437.614	89.81
437.835	107.81
438.057	136.81
438.278	133.81
438.5	106.81
438.721	126.81
438.943	96.81
439.165	86.81
439.386	81.81
439.608	74.81
439.829	96.81
440.05	135.81
440.272	158.81
440.493	118.81
440.715	83.81
440.936	88.81
441.158	89.81
441.379	90.81
441.6	96.81
441.822	92.81
442.043	97.81
442.264	96.81
442.486	105.81
442.707	99.81
442.928	103.81
443.149	143.81
443.371	141.81
443.592	105.81
443.813	130.81
444.034	129.81
444.255	93.81
444.476	90.81
444.698	79.81
444.919	76.81
445.14	139.81
445.361	135.81
445.582	136.81
445.803	141.81
446.024	154.81
446.245	127.81
446.466	119.81
446.687	82.81
446.908	93.81
447.129	103.81
447.35	93.81
447.571	101.81
447.792	94.81
448.013	101.81
448.234	101.81
448.455	102.81
448.675	121.81
448.896	139.81
449.117	105.81
449.338	117.81
449.559	148.81
449.779	147.81
450	87.81
450.221	100.81
450.442	75.81
450.662	96.81
450.883	104.81
451.104	107.81
451.324	88.81
451.545	86.81
451.766	76.81
451.986	88.81
452.207	93.81
452.428	95.81
452.648	80.81
452.869	110.81
453.089	103.81
453.31	104.81
453.53	85.81
453.751	90.81
453.971	104.81
454.192	121.81
454.412	95.81
454.633	99.81
454.853	82.81
455.073	79.81
455.294	97.81
455.514	99.81
455.734	103.81
455.955	86.81
456.175	76.81
456.395	79.81
456.616	81.81
456.836	87.81
457.056	67.81
457.276	94.81
457.497	90.81
457.717	77.81
457.937	89.81
458.157	101.81
458.377	92.81
458.598	111.81
458.818	158.81
459.038	185.81
459.258	134.81
459.478	87.81
459.698	92.81
459.918	79.81
460.138	86.81
460.358	78.81
460.578	92.81
460.798	82.81
461.018	69.81
461.238	79.81
461.458	88.81
461.678	76.81
461.898	91.81
462.118	88.81
462.338	91.81
462.558	94.81
462.777	75.81
462.997	79.81
463.217	82.81
463.437	83.81
463.657	76.81
463.876	97.81
464.096	100.81
464.316	97.81
464.536	86.81
464.755	91.81
464.975	111.81
465.195	179.81
465.414	176.81
465.634	92.81
465.854	91.81
466.073	77.81
466.293	95.81
466.512	69.81
466.732	82.81
466.951	85.81
467.171	80.81
467.391	83.81
467.61	103.81
467.829	113.81
468.049	166.81
468.268	210.81
468.488	107.81
468.707	88.81
468.927	78.81
469.146	75.81
469.365	78.81
469.585	96.81
469.804	97.81
470.023	96.81
470.243	103.81
470.462	113.81
470.681	103.81
470.901	87.81
471.12	81.81
471.339	77.81
471.558	83.81
471.777	99.81
471.997	145.81
472.216	278.81
472.435	513.81
472.654	183.81
472.873	107.81
473.092	100.81
473.311	71.81
473.53	80.81
473.749	85.81
473.968	94.81
474.187	106.81
474.406	97.81
474.625	88.81
474.844	89.81
475.063	84.81
475.282	72.81
475.501	92.81
475.72	89.81
475.939	66.81
476.158	84.81
476.377	78.81
476.596	91.81
476.814	79.81
477.033	88.81
477.252	73.81
477.471	74.81
477.69	98.81
477.908	89.81
478.127	83.81
478.346	80.81
478.564	84.81
478.783	94.81
479.002	102.81
479.22	88.81
479.439	88.81
479.658	106.81
479.876	101.81
480.095	98.81
480.313	107.81
480.532	111.81
480.751	120.81
480.969	266.81
481.188	888.81
481.406	564.81
481.624	150.81
481.843	88.81
482.061	96.81
482.28	83.81
482.498	81.81
482.717	83.81
482.935	93.81
483.153	77.81
483.372	77.81
483.59	93.81
483.808	84.81
484.027	80.81
484.245	95.81
484.463	90.81
484.681	98.81
484.9	88.81
485.118	85.81
485.336	81.81
485.554	94.81
485.772	98.81
485.99	97.81
486.209	104.81
486.427	89.81
486.645	106.81
486.863	114.81
487.081	90.81
487.299	99.81
487.517	88.81
487.735	87.81
487.953	95.81
488.171	74.81
488.389	95.81
488.607	87.81
488.825	83.81
489.043	101.81
489.261	89.81
489.479	84.81
489.696	84.81
489.914	87.81
490.132	71.81
490.35	86.81
490.568	76.81
490.786	88.81
491.003	89.81
491.221	77.81
491.439	85.81
491.657	95.81
491.874	103.81
492.092	84.81
492.31	94.81
492.527	84.81
492.745	87.81
492.963	102.81
493.18	80.81
493.398	72.81
493.615	85.81
493.833	87.81
494.05	88.81
494.268	84.81
494.485	82.81
494.703	89.81
494.92	88.81
495.138	78.81
495.355	74.81
495.573	77.81
495.79	89.81
496.008	93.81
496.225	92.81
496.442	104.81
496.66	85.81
496.877	84.81
497.094	92.81
497.312	80.81
497.529	84.81
497.746	97.81
497.963	87.81
498.181	91.81
498.398	101.81
498.615	112.81
498.832	92.81
499.049	88.81
499.267	79.81
499.484	80.81
499.701	84.81
499.918	80.81
500.135	82.81
500.352	78.81
500.569	91.81
500.786	96.81
501.003	107.81
501.22	84.81
501.437	85.81
501.654	106.81
501.871	99.81
502.088	97.81
502.305	88.81
502.522	92.81
502.739	82.81
502.956	99.81
503.172	93.81
503.389	98.81
503.606	98.81
503.823	88.81
504.04	97.81
504.256	90.81
504.473	97.81
504.69	97.81
504.907	98.81
505.123	95.81
505.34	77.81
505.557	86.81
505.773	91.81
505.99	92.81
506.207	97.81
506.423	93.81
506.64	90.81
506.856	88.81
507.073	84.81
507.289	78.81
507.506	96.81
507.722	99.81
507.939	102.81
508.155	100.81
508.372	89.81
508.588	87.81
508.805	87.81
509.021	80.81
509.238	90.81
509.454	86.81
509.67	90.81
509.887	105.81
510.103	111.81
510.319	212.81
510.536	733.81
510.752	2328.81
510.968	691.81
511.184	162.81
511.401	114.81
511.617	100.81
511.833	90.81
512.049	73.81
512.265	79.81
512.481	96.81
512.698	81.81
512.914	86.81
513.13	80.81
513.346	94.81
513.562	80.81
513.778	85.81
513.994	101.81
514.21	102.81
514.426	132.81
514.642	144.81
514.858	118.81
515.074	171.81
515.29	480.81
515.506	1588.81
515.721	614.81
515.937	166.81
