Data from Circ_2011_H10_HRD10591_00057.txt Node
Date: Wed Jan 03 10:08:10 EST 2024
User: Yrep
Spectrometer: HR+D1059
Trigger mode: 1
Integration Time (sec): 1.000000E-1
Scans to average: 1
Electric dark correction enabled: true
Nonlinearity correction enabled: false
Boxcar width: 0
XAxis mode: Wavelengths
Number of Pixels in Spectrum: 2048
>>>>>Begin Spectral Data<<<<<
223.165	-19.38
223.4	-19.38
223.635	-19.38
223.869	-18.38
224.104	-3.38
224.338	-17.38
224.573	-19.38
224.808	-23.38
225.042	-13.38
225.277	-1.38
225.511	5.62
225.746	-1.38
225.98	11.62
226.215	18.62
226.449	9.62
226.683	22.62
226.918	19.62
227.152	29.62
227.387	42.62
227.621	39.62
227.856	45.62
228.09	64.62
228.324	38.62
228.559	53.62
228.793	75.62
229.027	62.62
229.262	61.62
229.496	58.62
229.73	106.62
229.964	86.62
230.199	76.62
230.433	75.62
230.667	76.62
230.901	94.62
231.136	78.62
231.37	89.62
231.604	89.62
231.838	75.62
232.072	75.62
232.306	95.62
232.541	93.62
232.775	84.62
233.009	89.62
233.243	80.62
233.477	85.62
233.711	76.62
233.945	76.62
234.179	81.62
234.413	76.62
234.647	79.62
234.881	73.62
235.115	82.62
235.349	66.62
235.583	85.62
235.817	94.62
236.051	79.62
236.285	73.62
236.519	90.62
236.753	86.62
236.987	87.62
237.221	90.62
237.455	91.62
237.689	80.62
237.922	77.62
238.156	74.62
238.39	83.62
238.624	78.62
238.858	88.62
239.091	82.62
239.325	82.62
239.559	76.62
239.793	72.62
240.027	77.62
240.26	73.62
240.494	76.62
240.728	80.62
240.961	70.62
241.195	82.62
241.429	83.62
241.662	78.62
241.896	82.62
242.13	89.62
242.363	92.62
242.597	91.62
242.83	78.62
243.064	71.62
243.298	73.62
243.531	88.62
243.765	80.62
243.998	91.62
244.232	94.62
244.465	109.62
244.699	88.62
244.932	78.62
245.166	80.62
245.399	86.62
245.633	81.62
245.866	76.62
246.099	94.62
246.333	77.62
246.566	82.62
246.8	86.62
247.033	79.62
247.266	81.62
247.5	75.62
247.733	72.62
247.966	80.62
248.2	90.62
248.433	71.62
248.666	87.62
248.899	99.62
249.133	88.62
249.366	102.62
249.599	109.62
249.832	85.62
250.066	88.62
250.299	94.62
250.532	91.62
250.765	88.62
250.998	78.62
251.231	82.62
251.465	77.62
251.698	74.62
251.931	75.62
252.164	71.62
252.397	73.62
252.63	74.62
252.863	82.62
253.096	87.62
253.329	80.62
253.562	87.62
253.795	74.62
254.028	88.62
254.261	71.62
254.494	82.62
254.727	92.62
254.96	88.62
255.193	79.62
255.426	75.62
255.659	93.62
255.892	94.62
256.124	93.62
256.357	90.62
256.59	84.62
256.823	94.62
257.056	90.62
257.289	78.62
257.521	74.62
257.754	70.62
257.987	88.62
258.22	77.62
258.452	91.62
258.685	94.62
258.918	99.62
259.151	84.62
259.383	94.62
259.616	79.62
259.849	95.62
260.081	99.62
260.314	90.62
260.547	88.62
260.779	77.62
261.012	89.62
261.244	79.62
261.477	105.62
261.71	104.62
261.942	118.62
262.175	125.62
262.407	97.62
262.64	86.62
262.872	78.62
263.105	89.62
263.337	82.62
263.57	87.62
263.802	83.62
264.035	80.62
264.267	94.62
264.499	83.62
264.732	90.62
264.964	83.62
265.197	82.62
265.429	90.62
265.661	79.62
265.894	102.62
266.126	85.62
266.358	95.62
266.591	82.62
266.823	86.62
267.055	89.62
267.287	95.62
267.52	90.62
267.752	92.62
267.984	87.62
268.216	101.62
268.448	92.62
268.681	96.62
268.913	90.62
269.145	97.62
269.377	83.62
269.609	75.62
269.841	91.62
270.073	88.62
270.306	81.62
270.538	86.62
270.77	89.62
271.002	92.62
271.234	95.62
271.466	89.62
271.698	83.62
271.93	81.62
272.162	97.62
272.394	98.62
272.626	90.62
272.858	75.62
273.09	101.62
273.322	77.62
273.553	92.62
273.785	93.62
274.017	101.62
274.249	87.62
274.481	96.62
274.713	90.62
274.945	89.62
275.176	87.62
275.408	89.62
275.64	89.62
275.872	96.62
276.104	82.62
276.335	86.62
276.567	109.62
276.799	114.62
277.031	115.62
277.262	111.62
277.494	95.62
277.726	90.62
277.957	82.62
278.189	87.62
278.421	92.62
278.652	95.62
278.884	83.62
279.115	92.62
279.347	82.62
279.579	94.62
279.81	93.62
280.042	92.62
280.273	119.62
280.505	100.62
280.736	94.62
280.968	81.62
281.199	92.62
281.431	94.62
281.662	96.62
281.894	94.62
282.125	109.62
282.356	113.62
282.588	141.62
282.819	121.62
283.051	90.62
283.282	88.62
283.513	97.62
283.745	103.62
283.976	90.62
284.207	96.62
284.439	85.62
284.67	82.62
284.901	82.62
285.132	82.62
285.364	89.62
285.595	97.62
285.826	100.62
286.057	93.62
286.288	85.62
286.52	90.62
286.751	83.62
286.982	81.62
287.213	76.62
287.444	84.62
287.675	95.62
287.906	94.62
288.138	87.62
288.369	98.62
288.6	95.62
288.831	85.62
289.062	73.62
289.293	86.62
289.524	92.62
289.755	92.62
289.986	91.62
290.217	86.62
290.448	78.62
290.679	86.62
290.91	89.62
291.141	81.62
291.371	93.62
291.602	84.62
291.833	85.62
292.064	83.62
292.295	90.62
292.526	94.62
292.757	88.62
292.987	89.62
293.218	82.62
293.449	77.62
293.68	91.62
293.91	105.62
294.141	103.62
294.372	91.62
294.603	101.62
294.833	85.62
295.064	82.62
295.295	87.62
295.525	97.62
295.756	112.62
295.987	113.62
296.217	150.62
296.448	129.62
296.679	107.62
296.909	91.62
297.14	89.62
297.37	83.62
297.601	100.62
297.831	85.62
298.062	99.62
298.292	91.62
298.523	94.62
298.753	91.62
298.984	94.62
299.214	88.62
299.445	96.62
299.675	93.62
299.905	104.62
300.136	96.62
300.366	93.62
300.597	87.62
300.827	89.62
301.057	99.62
301.288	95.62
301.518	96.62
301.748	89.62
301.979	93.62
302.209	97.62
302.439	103.62
302.669	101.62
302.9	90.62
303.13	79.62
303.36	93.62
303.59	110.62
303.82	99.62
304.051	97.62
304.281	95.62
304.511	91.62
304.741	94.62
304.971	88.62
305.201	90.62
305.431	94.62
305.661	98.62
305.891	99.62
306.121	94.62
306.352	110.62
306.582	117.62
306.812	96.62
307.042	106.62
307.272	110.62
307.502	110.62
307.731	109.62
307.961	116.62
308.191	85.62
308.421	104.62
308.651	89.62
308.881	98.62
309.111	91.62
309.341	109.62
309.571	106.62
309.8	114.62
310.03	114.62
310.26	107.62
310.49	103.62
310.72	106.62
310.949	111.62
311.179	106.62
311.409	93.62
311.639	94.62
311.868	94.62
312.098	104.62
312.328	99.62
312.557	104.62
312.787	113.62
313.017	105.62
313.246	95.62
313.476	99.62
313.706	97.62
313.935	105.62
314.165	103.62
314.394	107.62
314.624	105.62
314.853	103.62
315.083	117.62
315.312	103.62
315.542	87.62
315.771	88.62
316.001	100.62
316.23	86.62
316.46	93.62
316.689	91.62
316.919	105.62
317.148	102.62
317.377	94.62
317.607	96.62
317.836	101.62
318.065	90.62
318.295	92.62
318.524	89.62
318.753	93.62
318.983	88.62
319.212	114.62
319.441	120.62
319.67	112.62
319.9	99.62
320.129	101.62
320.358	97.62
320.587	90.62
320.816	119.62
321.046	115.62
321.275	119.62
321.504	108.62
321.733	92.62
321.962	88.62
322.191	112.62
322.42	113.62
322.649	134.62
322.878	112.62
323.108	116.62
323.337	134.62
323.566	153.62
323.795	167.62
324.024	243.62
324.253	498.62
324.482	1082.62
324.71	2278.62
324.939	3038.62
325.168	1093.62
325.397	288.62
325.626	158.62
325.855	144.62
326.084	139.62
326.313	160.62
326.542	167.62
326.77	281.62
326.999	587.62
327.228	1255.62
327.457	2320.62
327.686	1849.62
327.914	494.62
328.143	282.62
328.372	244.62
328.6	177.62
328.829	147.62
329.058	149.62
329.287	166.62
329.515	135.62
329.744	127.62
329.972	167.62
330.201	274.62
330.43	362.62
330.658	237.62
330.887	189.62
331.115	138.62
331.344	115.62
331.572	103.62
331.801	101.62
332.03	107.62
332.258	96.62
332.486	108.62
332.715	91.62
332.943	107.62
333.172	116.62
333.4	98.62
333.629	122.62
333.857	134.62
334.085	174.62
334.314	250.62
334.542	434.62
334.771	413.62
334.999	161.62
335.227	126.62
335.455	111.62
335.684	110.62
335.912	118.62
336.14	111.62
336.369	97.62
336.597	97.62
336.825	99.62
337.053	90.62
337.281	93.62
337.51	89.62
337.738	94.62
337.966	107.62
338.194	106.62
338.422	89.62
338.65	110.62
338.878	111.62
339.106	82.62
339.334	73.62
339.562	80.62
339.79	90.62
340.018	94.62
340.246	102.62
340.474	97.62
340.702	106.62
340.93	101.62
341.158	97.62
341.386	88.62
341.614	126.62
341.842	96.62
342.07	90.62
342.298	95.62
342.526	72.62
342.754	90.62
342.981	88.62
343.209	98.62
343.437	102.62
343.665	95.62
343.893	75.62
344.12	98.62
344.348	102.62
344.576	111.62
344.804	98.62
345.031	118.62
345.259	101.62
345.487	96.62
345.714	104.62
345.942	98.62
346.17	86.62
346.397	96.62
346.625	96.62
346.853	103.62
347.08	97.62
347.308	110.62
347.535	107.62
347.763	104.62
347.99	107.62
348.218	120.62
348.445	110.62
348.673	101.62
348.9	111.62
349.128	88.62
349.355	96.62
349.583	96.62
349.81	95.62
350.037	94.62
350.265	94.62
350.492	94.62
350.72	111.62
350.947	106.62
351.174	101.62
351.402	117.62
351.629	121.62
351.856	107.62
352.083	121.62
352.311	107.62
352.538	121.62
352.765	116.62
352.992	140.62
353.22	115.62
353.447	113.62
353.674	94.62
353.901	98.62
354.128	86.62
354.355	86.62
354.583	96.62
354.81	97.62
355.037	96.62
355.264	94.62
355.491	91.62
355.718	95.62
355.945	83.62
356.172	88.62
356.399	84.62
356.626	90.62
356.853	97.62
357.08	94.62
357.307	96.62
357.534	97.62
357.761	79.62
357.988	89.62
358.215	97.62
358.441	90.62
358.668	95.62
358.895	92.62
359.122	95.62
359.349	88.62
359.576	89.62
359.802	105.62
360.029	139.62
360.256	133.62
360.483	115.62
360.709	90.62
360.936	84.62
361.163	102.62
361.39	88.62
361.616	101.62
361.843	88.62
362.07	90.62
362.296	106.62
362.523	92.62
362.749	102.62
362.976	88.62
363.203	100.62
363.429	91.62
363.656	84.62
363.882	93.62
364.109	95.62
364.335	104.62
364.562	106.62
364.788	98.62
365.015	98.62
365.241	102.62
365.468	119.62
365.694	119.62
365.92	90.62
366.147	91.62
366.373	100.62
366.599	92.62
366.826	101.62
367.052	81.62
367.278	114.62
367.505	85.62
367.731	96.62
367.957	88.62
368.184	98.62
368.41	110.62
368.636	115.62
368.862	113.62
369.089	107.62
369.315	89.62
369.541	87.62
369.767	85.62
369.993	96.62
370.219	103.62
370.445	80.62
370.672	94.62
370.898	74.62
371.124	91.62
371.35	84.62
371.576	95.62
371.802	82.62
372.028	105.62
372.254	110.62
372.48	92.62
372.706	89.62
372.932	93.62
373.158	85.62
373.384	91.62
373.61	109.62
373.835	93.62
374.061	94.62
374.287	94.62
374.513	95.62
374.739	75.62
374.965	98.62
375.191	100.62
375.416	93.62
375.642	89.62
375.868	88.62
376.094	101.62
376.319	92.62
376.545	89.62
376.771	89.62
376.997	111.62
377.222	91.62
377.448	94.62
377.674	85.62
377.899	101.62
378.125	83.62
378.35	88.62
378.576	87.62
378.802	90.62
379.027	79.62
379.253	95.62
379.478	99.62
379.704	89.62
379.929	88.62
380.155	95.62
380.38	103.62
380.606	101.62
380.831	103.62
381.057	97.62
381.282	92.62
381.507	81.62
381.733	87.62
381.958	91.62
382.184	102.62
382.409	107.62
382.634	96.62
382.86	90.62
383.085	106.62
383.31	95.62
383.535	104.62
383.761	97.62
383.986	100.62
384.211	81.62
384.436	98.62
384.662	104.62
384.887	105.62
385.112	88.62
385.337	104.62
385.562	105.62
385.787	98.62
386.013	104.62
386.238	121.62
386.463	104.62
386.688	121.62
386.913	86.62
387.138	97.62
387.363	99.62
387.588	108.62
387.813	101.62
388.038	107.62
388.263	95.62
388.488	108.62
388.713	106.62
388.938	108.62
389.163	96.62
389.387	94.62
389.612	82.62
389.837	92.62
390.062	85.62
390.287	97.62
390.512	89.62
390.736	90.62
390.961	80.62
391.186	81.62
391.411	96.62
391.636	96.62
391.86	80.62
392.085	91.62
392.31	91.62
392.534	76.62
392.759	97.62
392.984	81.62
393.208	90.62
393.433	80.62
393.658	102.62
393.882	68.62
394.107	82.62
394.331	93.62
394.556	97.62
394.78	77.62
395.005	98.62
395.229	93.62
395.454	88.62
395.678	82.62
395.903	87.62
396.127	91.62
396.352	96.62
396.576	93.62
396.801	79.62
397.025	103.62
397.249	88.62
397.474	93.62
397.698	93.62
397.922	105.62
398.147	90.62
398.371	90.62
398.595	86.62
398.82	84.62
399.044	87.62
399.268	73.62
399.492	89.62
399.717	105.62
399.941	98.62
400.165	109.62
400.389	100.62
400.613	105.62
400.837	82.62
401.062	90.62
401.286	91.62
401.51	94.62
401.734	91.62
401.958	110.62
402.182	137.62
402.406	178.62
402.63	135.62
402.854	90.62
403.078	92.62
403.302	98.62
403.526	88.62
403.75	96.62
403.974	93.62
404.198	97.62
404.422	87.62
404.645	90.62
404.869	92.62
405.093	108.62
405.317	135.62
405.541	118.62
405.765	109.62
405.988	130.62
406.212	180.62
406.436	248.62
406.66	177.62
406.883	111.62
407.107	104.62
407.331	110.62
407.555	114.62
407.778	99.62
408.002	103.62
408.226	94.62
408.449	84.62
408.673	91.62
408.896	82.62
409.12	107.62
409.344	83.62
409.567	87.62
409.791	86.62
410.014	85.62
410.238	94.62
410.461	83.62
410.685	97.62
410.908	111.62
411.132	113.62
411.355	109.62
411.578	94.62
411.802	87.62
412.025	102.62
412.249	96.62
412.472	100.62
412.695	122.62
412.919	105.62
413.142	97.62
413.365	84.62
413.589	96.62
413.812	91.62
414.035	97.62
414.258	93.62
414.482	97.62
414.705	79.62
414.928	97.62
415.151	83.62
415.374	81.62
415.597	89.62
415.821	93.62
416.044	80.62
416.267	99.62
416.49	95.62
416.713	91.62
416.936	92.62
417.159	86.62
417.382	79.62
417.605	102.62
417.828	102.62
418.051	94.62
418.274	91.62
418.497	89.62
418.72	82.62
418.943	76.62
419.166	82.62
419.389	92.62
419.611	93.62
419.834	83.62
420.057	100.62
420.28	92.62
420.503	102.62
420.726	90.62
420.948	88.62
421.171	95.62
421.394	97.62
421.617	96.62
421.839	91.62
422.062	85.62
422.285	95.62
422.507	93.62
422.73	117.62
422.953	100.62
423.175	98.62
423.398	96.62
423.621	88.62
423.843	86.62
424.066	89.62
424.288	97.62
424.511	89.62
424.733	92.62
424.956	146.62
425.178	103.62
425.401	123.62
425.623	112.62
425.846	94.62
426.068	117.62
426.291	92.62
426.513	105.62
426.735	95.62
426.958	101.62
427.18	130.62
427.402	176.62
427.625	227.62
427.847	189.62
428.069	152.62
428.292	110.62
428.514	102.62
428.736	83.62
428.958	92.62
429.181	88.62
429.403	90.62
429.625	83.62
429.847	101.62
430.069	114.62
430.292	113.62
430.514	90.62
430.736	93.62
430.958	89.62
431.18	75.62
431.402	91.62
431.624	84.62
431.846	93.62
432.068	78.62
432.29	91.62
432.512	96.62
432.734	94.62
432.956	98.62
433.178	103.62
433.4	117.62
433.622	102.62
433.844	71.62
434.066	99.62
434.287	96.62
434.509	91.62
434.731	82.62
434.953	88.62
435.175	83.62
435.397	93.62
435.618	99.62
435.84	135.62
436.062	156.62
436.284	136.62
436.505	124.62
436.727	124.62
436.949	102.62
437.17	93.62
437.392	91.62
437.614	115.62
437.835	119.62
438.057	144.62
438.278	143.62
438.5	131.62
438.721	150.62
438.943	114.62
439.165	75.62
439.386	100.62
439.608	95.62
439.829	109.62
440.05	163.62
440.272	194.62
440.493	123.62
440.715	95.62
440.936	91.62
441.158	86.62
441.379	73.62
441.6	96.62
441.822	106.62
442.043	104.62
442.264	113.62
442.486	128.62
442.707	102.62
442.928	125.62
443.149	163.62
443.371	172.62
443.592	146.62
443.813	139.62
444.034	136.62
444.255	93.62
444.476	95.62
444.698	77.62
444.919	96.62
445.14	140.62
445.361	152.62
445.582	149.62
445.803	183.62
446.024	195.62
446.245	182.62
446.466	129.62
446.687	111.62
446.908	84.62
447.129	92.62
447.35	95.62
447.571	102.62
447.792	99.62
448.013	101.62
448.234	117.62
448.455	117.62
448.675	126.62
448.896	139.62
449.117	111.62
449.338	108.62
449.559	179.62
449.779	185.62
450	90.62
450.221	98.62
450.442	93.62
450.662	106.62
450.883	117.62
451.104	125.62
451.324	113.62
451.545	96.62
451.766	91.62
451.986	97.62
452.207	92.62
452.428	81.62
452.648	105.62
452.869	117.62
453.089	133.62
453.31	109.62
453.53	95.62
453.751	98.62
453.971	121.62
454.192	142.62
454.412	96.62
454.633	92.62
454.853	83.62
455.073	111.62
455.294	94.62
455.514	129.62
455.734	98.62
455.955	91.62
456.175	101.62
456.395	94.62
456.616	107.62
456.836	85.62
457.056	98.62
457.276	94.62
457.497	91.62
457.717	87.62
457.937	109.62
458.157	86.62
458.377	90.62
458.598	119.62
458.818	199.62
459.038	213.62
459.258	171.62
459.478	110.62
459.698	74.62
459.918	90.62
460.138	86.62
460.358	89.62
460.578	90.62
460.798	89.62
461.018	94.62
461.238	86.62
461.458	98.62
461.678	93.62
461.898	94.62
462.118	94.62
462.338	81.62
462.558	101.62
462.777	93.62
462.997	91.62
463.217	112.62
463.437	94.62
463.657	81.62
463.876	79.62
464.096	91.62
464.316	87.62
464.536	100.62
464.755	107.62
464.975	116.62
465.195	208.62
465.414	205.62
465.634	105.62
465.854	95.62
466.073	80.62
466.293	98.62
466.512	102.62
466.732	96.62
466.951	117.62
467.171	99.62
467.391	109.62
467.61	112.62
467.829	113.62
468.049	159.62
468.268	197.62
468.488	118.62
468.707	105.62
468.927	90.62
469.146	85.62
469.365	95.62
469.585	97.62
469.804	93.62
470.023	92.62
470.243	108.62
470.462	114.62
470.681	142.62
470.901	91.62
471.12	82.62
471.339	98.62
471.558	92.62
471.777	96.62
471.997	112.62
472.216	252.62
472.435	521.62
472.654	180.62
472.873	96.62
473.092	89.62
473.311	76.62
473.53	83.62
473.749	94.62
473.968	115.62
474.187	130.62
474.406	120.62
474.625	95.62
474.844	89.62
475.063	95.62
475.282	79.62
475.501	91.62
475.72	87.62
475.939	76.62
476.158	89.62
476.377	90.62
476.596	92.62
476.814	103.62
477.033	104.62
477.252	88.62
477.471	93.62
477.69	102.62
477.908	104.62
478.127	99.62
478.346	96.62
478.564	102.62
478.783	103.62
479.002	86.62
479.22	97.62
479.439	133.62
479.658	126.62
479.876	97.62
480.095	110.62
480.313	99.62
480.532	103.62
480.751	140.62
480.969	270.62
481.188	871.62
481.406	561.62
481.624	143.62
481.843	87.62
482.061	94.62
482.28	75.62
482.498	87.62
482.717	89.62
482.935	78.62
483.153	103.62
483.372	96.62
483.59	87.62
483.808	82.62
484.027	96.62
484.245	87.62
484.463	88.62
484.681	103.62
484.9	105.62
485.118	98.62
485.336	102.62
485.554	103.62
485.772	97.62
485.99	105.62
486.209	87.62
486.427	108.62
486.645	103.62
486.863	125.62
487.081	104.62
487.299	97.62
487.517	97.62
487.735	94.62
487.953	93.62
488.171	105.62
488.389	92.62
488.607	92.62
488.825	90.62
489.043	92.62
489.261	85.62
489.479	91.62
489.696	78.62
489.914	88.62
490.132	94.62
490.35	101.62
490.568	104.62
490.786	82.62
491.003	93.62
491.221	106.62
491.439	97.62
491.657	89.62
491.874	90.62
492.092	97.62
492.31	94.62
492.527	94.62
492.745	82.62
492.963	103.62
493.18	109.62
493.398	114.62
493.615	101.62
493.833	81.62
494.05	100.62
494.268	91.62
494.485	93.62
494.703	90.62
494.92	111.62
495.138	93.62
495.355	97.62
495.573	88.62
495.79	82.62
496.008	104.62
496.225	88.62
496.442	86.62
496.66	91.62
496.877	95.62
497.094	97.62
497.312	107.62
497.529	90.62
497.746	88.62
497.963	103.62
498.181	107.62
498.398	94.62
498.615	112.62
498.832	111.62
499.049	105.62
499.267	100.62
499.484	86.62
499.701	87.62
499.918	85.62
500.135	105.62
500.352	100.62
500.569	95.62
500.786	104.62
501.003	105.62
501.22	93.62
501.437	91.62
501.654	86.62
501.871	119.62
502.088	104.62
502.305	84.62
502.522	91.62
502.739	90.62
502.956	114.62
503.172	84.62
503.389	92.62
503.606	123.62
503.823	115.62
504.04	107.62
504.256	83.62
504.473	96.62
504.69	82.62
504.907	103.62
505.123	92.62
505.34	83.62
505.557	79.62
505.773	94.62
505.99	100.62
506.207	98.62
506.423	96.62
506.64	104.62
506.856	92.62
507.073	91.62
507.289	101.62
507.506	99.62
507.722	128.62
507.939	116.62
508.155	90.62
508.372	103.62
508.588	109.62
508.805	119.62
509.021	105.62
509.238	98.62
509.454	104.62
509.67	113.62
509.887	112.62
510.103	126.62
510.319	233.62
510.536	814.62
510.752	2661.62
510.968	740.62
511.184	168.62
511.401	126.62
511.617	114.62
511.833	103.62
512.049	90.62
512.265	90.62
512.481	90.62
512.698	92.62
512.914	99.62
513.13	77.62
513.346	89.62
513.562	99.62
