Data from Uncirc_2006_H10_HRD10591_00001.txt Node
Date: Wed Jan 03 10:24:55 EST 2024
User: Yrep
Spectrometer: HR+D1059
Trigger mode: 1
Integration Time (sec): 1.000000E-1
Scans to average: 1
Electric dark correction enabled: true
Nonlinearity correction enabled: false
Boxcar width: 0
XAxis mode: Wavelengths
Number of Pixels in Spectrum: 2048
>>>>>Begin Spectral Data<<<<<
223.165	-18.31
223.4	-18.31
223.635	-18.31
223.869	-19.31
224.104	-21.31
224.338	-12.31
224.573	-14.31
224.808	-4.31
225.042	-1.31
225.277	-8.31
225.511	-13.31
225.746	20.69
225.98	13.69
226.215	4.69
226.449	16.69
226.683	22.69
226.918	18.69
227.152	15.69
227.387	31.69
227.621	21.69
227.856	37.69
228.09	32.69
228.324	54.69
228.559	56.69
228.793	56.69
229.027	62.69
229.262	65.69
229.496	68.69
229.73	73.69
229.964	82.69
230.199	66.69
230.433	82.69
230.667	81.69
230.901	80.69
231.136	67.69
231.37	68.69
231.604	70.69
231.838	87.69
232.072	72.69
232.306	79.69
232.541	80.69
232.775	80.69
233.009	82.69
233.243	83.69
233.477	68.69
233.711	78.69
233.945	72.69
234.179	66.69
234.413	71.69
234.647	76.69
234.881	77.69
235.115	80.69
235.349	81.69
235.583	64.69
235.817	86.69
236.051	77.69
236.285	80.69
236.519	75.69
236.753	60.69
236.987	81.69
237.221	83.69
237.455	78.69
237.689	77.69
237.922	75.69
238.156	70.69
238.39	51.69
238.624	72.69
238.858	72.69
239.091	66.69
239.325	66.69
239.559	88.69
239.793	79.69
240.027	75.69
240.26	78.69
240.494	76.69
240.728	65.69
240.961	76.69
241.195	79.69
241.429	63.69
241.662	68.69
241.896	82.69
242.13	63.69
242.363	76.69
242.597	74.69
242.83	82.69
243.064	74.69
243.298	82.69
243.531	78.69
243.765	76.69
243.998	77.69
244.232	71.69
244.465	78.69
244.699	60.69
244.932	64.69
245.166	83.69
245.399	72.69
245.633	88.69
245.866	87.69
246.099	78.69
246.333	77.69
246.566	72.69
246.8	93.69
247.033	85.69
247.266	78.69
247.5	85.69
247.733	76.69
247.966	77.69
248.2	89.69
248.433	72.69
248.666	80.69
248.899	84.69
249.133	79.69
249.366	97.69
249.599	74.69
249.832	85.69
250.066	81.69
250.299	89.69
250.532	63.69
250.765	73.69
250.998	79.69
251.231	76.69
251.465	74.69
251.698	70.69
251.931	82.69
252.164	77.69
252.397	84.69
252.63	81.69
252.863	76.69
253.096	83.69
253.329	88.69
253.562	78.69
253.795	70.69
254.028	82.69
254.261	87.69
254.494	83.69
254.727	77.69
254.96	74.69
255.193	64.69
255.426	71.69
255.659	78.69
255.892	85.69
256.124	68.69
256.357	88.69
256.59	81.69
256.823	73.69
257.056	71.69
257.289	92.69
257.521	94.69
257.754	87.69
257.987	81.69
258.22	66.69
258.452	75.69
258.685	72.69
258.918	73.69
259.151	74.69
259.383	78.69
259.616	81.69
259.849	68.69
260.081	88.69
260.314	87.69
260.547	72.69
260.779	81.69
261.012	79.69
261.244	73.69
261.477	91.69
261.71	85.69
261.942	110.69
262.175	95.69
262.407	89.69
262.64	70.69
262.872	82.69
263.105	65.69
263.337	67.69
263.57	89.69
263.802	87.69
264.035	73.69
264.267	70.69
264.499	89.69
264.732	80.69
264.964	84.69
265.197	87.69
265.429	78.69
265.661	81.69
265.894	81.69
266.126	93.69
266.358	91.69
266.591	86.69
266.823	79.69
267.055	81.69
267.287	84.69
267.52	86.69
267.752	89.69
267.984	78.69
268.216	70.69
268.448	81.69
268.681	104.69
268.913	81.69
269.145	79.69
269.377	85.69
269.609	83.69
269.841	73.69
270.073	88.69
270.306	80.69
270.538	88.69
270.77	79.69
271.002	81.69
271.234	80.69
271.466	80.69
271.698	89.69
271.93	92.69
272.162	81.69
272.394	88.69
272.626	82.69
272.858	88.69
273.09	91.69
273.322	88.69
273.553	76.69
273.785	79.69
274.017	88.69
274.249	90.69
274.481	78.69
274.713	80.69
274.945	87.69
275.176	84.69
275.408	76.69
275.64	66.69
275.872	88.69
276.104	88.69
276.335	85.69
276.567	75.69
276.799	97.69
277.031	98.69
277.262	83.69
277.494	81.69
277.726	69.69
277.957	86.69
278.189	83.69
278.421	88.69
278.652	81.69
278.884	98.69
279.115	94.69
279.347	75.69
279.579	84.69
279.81	79.69
280.042	92.69
280.273	88.69
280.505	71.69
280.736	88.69
280.968	90.69
281.199	74.69
281.431	93.69
281.662	78.69
281.894	87.69
282.125	91.69
282.356	99.69
282.588	117.69
282.819	99.69
283.051	90.69
283.282	79.69
283.513	71.69
283.745	93.69
283.976	78.69
284.207	84.69
284.439	89.69
284.67	83.69
284.901	80.69
285.132	76.69
285.364	70.69
285.595	88.69
285.826	76.69
286.057	91.69
286.288	91.69
286.52	87.69
286.751	74.69
286.982	79.69
287.213	73.69
287.444	77.69
287.675	90.69
287.906	65.69
288.138	88.69
288.369	84.69
288.6	80.69
288.831	89.69
289.062	70.69
289.293	83.69
289.524	83.69
289.755	95.69
289.986	84.69
290.217	88.69
290.448	77.69
290.679	88.69
290.91	85.69
291.141	78.69
291.371	82.69
291.602	78.69
291.833	84.69
292.064	88.69
292.295	79.69
292.526	83.69
292.757	75.69
292.987	79.69
293.218	80.69
293.449	88.69
293.68	88.69
293.91	97.69
294.141	90.69
294.372	88.69
294.603	92.69
294.833	78.69
295.064	84.69
295.295	89.69
295.525	104.69
295.756	97.69
295.987	111.69
296.217	134.69
296.448	112.69
296.679	99.69
296.909	91.69
297.14	81.69
297.37	89.69
297.601	88.69
297.831	78.69
298.062	83.69
298.292	93.69
298.523	92.69
298.753	92.69
298.984	96.69
299.214	78.69
299.445	89.69
299.675	88.69
299.905	98.69
300.136	84.69
300.366	74.69
300.597	80.69
300.827	84.69
301.057	75.69
301.288	100.69
301.518	100.69
301.748	83.69
301.979	104.69
302.209	103.69
302.439	75.69
302.669	79.69
302.9	83.69
303.13	76.69
303.36	86.69
303.59	90.69
303.82	90.69
304.051	102.69
304.281	94.69
304.511	74.69
304.741	79.69
304.971	91.69
305.201	94.69
305.431	82.69
305.661	91.69
305.891	89.69
306.121	83.69
306.352	93.69
306.582	75.69
306.812	86.69
307.042	79.69
307.272	78.69
307.502	87.69
307.731	94.69
307.961	84.69
308.191	89.69
308.421	88.69
308.651	81.69
308.881	93.69
309.111	88.69
309.341	97.69
309.571	94.69
309.8	81.69
310.03	83.69
310.26	93.69
310.49	90.69
310.72	84.69
310.949	87.69
311.179	102.69
311.409	90.69
311.639	86.69
311.868	83.69
312.098	102.69
312.328	87.69
312.557	95.69
312.787	91.69
313.017	98.69
313.246	88.69
313.476	77.69
313.706	86.69
313.935	99.69
314.165	90.69
314.394	91.69
314.624	92.69
314.853	95.69
315.083	97.69
315.312	90.69
315.542	95.69
315.771	94.69
316.001	83.69
316.23	93.69
316.46	65.69
316.689	94.69
316.919	92.69
317.148	75.69
317.377	79.69
317.607	96.69
317.836	87.69
318.065	82.69
318.295	102.69
318.524	83.69
318.753	77.69
318.983	89.69
319.212	93.69
319.441	99.69
319.67	87.69
319.9	79.69
320.129	80.69
320.358	91.69
320.587	81.69
320.816	86.69
321.046	94.69
321.275	92.69
321.504	84.69
321.733	101.69
321.962	80.69
322.191	91.69
322.42	99.69
322.649	110.69
322.878	96.69
323.108	113.69
323.337	105.69
323.566	129.69
323.795	134.69
324.024	184.69
324.253	355.69
324.482	718.69
324.71	1478.69
324.939	1931.69
325.168	711.69
325.397	219.69
325.626	136.69
325.855	115.69
326.084	120.69
326.313	123.69
326.542	125.69
326.77	208.69
326.999	426.69
327.228	848.69
327.457	1510.69
327.686	1231.69
327.914	310.69
328.143	176.69
328.372	129.69
328.6	127.69
328.829	99.69
329.058	112.69
329.287	115.69
329.515	91.69
329.744	97.69
329.972	95.69
330.201	99.69
330.43	86.69
330.658	101.69
330.887	122.69
331.115	110.69
331.344	104.69
331.572	99.69
331.801	96.69
332.03	93.69
332.258	90.69
332.486	88.69
332.715	94.69
332.943	97.69
333.172	71.69
333.4	75.69
333.629	95.69
333.857	111.69
334.085	102.69
334.314	83.69
334.542	87.69
334.771	87.69
334.999	91.69
335.227	90.69
335.455	89.69
335.684	99.69
335.912	96.69
336.14	98.69
336.369	84.69
336.597	96.69
336.825	92.69
337.053	96.69
337.281	96.69
337.51	88.69
337.738	100.69
337.966	94.69
338.194	89.69
338.422	94.69
338.65	102.69
338.878	98.69
339.106	96.69
339.334	81.69
339.562	90.69
339.79	91.69
340.018	90.69
340.246	88.69
340.474	84.69
340.702	90.69
340.93	75.69
341.158	90.69
341.386	94.69
341.614	97.69
341.842	103.69
342.07	78.69
342.298	89.69
342.526	83.69
342.754	88.69
342.981	90.69
343.209	104.69
343.437	102.69
343.665	89.69
343.893	106.69
344.12	80.69
344.348	94.69
344.576	85.69
344.804	79.69
345.031	80.69
345.259	96.69
345.487	94.69
345.714	79.69
345.942	96.69
346.17	97.69
346.397	87.69
346.625	75.69
346.853	86.69
347.08	82.69
347.308	93.69
347.535	89.69
347.763	92.69
347.99	79.69
348.218	99.69
348.445	102.69
348.673	96.69
348.9	95.69
349.128	102.69
349.355	92.69
349.583	92.69
349.81	100.69
350.037	97.69
350.265	104.69
350.492	91.69
350.72	77.69
350.947	103.69
351.174	87.69
351.402	92.69
351.629	97.69
351.856	90.69
352.083	87.69
352.311	106.69
352.538	106.69
352.765	101.69
352.992	109.69
353.22	113.69
353.447	92.69
353.674	100.69
353.901	108.69
354.128	84.69
354.355	91.69
354.583	104.69
354.81	97.69
355.037	81.69
355.264	91.69
355.491	92.69
355.718	93.69
355.945	84.69
356.172	99.69
356.399	90.69
356.626	80.69
356.853	94.69
357.08	86.69
357.307	96.69
357.534	78.69
357.761	86.69
357.988	82.69
358.215	101.69
358.441	93.69
358.668	97.69
358.895	95.69
359.122	81.69
359.349	87.69
359.576	91.69
359.802	78.69
360.029	95.69
360.256	101.69
360.483	82.69
360.709	89.69
360.936	88.69
361.163	75.69
361.39	81.69
361.616	88.69
361.843	94.69
362.07	88.69
362.296	80.69
362.523	72.69
362.749	92.69
362.976	76.69
363.203	83.69
363.429	96.69
363.656	79.69
363.882	80.69
364.109	87.69
364.335	95.69
364.562	100.69
364.788	86.69
365.015	101.69
365.241	86.69
365.468	92.69
365.694	86.69
365.92	103.69
366.147	88.69
366.373	74.69
366.599	87.69
366.826	87.69
367.052	86.69
367.278	94.69
367.505	80.69
367.731	92.69
367.957	78.69
368.184	76.69
368.41	95.69
368.636	101.69
368.862	105.69
369.089	93.69
369.315	80.69
369.541	99.69
369.767	94.69
369.993	82.69
370.219	90.69
370.445	97.69
370.672	97.69
370.898	79.69
371.124	83.69
371.35	97.69
371.576	98.69
371.802	77.69
372.028	90.69
372.254	88.69
372.48	78.69
372.706	94.69
372.932	91.69
373.158	87.69
373.384	81.69
373.61	78.69
373.835	86.69
374.061	81.69
374.287	93.69
374.513	92.69
374.739	86.69
374.965	80.69
375.191	99.69
375.416	88.69
375.642	87.69
375.868	91.69
376.094	83.69
376.319	88.69
376.545	88.69
376.771	91.69
376.997	83.69
377.222	82.69
377.448	89.69
377.674	99.69
377.899	89.69
378.125	91.69
378.35	85.69
378.576	96.69
378.802	99.69
379.027	91.69
379.253	86.69
379.478	94.69
379.704	101.69
379.929	94.69
380.155	94.69
380.38	99.69
380.606	94.69
380.831	97.69
381.057	95.69
381.282	106.69
381.507	98.69
381.733	106.69
381.958	99.69
382.184	104.69
382.409	100.69
382.634	106.69
382.86	84.69
383.085	112.69
383.31	105.69
383.535	118.69
383.761	105.69
383.986	103.69
384.211	104.69
384.436	110.69
384.662	119.69
384.887	109.69
385.112	120.69
385.337	111.69
385.562	114.69
385.787	123.69
386.013	126.69
386.238	132.69
386.463	99.69
386.688	106.69
386.913	109.69
387.138	122.69
387.363	117.69
387.588	107.69
387.813	115.69
388.038	125.69
388.263	134.69
388.488	138.69
388.713	95.69
388.938	96.69
389.163	99.69
389.387	102.69
389.612	83.69
389.837	96.69
390.062	85.69
390.287	91.69
390.512	92.69
390.736	81.69
390.961	80.69
391.186	82.69
391.411	96.69
391.636	85.69
391.86	82.69
392.085	81.69
392.31	84.69
392.534	105.69
392.759	83.69
392.984	67.69
393.208	90.69
393.433	112.69
393.658	87.69
393.882	85.69
394.107	91.69
394.331	88.69
394.556	90.69
394.78	77.69
395.005	79.69
395.229	76.69
395.454	84.69
395.678	81.69
395.903	93.69
396.127	79.69
396.352	99.69
396.576	87.69
396.801	77.69
397.025	94.69
397.249	96.69
397.474	94.69
397.698	82.69
397.922	88.69
398.147	83.69
398.371	96.69
398.595	82.69
398.82	92.69
399.044	92.69
399.268	95.69
399.492	75.69
399.717	69.69
399.941	92.69
400.165	85.69
400.389	80.69
400.613	87.69
400.837	83.69
401.062	78.69
401.286	83.69
401.51	96.69
401.734	92.69
401.958	89.69
402.182	126.69
402.406	118.69
402.63	105.69
402.854	86.69
403.078	90.69
403.302	87.69
403.526	81.69
403.75	78.69
403.974	87.69
404.198	87.69
404.422	85.69
404.645	70.69
404.869	83.69
405.093	84.69
405.317	79.69
405.541	91.69
405.765	83.69
405.988	102.69
406.212	140.69
406.436	175.69
406.66	97.69
406.883	84.69
407.107	95.69
407.331	90.69
407.555	95.69
407.778	91.69
408.002	87.69
408.226	90.69
408.449	77.69
408.673	74.69
408.896	80.69
409.12	99.69
409.344	82.69
409.567	88.69
409.791	84.69
410.014	88.69
410.238	94.69
410.461	99.69
410.685	97.69
410.908	100.69
411.132	96.69
411.355	99.69
411.578	93.69
411.802	85.69
412.025	74.69
412.249	87.69
412.472	98.69
412.695	83.69
412.919	84.69
413.142	89.69
413.365	83.69
413.589	88.69
413.812	87.69
414.035	103.69
414.258	89.69
414.482	82.69
414.705	97.69
414.928	91.69
415.151	90.69
415.374	92.69
415.597	92.69
415.821	87.69
416.044	86.69
416.267	71.69
416.49	79.69
416.713	91.69
416.936	85.69
417.159	92.69
417.382	84.69
417.605	81.69
417.828	90.69
418.051	82.69
418.274	109.69
418.497	90.69
418.72	83.69
418.943	86.69
419.166	89.69
419.389	94.69
419.611	88.69
419.834	91.69
420.057	93.69
420.28	92.69
420.503	90.69
420.726	91.69
420.948	89.69
421.171	82.69
421.394	96.69
421.617	87.69
421.839	81.69
422.062	88.69
422.285	80.69
422.507	92.69
422.73	104.69
422.953	89.69
423.175	70.69
423.398	84.69
423.621	94.69
423.843	92.69
424.066	62.69
424.288	86.69
424.511	86.69
424.733	95.69
424.956	90.69
425.178	94.69
425.401	85.69
425.623	103.69
425.846	75.69
426.068	84.69
426.291	95.69
426.513	79.69
426.735	90.69
426.958	83.69
427.18	91.69
427.402	110.69
427.625	148.69
427.847	106.69
428.069	84.69
428.292	83.69
428.514	87.69
428.736	64.69
428.958	80.69
429.181	80.69
429.403	73.69
429.625	92.69
429.847	91.69
430.069	98.69
430.292	74.69
430.514	83.69
430.736	75.69
430.958	83.69
431.18	70.69
431.402	88.69
431.624	76.69
431.846	85.69
432.068	91.69
432.29	88.69
432.512	79.69
432.734	82.69
432.956	99.69
433.178	88.69
433.4	97.69
433.622	82.69
433.844	95.69
434.066	78.69
434.287	89.69
434.509	92.69
434.731	84.69
434.953	85.69
435.175	83.69
435.397	90.69
435.618	93.69
435.84	82.69
436.062	118.69
436.284	109.69
436.505	98.69
436.727	105.69
436.949	89.69
437.17	89.69
437.392	75.69
437.614	90.69
437.835	77.69
438.057	104.69
438.278	104.69
438.5	93.69
438.721	95.69
438.943	107.69
439.165	92.69
439.386	82.69
439.608	91.69
439.829	95.69
440.05	111.69
440.272	123.69
440.493	102.69
440.715	79.69
440.936	85.69
441.158	94.69
441.379	87.69
441.6	77.69
441.822	96.69
442.043	81.69
442.264	92.69
442.486	92.69
442.707	88.69
442.928	100.69
443.149	111.69
443.371	112.69
443.592	91.69
443.813	99.69
444.034	115.69
444.255	97.69
444.476	69.69
444.698	74.69
444.919	81.69
445.14	108.69
445.361	120.69
445.582	120.69
445.803	118.69
446.024	117.69
446.245	120.69
446.466	103.69
446.687	75.69
446.908	80.69
447.129	83.69
447.35	77.69
447.571	103.69
447.792	88.69
448.013	89.69
448.234	103.69
448.455	91.69
448.675	89.69
448.896	106.69
449.117	97.69
449.338	85.69
449.559	104.69
449.779	107.69
450	98.69
450.221	88.69
450.442	82.69
450.662	90.69
450.883	101.69
451.104	99.69
451.324	87.69
451.545	77.69
451.766	78.69
451.986	70.69
452.207	96.69
452.428	91.69
452.648	92.69
452.869	98.69
453.089	108.69
453.31	103.69
453.53	89.69
453.751	88.69
453.971	96.69
454.192	93.69
454.412	92.69
454.633	97.69
454.853	96.69
455.073	94.69
455.294	86.69
455.514	103.69
455.734	74.69
455.955	88.69
456.175	86.69
456.395	83.69
456.616	105.69
456.836	82.69
457.056	86.69
457.276	87.69
457.497	78.69
457.717	71.69
457.937	71.69
458.157	77.69
458.377	95.69
458.598	92.69
458.818	121.69
459.038	136.69
459.258	102.69
459.478	80.69
459.698	92.69
459.918	77.69
460.138	86.69
460.358	70.69
460.578	90.69
460.798	82.69
461.018	95.69
461.238	86.69
461.458	90.69
461.678	82.69
461.898	81.69
462.118	92.69
462.338	81.69
462.558	83.69
462.777	91.69
462.997	87.69
463.217	73.69
463.437	79.69
463.657	89.69
463.876	76.69
464.096	100.69
464.316	82.69
464.536	75.69
464.755	89.69
464.975	93.69
465.195	146.69
465.414	148.69
465.634	103.69
465.854	81.69
466.073	71.69
466.293	78.69
466.512	77.69
466.732	81.69
466.951	84.69
467.171	98.69
467.391	79.69
467.61	107.69
467.829	76.69
468.049	72.69
468.268	76.69
468.488	79.69
468.707	75.69
468.927	76.69
469.146	89.69
469.365	81.69
469.585	81.69
469.804	81.69
470.023	100.69
470.243	99.69
470.462	109.69
470.681	92.69
470.901	92.69
471.12	87.69
471.339	93.69
471.558	89.69
471.777	70.69
471.997	84.69
472.216	88.69
472.435	74.69
472.654	84.69
472.873	90.69
473.092	69.69
473.311	77.69
473.53	83.69
473.749	74.69
473.968	94.69
474.187	91.69
474.406	89.69
474.625	80.69
474.844	87.69
475.063	101.69
475.282	72.69
475.501	95.69
475.72	89.69
475.939	89.69
476.158	88.69
476.377	87.69
476.596	94.69
476.814	88.69
477.033	93.69
477.252	77.69
477.471	75.69
477.69	80.69
477.908	79.69
478.127	83.69
478.346	69.69
478.564	84.69
478.783	98.69
479.002	73.69
479.22	78.69
479.439	88.69
479.658	100.69
479.876	91.69
480.095	92.69
480.313	94.69
480.532	80.69
480.751	70.69
480.969	86.69
481.188	82.69
481.406	98.69
481.624	84.69
481.843	82.69
482.061	85.69
482.28	75.69
482.498	74.69
482.717	93.69
482.935	91.69
483.153	85.69
483.372	91.69
483.59	82.69
483.808	89.69
484.027	102.69
484.245	82.69
484.463	81.69
484.681	96.69
484.9	98.69
485.118	83.69
485.336	114.69
485.554	95.69
485.772	99.69
485.99	79.69
486.209	101.69
486.427	102.69
486.645	115.69
486.863	105.69
487.081	89.69
487.299	99.69
487.517	91.69
487.735	86.69
487.953	76.69
488.171	87.69
488.389	93.69
488.607	83.69
488.825	84.69
489.043	89.69
489.261	73.69
489.479	96.69
489.696	90.69
489.914	91.69
490.132	92.69
490.35	90.69
490.568	76.69
490.786	77.69
491.003	91.69
491.221	91.69
491.439	76.69
491.657	88.69
491.874	80.69
492.092	85.69
492.31	91.69
492.527	73.69
492.745	80.69
492.963	96.69
493.18	81.69
493.398	90.69
493.615	91.69
493.833	97.69
494.05	89.69
494.268	80.69
494.485	87.69
494.703	87.69
494.92	72.69
495.138	92.69
495.355	85.69
495.573	87.69
495.79	83.69
496.008	87.69
496.225	96.69
496.442	83.69
496.66	96.69
496.877	84.69
497.094	96.69
497.312	92.69
497.529	88.69
497.746	97.69
497.963	99.69
498.181	96.69
498.398	90.69
498.615	103.69
498.832	102.69
499.049	87.69
499.267	77.69
499.484	95.69
499.701	82.69
499.918	101.69
500.135	88.69
500.352	81.69
500.569	102.69
500.786	96.69
501.003	79.69
501.22	96.69
501.437	91.69
501.654	92.69
501.871	103.69
502.088	97.69
502.305	97.69
502.522	83.69
502.739	96.69
502.956	94.69
503.172	82.69
503.389	72.69
503.606	110.69
503.823	84.69
504.04	91.69
504.256	87.69
504.473	90.69
504.69	88.69
504.907	95.69
505.123	89.69
505.34	85.69
505.557	93.69
505.773	81.69
505.99	88.69
506.207	78.69
506.423	99.69
506.64	88.69
506.856	92.69
507.073	81.69
507.289	94.69
507.506	89.69
507.722	100.69
507.939	107.69
508.155	91.69
508.372	83.69
508.588	98.69
508.805	83.69
509.021	89.69
509.238	98.69
509.454	96.69
509.67	92.69
509.887	119.69
510.103	120.69
510.319	196.69
510.536	646.69
510.752	1922.69
510.968	558.69
511.184	150.69
511.401	112.69
511.617	99.69
511.833	102.69
512.049	88.69
512.265	88.69
512.481	74.69
512.698	94.69
512.914	99.69
513.13	86.69
513.346	97.69
513.562	90.69
513.778	81.69
513.994	88.69
514.21	106.69
514.426	133.69
514.642	124.69
514.858	100.69
515.074	146.69
515.29	355.69
515.506	1179.69
515.721	450.69
515.937	144.69
516.153	99.69
516.369	92.69
516.585	99.69
516.801	91.69
517.016	83.69
517.232	77.69
