Data from Uncirc_2006_H10_HRD10591_00019.txt Node
Date: Wed Jan 03 10:24:58 EST 2024
User: Yrep
Spectrometer: HR+D1059
Trigger mode: 1
Integration Time (sec): 1.000000E-1
Scans to average: 1
Electric dark correction enabled: true
Nonlinearity correction enabled: false
Boxcar width: 0
XAxis mode: Wavelengths
Number of Pixels in Spectrum: 2048
>>>>>Begin Spectral Data<<<<<
223.165	-17.88
223.4	-17.88
223.635	-17.88
223.869	-17.88
224.104	-22.88
224.338	-5.88
224.573	-25.88
224.808	-21.88
225.042	-9.88
225.277	-4.88
225.511	-8.88
225.746	9.12
225.98	1.12
226.215	14.12
226.449	22.12
226.683	30.12
226.918	19.12
227.152	40.12
227.387	43.12
227.621	42.12
227.856	46.12
228.09	42.12
228.324	44.12
228.559	52.12
228.793	61.12
229.027	67.12
229.262	67.12
229.496	70.12
229.73	70.12
229.964	87.12
230.199	92.12
230.433	80.12
230.667	79.12
230.901	65.12
231.136	74.12
231.37	77.12
231.604	79.12
231.838	75.12
232.072	76.12
232.306	76.12
232.541	84.12
232.775	78.12
233.009	88.12
233.243	86.12
233.477	84.12
233.711	79.12
233.945	68.12
234.179	78.12
234.413	84.12
234.647	95.12
234.881	76.12
235.115	85.12
235.349	77.12
235.583	75.12
235.817	88.12
236.051	76.12
236.285	74.12
236.519	82.12
236.753	80.12
236.987	78.12
237.221	94.12
237.455	79.12
237.689	79.12
237.922	70.12
238.156	67.12
238.39	86.12
238.624	71.12
238.858	80.12
239.091	77.12
239.325	84.12
239.559	76.12
239.793	74.12
240.027	86.12
240.26	66.12
240.494	76.12
240.728	63.12
240.961	75.12
241.195	85.12
241.429	79.12
241.662	81.12
241.896	79.12
242.13	65.12
242.363	74.12
242.597	73.12
242.83	76.12
243.064	68.12
243.298	65.12
243.531	81.12
243.765	81.12
243.998	86.12
244.232	65.12
244.465	71.12
244.699	87.12
244.932	95.12
245.166	71.12
245.399	76.12
245.633	78.12
245.866	87.12
246.099	78.12
246.333	83.12
246.566	76.12
246.8	84.12
247.033	73.12
247.266	81.12
247.5	79.12
247.733	75.12
247.966	68.12
248.2	71.12
248.433	68.12
248.666	75.12
248.899	91.12
249.133	94.12
249.366	94.12
249.599	96.12
249.832	92.12
250.066	100.12
250.299	71.12
250.532	102.12
250.765	90.12
250.998	73.12
251.231	75.12
251.465	70.12
251.698	70.12
251.931	78.12
252.164	75.12
252.397	64.12
252.63	77.12
252.863	93.12
253.096	76.12
253.329	80.12
253.562	86.12
253.795	85.12
254.028	81.12
254.261	87.12
254.494	77.12
254.727	90.12
254.96	72.12
255.193	75.12
255.426	74.12
255.659	80.12
255.892	99.12
256.124	76.12
256.357	68.12
256.59	87.12
256.823	90.12
257.056	85.12
257.289	86.12
257.521	86.12
257.754	95.12
257.987	77.12
258.22	70.12
258.452	89.12
258.685	73.12
258.918	84.12
259.151	83.12
259.383	80.12
259.616	76.12
259.849	79.12
260.081	81.12
260.314	78.12
260.547	86.12
260.779	75.12
261.012	85.12
261.244	87.12
261.477	87.12
261.71	97.12
261.942	99.12
262.175	106.12
262.407	91.12
262.64	94.12
262.872	87.12
263.105	80.12
263.337	80.12
263.57	83.12
263.802	83.12
264.035	74.12
264.267	79.12
264.499	75.12
264.732	90.12
264.964	81.12
265.197	74.12
265.429	71.12
265.661	84.12
265.894	86.12
266.126	75.12
266.358	79.12
266.591	83.12
266.823	79.12
267.055	91.12
267.287	74.12
267.52	84.12
267.752	91.12
267.984	86.12
268.216	75.12
268.448	81.12
268.681	82.12
268.913	79.12
269.145	77.12
269.377	109.12
269.609	90.12
269.841	90.12
270.073	96.12
270.306	90.12
270.538	92.12
270.77	70.12
271.002	93.12
271.234	73.12
271.466	100.12
271.698	88.12
271.93	81.12
272.162	87.12
272.394	86.12
272.626	88.12
272.858	70.12
273.09	74.12
273.322	84.12
273.553	96.12
273.785	87.12
274.017	84.12
274.249	78.12
274.481	89.12
274.713	86.12
274.945	86.12
275.176	87.12
275.408	75.12
275.64	88.12
275.872	73.12
276.104	92.12
276.335	86.12
276.567	89.12
276.799	95.12
277.031	91.12
277.262	93.12
277.494	89.12
277.726	91.12
277.957	91.12
278.189	76.12
278.421	82.12
278.652	91.12
278.884	91.12
279.115	85.12
279.347	81.12
279.579	70.12
279.81	94.12
280.042	82.12
280.273	86.12
280.505	91.12
280.736	97.12
280.968	93.12
281.199	91.12
281.431	94.12
281.662	80.12
281.894	86.12
282.125	95.12
282.356	109.12
282.588	129.12
282.819	112.12
283.051	75.12
283.282	93.12
283.513	100.12
283.745	95.12
283.976	81.12
284.207	73.12
284.439	91.12
284.67	82.12
284.901	90.12
285.132	93.12
285.364	91.12
285.595	81.12
285.826	97.12
286.057	90.12
286.288	78.12
286.52	74.12
286.751	85.12
286.982	74.12
287.213	82.12
287.444	93.12
287.675	85.12
287.906	69.12
288.138	92.12
288.369	105.12
288.6	91.12
288.831	91.12
289.062	77.12
289.293	100.12
289.524	83.12
289.755	83.12
289.986	70.12
290.217	94.12
290.448	104.12
290.679	85.12
290.91	93.12
291.141	97.12
291.371	87.12
291.602	98.12
291.833	92.12
292.064	93.12
292.295	78.12
292.526	91.12
292.757	86.12
292.987	79.12
293.218	88.12
293.449	88.12
293.68	99.12
293.91	99.12
294.141	82.12
294.372	93.12
294.603	84.12
294.833	92.12
295.064	84.12
295.295	85.12
295.525	109.12
295.756	98.12
295.987	112.12
296.217	117.12
296.448	113.12
296.679	97.12
296.909	88.12
297.14	98.12
297.37	81.12
297.601	80.12
297.831	93.12
298.062	70.12
298.292	85.12
298.523	90.12
298.753	86.12
298.984	68.12
299.214	82.12
299.445	86.12
299.675	92.12
299.905	100.12
300.136	91.12
300.366	93.12
300.597	87.12
300.827	97.12
301.057	91.12
301.288	111.12
301.518	91.12
301.748	94.12
301.979	104.12
302.209	68.12
302.439	88.12
302.669	91.12
302.9	89.12
303.13	87.12
303.36	81.12
303.59	84.12
303.82	114.12
304.051	115.12
304.281	77.12
304.511	85.12
304.741	96.12
304.971	102.12
305.201	81.12
305.431	86.12
305.661	94.12
305.891	79.12
306.121	85.12
306.352	90.12
306.582	112.12
306.812	92.12
307.042	88.12
307.272	81.12
307.502	102.12
307.731	93.12
307.961	87.12
308.191	83.12
308.421	102.12
308.651	96.12
308.881	74.12
309.111	78.12
309.341	83.12
309.571	85.12
309.8	84.12
310.03	95.12
310.26	100.12
310.49	84.12
310.72	95.12
310.949	102.12
311.179	90.12
311.409	105.12
311.639	103.12
311.868	100.12
312.098	87.12
312.328	94.12
312.557	108.12
312.787	98.12
313.017	125.12
313.246	104.12
313.476	89.12
313.706	85.12
313.935	94.12
314.165	95.12
314.394	71.12
314.624	89.12
314.853	87.12
315.083	87.12
315.312	85.12
315.542	98.12
315.771	83.12
316.001	93.12
316.23	78.12
316.46	91.12
316.689	84.12
316.919	89.12
317.148	100.12
317.377	83.12
317.607	94.12
317.836	99.12
318.065	81.12
318.295	91.12
318.524	91.12
318.753	100.12
318.983	84.12
319.212	92.12
319.441	99.12
319.67	103.12
319.9	92.12
320.129	101.12
320.358	84.12
320.587	88.12
320.816	95.12
321.046	110.12
321.275	85.12
321.504	96.12
321.733	105.12
321.962	99.12
322.191	102.12
322.42	87.12
322.649	102.12
322.878	112.12
323.108	116.12
323.337	106.12
323.566	125.12
323.795	159.12
324.024	198.12
324.253	401.12
324.482	844.12
324.71	1725.12
324.939	2260.12
325.168	819.12
325.397	223.12
325.626	149.12
325.855	119.12
326.084	110.12
326.313	127.12
326.542	150.12
326.77	236.12
326.999	468.12
327.228	982.12
327.457	1782.12
327.686	1403.12
327.914	378.12
328.143	178.12
328.372	129.12
328.6	126.12
328.829	121.12
329.058	114.12
329.287	125.12
329.515	107.12
329.744	85.12
329.972	99.12
330.201	88.12
330.43	100.12
330.658	109.12
330.887	125.12
331.115	118.12
331.344	108.12
331.572	112.12
331.801	102.12
332.03	110.12
332.258	102.12
332.486	95.12
332.715	116.12
332.943	100.12
333.172	90.12
333.4	99.12
333.629	95.12
333.857	114.12
334.085	100.12
334.314	97.12
334.542	98.12
334.771	107.12
334.999	101.12
335.227	96.12
335.455	111.12
335.684	89.12
335.912	86.12
336.14	79.12
336.369	93.12
336.597	93.12
336.825	104.12
337.053	95.12
337.281	94.12
337.51	101.12
337.738	102.12
337.966	87.12
338.194	88.12
338.422	86.12
338.65	85.12
338.878	95.12
339.106	96.12
339.334	95.12
339.562	103.12
339.79	99.12
340.018	91.12
340.246	92.12
340.474	99.12
340.702	104.12
340.93	89.12
341.158	93.12
341.386	105.12
341.614	96.12
341.842	95.12
342.07	87.12
342.298	83.12
342.526	92.12
342.754	85.12
342.981	90.12
343.209	93.12
343.437	87.12
343.665	113.12
343.893	84.12
344.12	94.12
344.348	91.12
344.576	105.12
344.804	76.12
345.031	98.12
345.259	90.12
345.487	96.12
345.714	90.12
345.942	87.12
346.17	96.12
346.397	91.12
346.625	97.12
346.853	101.12
347.08	100.12
347.308	98.12
347.535	94.12
347.763	105.12
347.99	98.12
348.218	113.12
348.445	101.12
348.673	98.12
348.9	113.12
349.128	76.12
349.355	92.12
349.583	92.12
349.81	87.12
350.037	99.12
350.265	85.12
350.492	92.12
350.72	92.12
350.947	106.12
351.174	93.12
351.402	111.12
351.629	110.12
351.856	100.12
352.083	92.12
352.311	107.12
352.538	111.12
352.765	93.12
352.992	110.12
353.22	94.12
353.447	83.12
353.674	106.12
353.901	92.12
354.128	102.12
354.355	91.12
354.583	97.12
354.81	100.12
355.037	93.12
355.264	106.12
355.491	97.12
355.718	93.12
355.945	98.12
356.172	94.12
356.399	111.12
356.626	95.12
356.853	96.12
357.08	90.12
357.307	101.12
357.534	90.12
357.761	98.12
357.988	97.12
358.215	98.12
358.441	88.12
358.668	85.12
358.895	100.12
359.122	96.12
359.349	91.12
359.576	92.12
359.802	91.12
360.029	104.12
360.256	95.12
360.483	100.12
360.709	83.12
360.936	94.12
361.163	96.12
361.39	98.12
361.616	80.12
361.843	103.12
362.07	86.12
362.296	82.12
362.523	97.12
362.749	80.12
362.976	90.12
363.203	91.12
363.429	87.12
363.656	95.12
363.882	90.12
364.109	92.12
364.335	94.12
364.562	92.12
364.788	91.12
365.015	89.12
365.241	98.12
365.468	106.12
365.694	109.12
365.92	97.12
366.147	90.12
366.373	86.12
366.599	82.12
366.826	83.12
367.052	108.12
367.278	69.12
367.505	78.12
367.731	91.12
367.957	104.12
368.184	93.12
368.41	86.12
368.636	97.12
368.862	126.12
369.089	93.12
369.315	93.12
369.541	79.12
369.767	77.12
369.993	86.12
370.219	107.12
370.445	98.12
370.672	96.12
370.898	87.12
371.124	80.12
371.35	95.12
371.576	73.12
371.802	94.12
372.028	94.12
372.254	97.12
372.48	81.12
372.706	93.12
372.932	85.12
373.158	94.12
373.384	91.12
373.61	96.12
373.835	93.12
374.061	92.12
374.287	100.12
374.513	94.12
374.739	93.12
374.965	95.12
375.191	75.12
375.416	89.12
375.642	87.12
375.868	100.12
376.094	102.12
376.319	86.12
376.545	80.12
376.771	77.12
376.997	96.12
377.222	84.12
377.448	98.12
377.674	84.12
377.899	81.12
378.125	102.12
378.35	98.12
378.576	97.12
378.802	104.12
379.027	93.12
379.253	96.12
379.478	91.12
379.704	102.12
379.929	78.12
380.155	95.12
380.38	107.12
380.606	103.12
380.831	100.12
381.057	82.12
381.282	101.12
381.507	101.12
381.733	92.12
381.958	110.12
382.184	98.12
382.409	90.12
382.634	104.12
382.86	98.12
383.085	106.12
383.31	102.12
383.535	106.12
383.761	99.12
383.986	107.12
384.211	109.12
384.436	108.12
384.662	110.12
384.887	125.12
385.112	112.12
385.337	114.12
385.562	113.12
385.787	95.12
386.013	103.12
386.238	111.12
386.463	110.12
386.688	121.12
386.913	103.12
387.138	93.12
387.363	100.12
387.588	97.12
387.813	107.12
388.038	131.12
388.263	138.12
388.488	109.12
388.713	96.12
388.938	105.12
389.163	97.12
389.387	105.12
389.612	88.12
389.837	93.12
390.062	91.12
390.287	94.12
390.512	89.12
390.736	86.12
390.961	79.12
391.186	101.12
391.411	89.12
391.636	87.12
391.86	84.12
392.085	81.12
392.31	86.12
392.534	100.12
392.759	74.12
392.984	95.12
393.208	80.12
393.433	103.12
393.658	84.12
393.882	89.12
394.107	74.12
394.331	83.12
394.556	97.12
394.78	86.12
395.005	87.12
395.229	78.12
395.454	83.12
395.678	74.12
395.903	90.12
396.127	92.12
396.352	78.12
396.576	83.12
396.801	82.12
397.025	97.12
397.249	85.12
397.474	81.12
397.698	84.12
397.922	73.12
398.147	79.12
398.371	90.12
398.595	78.12
398.82	88.12
399.044	87.12
399.268	91.12
399.492	96.12
399.717	83.12
399.941	90.12
400.165	84.12
400.389	100.12
400.613	93.12
400.837	87.12
401.062	97.12
401.286	86.12
401.51	95.12
401.734	88.12
401.958	98.12
402.182	116.12
402.406	144.12
402.63	113.12
402.854	92.12
403.078	96.12
403.302	78.12
403.526	87.12
403.75	74.12
403.974	73.12
404.198	103.12
404.422	97.12
404.645	84.12
404.869	75.12
405.093	93.12
405.317	89.12
405.541	93.12
405.765	97.12
405.988	112.12
406.212	169.12
406.436	207.12
406.66	134.12
406.883	107.12
407.107	99.12
407.331	96.12
407.555	93.12
407.778	91.12
408.002	97.12
408.226	99.12
408.449	96.12
408.673	81.12
408.896	84.12
409.12	95.12
409.344	88.12
409.567	96.12
409.791	94.12
410.014	85.12
410.238	85.12
410.461	102.12
410.685	97.12
410.908	99.12
411.132	115.12
411.355	93.12
411.578	90.12
411.802	95.12
412.025	82.12
412.249	93.12
412.472	95.12
412.695	55.12
412.919	98.12
413.142	98.12
413.365	84.12
413.589	81.12
413.812	93.12
414.035	90.12
414.258	82.12
414.482	87.12
414.705	90.12
414.928	91.12
415.151	93.12
415.374	95.12
415.597	107.12
415.821	88.12
416.044	81.12
416.267	86.12
416.49	98.12
416.713	82.12
416.936	95.12
417.159	89.12
417.382	78.12
417.605	84.12
417.828	97.12
418.051	93.12
418.274	96.12
418.497	95.12
418.72	95.12
418.943	90.12
419.166	102.12
419.389	83.12
419.611	101.12
419.834	86.12
420.057	89.12
420.28	98.12
420.503	86.12
420.726	87.12
420.948	94.12
421.171	90.12
421.394	97.12
421.617	80.12
421.839	82.12
422.062	92.12
422.285	89.12
422.507	105.12
422.73	96.12
422.953	85.12
423.175	101.12
423.398	89.12
423.621	87.12
423.843	110.12
424.066	95.12
424.288	93.12
424.511	86.12
424.733	103.12
424.956	95.12
425.178	91.12
425.401	105.12
425.623	89.12
425.846	93.12
426.068	102.12
426.291	109.12
426.513	95.12
426.735	92.12
426.958	107.12
427.18	105.12
427.402	141.12
427.625	163.12
427.847	132.12
428.069	105.12
428.292	83.12
428.514	75.12
428.736	93.12
428.958	82.12
429.181	91.12
429.403	74.12
429.625	89.12
429.847	82.12
430.069	98.12
430.292	106.12
430.514	94.12
430.736	92.12
430.958	83.12
431.18	84.12
431.402	84.12
431.624	74.12
431.846	91.12
432.068	65.12
432.29	84.12
432.512	95.12
432.734	87.12
432.956	97.12
433.178	95.12
433.4	97.12
433.622	96.12
433.844	87.12
434.066	88.12
434.287	99.12
434.509	102.12
434.731	78.12
434.953	81.12
435.175	77.12
435.397	106.12
435.618	106.12
435.84	106.12
436.062	121.12
436.284	104.12
436.505	111.12
436.727	94.12
436.949	86.12
437.17	82.12
437.392	78.12
437.614	95.12
437.835	100.12
438.057	112.12
438.278	108.12
438.5	114.12
438.721	141.12
438.943	110.12
439.165	96.12
439.386	98.12
439.608	89.12
439.829	101.12
440.05	111.12
440.272	145.12
440.493	87.12
440.715	98.12
440.936	85.12
441.158	81.12
441.379	96.12
441.6	86.12
441.822	89.12
442.043	94.12
442.264	97.12
442.486	96.12
442.707	92.12
442.928	98.12
443.149	130.12
443.371	128.12
443.592	98.12
443.813	102.12
444.034	112.12
444.255	94.12
444.476	92.12
444.698	87.12
444.919	80.12
445.14	137.12
445.361	118.12
445.582	109.12
445.803	123.12
446.024	107.12
446.245	135.12
446.466	118.12
446.687	92.12
446.908	76.12
447.129	98.12
447.35	86.12
447.571	105.12
447.792	99.12
448.013	95.12
448.234	83.12
448.455	106.12
448.675	98.12
448.896	129.12
449.117	93.12
449.338	104.12
449.559	129.12
449.779	145.12
450	98.12
450.221	84.12
450.442	95.12
450.662	94.12
450.883	102.12
451.104	123.12
451.324	92.12
451.545	88.12
451.766	94.12
451.986	84.12
452.207	87.12
452.428	81.12
452.648	96.12
452.869	121.12
453.089	109.12
453.31	112.12
453.53	101.12
453.751	86.12
453.971	90.12
454.192	99.12
454.412	106.12
454.633	98.12
454.853	91.12
455.073	85.12
455.294	83.12
455.514	94.12
455.734	100.12
455.955	89.12
456.175	82.12
456.395	87.12
456.616	83.12
456.836	85.12
457.056	78.12
457.276	78.12
457.497	91.12
457.717	86.12
457.937	95.12
458.157	71.12
458.377	77.12
458.598	97.12
458.818	133.12
459.038	147.12
459.258	109.12
459.478	95.12
459.698	98.12
459.918	90.12
460.138	89.12
460.358	91.12
460.578	92.12
460.798	76.12
461.018	90.12
461.238	96.12
461.458	94.12
461.678	76.12
461.898	88.12
462.118	70.12
462.338	69.12
462.558	78.12
462.777	91.12
462.997	92.12
463.217	90.12
463.437	88.12
463.657	78.12
463.876	86.12
464.096	114.12
464.316	91.12
464.536	100.12
464.755	92.12
464.975	107.12
465.195	145.12
465.414	161.12
465.634	93.12
465.854	86.12
466.073	95.12
466.293	83.12
466.512	89.12
466.732	81.12
466.951	86.12
467.171	95.12
467.391	79.12
467.61	80.12
467.829	80.12
468.049	85.12
468.268	84.12
468.488	102.12
468.707	91.12
468.927	82.12
469.146	88.12
469.365	91.12
469.585	92.12
469.804	93.12
470.023	94.12
470.243	91.12
470.462	96.12
470.681	111.12
470.901	102.12
471.12	95.12
471.339	84.12
471.558	94.12
471.777	84.12
471.997	86.12
472.216	81.12
472.435	85.12
472.654	84.12
472.873	85.12
473.092	81.12
473.311	95.12
473.53	88.12
473.749	93.12
473.968	94.12
474.187	112.12
474.406	85.12
474.625	81.12
474.844	88.12
475.063	81.12
475.282	90.12
475.501	96.12
475.72	92.12
475.939	97.12
476.158	92.12
476.377	94.12
476.596	83.12
476.814	100.12
477.033	81.12
477.252	93.12
477.471	94.12
477.69	86.12
477.908	101.12
478.127	89.12
478.346	95.12
478.564	97.12
478.783	96.12
479.002	93.12
479.22	90.12
479.439	96.12
479.658	98.12
479.876	87.12
480.095	86.12
480.313	92.12
480.532	86.12
480.751	106.12
480.969	84.12
481.188	81.12
481.406	82.12
481.624	99.12
481.843	84.12
482.061	90.12
482.28	87.12
482.498	84.12
482.717	110.12
482.935	87.12
483.153	84.12
483.372	92.12
483.59	90.12
483.808	77.12
484.027	84.12
484.245	101.12
484.463	91.12
484.681	93.12
484.9	97.12
485.118	104.12
485.336	101.12
485.554	106.12
485.772	91.12
485.99	88.12
486.209	99.12
486.427	95.12
486.645	110.12
486.863	110.12
487.081	107.12
487.299	106.12
487.517	98.12
487.735	94.12
487.953	90.12
488.171	93.12
488.389	86.12
488.607	102.12
488.825	98.12
489.043	97.12
489.261	99.12
489.479	92.12
489.696	102.12
489.914	96.12
490.132	81.12
490.35	92.12
490.568	88.12
490.786	104.12
491.003	78.12
491.221	103.12
491.439	97.12
491.657	90.12
491.874	99.12
492.092	90.12
492.31	78.12
492.527	101.12
492.745	84.12
492.963	84.12
493.18	89.12
493.398	95.12
493.615	96.12
493.833	93.12
494.05	86.12
494.268	97.12
494.485	81.12
494.703	77.12
494.92	91.12
495.138	105.12
495.355	102.12
495.573	84.12
495.79	93.12
496.008	103.12
496.225	96.12
496.442	100.12
496.66	96.12
496.877	96.12
497.094	85.12
497.312	84.12
497.529	99.12
497.746	99.12
497.963	97.12
498.181	99.12
498.398	104.12
498.615	104.12
498.832	108.12
499.049	101.12
499.267	86.12
499.484	90.12
499.701	97.12
499.918	85.12
500.135	87.12
500.352	104.12
500.569	92.12
500.786	99.12
501.003	91.12
501.22	89.12
501.437	93.12
501.654	94.12
501.871	104.12
502.088	99.12
502.305	110.12
502.522	85.12
502.739	95.12
502.956	95.12
503.172	93.12
503.389	104.12
503.606	101.12
503.823	98.12
504.04	86.12
504.256	85.12
504.473	98.12
504.69	89.12
504.907	80.12
505.123	94.12
505.34	96.12
505.557	92.12
505.773	99.12
505.99	96.12
506.207	81.12
506.423	91.12
506.64	98.12
506.856	95.12
507.073	85.12
507.289	100.12
507.506	98.12
507.722	119.12
507.939	115.12
508.155	99.12
508.372	90.12
508.588	98.12
508.805	78.12
509.021	90.12
509.238	109.12
509.454	106.12
509.67	116.12
509.887	103.12
510.103	117.12
510.319	191.12
510.536	718.12
510.752	2226.12
510.968	626.12
511.184	157.12
511.401	113.12
511.617	100.12
511.833	95.12
512.049	103.12
512.265	106.12
512.481	87.12
512.698	89.12
512.914	98.12
513.13	93.12
513.346	100.12
513.562	98.12
513.778	107.12
513.994	108.12
514.21	111.12
514.426	109.12
514.642	126.12
514.858	131.12
515.074	172.12
515.29	418.12
515.506	1448.12
515.721	541.12
