Data from Uncirc_2006_H10_HRD10591_00100.txt Node
Date: Wed Jan 03 10:25:15 EST 2024
User: Yrep
Spectrometer: HR+D1059
Trigger mode: 1
Integration Time (sec): 1.000000E-1
Scans to average: 1
Electric dark correction enabled: true
Nonlinearity correction enabled: false
Boxcar width: 0
XAxis mode: Wavelengths
Number of Pixels in Spectrum: 2048
>>>>>Begin Spectral Data<<<<<
223.165	-26.94
223.4	-26.94
223.635	-26.94
223.869	-5.94
224.104	-8.94
224.338	-18.94
224.573	-28.94
224.808	4.06
225.042	-4.94
225.277	0.06
225.511	-1.94
225.746	-5.94
225.98	16.06
226.215	17.06
226.449	20.06
226.683	15.06
226.918	10.06
227.152	20.06
227.387	21.06
227.621	46.06
227.856	51.06
228.09	55.06
228.324	50.06
228.559	51.06
228.793	59.06
229.027	55.06
229.262	59.06
229.496	66.06
229.73	87.06
229.964	79.06
230.199	74.06
230.433	91.06
230.667	90.06
230.901	75.06
231.136	87.06
231.37	80.06
231.604	93.06
231.838	76.06
232.072	76.06
232.306	83.06
232.541	73.06
232.775	75.06
233.009	76.06
233.243	86.06
233.477	78.06
233.711	74.06
233.945	74.06
234.179	91.06
234.413	74.06
234.647	63.06
234.881	97.06
235.115	92.06
235.349	83.06
235.583	88.06
235.817	86.06
236.051	91.06
236.285	78.06
236.519	90.06
236.753	84.06
236.987	65.06
237.221	80.06
237.455	83.06
237.689	85.06
237.922	67.06
238.156	89.06
238.39	76.06
238.624	80.06
238.858	92.06
239.091	68.06
239.325	85.06
239.559	83.06
239.793	81.06
240.027	91.06
240.26	87.06
240.494	73.06
240.728	81.06
240.961	78.06
241.195	70.06
241.429	82.06
241.662	77.06
241.896	70.06
242.13	75.06
242.363	88.06
242.597	94.06
242.83	74.06
243.064	72.06
243.298	91.06
243.531	84.06
243.765	80.06
243.998	66.06
244.232	85.06
244.465	83.06
244.699	89.06
244.932	75.06
245.166	79.06
245.399	71.06
245.633	72.06
245.866	77.06
246.099	74.06
246.333	82.06
246.566	83.06
246.8	84.06
247.033	79.06
247.266	70.06
247.5	75.06
247.733	79.06
247.966	82.06
248.2	90.06
248.433	74.06
248.666	80.06
248.899	81.06
249.133	89.06
249.366	90.06
249.599	86.06
249.832	94.06
250.066	83.06
250.299	85.06
250.532	83.06
250.765	84.06
250.998	74.06
251.231	79.06
251.465	75.06
251.698	76.06
251.931	78.06
252.164	76.06
252.397	67.06
252.63	76.06
252.863	72.06
253.096	68.06
253.329	80.06
253.562	73.06
253.795	100.06
254.028	82.06
254.261	79.06
254.494	67.06
254.727	74.06
254.96	86.06
255.193	87.06
255.426	86.06
255.659	82.06
255.892	74.06
256.124	68.06
256.357	85.06
256.59	86.06
256.823	88.06
257.056	82.06
257.289	84.06
257.521	78.06
257.754	76.06
257.987	75.06
258.22	79.06
258.452	54.06
258.685	79.06
258.918	78.06
259.151	78.06
259.383	80.06
259.616	78.06
259.849	84.06
260.081	102.06
260.314	79.06
260.547	85.06
260.779	88.06
261.012	79.06
261.244	89.06
261.477	78.06
261.71	93.06
261.942	103.06
262.175	121.06
262.407	96.06
262.64	92.06
262.872	86.06
263.105	83.06
263.337	86.06
263.57	79.06
263.802	101.06
264.035	77.06
264.267	82.06
264.499	79.06
264.732	62.06
264.964	83.06
265.197	82.06
265.429	85.06
265.661	82.06
265.894	75.06
266.126	78.06
266.358	72.06
266.591	96.06
266.823	78.06
267.055	87.06
267.287	82.06
267.52	78.06
267.752	87.06
267.984	108.06
268.216	80.06
268.448	84.06
268.681	78.06
268.913	86.06
269.145	86.06
269.377	86.06
269.609	88.06
269.841	83.06
270.073	88.06
270.306	88.06
270.538	84.06
270.77	88.06
271.002	79.06
271.234	83.06
271.466	90.06
271.698	84.06
271.93	72.06
272.162	83.06
272.394	95.06
272.626	89.06
272.858	77.06
273.09	81.06
273.322	74.06
273.553	87.06
273.785	86.06
274.017	79.06
274.249	81.06
274.481	80.06
274.713	81.06
274.945	81.06
275.176	79.06
275.408	91.06
275.64	68.06
275.872	88.06
276.104	83.06
276.335	87.06
276.567	110.06
276.799	92.06
277.031	99.06
277.262	83.06
277.494	75.06
277.726	96.06
277.957	76.06
278.189	82.06
278.421	82.06
278.652	76.06
278.884	75.06
279.115	81.06
279.347	79.06
279.579	77.06
279.81	90.06
280.042	85.06
280.273	76.06
280.505	78.06
280.736	71.06
280.968	80.06
281.199	84.06
281.431	88.06
281.662	76.06
281.894	95.06
282.125	97.06
282.356	113.06
282.588	129.06
282.819	108.06
283.051	93.06
283.282	75.06
283.513	88.06
283.745	100.06
283.976	95.06
284.207	96.06
284.439	84.06
284.67	88.06
284.901	75.06
285.132	85.06
285.364	79.06
285.595	95.06
285.826	78.06
286.057	94.06
286.288	77.06
286.52	90.06
286.751	82.06
286.982	94.06
287.213	79.06
287.444	84.06
287.675	79.06
287.906	91.06
288.138	87.06
288.369	81.06
288.6	87.06
288.831	95.06
289.062	78.06
289.293	81.06
289.524	73.06
289.755	92.06
289.986	80.06
290.217	69.06
290.448	82.06
290.679	91.06
290.91	94.06
291.141	90.06
291.371	91.06
291.602	81.06
291.833	84.06
292.064	80.06
292.295	90.06
292.526	79.06
292.757	86.06
292.987	96.06
293.218	82.06
293.449	86.06
293.68	93.06
293.91	86.06
294.141	75.06
294.372	82.06
294.603	89.06
294.833	76.06
295.064	81.06
295.295	101.06
295.525	88.06
295.756	96.06
295.987	105.06
296.217	118.06
296.448	108.06
296.679	86.06
296.909	82.06
297.14	92.06
297.37	93.06
297.601	89.06
297.831	90.06
298.062	94.06
298.292	88.06
298.523	86.06
298.753	85.06
298.984	87.06
299.214	80.06
299.445	94.06
299.675	78.06
299.905	99.06
300.136	86.06
300.366	88.06
300.597	84.06
300.827	95.06
301.057	87.06
301.288	85.06
301.518	101.06
301.748	89.06
301.979	104.06
302.209	95.06
302.439	76.06
302.669	83.06
302.9	88.06
303.13	91.06
303.36	93.06
303.59	101.06
303.82	104.06
304.051	92.06
304.281	94.06
304.511	84.06
304.741	90.06
304.971	85.06
305.201	80.06
305.431	86.06
305.661	91.06
305.891	82.06
306.121	94.06
306.352	102.06
306.582	91.06
306.812	80.06
307.042	96.06
307.272	85.06
307.502	94.06
307.731	92.06
307.961	86.06
308.191	83.06
308.421	92.06
308.651	84.06
308.881	99.06
309.111	82.06
309.341	91.06
309.571	105.06
309.8	103.06
310.03	90.06
310.26	100.06
310.49	98.06
310.72	103.06
310.949	107.06
311.179	99.06
311.409	85.06
311.639	84.06
311.868	88.06
312.098	99.06
312.328	93.06
312.557	105.06
312.787	102.06
313.017	101.06
313.246	90.06
313.476	92.06
313.706	80.06
313.935	98.06
314.165	106.06
314.394	96.06
314.624	94.06
314.853	89.06
315.083	92.06
315.312	91.06
315.542	92.06
315.771	82.06
316.001	102.06
316.23	82.06
316.46	95.06
316.689	79.06
316.919	72.06
317.148	94.06
317.377	97.06
317.607	100.06
317.836	90.06
318.065	84.06
318.295	85.06
318.524	97.06
318.753	90.06
318.983	107.06
319.212	96.06
319.441	94.06
319.67	84.06
319.9	91.06
320.129	86.06
320.358	104.06
320.587	98.06
320.816	101.06
321.046	99.06
321.275	98.06
321.504	94.06
321.733	94.06
321.962	103.06
322.191	93.06
322.42	93.06
322.649	107.06
322.878	111.06
323.108	110.06
323.337	122.06
323.566	126.06
323.795	149.06
324.024	201.06
324.253	382.06
324.482	802.06
324.71	1653.06
324.939	2144.06
325.168	793.06
325.397	247.06
325.626	138.06
325.855	128.06
326.084	108.06
326.313	138.06
326.542	139.06
326.77	217.06
326.999	474.06
327.228	942.06
327.457	1674.06
327.686	1354.06
327.914	373.06
328.143	188.06
328.372	136.06
328.6	115.06
328.829	113.06
329.058	112.06
329.287	112.06
329.515	107.06
329.744	111.06
329.972	91.06
330.201	111.06
330.43	99.06
330.658	112.06
330.887	129.06
331.115	116.06
331.344	107.06
331.572	88.06
331.801	102.06
332.03	89.06
332.258	103.06
332.486	107.06
332.715	94.06
332.943	96.06
333.172	87.06
333.4	84.06
333.629	96.06
333.857	118.06
334.085	100.06
334.314	107.06
334.542	93.06
334.771	78.06
334.999	86.06
335.227	99.06
335.455	92.06
335.684	94.06
335.912	90.06
336.14	98.06
336.369	88.06
336.597	108.06
336.825	106.06
337.053	100.06
337.281	100.06
337.51	87.06
337.738	92.06
337.966	89.06
338.194	90.06
338.422	88.06
338.65	83.06
338.878	95.06
339.106	87.06
339.334	98.06
339.562	100.06
339.79	93.06
340.018	89.06
340.246	101.06
340.474	106.06
340.702	78.06
340.93	92.06
341.158	102.06
341.386	96.06
341.614	85.06
341.842	80.06
342.07	91.06
342.298	84.06
342.526	73.06
342.754	109.06
342.981	83.06
343.209	88.06
343.437	91.06
343.665	79.06
343.893	88.06
344.12	94.06
344.348	90.06
344.576	108.06
344.804	100.06
345.031	94.06
345.259	96.06
345.487	94.06
345.714	91.06
345.942	82.06
346.17	94.06
346.397	107.06
346.625	103.06
346.853	92.06
347.08	96.06
347.308	104.06
347.535	90.06
347.763	91.06
347.99	89.06
348.218	93.06
348.445	98.06
348.673	99.06
348.9	99.06
349.128	84.06
349.355	87.06
349.583	104.06
349.81	81.06
350.037	96.06
350.265	81.06
350.492	97.06
350.72	98.06
350.947	96.06
351.174	98.06
351.402	118.06
351.629	103.06
351.856	103.06
352.083	112.06
352.311	116.06
352.538	102.06
352.765	109.06
352.992	124.06
353.22	93.06
353.447	105.06
353.674	110.06
353.901	93.06
354.128	96.06
354.355	96.06
354.583	92.06
354.81	93.06
355.037	103.06
355.264	98.06
355.491	96.06
355.718	109.06
355.945	92.06
356.172	99.06
356.399	94.06
356.626	84.06
356.853	105.06
357.08	75.06
357.307	91.06
357.534	84.06
357.761	99.06
357.988	89.06
358.215	111.06
358.441	100.06
358.668	95.06
358.895	97.06
359.122	89.06
359.349	95.06
359.576	96.06
359.802	112.06
360.029	97.06
360.256	108.06
360.483	106.06
360.709	96.06
360.936	88.06
361.163	101.06
361.39	98.06
361.616	84.06
361.843	97.06
362.07	86.06
362.296	93.06
362.523	92.06
362.749	91.06
362.976	85.06
363.203	86.06
363.429	78.06
363.656	97.06
363.882	94.06
364.109	95.06
364.335	75.06
364.562	90.06
364.788	85.06
365.015	103.06
365.241	110.06
365.468	94.06
365.694	95.06
365.92	93.06
366.147	103.06
366.373	93.06
366.599	99.06
366.826	101.06
367.052	100.06
367.278	104.06
367.505	106.06
367.731	93.06
367.957	93.06
368.184	96.06
368.41	98.06
368.636	107.06
368.862	95.06
369.089	132.06
369.315	94.06
369.541	97.06
369.767	86.06
369.993	102.06
370.219	86.06
370.445	93.06
370.672	69.06
370.898	98.06
371.124	92.06
371.35	99.06
371.576	92.06
371.802	77.06
372.028	91.06
372.254	83.06
372.48	81.06
372.706	82.06
372.932	95.06
373.158	78.06
373.384	93.06
373.61	96.06
373.835	97.06
374.061	90.06
374.287	84.06
374.513	88.06
374.739	92.06
374.965	87.06
375.191	90.06
375.416	104.06
375.642	94.06
375.868	97.06
376.094	74.06
376.319	106.06
376.545	76.06
376.771	92.06
376.997	77.06
377.222	94.06
377.448	105.06
377.674	91.06
377.899	95.06
378.125	87.06
378.35	100.06
378.576	105.06
378.802	90.06
379.027	88.06
379.253	97.06
379.478	85.06
379.704	82.06
379.929	102.06
380.155	88.06
380.38	87.06
380.606	81.06
380.831	102.06
381.057	92.06
381.282	92.06
381.507	79.06
381.733	97.06
381.958	103.06
382.184	87.06
382.409	87.06
382.634	111.06
382.86	96.06
383.085	93.06
383.31	98.06
383.535	90.06
383.761	80.06
383.986	95.06
384.211	98.06
384.436	108.06
384.662	96.06
384.887	101.06
385.112	97.06
385.337	114.06
385.562	99.06
385.787	114.06
386.013	104.06
386.238	114.06
386.463	101.06
386.688	114.06
386.913	116.06
387.138	93.06
387.363	96.06
387.588	104.06
387.813	104.06
388.038	95.06
388.263	91.06
388.488	111.06
388.713	99.06
388.938	96.06
389.163	97.06
389.387	95.06
389.612	99.06
389.837	76.06
390.062	107.06
390.287	100.06
390.512	101.06
390.736	89.06
390.961	102.06
391.186	92.06
391.411	92.06
391.636	93.06
391.86	91.06
392.085	98.06
392.31	95.06
392.534	90.06
392.759	94.06
392.984	91.06
393.208	85.06
393.433	83.06
393.658	90.06
393.882	89.06
394.107	105.06
394.331	103.06
394.556	78.06
394.78	88.06
395.005	82.06
395.229	86.06
395.454	98.06
395.678	93.06
395.903	85.06
396.127	105.06
396.352	90.06
396.576	96.06
396.801	77.06
397.025	94.06
397.249	82.06
397.474	77.06
397.698	89.06
397.922	99.06
398.147	84.06
398.371	91.06
398.595	87.06
398.82	77.06
399.044	87.06
399.268	84.06
399.492	88.06
399.717	95.06
399.941	95.06
400.165	96.06
400.389	88.06
400.613	88.06
400.837	93.06
401.062	83.06
401.286	77.06
401.51	77.06
401.734	96.06
401.958	110.06
402.182	119.06
402.406	152.06
402.63	125.06
402.854	92.06
403.078	76.06
403.302	84.06
403.526	84.06
403.75	89.06
403.974	76.06
404.198	83.06
404.422	85.06
404.645	87.06
404.869	92.06
405.093	89.06
405.317	90.06
405.541	104.06
405.765	95.06
405.988	121.06
406.212	158.06
406.436	200.06
406.66	141.06
406.883	86.06
407.107	100.06
407.331	95.06
407.555	99.06
407.778	86.06
408.002	87.06
408.226	105.06
408.449	97.06
408.673	90.06
408.896	79.06
409.12	84.06
409.344	81.06
409.567	75.06
409.791	88.06
410.014	86.06
410.238	104.06
410.461	100.06
410.685	96.06
410.908	100.06
411.132	97.06
411.355	96.06
411.578	106.06
411.802	85.06
412.025	94.06
412.249	95.06
412.472	88.06
412.695	68.06
412.919	96.06
413.142	85.06
413.365	77.06
413.589	88.06
413.812	88.06
414.035	95.06
414.258	95.06
414.482	72.06
414.705	79.06
414.928	99.06
415.151	93.06
415.374	93.06
415.597	105.06
415.821	87.06
416.044	91.06
416.267	86.06
416.49	89.06
416.713	91.06
416.936	98.06
417.159	80.06
417.382	92.06
417.605	96.06
417.828	94.06
418.051	95.06
418.274	99.06
418.497	85.06
418.72	87.06
418.943	82.06
419.166	90.06
419.389	119.06
419.611	98.06
419.834	86.06
420.057	90.06
420.28	82.06
420.503	98.06
420.726	87.06
420.948	81.06
421.171	94.06
421.394	99.06
421.617	91.06
421.839	116.06
422.062	67.06
422.285	100.06
422.507	109.06
422.73	101.06
422.953	88.06
423.175	91.06
423.398	71.06
423.621	84.06
423.843	94.06
424.066	85.06
424.288	82.06
424.511	96.06
424.733	94.06
424.956	105.06
425.178	107.06
425.401	99.06
425.623	95.06
425.846	88.06
426.068	81.06
426.291	95.06
426.513	85.06
426.735	86.06
426.958	97.06
427.18	117.06
427.402	124.06
427.625	155.06
427.847	111.06
428.069	99.06
428.292	84.06
428.514	94.06
428.736	90.06
428.958	68.06
429.181	76.06
429.403	78.06
429.625	80.06
429.847	89.06
430.069	100.06
430.292	90.06
430.514	92.06
430.736	82.06
430.958	79.06
431.18	91.06
431.402	99.06
431.624	87.06
431.846	86.06
432.068	87.06
432.29	75.06
432.512	92.06
432.734	91.06
432.956	94.06
433.178	100.06
433.4	95.06
433.622	92.06
433.844	82.06
434.066	93.06
434.287	89.06
434.509	100.06
434.731	92.06
434.953	100.06
435.175	92.06
435.397	77.06
435.618	88.06
435.84	94.06
436.062	120.06
436.284	107.06
436.505	96.06
436.727	127.06
436.949	92.06
437.17	95.06
437.392	98.06
437.614	83.06
437.835	100.06
438.057	103.06
438.278	123.06
438.5	104.06
438.721	122.06
438.943	88.06
439.165	100.06
439.386	87.06
439.608	100.06
439.829	86.06
440.05	122.06
440.272	130.06
440.493	105.06
440.715	77.06
440.936	98.06
441.158	90.06
441.379	93.06
441.6	86.06
441.822	88.06
442.043	94.06
442.264	104.06
442.486	93.06
442.707	86.06
442.928	102.06
443.149	117.06
443.371	132.06
443.592	90.06
443.813	110.06
444.034	110.06
444.255	84.06
444.476	88.06
444.698	82.06
444.919	100.06
445.14	133.06
445.361	106.06
445.582	97.06
445.803	115.06
446.024	127.06
446.245	136.06
446.466	108.06
446.687	86.06
446.908	91.06
447.129	80.06
447.35	90.06
447.571	85.06
447.792	98.06
448.013	91.06
448.234	109.06
448.455	96.06
448.675	107.06
448.896	101.06
449.117	95.06
449.338	97.06
449.559	141.06
449.779	117.06
450	101.06
450.221	93.06
450.442	92.06
450.662	90.06
450.883	98.06
451.104	102.06
451.324	90.06
451.545	90.06
451.766	77.06
451.986	92.06
452.207	90.06
452.428	82.06
452.648	95.06
452.869	94.06
453.089	108.06
453.31	119.06
453.53	91.06
453.751	90.06
453.971	105.06
454.192	104.06
454.412	85.06
454.633	79.06
454.853	80.06
455.073	86.06
455.294	87.06
455.514	92.06
455.734	94.06
455.955	83.06
456.175	76.06
456.395	95.06
456.616	93.06
456.836	93.06
457.056	86.06
457.276	81.06
457.497	88.06
457.717	98.06
457.937	75.06
458.157	85.06
458.377	104.06
458.598	99.06
458.818	113.06
459.038	145.06
459.258	106.06
459.478	91.06
459.698	97.06
459.918	88.06
460.138	72.06
460.358	86.06
460.578	83.06
460.798	88.06
461.018	85.06
461.238	87.06
461.458	87.06
461.678	81.06
461.898	84.06
462.118	93.06
462.338	93.06
462.558	85.06
462.777	81.06
462.997	84.06
463.217	90.06
463.437	76.06
463.657	82.06
463.876	80.06
464.096	96.06
464.316	87.06
464.536	86.06
464.755	85.06
464.975	101.06
465.195	142.06
465.414	134.06
465.634	95.06
465.854	98.06
466.073	91.06
466.293	81.06
466.512	86.06
466.732	91.06
466.951	81.06
467.171	88.06
467.391	98.06
467.61	95.06
467.829	98.06
468.049	98.06
468.268	73.06
468.488	93.06
468.707	90.06
468.927	92.06
469.146	87.06
469.365	105.06
469.585	84.06
469.804	95.06
470.023	95.06
470.243	87.06
470.462	108.06
470.681	99.06
470.901	99.06
471.12	92.06
471.339	99.06
471.558	89.06
471.777	93.06
471.997	96.06
472.216	82.06
472.435	91.06
472.654	91.06
472.873	87.06
473.092	93.06
473.311	80.06
473.53	95.06
473.749	92.06
473.968	106.06
474.187	104.06
474.406	108.06
474.625	91.06
474.844	84.06
475.063	78.06
475.282	83.06
475.501	86.06
475.72	100.06
475.939	86.06
476.158	91.06
476.377	87.06
476.596	91.06
476.814	101.06
477.033	99.06
477.252	93.06
477.471	71.06
477.69	79.06
477.908	81.06
478.127	92.06
478.346	85.06
478.564	91.06
478.783	116.06
479.002	79.06
479.22	94.06
479.439	93.06
479.658	89.06
479.876	101.06
480.095	81.06
480.313	88.06
480.532	98.06
480.751	79.06
480.969	88.06
481.188	88.06
481.406	80.06
481.624	93.06
481.843	86.06
482.061	92.06
482.28	94.06
482.498	92.06
482.717	94.06
482.935	93.06
483.153	98.06
483.372	93.06
483.59	93.06
483.808	86.06
484.027	92.06
484.245	98.06
484.463	91.06
484.681	98.06
484.9	90.06
485.118	110.06
485.336	94.06
485.554	103.06
485.772	105.06
485.99	94.06
486.209	89.06
486.427	99.06
486.645	101.06
486.863	109.06
487.081	95.06
487.299	106.06
487.517	87.06
487.735	99.06
487.953	90.06
488.171	90.06
488.389	101.06
488.607	106.06
488.825	84.06
489.043	92.06
489.261	83.06
489.479	83.06
489.696	90.06
489.914	100.06
490.132	94.06
490.35	88.06
490.568	101.06
490.786	80.06
491.003	90.06
491.221	81.06
491.439	102.06
491.657	88.06
491.874	102.06
492.092	89.06
492.31	83.06
492.527	102.06
492.745	95.06
492.963	92.06
493.18	88.06
493.398	84.06
493.615	100.06
493.833	98.06
494.05	96.06
494.268	85.06
494.485	82.06
494.703	78.06
494.92	76.06
495.138	88.06
495.355	86.06
495.573	88.06
495.79	78.06
496.008	103.06
496.225	84.06
496.442	68.06
496.66	87.06
496.877	85.06
497.094	103.06
497.312	91.06
497.529	95.06
497.746	89.06
497.963	98.06
498.181	78.06
498.398	99.06
498.615	95.06
498.832	100.06
499.049	81.06
499.267	95.06
499.484	105.06
499.701	106.06
499.918	102.06
500.135	86.06
500.352	93.06
500.569	107.06
500.786	93.06
501.003	84.06
501.22	91.06
501.437	95.06
501.654	83.06
501.871	110.06
502.088	95.06
502.305	84.06
502.522	93.06
502.739	104.06
502.956	88.06
503.172	95.06
503.389	100.06
503.606	94.06
503.823	91.06
504.04	83.06
504.256	91.06
504.473	84.06
504.69	81.06
504.907	102.06
505.123	87.06
505.34	70.06
505.557	92.06
505.773	94.06
505.99	92.06
506.207	79.06
506.423	83.06
506.64	86.06
506.856	94.06
507.073	82.06
507.289	105.06
507.506	100.06
507.722	103.06
507.939	105.06
508.155	95.06
508.372	97.06
508.588	101.06
508.805	98.06
509.021	97.06
509.238	111.06
509.454	97.06
509.67	107.06
509.887	96.06
510.103	127.06
510.319	204.06
510.536	692.06
510.752	2133.06
510.968	620.06
511.184	142.06
511.401	123.06
511.617	94.06
511.833	92.06
512.049	95.06
512.265	83.06
512.481	99.06
512.698	100.06
512.914	87.06
513.13	104.06
513.346	107.06
513.562	94.06
513.778	105.06
513.994	92.06
514.21	102.06
514.426	108.06
514.642	116.06
514.858	112.06
515.074	158.06
515.29	394.06
515.506	1314.06
515.721	486.06
515.937	144.06
