Data from Uncirc_2006_H10_HRD10591_00006.txt Node
Date: Wed Jan 03 10:24:56 EST 2024
User: Yrep
Spectrometer: HR+D1059
Trigger mode: 1
Integration Time (sec): 1.000000E-1
Scans to average: 1
Electric dark correction enabled: true
Nonlinearity correction enabled: false
Boxcar width: 0
XAxis mode: Wavelengths
Number of Pixels in Spectrum: 2048
>>>>>Begin Spectral Data<<<<<
223.165	-17.88
223.4	-17.88
223.635	-17.88
223.869	-15.88
224.104	-23.88
224.338	-26.88
224.573	-11.88
224.808	-4.88
225.042	-1.88
225.277	-1.88
225.511	-8.88
225.746	10.12
225.98	-3.88
226.215	-1.88
226.449	8.12
226.683	29.12
226.918	44.12
227.152	28.12
227.387	25.12
227.621	42.12
227.856	44.12
228.09	48.12
228.324	37.12
228.559	48.12
228.793	54.12
229.027	57.12
229.262	55.12
229.496	59.12
229.73	84.12
229.964	79.12
230.199	82.12
230.433	72.12
230.667	84.12
230.901	89.12
231.136	78.12
231.37	77.12
231.604	83.12
231.838	75.12
232.072	75.12
232.306	76.12
232.541	84.12
232.775	85.12
233.009	89.12
233.243	75.12
233.477	83.12
233.711	83.12
233.945	86.12
234.179	85.12
234.413	83.12
234.647	86.12
234.881	74.12
235.115	92.12
235.349	71.12
235.583	74.12
235.817	84.12
236.051	79.12
236.285	88.12
236.519	76.12
236.753	75.12
236.987	77.12
237.221	91.12
237.455	71.12
237.689	81.12
237.922	87.12
238.156	76.12
238.39	81.12
238.624	75.12
238.858	70.12
239.091	91.12
239.325	91.12
239.559	79.12
239.793	72.12
240.027	70.12
240.26	85.12
240.494	84.12
240.728	84.12
240.961	84.12
241.195	74.12
241.429	74.12
241.662	77.12
241.896	87.12
242.13	74.12
242.363	77.12
242.597	96.12
242.83	82.12
243.064	77.12
243.298	78.12
243.531	86.12
243.765	74.12
243.998	78.12
244.232	80.12
244.465	82.12
244.699	67.12
244.932	81.12
245.166	76.12
245.399	94.12
245.633	83.12
245.866	65.12
246.099	79.12
246.333	84.12
246.566	75.12
246.8	80.12
247.033	80.12
247.266	79.12
247.5	68.12
247.733	85.12
247.966	90.12
248.2	86.12
248.433	87.12
248.666	77.12
248.899	76.12
249.133	76.12
249.366	82.12
249.599	83.12
249.832	84.12
250.066	70.12
250.299	73.12
250.532	82.12
250.765	72.12
250.998	91.12
251.231	84.12
251.465	85.12
251.698	83.12
251.931	90.12
252.164	81.12
252.397	85.12
252.63	79.12
252.863	82.12
253.096	88.12
253.329	93.12
253.562	75.12
253.795	75.12
254.028	88.12
254.261	78.12
254.494	87.12
254.727	93.12
254.96	82.12
255.193	69.12
255.426	74.12
255.659	78.12
255.892	87.12
256.124	91.12
256.357	89.12
256.59	90.12
256.823	88.12
257.056	88.12
257.289	84.12
257.521	91.12
257.754	88.12
257.987	85.12
258.22	93.12
258.452	88.12
258.685	68.12
258.918	74.12
259.151	98.12
259.383	92.12
259.616	82.12
259.849	84.12
260.081	78.12
260.314	81.12
260.547	81.12
260.779	76.12
261.012	86.12
261.244	80.12
261.477	88.12
261.71	101.12
261.942	101.12
262.175	98.12
262.407	94.12
262.64	82.12
262.872	89.12
263.105	78.12
263.337	92.12
263.57	98.12
263.802	102.12
264.035	77.12
264.267	88.12
264.499	64.12
264.732	92.12
264.964	84.12
265.197	102.12
265.429	96.12
265.661	88.12
265.894	90.12
266.126	84.12
266.358	79.12
266.591	74.12
266.823	96.12
267.055	80.12
267.287	90.12
267.52	86.12
267.752	90.12
267.984	86.12
268.216	86.12
268.448	76.12
268.681	84.12
268.913	83.12
269.145	77.12
269.377	88.12
269.609	90.12
269.841	75.12
270.073	73.12
270.306	82.12
270.538	80.12
270.77	81.12
271.002	89.12
271.234	79.12
271.466	96.12
271.698	75.12
271.93	91.12
272.162	89.12
272.394	93.12
272.626	97.12
272.858	79.12
273.09	87.12
273.322	99.12
273.553	95.12
273.785	87.12
274.017	70.12
274.249	76.12
274.481	94.12
274.713	91.12
274.945	82.12
275.176	76.12
275.408	92.12
275.64	94.12
275.872	96.12
276.104	95.12
276.335	81.12
276.567	91.12
276.799	92.12
277.031	100.12
277.262	90.12
277.494	84.12
277.726	81.12
277.957	80.12
278.189	70.12
278.421	87.12
278.652	91.12
278.884	97.12
279.115	98.12
279.347	92.12
279.579	88.12
279.81	82.12
280.042	81.12
280.273	84.12
280.505	85.12
280.736	83.12
280.968	87.12
281.199	95.12
281.431	84.12
281.662	82.12
281.894	85.12
282.125	86.12
282.356	108.12
282.588	127.12
282.819	105.12
283.051	96.12
283.282	80.12
283.513	86.12
283.745	88.12
283.976	70.12
284.207	69.12
284.439	82.12
284.67	101.12
284.901	90.12
285.132	94.12
285.364	68.12
285.595	91.12
285.826	104.12
286.057	92.12
286.288	75.12
286.52	85.12
286.751	103.12
286.982	91.12
287.213	84.12
287.444	93.12
287.675	82.12
287.906	95.12
288.138	93.12
288.369	100.12
288.6	88.12
288.831	96.12
289.062	115.12
289.293	95.12
289.524	78.12
289.755	81.12
289.986	95.12
290.217	92.12
290.448	92.12
290.679	83.12
290.91	80.12
291.141	77.12
291.371	74.12
291.602	91.12
291.833	95.12
292.064	87.12
292.295	85.12
292.526	98.12
292.757	90.12
292.987	91.12
293.218	80.12
293.449	79.12
293.68	94.12
293.91	73.12
294.141	79.12
294.372	90.12
294.603	88.12
294.833	92.12
295.064	85.12
295.295	92.12
295.525	85.12
295.756	97.12
295.987	109.12
296.217	118.12
296.448	115.12
296.679	98.12
296.909	84.12
297.14	89.12
297.37	92.12
297.601	86.12
297.831	74.12
298.062	92.12
298.292	89.12
298.523	97.12
298.753	85.12
298.984	77.12
299.214	92.12
299.445	101.12
299.675	94.12
299.905	88.12
300.136	110.12
300.366	79.12
300.597	93.12
300.827	95.12
301.057	101.12
301.288	78.12
301.518	95.12
301.748	92.12
301.979	104.12
302.209	87.12
302.439	94.12
302.669	85.12
302.9	78.12
303.13	82.12
303.36	95.12
303.59	103.12
303.82	100.12
304.051	85.12
304.281	88.12
304.511	98.12
304.741	87.12
304.971	101.12
305.201	90.12
305.431	90.12
305.661	100.12
305.891	71.12
306.121	87.12
306.352	95.12
306.582	103.12
306.812	86.12
307.042	87.12
307.272	94.12
307.502	92.12
307.731	79.12
307.961	70.12
308.191	82.12
308.421	81.12
308.651	88.12
308.881	93.12
309.111	86.12
309.341	96.12
309.571	102.12
309.8	100.12
310.03	93.12
310.26	90.12
310.49	92.12
310.72	84.12
310.949	98.12
311.179	95.12
311.409	99.12
311.639	87.12
311.868	89.12
312.098	102.12
312.328	87.12
312.557	93.12
312.787	105.12
313.017	88.12
313.246	85.12
313.476	103.12
313.706	93.12
313.935	88.12
314.165	100.12
314.394	84.12
314.624	94.12
314.853	93.12
315.083	92.12
315.312	93.12
315.542	93.12
315.771	90.12
316.001	94.12
316.23	95.12
316.46	82.12
316.689	94.12
316.919	98.12
317.148	92.12
317.377	99.12
317.607	86.12
317.836	91.12
318.065	92.12
318.295	94.12
318.524	95.12
318.753	91.12
318.983	101.12
319.212	98.12
319.441	88.12
319.67	98.12
319.9	97.12
320.129	78.12
320.358	78.12
320.587	93.12
320.816	102.12
321.046	96.12
321.275	97.12
321.504	98.12
321.733	90.12
321.962	101.12
322.191	99.12
322.42	107.12
322.649	108.12
322.878	109.12
323.108	112.12
323.337	139.12
323.566	115.12
323.795	140.12
324.024	188.12
324.253	333.12
324.482	694.12
324.71	1416.12
324.939	1866.12
325.168	692.12
325.397	216.12
325.626	144.12
325.855	110.12
326.084	128.12
326.313	118.12
326.542	117.12
326.77	217.12
326.999	410.12
327.228	806.12
327.457	1464.12
327.686	1157.12
327.914	300.12
328.143	158.12
328.372	114.12
328.6	111.12
328.829	119.12
329.058	122.12
329.287	105.12
329.515	100.12
329.744	114.12
329.972	97.12
330.201	102.12
330.43	97.12
330.658	107.12
330.887	110.12
331.115	124.12
331.344	106.12
331.572	105.12
331.801	102.12
332.03	86.12
332.258	94.12
332.486	94.12
332.715	72.12
332.943	86.12
333.172	96.12
333.4	92.12
333.629	102.12
333.857	103.12
334.085	111.12
334.314	94.12
334.542	88.12
334.771	100.12
334.999	100.12
335.227	93.12
335.455	101.12
335.684	86.12
335.912	97.12
336.14	82.12
336.369	92.12
336.597	100.12
336.825	87.12
337.053	89.12
337.281	104.12
337.51	91.12
337.738	102.12
337.966	90.12
338.194	88.12
338.422	96.12
338.65	79.12
338.878	101.12
339.106	96.12
339.334	75.12
339.562	82.12
339.79	94.12
340.018	90.12
340.246	82.12
340.474	93.12
340.702	91.12
340.93	84.12
341.158	93.12
341.386	94.12
341.614	104.12
341.842	96.12
342.07	83.12
342.298	95.12
342.526	102.12
342.754	80.12
342.981	72.12
343.209	85.12
343.437	96.12
343.665	93.12
343.893	96.12
344.12	101.12
344.348	108.12
344.576	92.12
344.804	88.12
345.031	98.12
345.259	91.12
345.487	90.12
345.714	102.12
345.942	94.12
346.17	85.12
346.397	87.12
346.625	91.12
346.853	83.12
347.08	92.12
347.308	102.12
347.535	102.12
347.763	102.12
347.99	88.12
348.218	102.12
348.445	97.12
348.673	88.12
348.9	92.12
349.128	92.12
349.355	94.12
349.583	103.12
349.81	96.12
350.037	89.12
350.265	98.12
350.492	92.12
350.72	112.12
350.947	96.12
351.174	94.12
351.402	101.12
351.629	87.12
351.856	105.12
352.083	90.12
352.311	100.12
352.538	116.12
352.765	100.12
352.992	117.12
353.22	104.12
353.447	110.12
353.674	105.12
353.901	116.12
354.128	87.12
354.355	93.12
354.583	100.12
354.81	96.12
355.037	100.12
355.264	101.12
355.491	114.12
355.718	87.12
355.945	99.12
356.172	82.12
356.399	97.12
356.626	100.12
356.853	101.12
357.08	96.12
357.307	85.12
357.534	98.12
357.761	107.12
357.988	88.12
358.215	88.12
358.441	100.12
358.668	87.12
358.895	90.12
359.122	86.12
359.349	84.12
359.576	97.12
359.802	109.12
360.029	100.12
360.256	102.12
360.483	101.12
360.709	84.12
360.936	102.12
361.163	91.12
361.39	90.12
361.616	98.12
361.843	96.12
362.07	81.12
362.296	108.12
362.523	96.12
362.749	93.12
362.976	96.12
363.203	87.12
363.429	75.12
363.656	93.12
363.882	102.12
364.109	91.12
364.335	91.12
364.562	92.12
364.788	92.12
365.015	102.12
365.241	96.12
365.468	111.12
365.694	98.12
365.92	102.12
366.147	85.12
366.373	84.12
366.599	87.12
366.826	88.12
367.052	84.12
367.278	90.12
367.505	91.12
367.731	99.12
367.957	85.12
368.184	74.12
368.41	101.12
368.636	99.12
368.862	118.12
369.089	106.12
369.315	89.12
369.541	94.12
369.767	83.12
369.993	93.12
370.219	93.12
370.445	89.12
370.672	95.12
370.898	86.12
371.124	95.12
371.35	96.12
371.576	90.12
371.802	87.12
372.028	90.12
372.254	103.12
372.48	75.12
372.706	106.12
372.932	97.12
373.158	80.12
373.384	91.12
373.61	90.12
373.835	96.12
374.061	87.12
374.287	96.12
374.513	88.12
374.739	96.12
374.965	91.12
375.191	103.12
375.416	99.12
375.642	83.12
375.868	95.12
376.094	94.12
376.319	93.12
376.545	92.12
376.771	104.12
376.997	90.12
377.222	92.12
377.448	87.12
377.674	90.12
377.899	90.12
378.125	83.12
378.35	90.12
378.576	106.12
378.802	75.12
379.027	88.12
379.253	99.12
379.478	90.12
379.704	85.12
379.929	83.12
380.155	95.12
380.38	95.12
380.606	106.12
380.831	96.12
381.057	99.12
381.282	89.12
381.507	98.12
381.733	98.12
381.958	95.12
382.184	100.12
382.409	114.12
382.634	98.12
382.86	101.12
383.085	117.12
383.31	107.12
383.535	98.12
383.761	104.12
383.986	112.12
384.211	102.12
384.436	101.12
384.662	115.12
384.887	90.12
385.112	116.12
385.337	119.12
385.562	120.12
385.787	110.12
386.013	115.12
386.238	112.12
386.463	106.12
386.688	118.12
386.913	98.12
387.138	119.12
387.363	92.12
387.588	101.12
387.813	110.12
388.038	124.12
388.263	135.12
388.488	134.12
388.713	108.12
388.938	107.12
389.163	96.12
389.387	103.12
389.612	102.12
389.837	102.12
390.062	95.12
390.287	101.12
390.512	83.12
390.736	91.12
390.961	83.12
391.186	96.12
391.411	94.12
391.636	111.12
391.86	94.12
392.085	91.12
392.31	83.12
392.534	85.12
392.759	110.12
392.984	91.12
393.208	93.12
393.433	105.12
393.658	87.12
393.882	87.12
394.107	88.12
394.331	78.12
394.556	80.12
394.78	85.12
395.005	85.12
395.229	80.12
395.454	85.12
395.678	77.12
395.903	84.12
396.127	97.12
396.352	89.12
396.576	87.12
396.801	94.12
397.025	100.12
397.249	91.12
397.474	93.12
397.698	88.12
397.922	92.12
398.147	85.12
398.371	84.12
398.595	91.12
398.82	99.12
399.044	82.12
399.268	83.12
399.492	85.12
399.717	91.12
399.941	86.12
400.165	84.12
400.389	89.12
400.613	95.12
400.837	92.12
401.062	87.12
401.286	83.12
401.51	83.12
401.734	91.12
401.958	95.12
402.182	114.12
402.406	135.12
402.63	111.12
402.854	66.12
403.078	86.12
403.302	85.12
403.526	88.12
403.75	88.12
403.974	80.12
404.198	77.12
404.422	82.12
404.645	103.12
404.869	94.12
405.093	95.12
405.317	102.12
405.541	91.12
405.765	87.12
405.988	113.12
406.212	136.12
406.436	167.12
406.66	126.12
406.883	90.12
407.107	92.12
407.331	77.12
407.555	103.12
407.778	94.12
408.002	83.12
408.226	82.12
408.449	87.12
408.673	88.12
408.896	74.12
409.12	110.12
409.344	75.12
409.567	87.12
409.791	94.12
410.014	102.12
410.238	93.12
410.461	95.12
410.685	95.12
410.908	91.12
411.132	109.12
411.355	111.12
411.578	86.12
411.802	95.12
412.025	97.12
412.249	100.12
412.472	93.12
412.695	89.12
412.919	86.12
413.142	79.12
413.365	94.12
413.589	97.12
413.812	82.12
414.035	87.12
414.258	100.12
414.482	85.12
414.705	87.12
414.928	79.12
415.151	95.12
415.374	107.12
415.597	95.12
415.821	84.12
416.044	90.12
416.267	98.12
416.49	98.12
416.713	84.12
416.936	89.12
417.159	101.12
417.382	83.12
417.605	100.12
417.828	91.12
418.051	88.12
418.274	102.12
418.497	95.12
418.72	104.12
418.943	87.12
419.166	93.12
419.389	83.12
419.611	91.12
419.834	101.12
420.057	95.12
420.28	86.12
420.503	100.12
420.726	79.12
420.948	97.12
421.171	98.12
421.394	92.12
421.617	88.12
421.839	94.12
422.062	85.12
422.285	100.12
422.507	107.12
422.73	95.12
422.953	93.12
423.175	84.12
423.398	84.12
423.621	83.12
423.843	86.12
424.066	81.12
424.288	102.12
424.511	98.12
424.733	94.12
424.956	101.12
425.178	89.12
425.401	87.12
425.623	102.12
425.846	102.12
426.068	66.12
426.291	102.12
426.513	93.12
426.735	101.12
426.958	92.12
427.18	94.12
427.402	108.12
427.625	126.12
427.847	105.12
428.069	82.12
428.292	93.12
428.514	88.12
428.736	79.12
428.958	75.12
429.181	82.12
429.403	79.12
429.625	93.12
429.847	89.12
430.069	96.12
430.292	86.12
430.514	64.12
430.736	81.12
430.958	86.12
431.18	86.12
431.402	76.12
431.624	89.12
431.846	103.12
432.068	76.12
432.29	78.12
432.512	103.12
432.734	85.12
432.956	70.12
433.178	93.12
433.4	82.12
433.622	91.12
433.844	95.12
434.066	87.12
434.287	86.12
434.509	83.12
434.731	88.12
434.953	83.12
435.175	76.12
435.397	89.12
435.618	86.12
435.84	96.12
436.062	98.12
436.284	98.12
436.505	88.12
436.727	95.12
436.949	80.12
437.17	85.12
437.392	87.12
437.614	88.12
437.835	94.12
438.057	111.12
438.278	98.12
438.5	95.12
438.721	112.12
438.943	100.12
439.165	98.12
439.386	99.12
439.608	101.12
439.829	93.12
440.05	108.12
440.272	126.12
440.493	96.12
440.715	90.12
440.936	100.12
441.158	90.12
441.379	88.12
441.6	103.12
441.822	91.12
442.043	99.12
442.264	111.12
442.486	92.12
442.707	87.12
442.928	106.12
443.149	102.12
443.371	108.12
443.592	102.12
443.813	112.12
444.034	101.12
444.255	80.12
444.476	81.12
444.698	81.12
444.919	94.12
445.14	134.12
445.361	122.12
445.582	95.12
445.803	128.12
446.024	127.12
446.245	125.12
446.466	88.12
446.687	93.12
446.908	83.12
447.129	88.12
447.35	107.12
447.571	95.12
447.792	87.12
448.013	85.12
448.234	92.12
448.455	102.12
448.675	102.12
448.896	100.12
449.117	91.12
449.338	112.12
449.559	103.12
449.779	123.12
450	103.12
450.221	93.12
450.442	81.12
450.662	95.12
450.883	100.12
451.104	98.12
451.324	89.12
451.545	82.12
451.766	88.12
451.986	87.12
452.207	85.12
452.428	95.12
452.648	92.12
452.869	111.12
453.089	107.12
453.31	107.12
453.53	106.12
453.751	97.12
453.971	92.12
454.192	99.12
454.412	75.12
454.633	95.12
454.853	87.12
455.073	106.12
455.294	92.12
455.514	102.12
455.734	82.12
455.955	82.12
456.175	91.12
456.395	95.12
456.616	87.12
456.836	81.12
457.056	92.12
457.276	84.12
457.497	92.12
457.717	74.12
457.937	93.12
458.157	90.12
458.377	93.12
458.598	109.12
458.818	122.12
459.038	131.12
459.258	108.12
459.478	93.12
459.698	85.12
459.918	67.12
460.138	85.12
460.358	76.12
460.578	95.12
460.798	96.12
461.018	85.12
461.238	90.12
461.458	93.12
461.678	102.12
461.898	86.12
462.118	87.12
462.338	75.12
462.558	78.12
462.777	95.12
462.997	94.12
463.217	95.12
463.437	101.12
463.657	82.12
463.876	85.12
464.096	81.12
464.316	88.12
464.536	108.12
464.755	101.12
464.975	103.12
465.195	143.12
465.414	136.12
465.634	94.12
465.854	89.12
466.073	82.12
466.293	86.12
466.512	85.12
466.732	88.12
466.951	84.12
467.171	92.12
467.391	90.12
467.61	95.12
467.829	109.12
468.049	94.12
468.268	96.12
468.488	82.12
468.707	80.12
468.927	79.12
469.146	77.12
469.365	72.12
469.585	98.12
469.804	96.12
470.023	92.12
470.243	92.12
470.462	88.12
470.681	105.12
470.901	87.12
471.12	86.12
471.339	90.12
471.558	82.12
471.777	79.12
471.997	85.12
472.216	95.12
472.435	87.12
472.654	92.12
472.873	91.12
473.092	99.12
473.311	89.12
473.53	83.12
473.749	87.12
473.968	79.12
474.187	98.12
474.406	96.12
474.625	73.12
474.844	93.12
475.063	87.12
475.282	78.12
475.501	81.12
475.72	80.12
475.939	85.12
476.158	90.12
476.377	102.12
476.596	97.12
476.814	94.12
477.033	95.12
477.252	86.12
477.471	74.12
477.69	93.12
477.908	84.12
478.127	89.12
478.346	89.12
478.564	82.12
478.783	83.12
479.002	100.12
479.22	75.12
479.439	96.12
479.658	95.12
479.876	95.12
480.095	94.12
480.313	91.12
480.532	94.12
480.751	99.12
480.969	95.12
481.188	74.12
481.406	89.12
481.624	90.12
481.843	88.12
482.061	99.12
482.28	88.12
482.498	85.12
482.717	72.12
482.935	82.12
483.153	92.12
483.372	75.12
483.59	94.12
483.808	86.12
484.027	94.12
484.245	97.12
484.463	95.12
484.681	97.12
484.9	103.12
485.118	94.12
485.336	98.12
485.554	94.12
485.772	114.12
485.99	101.12
486.209	86.12
486.427	91.12
486.645	104.12
486.863	117.12
487.081	101.12
487.299	95.12
487.517	107.12
487.735	108.12
487.953	90.12
488.171	85.12
488.389	91.12
488.607	90.12
488.825	82.12
489.043	93.12
489.261	87.12
489.479	92.12
489.696	91.12
489.914	92.12
490.132	94.12
490.35	97.12
490.568	89.12
490.786	87.12
491.003	101.12
491.221	100.12
491.439	95.12
491.657	84.12
491.874	80.12
492.092	76.12
492.31	88.12
492.527	94.12
492.745	94.12
492.963	100.12
493.18	88.12
493.398	82.12
493.615	94.12
493.833	103.12
494.05	86.12
494.268	90.12
494.485	91.12
494.703	105.12
494.92	101.12
495.138	85.12
495.355	92.12
495.573	91.12
495.79	89.12
496.008	96.12
496.225	95.12
496.442	96.12
496.66	86.12
496.877	89.12
497.094	88.12
497.312	90.12
497.529	97.12
497.746	90.12
497.963	77.12
498.181	84.12
498.398	88.12
498.615	108.12
498.832	105.12
499.049	86.12
499.267	88.12
499.484	123.12
499.701	98.12
499.918	103.12
500.135	100.12
500.352	81.12
500.569	88.12
500.786	100.12
501.003	89.12
501.22	86.12
501.437	74.12
501.654	85.12
501.871	86.12
502.088	76.12
502.305	96.12
502.522	82.12
502.739	87.12
502.956	93.12
503.172	93.12
503.389	101.12
503.606	96.12
503.823	87.12
504.04	81.12
504.256	84.12
504.473	90.12
504.69	84.12
504.907	95.12
505.123	84.12
505.34	88.12
505.557	82.12
505.773	87.12
505.99	100.12
506.207	86.12
506.423	94.12
506.64	103.12
506.856	85.12
507.073	106.12
507.289	102.12
507.506	109.12
507.722	102.12
507.939	110.12
508.155	87.12
508.372	88.12
508.588	97.12
508.805	89.12
509.021	93.12
509.238	91.12
509.454	98.12
509.67	102.12
509.887	119.12
510.103	116.12
510.319	190.12
510.536	609.12
510.752	1749.12
510.968	520.12
511.184	146.12
511.401	110.12
511.617	97.12
511.833	94.12
512.049	78.12
512.265	101.12
512.481	92.12
512.698	100.12
512.914	100.12
513.13	91.12
513.346	103.12
513.562	98.12
513.778	112.12
513.994	106.12
514.21	96.12
514.426	109.12
514.642	122.12
514.858	122.12
515.074	138.12
515.29	343.12
515.506	1067.12
515.721	413.12
