Data from Uncirc_2006_H10_HRD10591_00084.txt Node
Date: Wed Jan 03 10:25:11 EST 2024
User: Yrep
Spectrometer: HR+D1059
Trigger mode: 1
Integration Time (sec): 1.000000E-1
Scans to average: 1
Electric dark correction enabled: true
Nonlinearity correction enabled: false
Boxcar width: 0
XAxis mode: Wavelengths
Number of Pixels in Spectrum: 2048
>>>>>Begin Spectral Data<<<<<
223.165	-21.06
223.4	-21.06
223.635	-21.06
223.869	-17.06
224.104	-11.06
224.338	-10.06
224.573	-17.06
224.808	-14.06
225.042	-11.06
225.277	-6.06
225.511	-11.06
225.746	13.94
225.98	14.94
226.215	4.94
226.449	4.94
226.683	20.94
226.918	22.94
227.152	35.94
227.387	23.94
227.621	40.94
227.856	39.94
228.09	49.94
228.324	36.94
228.559	62.94
228.793	71.94
229.027	56.94
229.262	68.94
229.496	72.94
229.73	81.94
229.964	81.94
230.199	61.94
230.433	65.94
230.667	77.94
230.901	86.94
231.136	83.94
231.37	66.94
231.604	82.94
231.838	80.94
232.072	83.94
232.306	86.94
232.541	86.94
232.775	79.94
233.009	70.94
233.243	85.94
233.477	87.94
233.711	89.94
233.945	75.94
234.179	81.94
234.413	84.94
234.647	92.94
234.881	77.94
235.115	64.94
235.349	86.94
235.583	93.94
235.817	72.94
236.051	75.94
236.285	84.94
236.519	64.94
236.753	79.94
236.987	83.94
237.221	80.94
237.455	72.94
237.689	64.94
237.922	87.94
238.156	74.94
238.39	73.94
238.624	84.94
238.858	72.94
239.091	74.94
239.325	78.94
239.559	93.94
239.793	73.94
240.027	60.94
240.26	75.94
240.494	75.94
240.728	71.94
240.961	77.94
241.195	75.94
241.429	76.94
241.662	74.94
241.896	78.94
242.13	80.94
242.363	81.94
242.597	71.94
242.83	61.94
243.064	77.94
243.298	56.94
243.531	69.94
243.765	71.94
243.998	76.94
244.232	59.94
244.465	81.94
244.699	94.94
244.932	78.94
245.166	73.94
245.399	86.94
245.633	71.94
245.866	88.94
246.099	80.94
246.333	75.94
246.566	66.94
246.8	65.94
247.033	58.94
247.266	72.94
247.5	83.94
247.733	67.94
247.966	89.94
248.2	68.94
248.433	72.94
248.666	69.94
248.899	74.94
249.133	84.94
249.366	72.94
249.599	90.94
249.832	78.94
250.066	76.94
250.299	71.94
250.532	75.94
250.765	73.94
250.998	72.94
251.231	77.94
251.465	73.94
251.698	69.94
251.931	79.94
252.164	64.94
252.397	73.94
252.63	88.94
252.863	63.94
253.096	79.94
253.329	71.94
253.562	77.94
253.795	80.94
254.028	76.94
254.261	89.94
254.494	71.94
254.727	81.94
254.96	88.94
255.193	79.94
255.426	66.94
255.659	78.94
255.892	89.94
256.124	83.94
256.357	76.94
256.59	96.94
256.823	71.94
257.056	85.94
257.289	70.94
257.521	87.94
257.754	80.94
257.987	83.94
258.22	76.94
258.452	82.94
258.685	88.94
258.918	66.94
259.151	68.94
259.383	87.94
259.616	79.94
259.849	74.94
260.081	83.94
260.314	77.94
260.547	83.94
260.779	86.94
261.012	75.94
261.244	92.94
261.477	85.94
261.71	87.94
261.942	108.94
262.175	109.94
262.407	90.94
262.64	75.94
262.872	73.94
263.105	78.94
263.337	96.94
263.57	72.94
263.802	83.94
264.035	93.94
264.267	85.94
264.499	80.94
264.732	82.94
264.964	76.94
265.197	86.94
265.429	97.94
265.661	81.94
265.894	93.94
266.126	94.94
266.358	70.94
266.591	94.94
266.823	70.94
267.055	86.94
267.287	91.94
267.52	78.94
267.752	94.94
267.984	91.94
268.216	94.94
268.448	88.94
268.681	77.94
268.913	68.94
269.145	85.94
269.377	81.94
269.609	76.94
269.841	79.94
270.073	89.94
270.306	85.94
270.538	78.94
270.77	84.94
271.002	91.94
271.234	84.94
271.466	99.94
271.698	97.94
271.93	84.94
272.162	72.94
272.394	93.94
272.626	79.94
272.858	75.94
273.09	68.94
273.322	80.94
273.553	93.94
273.785	84.94
274.017	75.94
274.249	83.94
274.481	103.94
274.713	86.94
274.945	85.94
275.176	98.94
275.408	92.94
275.64	88.94
275.872	89.94
276.104	86.94
276.335	96.94
276.567	98.94
276.799	99.94
277.031	97.94
277.262	86.94
277.494	93.94
277.726	79.94
277.957	95.94
278.189	86.94
278.421	87.94
278.652	88.94
278.884	71.94
279.115	97.94
279.347	77.94
279.579	85.94
279.81	85.94
280.042	77.94
280.273	96.94
280.505	85.94
280.736	86.94
280.968	67.94
281.199	87.94
281.431	88.94
281.662	88.94
281.894	85.94
282.125	97.94
282.356	105.94
282.588	127.94
282.819	100.94
283.051	93.94
283.282	81.94
283.513	97.94
283.745	91.94
283.976	71.94
284.207	85.94
284.439	91.94
284.67	91.94
284.901	83.94
285.132	95.94
285.364	70.94
285.595	84.94
285.826	95.94
286.057	81.94
286.288	85.94
286.52	94.94
286.751	95.94
286.982	94.94
287.213	96.94
287.444	97.94
287.675	96.94
287.906	90.94
288.138	85.94
288.369	83.94
288.6	90.94
288.831	78.94
289.062	80.94
289.293	73.94
289.524	89.94
289.755	81.94
289.986	92.94
290.217	74.94
290.448	88.94
290.679	96.94
290.91	85.94
291.141	86.94
291.371	80.94
291.602	92.94
291.833	82.94
292.064	81.94
292.295	86.94
292.526	88.94
292.757	94.94
292.987	94.94
293.218	85.94
293.449	74.94
293.68	89.94
293.91	85.94
294.141	90.94
294.372	91.94
294.603	79.94
294.833	81.94
295.064	94.94
295.295	81.94
295.525	85.94
295.756	94.94
295.987	125.94
296.217	112.94
296.448	98.94
296.679	81.94
296.909	106.94
297.14	89.94
297.37	86.94
297.601	81.94
297.831	87.94
298.062	90.94
298.292	82.94
298.523	86.94
298.753	85.94
298.984	80.94
299.214	79.94
299.445	93.94
299.675	69.94
299.905	77.94
300.136	93.94
300.366	85.94
300.597	82.94
300.827	89.94
301.057	96.94
301.288	115.94
301.518	94.94
301.748	93.94
301.979	99.94
302.209	77.94
302.439	96.94
302.669	93.94
302.9	76.94
303.13	102.94
303.36	84.94
303.59	99.94
303.82	94.94
304.051	99.94
304.281	93.94
304.511	80.94
304.741	92.94
304.971	84.94
305.201	100.94
305.431	78.94
305.661	79.94
305.891	79.94
306.121	100.94
306.352	108.94
306.582	102.94
306.812	92.94
307.042	84.94
307.272	95.94
307.502	93.94
307.731	89.94
307.961	85.94
308.191	91.94
308.421	107.94
308.651	92.94
308.881	104.94
309.111	100.94
309.341	95.94
309.571	111.94
309.8	105.94
310.03	98.94
310.26	99.94
310.49	94.94
310.72	95.94
310.949	98.94
311.179	103.94
311.409	99.94
311.639	94.94
311.868	97.94
312.098	97.94
312.328	89.94
312.557	86.94
312.787	89.94
313.017	89.94
313.246	94.94
313.476	86.94
313.706	85.94
313.935	83.94
314.165	98.94
314.394	95.94
314.624	90.94
314.853	93.94
315.083	84.94
315.312	90.94
315.542	85.94
315.771	85.94
316.001	84.94
316.23	83.94
316.46	72.94
316.689	77.94
316.919	97.94
317.148	97.94
317.377	105.94
317.607	83.94
317.836	85.94
318.065	92.94
318.295	95.94
318.524	88.94
318.753	73.94
318.983	96.94
319.212	95.94
319.441	105.94
319.67	114.94
319.9	89.94
320.129	91.94
320.358	90.94
320.587	95.94
320.816	95.94
321.046	85.94
321.275	96.94
321.504	93.94
321.733	112.94
321.962	101.94
322.191	90.94
322.42	103.94
322.649	111.94
322.878	111.94
323.108	106.94
323.337	115.94
323.566	126.94
323.795	158.94
324.024	201.94
324.253	374.94
324.482	802.94
324.71	1599.94
324.939	2090.94
325.168	782.94
325.397	229.94
325.626	152.94
325.855	124.94
326.084	117.94
326.313	109.94
326.542	145.94
326.77	213.94
326.999	456.94
327.228	910.94
327.457	1653.94
327.686	1291.94
327.914	354.94
328.143	186.94
328.372	128.94
328.6	116.94
328.829	113.94
329.058	115.94
329.287	109.94
329.515	108.94
329.744	103.94
329.972	109.94
330.201	91.94
330.43	95.94
330.658	98.94
330.887	131.94
331.115	116.94
331.344	99.94
331.572	109.94
331.801	104.94
332.03	101.94
332.258	91.94
332.486	85.94
332.715	86.94
332.943	99.94
333.172	92.94
333.4	84.94
333.629	99.94
333.857	103.94
334.085	90.94
334.314	83.94
334.542	88.94
334.771	93.94
334.999	109.94
335.227	96.94
335.455	89.94
335.684	99.94
335.912	96.94
336.14	83.94
336.369	95.94
336.597	98.94
336.825	104.94
337.053	84.94
337.281	95.94
337.51	89.94
337.738	93.94
337.966	77.94
338.194	75.94
338.422	99.94
338.65	107.94
338.878	87.94
339.106	80.94
339.334	86.94
339.562	85.94
339.79	93.94
340.018	94.94
340.246	96.94
340.474	96.94
340.702	95.94
340.93	96.94
341.158	89.94
341.386	99.94
341.614	89.94
341.842	93.94
342.07	78.94
342.298	88.94
342.526	97.94
342.754	82.94
342.981	78.94
343.209	86.94
343.437	105.94
343.665	87.94
343.893	89.94
344.12	85.94
344.348	102.94
344.576	89.94
344.804	78.94
345.031	100.94
345.259	82.94
345.487	97.94
345.714	100.94
345.942	93.94
346.17	100.94
346.397	87.94
346.625	113.94
346.853	94.94
347.08	93.94
347.308	100.94
347.535	92.94
347.763	90.94
347.99	90.94
348.218	98.94
348.445	109.94
348.673	102.94
348.9	95.94
349.128	92.94
349.355	84.94
349.583	102.94
349.81	98.94
350.037	84.94
350.265	87.94
350.492	80.94
350.72	87.94
350.947	90.94
351.174	111.94
351.402	100.94
351.629	101.94
351.856	104.94
352.083	113.94
352.311	99.94
352.538	103.94
352.765	121.94
352.992	106.94
353.22	91.94
353.447	102.94
353.674	95.94
353.901	102.94
354.128	88.94
354.355	93.94
354.583	95.94
354.81	96.94
355.037	106.94
355.264	102.94
355.491	112.94
355.718	94.94
355.945	90.94
356.172	88.94
356.399	97.94
356.626	92.94
356.853	95.94
357.08	88.94
357.307	91.94
357.534	100.94
357.761	106.94
357.988	105.94
358.215	88.94
358.441	97.94
358.668	102.94
358.895	98.94
359.122	87.94
359.349	89.94
359.576	88.94
359.802	85.94
360.029	97.94
360.256	103.94
360.483	92.94
360.709	93.94
360.936	89.94
361.163	86.94
361.39	78.94
361.616	87.94
361.843	96.94
362.07	98.94
362.296	87.94
362.523	77.94
362.749	87.94
362.976	87.94
363.203	97.94
363.429	79.94
363.656	84.94
363.882	94.94
364.109	74.94
364.335	83.94
364.562	87.94
364.788	86.94
365.015	102.94
365.241	97.94
365.468	89.94
365.694	101.94
365.92	104.94
366.147	82.94
366.373	92.94
366.599	90.94
366.826	89.94
367.052	85.94
367.278	93.94
367.505	84.94
367.731	84.94
367.957	83.94
368.184	86.94
368.41	108.94
368.636	108.94
368.862	108.94
369.089	97.94
369.315	87.94
369.541	82.94
369.767	86.94
369.993	97.94
370.219	88.94
370.445	93.94
370.672	89.94
370.898	76.94
371.124	77.94
371.35	82.94
371.576	84.94
371.802	82.94
372.028	81.94
372.254	83.94
372.48	79.94
372.706	84.94
372.932	86.94
373.158	85.94
373.384	93.94
373.61	76.94
373.835	82.94
374.061	89.94
374.287	88.94
374.513	99.94
374.739	83.94
374.965	81.94
375.191	83.94
375.416	85.94
375.642	86.94
375.868	99.94
376.094	85.94
376.319	84.94
376.545	85.94
376.771	85.94
376.997	98.94
377.222	92.94
377.448	64.94
377.674	92.94
377.899	93.94
378.125	99.94
378.35	96.94
378.576	92.94
378.802	100.94
379.027	74.94
379.253	91.94
379.478	92.94
379.704	102.94
379.929	91.94
380.155	86.94
380.38	99.94
380.606	95.94
380.831	93.94
381.057	90.94
381.282	85.94
381.507	81.94
381.733	94.94
381.958	89.94
382.184	99.94
382.409	107.94
382.634	97.94
382.86	84.94
383.085	106.94
383.31	96.94
383.535	106.94
383.761	101.94
383.986	95.94
384.211	96.94
384.436	101.94
384.662	87.94
384.887	75.94
385.112	77.94
385.337	109.94
385.562	97.94
385.787	93.94
386.013	107.94
386.238	92.94
386.463	96.94
386.688	109.94
386.913	96.94
387.138	109.94
387.363	105.94
387.588	86.94
387.813	97.94
388.038	93.94
388.263	98.94
388.488	113.94
388.713	91.94
388.938	83.94
389.163	99.94
389.387	90.94
389.612	85.94
389.837	92.94
390.062	90.94
390.287	83.94
390.512	93.94
390.736	92.94
390.961	91.94
391.186	95.94
391.411	86.94
391.636	88.94
391.86	92.94
392.085	89.94
392.31	78.94
392.534	85.94
392.759	90.94
392.984	63.94
393.208	96.94
393.433	78.94
393.658	83.94
393.882	94.94
394.107	87.94
394.331	90.94
394.556	92.94
394.78	101.94
395.005	90.94
395.229	84.94
395.454	77.94
395.678	86.94
395.903	74.94
396.127	82.94
396.352	87.94
396.576	97.94
396.801	98.94
397.025	93.94
397.249	81.94
397.474	81.94
397.698	82.94
397.922	94.94
398.147	82.94
398.371	87.94
398.595	88.94
398.82	74.94
399.044	83.94
399.268	84.94
399.492	83.94
399.717	93.94
399.941	82.94
400.165	94.94
400.389	101.94
400.613	92.94
400.837	87.94
401.062	80.94
401.286	90.94
401.51	105.94
401.734	81.94
401.958	97.94
402.182	101.94
402.406	135.94
402.63	87.94
402.854	97.94
403.078	86.94
403.302	86.94
403.526	84.94
403.75	94.94
403.974	85.94
404.198	85.94
404.422	88.94
404.645	93.94
404.869	83.94
405.093	88.94
405.317	92.94
405.541	82.94
405.765	90.94
405.988	114.94
406.212	160.94
406.436	192.94
406.66	123.94
406.883	90.94
407.107	98.94
407.331	86.94
407.555	105.94
407.778	97.94
408.002	109.94
408.226	97.94
408.449	82.94
408.673	85.94
408.896	86.94
409.12	93.94
409.344	90.94
409.567	80.94
409.791	82.94
410.014	90.94
410.238	79.94
410.461	94.94
410.685	74.94
410.908	80.94
411.132	116.94
411.355	101.94
411.578	95.94
411.802	87.94
412.025	76.94
412.249	90.94
412.472	73.94
412.695	95.94
412.919	72.94
413.142	93.94
413.365	80.94
413.589	71.94
413.812	77.94
414.035	88.94
414.258	83.94
414.482	92.94
414.705	92.94
414.928	89.94
415.151	92.94
415.374	82.94
415.597	90.94
415.821	96.94
416.044	82.94
416.267	93.94
416.49	96.94
416.713	82.94
416.936	98.94
417.159	89.94
417.382	93.94
417.605	86.94
417.828	87.94
418.051	90.94
418.274	106.94
418.497	94.94
418.72	99.94
418.943	89.94
419.166	82.94
419.389	97.94
419.611	95.94
419.834	99.94
420.057	92.94
420.28	84.94
420.503	83.94
420.726	86.94
420.948	84.94
421.171	96.94
421.394	101.94
421.617	85.94
421.839	85.94
422.062	89.94
422.285	94.94
422.507	86.94
422.73	101.94
422.953	109.94
423.175	86.94
423.398	93.94
423.621	85.94
423.843	83.94
424.066	93.94
424.288	87.94
424.511	94.94
424.733	93.94
424.956	104.94
425.178	97.94
425.401	96.94
425.623	86.94
425.846	88.94
426.068	91.94
426.291	84.94
426.513	100.94
426.735	85.94
426.958	92.94
427.18	100.94
427.402	134.94
427.625	157.94
427.847	112.94
428.069	91.94
428.292	80.94
428.514	80.94
428.736	82.94
428.958	80.94
429.181	85.94
429.403	84.94
429.625	79.94
429.847	78.94
430.069	94.94
430.292	88.94
430.514	81.94
430.736	77.94
430.958	98.94
431.18	90.94
431.402	71.94
431.624	77.94
431.846	82.94
432.068	78.94
432.29	72.94
432.512	90.94
432.734	87.94
432.956	90.94
433.178	99.94
433.4	76.94
433.622	89.94
433.844	89.94
434.066	100.94
434.287	94.94
434.509	93.94
434.731	101.94
434.953	106.94
435.175	92.94
435.397	85.94
435.618	94.94
435.84	109.94
436.062	132.94
436.284	106.94
436.505	108.94
436.727	94.94
436.949	103.94
437.17	98.94
437.392	93.94
437.614	89.94
437.835	96.94
438.057	104.94
438.278	108.94
438.5	102.94
438.721	107.94
438.943	83.94
439.165	91.94
439.386	96.94
439.608	86.94
439.829	104.94
440.05	112.94
440.272	126.94
440.493	98.94
440.715	84.94
440.936	76.94
441.158	92.94
441.379	84.94
441.6	86.94
441.822	79.94
442.043	86.94
442.264	91.94
442.486	98.94
442.707	87.94
442.928	94.94
443.149	121.94
443.371	128.94
443.592	88.94
443.813	100.94
444.034	95.94
444.255	81.94
444.476	86.94
444.698	78.94
444.919	82.94
445.14	129.94
445.361	114.94
445.582	113.94
445.803	137.94
446.024	125.94
446.245	130.94
446.466	93.94
446.687	92.94
446.908	83.94
447.129	82.94
447.35	78.94
447.571	87.94
447.792	77.94
448.013	108.94
448.234	93.94
448.455	90.94
448.675	113.94
448.896	101.94
449.117	95.94
449.338	94.94
449.559	110.94
449.779	117.94
450	107.94
450.221	90.94
450.442	104.94
450.662	84.94
450.883	104.94
451.104	124.94
451.324	106.94
451.545	81.94
451.766	70.94
451.986	97.94
452.207	86.94
452.428	83.94
452.648	94.94
452.869	105.94
453.089	111.94
453.31	124.94
453.53	98.94
453.751	79.94
453.971	92.94
454.192	102.94
454.412	87.94
454.633	89.94
454.853	80.94
455.073	88.94
455.294	92.94
455.514	85.94
455.734	94.94
455.955	81.94
456.175	85.94
456.395	91.94
456.616	83.94
456.836	81.94
457.056	65.94
457.276	84.94
457.497	106.94
457.717	91.94
457.937	77.94
458.157	93.94
458.377	89.94
458.598	95.94
458.818	131.94
459.038	144.94
459.258	97.94
459.478	95.94
459.698	80.94
459.918	71.94
460.138	86.94
460.358	86.94
460.578	84.94
460.798	88.94
461.018	82.94
461.238	87.94
461.458	88.94
461.678	84.94
461.898	73.94
462.118	85.94
462.338	91.94
462.558	84.94
462.777	93.94
462.997	86.94
463.217	87.94
463.437	97.94
463.657	104.94
463.876	74.94
464.096	86.94
464.316	83.94
464.536	98.94
464.755	94.94
464.975	107.94
465.195	132.94
465.414	141.94
465.634	94.94
465.854	87.94
466.073	90.94
466.293	92.94
466.512	85.94
466.732	70.94
466.951	91.94
467.171	100.94
467.391	100.94
467.61	91.94
467.829	84.94
468.049	78.94
468.268	73.94
468.488	87.94
468.707	89.94
468.927	90.94
469.146	82.94
469.365	78.94
469.585	74.94
469.804	97.94
470.023	97.94
470.243	83.94
470.462	89.94
470.681	99.94
470.901	89.94
471.12	92.94
471.339	86.94
471.558	80.94
471.777	90.94
471.997	76.94
472.216	90.94
472.435	83.94
472.654	102.94
472.873	86.94
473.092	97.94
473.311	89.94
473.53	72.94
473.749	69.94
473.968	90.94
474.187	99.94
474.406	106.94
474.625	86.94
474.844	95.94
475.063	76.94
475.282	92.94
475.501	108.94
475.72	93.94
475.939	78.94
476.158	75.94
476.377	78.94
476.596	90.94
476.814	100.94
477.033	100.94
477.252	80.94
477.471	83.94
477.69	85.94
477.908	81.94
478.127	84.94
478.346	94.94
478.564	79.94
478.783	86.94
479.002	76.94
479.22	97.94
479.439	92.94
479.658	92.94
479.876	90.94
480.095	90.94
480.313	85.94
480.532	96.94
480.751	87.94
480.969	90.94
481.188	75.94
481.406	93.94
481.624	102.94
481.843	95.94
482.061	78.94
482.28	76.94
482.498	74.94
482.717	79.94
482.935	97.94
483.153	97.94
483.372	84.94
483.59	89.94
483.808	77.94
484.027	84.94
484.245	86.94
484.463	94.94
484.681	88.94
484.9	85.94
485.118	92.94
485.336	97.94
485.554	92.94
485.772	89.94
485.99	96.94
486.209	90.94
486.427	91.94
486.645	116.94
486.863	90.94
487.081	101.94
487.299	86.94
487.517	98.94
487.735	81.94
487.953	89.94
488.171	87.94
488.389	93.94
488.607	92.94
488.825	92.94
489.043	91.94
489.261	78.94
489.479	98.94
489.696	92.94
489.914	84.94
490.132	83.94
490.35	94.94
490.568	86.94
490.786	82.94
491.003	77.94
491.221	87.94
491.439	87.94
491.657	99.94
491.874	81.94
492.092	72.94
492.31	100.94
492.527	97.94
492.745	88.94
492.963	95.94
493.18	97.94
493.398	69.94
493.615	94.94
493.833	92.94
494.05	77.94
494.268	84.94
494.485	78.94
494.703	98.94
494.92	101.94
495.138	95.94
495.355	90.94
495.573	93.94
495.79	84.94
496.008	73.94
496.225	89.94
496.442	82.94
496.66	89.94
496.877	99.94
497.094	88.94
497.312	95.94
497.529	96.94
497.746	95.94
497.963	68.94
498.181	90.94
498.398	92.94
498.615	105.94
498.832	96.94
499.049	84.94
499.267	90.94
499.484	74.94
499.701	95.94
499.918	99.94
500.135	93.94
500.352	103.94
500.569	90.94
500.786	87.94
501.003	92.94
501.22	92.94
501.437	92.94
501.654	94.94
501.871	103.94
502.088	99.94
502.305	85.94
502.522	89.94
502.739	91.94
502.956	88.94
503.172	102.94
503.389	95.94
503.606	90.94
503.823	94.94
504.04	96.94
504.256	92.94
504.473	94.94
504.69	89.94
504.907	90.94
505.123	84.94
505.34	71.94
505.557	83.94
505.773	100.94
505.99	86.94
506.207	87.94
506.423	78.94
506.64	81.94
506.856	95.94
507.073	90.94
507.289	98.94
507.506	91.94
507.722	109.94
507.939	103.94
508.155	114.94
508.372	93.94
508.588	98.94
508.805	79.94
509.021	99.94
509.238	86.94
509.454	93.94
509.67	108.94
509.887	113.94
510.103	143.94
510.319	202.94
510.536	651.94
510.752	2138.94
510.968	606.94
511.184	134.94
511.401	102.94
511.617	105.94
511.833	93.94
512.049	85.94
512.265	92.94
512.481	92.94
512.698	100.94
512.914	93.94
513.13	92.94
513.346	104.94
513.562	94.94
513.778	97.94
513.994	93.94
514.21	94.94
514.426	94.94
514.642	117.94
514.858	107.94
515.074	160.94
515.29	388.94
515.506	1287.94
515.721	493.94
515.937	149.94
516.153	99.94
516.369	91.94
516.585	101.94
516.801	93.94
