Data from Uncirc_2006_H10_HRD10591_00098.txt Node
Date: Wed Jan 03 10:25:14 EST 2024
User: Yrep
Spectrometer: HR+D1059
Trigger mode: 1
Integration Time (sec): 1.000000E-1
Scans to average: 1
Electric dark correction enabled: true
Nonlinearity correction enabled: false
Boxcar width: 0
XAxis mode: Wavelengths
Number of Pixels in Spectrum: 2048
>>>>>Begin Spectral Data<<<<<
223.165	-20.19
223.4	-20.19
223.635	-20.19
223.869	-11.19
224.104	-20.19
224.338	-19.19
224.573	-28.19
224.808	-14.19
225.042	-11.19
225.277	9.81
225.511	-3.19
225.746	1.81
225.98	3.81
226.215	18.81
226.449	21.81
226.683	22.81
226.918	20.81
227.152	27.81
227.387	32.81
227.621	41.81
227.856	51.81
228.09	49.81
228.324	67.81
228.559	76.81
228.793	52.81
229.027	68.81
229.262	60.81
229.496	72.81
229.73	81.81
229.964	79.81
230.199	86.81
230.433	74.81
230.667	70.81
230.901	89.81
231.136	78.81
231.37	75.81
231.604	86.81
231.838	81.81
232.072	77.81
232.306	76.81
232.541	72.81
232.775	78.81
233.009	84.81
233.243	83.81
233.477	77.81
233.711	77.81
233.945	69.81
234.179	86.81
234.413	78.81
234.647	84.81
234.881	67.81
235.115	86.81
235.349	83.81
235.583	73.81
235.817	77.81
236.051	77.81
236.285	66.81
236.519	82.81
236.753	89.81
236.987	74.81
237.221	90.81
237.455	78.81
237.689	79.81
237.922	75.81
238.156	65.81
238.39	79.81
238.624	73.81
238.858	80.81
239.091	73.81
239.325	86.81
239.559	85.81
239.793	71.81
240.027	73.81
240.26	85.81
240.494	70.81
240.728	73.81
240.961	79.81
241.195	90.81
241.429	74.81
241.662	92.81
241.896	74.81
242.13	73.81
242.363	80.81
242.597	71.81
242.83	78.81
243.064	75.81
243.298	90.81
243.531	78.81
243.765	77.81
243.998	80.81
244.232	88.81
244.465	82.81
244.699	77.81
244.932	78.81
245.166	75.81
245.399	82.81
245.633	76.81
245.866	98.81
246.099	80.81
246.333	74.81
246.566	80.81
246.8	76.81
247.033	85.81
247.266	95.81
247.5	77.81
247.733	83.81
247.966	72.81
248.2	80.81
248.433	91.81
248.666	76.81
248.899	83.81
249.133	79.81
249.366	95.81
249.599	91.81
249.832	83.81
250.066	84.81
250.299	81.81
250.532	77.81
250.765	76.81
250.998	70.81
251.231	76.81
251.465	78.81
251.698	78.81
251.931	81.81
252.164	70.81
252.397	75.81
252.63	67.81
252.863	72.81
253.096	79.81
253.329	71.81
253.562	81.81
253.795	88.81
254.028	87.81
254.261	78.81
254.494	80.81
254.727	77.81
254.96	85.81
255.193	69.81
255.426	76.81
255.659	74.81
255.892	83.81
256.124	72.81
256.357	86.81
256.59	85.81
256.823	85.81
257.056	81.81
257.289	82.81
257.521	80.81
257.754	75.81
257.987	79.81
258.22	81.81
258.452	86.81
258.685	92.81
258.918	79.81
259.151	76.81
259.383	98.81
259.616	88.81
259.849	77.81
260.081	73.81
260.314	83.81
260.547	82.81
260.779	83.81
261.012	83.81
261.244	79.81
261.477	87.81
261.71	94.81
261.942	103.81
262.175	93.81
262.407	90.81
262.64	85.81
262.872	77.81
263.105	80.81
263.337	74.81
263.57	84.81
263.802	76.81
264.035	81.81
264.267	90.81
264.499	88.81
264.732	77.81
264.964	81.81
265.197	77.81
265.429	67.81
265.661	83.81
265.894	70.81
266.126	83.81
266.358	78.81
266.591	68.81
266.823	79.81
267.055	83.81
267.287	69.81
267.52	72.81
267.752	77.81
267.984	74.81
268.216	89.81
268.448	92.81
268.681	93.81
268.913	87.81
269.145	86.81
269.377	89.81
269.609	91.81
269.841	78.81
270.073	83.81
270.306	78.81
270.538	80.81
270.77	86.81
271.002	88.81
271.234	89.81
271.466	86.81
271.698	102.81
271.93	95.81
272.162	92.81
272.394	87.81
272.626	83.81
272.858	90.81
273.09	78.81
273.322	83.81
273.553	77.81
273.785	75.81
274.017	71.81
274.249	106.81
274.481	101.81
274.713	86.81
274.945	90.81
275.176	90.81
275.408	89.81
275.64	81.81
275.872	79.81
276.104	85.81
276.335	89.81
276.567	101.81
276.799	96.81
277.031	95.81
277.262	96.81
277.494	90.81
277.726	75.81
277.957	86.81
278.189	87.81
278.421	89.81
278.652	92.81
278.884	92.81
279.115	74.81
279.347	81.81
279.579	79.81
279.81	85.81
280.042	77.81
280.273	97.81
280.505	94.81
280.736	86.81
280.968	95.81
281.199	76.81
281.431	92.81
281.662	95.81
281.894	89.81
282.125	106.81
282.356	111.81
282.588	128.81
282.819	102.81
283.051	89.81
283.282	94.81
283.513	94.81
283.745	77.81
283.976	86.81
284.207	75.81
284.439	82.81
284.67	82.81
284.901	80.81
285.132	76.81
285.364	93.81
285.595	89.81
285.826	73.81
286.057	82.81
286.288	85.81
286.52	75.81
286.751	83.81
286.982	76.81
287.213	100.81
287.444	86.81
287.675	85.81
287.906	90.81
288.138	103.81
288.369	90.81
288.6	88.81
288.831	72.81
289.062	85.81
289.293	78.81
289.524	76.81
289.755	77.81
289.986	74.81
290.217	86.81
290.448	85.81
290.679	82.81
290.91	91.81
291.141	108.81
291.371	94.81
291.602	92.81
291.833	76.81
292.064	87.81
292.295	76.81
292.526	87.81
292.757	97.81
292.987	95.81
293.218	74.81
293.449	90.81
293.68	88.81
293.91	99.81
294.141	87.81
294.372	84.81
294.603	93.81
294.833	85.81
295.064	95.81
295.295	90.81
295.525	102.81
295.756	97.81
295.987	107.81
296.217	113.81
296.448	119.81
296.679	92.81
296.909	98.81
297.14	92.81
297.37	90.81
297.601	96.81
297.831	78.81
298.062	94.81
298.292	93.81
298.523	87.81
298.753	83.81
298.984	91.81
299.214	86.81
299.445	87.81
299.675	98.81
299.905	106.81
300.136	85.81
300.366	81.81
300.597	101.81
300.827	89.81
301.057	112.81
301.288	93.81
301.518	96.81
301.748	92.81
301.979	92.81
302.209	93.81
302.439	84.81
302.669	89.81
302.9	80.81
303.13	82.81
303.36	82.81
303.59	107.81
303.82	112.81
304.051	96.81
304.281	101.81
304.511	101.81
304.741	82.81
304.971	82.81
305.201	90.81
305.431	86.81
305.661	82.81
305.891	86.81
306.121	101.81
306.352	89.81
306.582	95.81
306.812	78.81
307.042	79.81
307.272	97.81
307.502	91.81
307.731	84.81
307.961	75.81
308.191	83.81
308.421	98.81
308.651	83.81
308.881	80.81
309.111	93.81
309.341	79.81
309.571	93.81
309.8	94.81
310.03	90.81
310.26	99.81
310.49	102.81
310.72	79.81
310.949	91.81
311.179	101.81
311.409	91.81
311.639	95.81
311.868	103.81
312.098	109.81
312.328	99.81
312.557	100.81
312.787	104.81
313.017	108.81
313.246	92.81
313.476	79.81
313.706	84.81
313.935	102.81
314.165	93.81
314.394	106.81
314.624	107.81
314.853	102.81
315.083	94.81
315.312	90.81
315.542	90.81
315.771	93.81
316.001	80.81
316.23	78.81
316.46	98.81
316.689	83.81
316.919	82.81
317.148	85.81
317.377	101.81
317.607	85.81
317.836	90.81
318.065	108.81
318.295	73.81
318.524	81.81
318.753	75.81
318.983	86.81
319.212	93.81
319.441	97.81
319.67	112.81
319.9	97.81
320.129	82.81
320.358	110.81
320.587	105.81
320.816	100.81
321.046	83.81
321.275	95.81
321.504	106.81
321.733	95.81
321.962	92.81
322.191	101.81
322.42	113.81
322.649	109.81
322.878	94.81
323.108	114.81
323.337	109.81
323.566	113.81
323.795	151.81
324.024	196.81
324.253	402.81
324.482	833.81
324.71	1734.81
324.939	2194.81
325.168	797.81
325.397	254.81
325.626	145.81
325.855	129.81
326.084	140.81
326.313	117.81
326.542	150.81
326.77	241.81
326.999	464.81
327.228	963.81
327.457	1707.81
327.686	1369.81
327.914	361.81
328.143	187.81
328.372	148.81
328.6	132.81
328.829	103.81
329.058	119.81
329.287	103.81
329.515	103.81
329.744	106.81
329.972	112.81
330.201	85.81
330.43	105.81
330.658	100.81
330.887	126.81
331.115	112.81
331.344	107.81
331.572	105.81
331.801	86.81
332.03	102.81
332.258	91.81
332.486	77.81
332.715	92.81
332.943	98.81
333.172	75.81
333.4	102.81
333.629	107.81
333.857	111.81
334.085	112.81
334.314	96.81
334.542	94.81
334.771	110.81
334.999	92.81
335.227	105.81
335.455	97.81
335.684	88.81
335.912	95.81
336.14	93.81
336.369	97.81
336.597	101.81
336.825	99.81
337.053	94.81
337.281	98.81
337.51	90.81
337.738	93.81
337.966	104.81
338.194	101.81
338.422	92.81
338.65	86.81
338.878	102.81
339.106	94.81
339.334	90.81
339.562	92.81
339.79	94.81
340.018	87.81
340.246	70.81
340.474	93.81
340.702	82.81
340.93	90.81
341.158	97.81
341.386	91.81
341.614	83.81
341.842	84.81
342.07	106.81
342.298	95.81
342.526	92.81
342.754	97.81
342.981	91.81
343.209	80.81
343.437	96.81
343.665	89.81
343.893	82.81
344.12	96.81
344.348	94.81
344.576	100.81
344.804	72.81
345.031	89.81
345.259	100.81
345.487	89.81
345.714	76.81
345.942	89.81
346.17	82.81
346.397	84.81
346.625	74.81
346.853	96.81
347.08	86.81
347.308	85.81
347.535	94.81
347.763	99.81
347.99	95.81
348.218	108.81
348.445	89.81
348.673	94.81
348.9	107.81
349.128	92.81
349.355	86.81
349.583	98.81
349.81	100.81
350.037	115.81
350.265	101.81
350.492	83.81
350.72	79.81
350.947	108.81
351.174	94.81
351.402	135.81
351.629	96.81
351.856	100.81
352.083	110.81
352.311	98.81
352.538	113.81
352.765	104.81
352.992	107.81
353.22	125.81
353.447	108.81
353.674	94.81
353.901	90.81
354.128	104.81
354.355	84.81
354.583	99.81
354.81	102.81
355.037	96.81
355.264	89.81
355.491	92.81
355.718	98.81
355.945	102.81
356.172	103.81
356.399	68.81
356.626	88.81
356.853	90.81
357.08	103.81
357.307	102.81
357.534	97.81
357.761	98.81
357.988	108.81
358.215	84.81
358.441	90.81
358.668	92.81
358.895	89.81
359.122	97.81
359.349	96.81
359.576	92.81
359.802	102.81
360.029	102.81
360.256	90.81
360.483	92.81
360.709	92.81
360.936	97.81
361.163	100.81
361.39	84.81
361.616	95.81
361.843	82.81
362.07	96.81
362.296	81.81
362.523	92.81
362.749	85.81
362.976	96.81
363.203	96.81
363.429	80.81
363.656	98.81
363.882	89.81
364.109	97.81
364.335	91.81
364.562	99.81
364.788	102.81
365.015	108.81
365.241	92.81
365.468	113.81
365.694	99.81
365.92	91.81
366.147	86.81
366.373	76.81
366.599	84.81
366.826	91.81
367.052	101.81
367.278	102.81
367.505	97.81
367.731	95.81
367.957	93.81
368.184	87.81
368.41	102.81
368.636	103.81
368.862	143.81
369.089	122.81
369.315	95.81
369.541	80.81
369.767	92.81
369.993	84.81
370.219	77.81
370.445	99.81
370.672	87.81
370.898	83.81
371.124	93.81
371.35	98.81
371.576	81.81
371.802	90.81
372.028	93.81
372.254	82.81
372.48	92.81
372.706	87.81
372.932	94.81
373.158	98.81
373.384	89.81
373.61	100.81
373.835	97.81
374.061	85.81
374.287	97.81
374.513	80.81
374.739	86.81
374.965	83.81
375.191	104.81
375.416	97.81
375.642	82.81
375.868	97.81
376.094	101.81
376.319	99.81
376.545	99.81
376.771	90.81
376.997	79.81
377.222	83.81
377.448	92.81
377.674	86.81
377.899	89.81
378.125	84.81
378.35	85.81
378.576	84.81
378.802	104.81
379.027	102.81
379.253	81.81
379.478	86.81
379.704	93.81
379.929	85.81
380.155	87.81
380.38	91.81
380.606	98.81
380.831	97.81
381.057	114.81
381.282	89.81
381.507	95.81
381.733	95.81
381.958	103.81
382.184	95.81
382.409	109.81
382.634	105.81
382.86	109.81
383.085	97.81
383.31	107.81
383.535	94.81
383.761	103.81
383.986	110.81
384.211	92.81
384.436	85.81
384.662	110.81
384.887	106.81
385.112	83.81
385.337	103.81
385.562	101.81
385.787	105.81
386.013	83.81
386.238	119.81
386.463	107.81
386.688	111.81
386.913	101.81
387.138	99.81
387.363	108.81
387.588	93.81
387.813	107.81
388.038	108.81
388.263	125.81
388.488	126.81
388.713	101.81
388.938	93.81
389.163	93.81
389.387	103.81
389.612	99.81
389.837	90.81
390.062	94.81
390.287	90.81
390.512	94.81
390.736	103.81
390.961	88.81
391.186	82.81
391.411	96.81
391.636	76.81
391.86	77.81
392.085	93.81
392.31	93.81
392.534	80.81
392.759	79.81
392.984	89.81
393.208	98.81
393.433	72.81
393.658	76.81
393.882	89.81
394.107	88.81
394.331	96.81
394.556	89.81
394.78	89.81
395.005	94.81
395.229	75.81
395.454	81.81
395.678	97.81
395.903	89.81
396.127	83.81
396.352	79.81
396.576	91.81
396.801	83.81
397.025	85.81
397.249	91.81
397.474	83.81
397.698	91.81
397.922	78.81
398.147	99.81
398.371	87.81
398.595	86.81
398.82	90.81
399.044	78.81
399.268	77.81
399.492	101.81
399.717	85.81
399.941	84.81
400.165	97.81
400.389	101.81
400.613	78.81
400.837	81.81
401.062	65.81
401.286	76.81
401.51	80.81
401.734	83.81
401.958	96.81
402.182	123.81
402.406	150.81
402.63	115.81
402.854	93.81
403.078	90.81
403.302	80.81
403.526	69.81
403.75	86.81
403.974	83.81
404.198	88.81
404.422	90.81
404.645	93.81
404.869	89.81
405.093	94.81
405.317	95.81
405.541	87.81
405.765	102.81
405.988	105.81
406.212	151.81
406.436	228.81
406.66	141.81
406.883	96.81
407.107	87.81
407.331	82.81
407.555	99.81
407.778	101.81
408.002	93.81
408.226	82.81
408.449	101.81
408.673	90.81
408.896	86.81
409.12	87.81
409.344	77.81
409.567	85.81
409.791	94.81
410.014	99.81
410.238	92.81
410.461	101.81
410.685	95.81
410.908	79.81
411.132	96.81
411.355	110.81
411.578	105.81
411.802	99.81
412.025	81.81
412.249	84.81
412.472	83.81
412.695	81.81
412.919	93.81
413.142	96.81
413.365	84.81
413.589	80.81
413.812	94.81
414.035	85.81
414.258	90.81
414.482	91.81
414.705	96.81
414.928	98.81
415.151	89.81
415.374	97.81
415.597	100.81
415.821	101.81
416.044	93.81
416.267	93.81
416.49	95.81
416.713	91.81
416.936	93.81
417.159	90.81
417.382	86.81
417.605	81.81
417.828	92.81
418.051	76.81
418.274	81.81
418.497	86.81
418.72	81.81
418.943	83.81
419.166	80.81
419.389	85.81
419.611	84.81
419.834	93.81
420.057	95.81
420.28	90.81
420.503	91.81
420.726	74.81
420.948	85.81
421.171	99.81
421.394	100.81
421.617	77.81
421.839	87.81
422.062	83.81
422.285	82.81
422.507	91.81
422.73	95.81
422.953	87.81
423.175	87.81
423.398	78.81
423.621	96.81
423.843	95.81
424.066	85.81
424.288	88.81
424.511	75.81
424.733	95.81
424.956	104.81
425.178	84.81
425.401	91.81
425.623	95.81
425.846	101.81
426.068	87.81
426.291	97.81
426.513	71.81
426.735	75.81
426.958	90.81
427.18	106.81
427.402	126.81
427.625	151.81
427.847	137.81
428.069	101.81
428.292	86.81
428.514	87.81
428.736	92.81
428.958	97.81
429.181	85.81
429.403	85.81
429.625	94.81
429.847	85.81
430.069	89.81
430.292	99.81
430.514	81.81
430.736	81.81
430.958	88.81
431.18	95.81
431.402	86.81
431.624	102.81
431.846	84.81
432.068	68.81
432.29	87.81
432.512	94.81
432.734	84.81
432.956	89.81
433.178	99.81
433.4	89.81
433.622	87.81
433.844	96.81
434.066	90.81
434.287	97.81
434.509	79.81
434.731	90.81
434.953	98.81
435.175	80.81
435.397	100.81
435.618	78.81
435.84	98.81
436.062	112.81
436.284	95.81
436.505	95.81
436.727	91.81
436.949	102.81
437.17	93.81
437.392	88.81
437.614	91.81
437.835	95.81
438.057	107.81
438.278	98.81
438.5	113.81
438.721	110.81
438.943	105.81
439.165	86.81
439.386	89.81
439.608	89.81
439.829	92.81
440.05	103.81
440.272	117.81
440.493	73.81
440.715	83.81
440.936	86.81
441.158	96.81
441.379	75.81
441.6	100.81
441.822	93.81
442.043	90.81
442.264	96.81
442.486	95.81
442.707	95.81
442.928	102.81
443.149	124.81
443.371	126.81
443.592	120.81
443.813	107.81
444.034	98.81
444.255	91.81
444.476	92.81
444.698	92.81
444.919	90.81
445.14	126.81
445.361	119.81
445.582	94.81
445.803	132.81
446.024	119.81
446.245	138.81
446.466	103.81
446.687	90.81
446.908	87.81
447.129	100.81
447.35	76.81
447.571	85.81
447.792	105.81
448.013	100.81
448.234	109.81
448.455	95.81
448.675	95.81
448.896	113.81
449.117	99.81
449.338	106.81
449.559	120.81
449.779	124.81
450	93.81
450.221	80.81
450.442	92.81
450.662	107.81
450.883	115.81
451.104	117.81
451.324	97.81
451.545	84.81
451.766	83.81
451.986	84.81
452.207	81.81
452.428	98.81
452.648	95.81
452.869	97.81
453.089	123.81
453.31	114.81
453.53	102.81
453.751	94.81
453.971	98.81
454.192	97.81
454.412	92.81
454.633	107.81
454.853	69.81
455.073	75.81
455.294	99.81
455.514	82.81
455.734	94.81
455.955	83.81
456.175	73.81
456.395	86.81
456.616	94.81
456.836	92.81
457.056	86.81
457.276	97.81
457.497	79.81
457.717	92.81
457.937	94.81
458.157	82.81
458.377	99.81
458.598	98.81
458.818	136.81
459.038	135.81
459.258	106.81
459.478	80.81
459.698	89.81
459.918	86.81
460.138	82.81
460.358	84.81
460.578	96.81
460.798	89.81
461.018	86.81
461.238	85.81
461.458	81.81
461.678	87.81
461.898	92.81
462.118	92.81
462.338	83.81
462.558	95.81
462.777	86.81
462.997	86.81
463.217	74.81
463.437	89.81
463.657	94.81
463.876	94.81
464.096	83.81
464.316	97.81
464.536	77.81
464.755	96.81
464.975	110.81
465.195	158.81
465.414	140.81
465.634	98.81
465.854	81.81
466.073	84.81
466.293	73.81
466.512	75.81
466.732	78.81
466.951	83.81
467.171	84.81
467.391	84.81
467.61	100.81
467.829	91.81
468.049	84.81
468.268	84.81
468.488	78.81
468.707	84.81
468.927	78.81
469.146	101.81
469.365	93.81
469.585	86.81
469.804	88.81
470.023	95.81
470.243	83.81
470.462	94.81
470.681	105.81
470.901	74.81
471.12	85.81
471.339	89.81
471.558	89.81
471.777	84.81
471.997	69.81
472.216	92.81
472.435	83.81
472.654	75.81
472.873	89.81
473.092	93.81
473.311	95.81
473.53	87.81
473.749	98.81
473.968	102.81
474.187	90.81
474.406	95.81
474.625	90.81
474.844	93.81
475.063	85.81
475.282	86.81
475.501	82.81
475.72	93.81
475.939	91.81
476.158	84.81
476.377	104.81
476.596	97.81
476.814	85.81
477.033	82.81
477.252	91.81
477.471	82.81
477.69	87.81
477.908	86.81
478.127	83.81
478.346	85.81
478.564	80.81
478.783	103.81
479.002	90.81
479.22	82.81
479.439	86.81
479.658	95.81
479.876	93.81
480.095	83.81
480.313	90.81
480.532	109.81
480.751	99.81
480.969	98.81
481.188	89.81
481.406	111.81
481.624	79.81
481.843	81.81
482.061	81.81
482.28	86.81
482.498	100.81
482.717	94.81
482.935	89.81
483.153	90.81
483.372	91.81
483.59	97.81
483.808	87.81
484.027	96.81
484.245	95.81
484.463	82.81
484.681	78.81
484.9	81.81
485.118	101.81
485.336	91.81
485.554	102.81
485.772	101.81
485.99	107.81
486.209	103.81
486.427	95.81
486.645	93.81
486.863	106.81
487.081	81.81
487.299	87.81
487.517	82.81
487.735	95.81
487.953	106.81
488.171	92.81
488.389	101.81
488.607	109.81
488.825	81.81
489.043	85.81
489.261	98.81
489.479	104.81
489.696	83.81
489.914	87.81
490.132	96.81
490.35	99.81
490.568	90.81
490.786	84.81
491.003	99.81
491.221	87.81
491.439	88.81
491.657	78.81
491.874	93.81
492.092	96.81
492.31	94.81
492.527	90.81
492.745	86.81
492.963	82.81
493.18	80.81
493.398	89.81
493.615	98.81
493.833	98.81
494.05	90.81
494.268	91.81
494.485	89.81
494.703	84.81
494.92	96.81
495.138	84.81
495.355	98.81
495.573	95.81
495.79	84.81
496.008	77.81
496.225	94.81
496.442	78.81
496.66	87.81
496.877	95.81
497.094	90.81
497.312	84.81
497.529	87.81
497.746	99.81
497.963	94.81
498.181	81.81
498.398	89.81
498.615	90.81
498.832	86.81
499.049	79.81
499.267	95.81
499.484	83.81
499.701	88.81
499.918	89.81
500.135	89.81
500.352	88.81
500.569	85.81
500.786	89.81
501.003	80.81
501.22	109.81
501.437	82.81
501.654	101.81
501.871	101.81
502.088	87.81
502.305	95.81
502.522	92.81
502.739	98.81
502.956	82.81
503.172	94.81
503.389	97.81
503.606	101.81
503.823	90.81
504.04	94.81
504.256	82.81
504.473	85.81
504.69	80.81
504.907	100.81
505.123	95.81
505.34	89.81
505.557	100.81
505.773	92.81
505.99	93.81
506.207	81.81
506.423	101.81
506.64	105.81
506.856	94.81
507.073	97.81
507.289	85.81
507.506	98.81
507.722	109.81
507.939	99.81
508.155	93.81
508.372	91.81
508.588	97.81
508.805	90.81
509.021	118.81
509.238	93.81
509.454	98.81
509.67	97.81
509.887	108.81
510.103	139.81
510.319	229.81
510.536	758.81
510.752	2373.81
510.968	655.81
511.184	158.81
511.401	103.81
511.617	108.81
511.833	94.81
512.049	87.81
512.265	90.81
512.481	91.81
512.698	83.81
512.914	90.81
513.13	100.81
513.346	89.81
513.562	110.81
513.778	93.81
513.994	87.81
514.21	104.81
514.426	106.81
514.642	133.81
514.858	117.81
515.074	166.81
515.29	437.81
515.506	1443.81
515.721	540.81
515.937	151.81
516.153	109.81
