Data from Uncirc_2006_H10_HRD10591_00047.txt Node
Date: Wed Jan 03 10:25:04 EST 2024
User: Yrep
Spectrometer: HR+D1059
Trigger mode: 1
Integration Time (sec): 1.000000E-1
Scans to average: 1
Electric dark correction enabled: true
Nonlinearity correction enabled: false
Boxcar width: 0
XAxis mode: Wavelengths
Number of Pixels in Spectrum: 2048
>>>>>Begin Spectral Data<<<<<
223.165	-19.56
223.4	-19.56
223.635	-19.56
223.869	-24.56
224.104	-19.56
224.338	-7.56
224.573	-11.56
224.808	-12.56
225.042	2.44
225.277	-9.56
225.511	-0.56
225.746	-3.56
225.98	9.44
226.215	1.44
226.449	12.44
226.683	27.44
226.918	20.44
227.152	35.44
227.387	41.44
227.621	45.44
227.856	49.44
228.09	40.44
228.324	60.44
228.559	51.44
228.793	50.44
229.027	58.44
229.262	69.44
229.496	82.44
229.73	67.44
229.964	84.44
230.199	84.44
230.433	72.44
230.667	84.44
230.901	86.44
231.136	90.44
231.37	81.44
231.604	81.44
231.838	85.44
232.072	84.44
232.306	80.44
232.541	72.44
232.775	77.44
233.009	89.44
233.243	76.44
233.477	80.44
233.711	81.44
233.945	87.44
234.179	70.44
234.413	92.44
234.647	81.44
234.881	80.44
235.115	82.44
235.349	69.44
235.583	71.44
235.817	95.44
236.051	76.44
236.285	69.44
236.519	73.44
236.753	81.44
236.987	95.44
237.221	85.44
237.455	81.44
237.689	86.44
237.922	70.44
238.156	94.44
238.39	76.44
238.624	69.44
238.858	74.44
239.091	66.44
239.325	62.44
239.559	78.44
239.793	69.44
240.027	92.44
240.26	88.44
240.494	66.44
240.728	83.44
240.961	83.44
241.195	86.44
241.429	76.44
241.662	76.44
241.896	93.44
242.13	84.44
242.363	74.44
242.597	93.44
242.83	63.44
243.064	88.44
243.298	71.44
243.531	86.44
243.765	81.44
243.998	89.44
244.232	84.44
244.465	92.44
244.699	82.44
244.932	65.44
245.166	89.44
245.399	64.44
245.633	81.44
245.866	74.44
246.099	80.44
246.333	65.44
246.566	84.44
246.8	75.44
247.033	75.44
247.266	77.44
247.5	95.44
247.733	88.44
247.966	90.44
248.2	82.44
248.433	71.44
248.666	87.44
248.899	89.44
249.133	87.44
249.366	92.44
249.599	85.44
249.832	84.44
250.066	94.44
250.299	74.44
250.532	80.44
250.765	81.44
250.998	83.44
251.231	88.44
251.465	92.44
251.698	61.44
251.931	89.44
252.164	65.44
252.397	68.44
252.63	63.44
252.863	85.44
253.096	95.44
253.329	87.44
253.562	94.44
253.795	90.44
254.028	74.44
254.261	89.44
254.494	81.44
254.727	86.44
254.96	85.44
255.193	74.44
255.426	82.44
255.659	82.44
255.892	74.44
256.124	66.44
256.357	84.44
256.59	87.44
256.823	87.44
257.056	87.44
257.289	83.44
257.521	79.44
257.754	76.44
257.987	71.44
258.22	81.44
258.452	82.44
258.685	84.44
258.918	86.44
259.151	97.44
259.383	89.44
259.616	90.44
259.849	80.44
260.081	89.44
260.314	62.44
260.547	93.44
260.779	89.44
261.012	87.44
261.244	96.44
261.477	83.44
261.71	81.44
261.942	103.44
262.175	108.44
262.407	91.44
262.64	97.44
262.872	84.44
263.105	86.44
263.337	93.44
263.57	78.44
263.802	84.44
264.035	84.44
264.267	86.44
264.499	82.44
264.732	77.44
264.964	90.44
265.197	87.44
265.429	92.44
265.661	84.44
265.894	70.44
266.126	88.44
266.358	84.44
266.591	98.44
266.823	91.44
267.055	77.44
267.287	79.44
267.52	87.44
267.752	95.44
267.984	98.44
268.216	78.44
268.448	99.44
268.681	73.44
268.913	84.44
269.145	88.44
269.377	81.44
269.609	96.44
269.841	88.44
270.073	90.44
270.306	74.44
270.538	80.44
270.77	79.44
271.002	84.44
271.234	78.44
271.466	82.44
271.698	76.44
271.93	82.44
272.162	97.44
272.394	93.44
272.626	86.44
272.858	104.44
273.09	82.44
273.322	75.44
273.553	68.44
273.785	78.44
274.017	92.44
274.249	95.44
274.481	93.44
274.713	80.44
274.945	90.44
275.176	89.44
275.408	91.44
275.64	95.44
275.872	100.44
276.104	94.44
276.335	92.44
276.567	102.44
276.799	106.44
277.031	84.44
277.262	86.44
277.494	101.44
277.726	104.44
277.957	82.44
278.189	88.44
278.421	74.44
278.652	86.44
278.884	79.44
279.115	98.44
279.347	99.44
279.579	83.44
279.81	76.44
280.042	76.44
280.273	84.44
280.505	77.44
280.736	95.44
280.968	101.44
281.199	82.44
281.431	87.44
281.662	90.44
281.894	91.44
282.125	95.44
282.356	111.44
282.588	128.44
282.819	122.44
283.051	100.44
283.282	91.44
283.513	86.44
283.745	90.44
283.976	73.44
284.207	95.44
284.439	87.44
284.67	94.44
284.901	99.44
285.132	104.44
285.364	86.44
285.595	90.44
285.826	84.44
286.057	85.44
286.288	93.44
286.52	89.44
286.751	89.44
286.982	76.44
287.213	75.44
287.444	71.44
287.675	77.44
287.906	86.44
288.138	83.44
288.369	86.44
288.6	86.44
288.831	90.44
289.062	92.44
289.293	87.44
289.524	83.44
289.755	81.44
289.986	88.44
290.217	92.44
290.448	94.44
290.679	97.44
290.91	77.44
291.141	87.44
291.371	87.44
291.602	88.44
291.833	65.44
292.064	81.44
292.295	83.44
292.526	108.44
292.757	84.44
292.987	89.44
293.218	93.44
293.449	96.44
293.68	86.44
293.91	77.44
294.141	90.44
294.372	88.44
294.603	82.44
294.833	109.44
295.064	83.44
295.295	73.44
295.525	91.44
295.756	102.44
295.987	114.44
296.217	140.44
296.448	112.44
296.679	106.44
296.909	109.44
297.14	80.44
297.37	95.44
297.601	89.44
297.831	98.44
298.062	89.44
298.292	90.44
298.523	87.44
298.753	86.44
298.984	102.44
299.214	89.44
299.445	77.44
299.675	95.44
299.905	99.44
300.136	93.44
300.366	83.44
300.597	99.44
300.827	92.44
301.057	95.44
301.288	93.44
301.518	86.44
301.748	92.44
301.979	100.44
302.209	91.44
302.439	82.44
302.669	86.44
302.9	95.44
303.13	97.44
303.36	102.44
303.59	98.44
303.82	96.44
304.051	84.44
304.281	86.44
304.511	90.44
304.741	93.44
304.971	87.44
305.201	91.44
305.431	94.44
305.661	94.44
305.891	86.44
306.121	109.44
306.352	103.44
306.582	109.44
306.812	89.44
307.042	83.44
307.272	98.44
307.502	98.44
307.731	91.44
307.961	85.44
308.191	97.44
308.421	99.44
308.651	93.44
308.881	90.44
309.111	99.44
309.341	92.44
309.571	97.44
309.8	96.44
310.03	96.44
310.26	95.44
310.49	89.44
310.72	99.44
310.949	105.44
311.179	95.44
311.409	100.44
311.639	98.44
311.868	97.44
312.098	96.44
312.328	89.44
312.557	97.44
312.787	102.44
313.017	97.44
313.246	101.44
313.476	92.44
313.706	110.44
313.935	103.44
314.165	88.44
314.394	99.44
314.624	91.44
314.853	102.44
315.083	100.44
315.312	103.44
315.542	102.44
315.771	87.44
316.001	86.44
316.23	86.44
316.46	96.44
316.689	87.44
316.919	107.44
317.148	101.44
317.377	85.44
317.607	98.44
317.836	92.44
318.065	87.44
318.295	103.44
318.524	97.44
318.753	91.44
318.983	87.44
319.212	100.44
319.441	102.44
319.67	114.44
319.9	97.44
320.129	103.44
320.358	93.44
320.587	114.44
320.816	112.44
321.046	93.44
321.275	102.44
321.504	87.44
321.733	95.44
321.962	99.44
322.191	94.44
322.42	102.44
322.649	114.44
322.878	110.44
323.108	110.44
323.337	126.44
323.566	131.44
323.795	153.44
324.024	193.44
324.253	401.44
324.482	843.44
324.71	1641.44
324.939	2176.44
325.168	804.44
325.397	242.44
325.626	147.44
325.855	142.44
326.084	112.44
326.313	138.44
326.542	152.44
326.77	238.44
326.999	468.44
327.228	929.44
327.457	1675.44
327.686	1328.44
327.914	361.44
328.143	193.44
328.372	139.44
328.6	136.44
328.829	122.44
329.058	103.44
329.287	111.44
329.515	111.44
329.744	97.44
329.972	115.44
330.201	107.44
330.43	112.44
330.658	119.44
330.887	155.44
331.115	116.44
331.344	110.44
331.572	102.44
331.801	106.44
332.03	84.44
332.258	108.44
332.486	94.44
332.715	77.44
332.943	93.44
333.172	93.44
333.4	81.44
333.629	95.44
333.857	100.44
334.085	90.44
334.314	109.44
334.542	101.44
334.771	87.44
334.999	103.44
335.227	110.44
335.455	68.44
335.684	101.44
335.912	106.44
336.14	101.44
336.369	106.44
336.597	103.44
336.825	111.44
337.053	82.44
337.281	96.44
337.51	106.44
337.738	95.44
337.966	100.44
338.194	104.44
338.422	90.44
338.65	88.44
338.878	84.44
339.106	93.44
339.334	96.44
339.562	86.44
339.79	94.44
340.018	84.44
340.246	79.44
340.474	82.44
340.702	87.44
340.93	100.44
341.158	81.44
341.386	83.44
341.614	101.44
341.842	112.44
342.07	86.44
342.298	95.44
342.526	92.44
342.754	87.44
342.981	94.44
343.209	102.44
343.437	93.44
343.665	96.44
343.893	85.44
344.12	91.44
344.348	81.44
344.576	108.44
344.804	111.44
345.031	86.44
345.259	93.44
345.487	102.44
345.714	99.44
345.942	94.44
346.17	96.44
346.397	89.44
346.625	92.44
346.853	107.44
347.08	105.44
347.308	103.44
347.535	105.44
347.763	98.44
347.99	114.44
348.218	110.44
348.445	115.44
348.673	95.44
348.9	90.44
349.128	90.44
349.355	91.44
349.583	103.44
349.81	88.44
350.037	95.44
350.265	102.44
350.492	90.44
350.72	98.44
350.947	94.44
351.174	110.44
351.402	120.44
351.629	103.44
351.856	98.44
352.083	93.44
352.311	86.44
352.538	100.44
352.765	111.44
352.992	106.44
353.22	102.44
353.447	104.44
353.674	95.44
353.901	92.44
354.128	102.44
354.355	93.44
354.583	97.44
354.81	92.44
355.037	92.44
355.264	94.44
355.491	94.44
355.718	93.44
355.945	88.44
356.172	104.44
356.399	103.44
356.626	101.44
356.853	82.44
357.08	94.44
357.307	98.44
357.534	90.44
357.761	91.44
357.988	100.44
358.215	89.44
358.441	78.44
358.668	84.44
358.895	89.44
359.122	90.44
359.349	92.44
359.576	89.44
359.802	98.44
360.029	87.44
360.256	109.44
360.483	110.44
360.709	87.44
360.936	102.44
361.163	77.44
361.39	93.44
361.616	93.44
361.843	98.44
362.07	100.44
362.296	93.44
362.523	94.44
362.749	99.44
362.976	82.44
363.203	103.44
363.429	86.44
363.656	87.44
363.882	101.44
364.109	99.44
364.335	103.44
364.562	101.44
364.788	78.44
365.015	93.44
365.241	104.44
365.468	112.44
365.694	89.44
365.92	97.44
366.147	85.44
366.373	94.44
366.599	81.44
366.826	85.44
367.052	83.44
367.278	90.44
367.505	82.44
367.731	83.44
367.957	99.44
368.184	86.44
368.41	99.44
368.636	111.44
368.862	110.44
369.089	102.44
369.315	87.44
369.541	93.44
369.767	98.44
369.993	97.44
370.219	90.44
370.445	96.44
370.672	94.44
370.898	82.44
371.124	82.44
371.35	92.44
371.576	88.44
371.802	99.44
372.028	91.44
372.254	85.44
372.48	91.44
372.706	101.44
372.932	96.44
373.158	91.44
373.384	103.44
373.61	81.44
373.835	91.44
374.061	95.44
374.287	85.44
374.513	101.44
374.739	96.44
374.965	92.44
375.191	83.44
375.416	70.44
375.642	91.44
375.868	92.44
376.094	98.44
376.319	73.44
376.545	92.44
376.771	85.44
376.997	85.44
377.222	96.44
377.448	85.44
377.674	80.44
377.899	78.44
378.125	92.44
378.35	89.44
378.576	92.44
378.802	98.44
379.027	94.44
379.253	98.44
379.478	95.44
379.704	102.44
379.929	88.44
380.155	98.44
380.38	96.44
380.606	86.44
380.831	89.44
381.057	89.44
381.282	93.44
381.507	102.44
381.733	105.44
381.958	86.44
382.184	98.44
382.409	95.44
382.634	104.44
382.86	110.44
383.085	85.44
383.31	101.44
383.535	106.44
383.761	101.44
383.986	93.44
384.211	92.44
384.436	106.44
384.662	102.44
384.887	107.44
385.112	108.44
385.337	124.44
385.562	84.44
385.787	100.44
386.013	101.44
386.238	112.44
386.463	111.44
386.688	100.44
386.913	93.44
387.138	99.44
387.363	107.44
387.588	97.44
387.813	102.44
388.038	99.44
388.263	111.44
388.488	109.44
388.713	87.44
388.938	107.44
389.163	106.44
389.387	116.44
389.612	91.44
389.837	94.44
390.062	93.44
390.287	87.44
390.512	77.44
390.736	95.44
390.961	74.44
391.186	96.44
391.411	107.44
391.636	90.44
391.86	93.44
392.085	93.44
392.31	81.44
392.534	93.44
392.759	83.44
392.984	86.44
393.208	96.44
393.433	100.44
393.658	96.44
393.882	94.44
394.107	85.44
394.331	87.44
394.556	79.44
394.78	99.44
395.005	86.44
395.229	91.44
395.454	92.44
395.678	85.44
395.903	79.44
396.127	90.44
396.352	85.44
396.576	68.44
396.801	99.44
397.025	98.44
397.249	92.44
397.474	78.44
397.698	84.44
397.922	89.44
398.147	79.44
398.371	78.44
398.595	87.44
398.82	95.44
399.044	103.44
399.268	77.44
399.492	89.44
399.717	72.44
399.941	89.44
400.165	78.44
400.389	87.44
400.613	94.44
400.837	92.44
401.062	85.44
401.286	85.44
401.51	85.44
401.734	79.44
401.958	95.44
402.182	121.44
402.406	146.44
402.63	112.44
402.854	102.44
403.078	102.44
403.302	91.44
403.526	80.44
403.75	73.44
403.974	76.44
404.198	90.44
404.422	89.44
404.645	94.44
404.869	83.44
405.093	113.44
405.317	104.44
405.541	101.44
405.765	91.44
405.988	109.44
406.212	164.44
406.436	218.44
406.66	133.44
406.883	95.44
407.107	87.44
407.331	78.44
407.555	78.44
407.778	85.44
408.002	94.44
408.226	90.44
408.449	76.44
408.673	93.44
408.896	82.44
409.12	107.44
409.344	90.44
409.567	78.44
409.791	94.44
410.014	102.44
410.238	87.44
410.461	84.44
410.685	91.44
410.908	93.44
411.132	113.44
411.355	88.44
411.578	85.44
411.802	92.44
412.025	89.44
412.249	97.44
412.472	92.44
412.695	87.44
412.919	81.44
413.142	87.44
413.365	87.44
413.589	84.44
413.812	100.44
414.035	92.44
414.258	89.44
414.482	94.44
414.705	87.44
414.928	84.44
415.151	88.44
415.374	84.44
415.597	91.44
415.821	91.44
416.044	92.44
416.267	88.44
416.49	90.44
416.713	88.44
416.936	94.44
417.159	85.44
417.382	96.44
417.605	84.44
417.828	90.44
418.051	91.44
418.274	98.44
418.497	81.44
418.72	84.44
418.943	84.44
419.166	65.44
419.389	96.44
419.611	89.44
419.834	84.44
420.057	83.44
420.28	87.44
420.503	85.44
420.726	80.44
420.948	86.44
421.171	76.44
421.394	106.44
421.617	89.44
421.839	103.44
422.062	94.44
422.285	91.44
422.507	90.44
422.73	102.44
422.953	88.44
423.175	87.44
423.398	91.44
423.621	85.44
423.843	83.44
424.066	103.44
424.288	97.44
424.511	83.44
424.733	99.44
424.956	110.44
425.178	93.44
425.401	75.44
425.623	81.44
425.846	95.44
426.068	77.44
426.291	95.44
426.513	81.44
426.735	89.44
426.958	91.44
427.18	93.44
427.402	121.44
427.625	159.44
427.847	106.44
428.069	95.44
428.292	85.44
428.514	85.44
428.736	94.44
428.958	85.44
429.181	76.44
429.403	74.44
429.625	89.44
429.847	86.44
430.069	85.44
430.292	95.44
430.514	90.44
430.736	89.44
430.958	93.44
431.18	90.44
431.402	84.44
431.624	100.44
431.846	89.44
432.068	94.44
432.29	89.44
432.512	75.44
432.734	79.44
432.956	85.44
433.178	97.44
433.4	115.44
433.622	82.44
433.844	90.44
434.066	84.44
434.287	96.44
434.509	95.44
434.731	89.44
434.953	77.44
435.175	89.44
435.397	81.44
435.618	88.44
435.84	108.44
436.062	103.44
436.284	108.44
436.505	100.44
436.727	82.44
436.949	100.44
437.17	92.44
437.392	101.44
437.614	99.44
437.835	121.44
438.057	117.44
438.278	90.44
438.5	106.44
438.721	94.44
438.943	87.44
439.165	79.44
439.386	91.44
439.608	100.44
439.829	109.44
440.05	113.44
440.272	123.44
440.493	105.44
440.715	91.44
440.936	76.44
441.158	84.44
441.379	96.44
441.6	81.44
441.822	90.44
442.043	96.44
442.264	93.44
442.486	102.44
442.707	95.44
442.928	105.44
443.149	127.44
443.371	119.44
443.592	108.44
443.813	114.44
444.034	102.44
444.255	84.44
444.476	82.44
444.698	99.44
444.919	92.44
445.14	128.44
445.361	121.44
445.582	121.44
445.803	148.44
446.024	128.44
446.245	128.44
446.466	106.44
446.687	83.44
446.908	92.44
447.129	87.44
447.35	94.44
447.571	80.44
447.792	86.44
448.013	95.44
448.234	98.44
448.455	95.44
448.675	109.44
448.896	113.44
449.117	82.44
449.338	105.44
449.559	110.44
449.779	130.44
450	95.44
450.221	85.44
450.442	83.44
450.662	93.44
450.883	96.44
451.104	95.44
451.324	83.44
451.545	83.44
451.766	89.44
451.986	89.44
452.207	97.44
452.428	74.44
452.648	85.44
452.869	94.44
453.089	101.44
453.31	109.44
453.53	86.44
453.751	89.44
453.971	113.44
454.192	120.44
454.412	86.44
454.633	82.44
454.853	84.44
455.073	85.44
455.294	86.44
455.514	82.44
455.734	98.44
455.955	93.44
456.175	69.44
456.395	94.44
456.616	102.44
456.836	83.44
457.056	79.44
457.276	84.44
457.497	90.44
457.717	83.44
457.937	106.44
458.157	95.44
458.377	94.44
458.598	102.44
458.818	148.44
459.038	157.44
459.258	101.44
459.478	92.44
459.698	97.44
459.918	85.44
460.138	89.44
460.358	86.44
460.578	95.44
460.798	94.44
461.018	92.44
461.238	82.44
461.458	97.44
461.678	81.44
461.898	99.44
462.118	86.44
462.338	84.44
462.558	95.44
462.777	75.44
462.997	98.44
463.217	80.44
463.437	85.44
463.657	83.44
463.876	77.44
464.096	96.44
464.316	88.44
464.536	102.44
464.755	78.44
464.975	112.44
465.195	158.44
465.414	164.44
465.634	95.44
465.854	97.44
466.073	79.44
466.293	87.44
466.512	81.44
466.732	81.44
466.951	82.44
467.171	94.44
467.391	94.44
467.61	110.44
467.829	100.44
468.049	77.44
468.268	74.44
468.488	89.44
468.707	92.44
468.927	76.44
469.146	78.44
469.365	93.44
469.585	89.44
469.804	108.44
470.023	94.44
470.243	99.44
470.462	96.44
470.681	114.44
470.901	88.44
471.12	81.44
471.339	77.44
471.558	88.44
471.777	80.44
471.997	89.44
472.216	98.44
472.435	90.44
472.654	79.44
472.873	105.44
473.092	81.44
473.311	83.44
473.53	98.44
473.749	79.44
473.968	91.44
474.187	96.44
474.406	90.44
474.625	78.44
474.844	93.44
475.063	93.44
475.282	83.44
475.501	79.44
475.72	86.44
475.939	93.44
476.158	93.44
476.377	87.44
476.596	85.44
476.814	92.44
477.033	98.44
477.252	76.44
477.471	83.44
477.69	91.44
477.908	76.44
478.127	76.44
478.346	78.44
478.564	85.44
478.783	90.44
479.002	88.44
479.22	105.44
479.439	91.44
479.658	92.44
479.876	83.44
480.095	91.44
480.313	99.44
480.532	84.44
480.751	81.44
480.969	98.44
481.188	97.44
481.406	96.44
481.624	78.44
481.843	82.44
482.061	67.44
482.28	86.44
482.498	78.44
482.717	92.44
482.935	88.44
483.153	89.44
483.372	86.44
483.59	93.44
483.808	91.44
484.027	92.44
484.245	99.44
484.463	74.44
484.681	86.44
484.9	89.44
485.118	77.44
485.336	92.44
485.554	104.44
485.772	98.44
485.99	118.44
486.209	101.44
486.427	97.44
486.645	113.44
486.863	123.44
487.081	107.44
487.299	102.44
487.517	98.44
487.735	95.44
487.953	84.44
488.171	88.44
488.389	92.44
488.607	91.44
488.825	100.44
489.043	80.44
489.261	91.44
489.479	94.44
489.696	97.44
489.914	94.44
490.132	98.44
490.35	83.44
490.568	77.44
490.786	97.44
491.003	95.44
491.221	85.44
491.439	74.44
491.657	85.44
491.874	95.44
492.092	86.44
492.31	78.44
492.527	93.44
492.745	107.44
492.963	93.44
493.18	83.44
493.398	96.44
493.615	102.44
493.833	100.44
494.05	82.44
494.268	90.44
494.485	96.44
494.703	87.44
494.92	91.44
495.138	104.44
495.355	99.44
495.573	76.44
495.79	86.44
496.008	85.44
496.225	90.44
496.442	105.44
496.66	91.44
496.877	103.44
497.094	89.44
497.312	87.44
497.529	101.44
497.746	91.44
497.963	78.44
498.181	85.44
498.398	98.44
498.615	107.44
498.832	92.44
499.049	78.44
499.267	90.44
499.484	102.44
499.701	88.44
499.918	104.44
500.135	84.44
500.352	95.44
500.569	95.44
500.786	81.44
501.003	86.44
501.22	92.44
501.437	84.44
501.654	83.44
501.871	93.44
502.088	101.44
502.305	81.44
502.522	98.44
502.739	79.44
502.956	96.44
503.172	88.44
503.389	86.44
503.606	92.44
503.823	93.44
504.04	92.44
504.256	90.44
504.473	91.44
504.69	97.44
504.907	86.44
505.123	88.44
505.34	97.44
505.557	103.44
505.773	108.44
505.99	91.44
506.207	79.44
506.423	87.44
506.64	99.44
506.856	90.44
507.073	80.44
507.289	109.44
507.506	87.44
507.722	111.44
507.939	108.44
508.155	88.44
508.372	86.44
508.588	73.44
508.805	106.44
509.021	103.44
509.238	89.44
509.454	108.44
509.67	102.44
509.887	115.44
510.103	118.44
510.319	229.44
510.536	769.44
510.752	2456.44
510.968	683.44
511.184	156.44
511.401	98.44
511.617	102.44
511.833	96.44
512.049	82.44
512.265	86.44
512.481	83.44
512.698	96.44
512.914	102.44
513.13	95.44
513.346	92.44
513.562	107.44
513.778	102.44
513.994	92.44
514.21	98.44
514.426	107.44
514.642	127.44
514.858	113.44
515.074	174.44
515.29	462.44
515.506	1510.44
515.721	542.44
