Data from Uncirc_2006_H10_HRD10591_00030.txt Node
Date: Wed Jan 03 10:25:01 EST 2024
User: Yrep
Spectrometer: HR+D1059
Trigger mode: 1
Integration Time (sec): 1.000000E-1
Scans to average: 1
Electric dark correction enabled: true
Nonlinearity correction enabled: false
Boxcar width: 0
XAxis mode: Wavelengths
Number of Pixels in Spectrum: 2048
>>>>>Begin Spectral Data<<<<<
223.165	-13.06
223.4	-13.06
223.635	-13.06
223.869	-36.06
224.104	-22.06
224.338	-24.06
224.573	-25.06
224.808	-8.06
225.042	5.94
225.277	-5.06
225.511	2.94
225.746	-2.06
225.98	6.94
226.215	5.94
226.449	21.94
226.683	17.94
226.918	31.94
227.152	41.94
227.387	33.94
227.621	44.94
227.856	36.94
228.09	53.94
228.324	54.94
228.559	52.94
228.793	68.94
229.027	65.94
229.262	78.94
229.496	67.94
229.73	78.94
229.964	82.94
230.199	68.94
230.433	68.94
230.667	73.94
230.901	78.94
231.136	91.94
231.37	78.94
231.604	76.94
231.838	84.94
232.072	83.94
232.306	83.94
232.541	96.94
232.775	88.94
233.009	86.94
233.243	83.94
233.477	78.94
233.711	77.94
233.945	83.94
234.179	76.94
234.413	98.94
234.647	70.94
234.881	68.94
235.115	85.94
235.349	86.94
235.583	76.94
235.817	87.94
236.051	85.94
236.285	91.94
236.519	70.94
236.753	76.94
236.987	69.94
237.221	68.94
237.455	86.94
237.689	78.94
237.922	85.94
238.156	79.94
238.39	62.94
238.624	65.94
238.858	67.94
239.091	75.94
239.325	76.94
239.559	68.94
239.793	78.94
240.027	77.94
240.26	84.94
240.494	74.94
240.728	73.94
240.961	105.94
241.195	83.94
241.429	59.94
241.662	76.94
241.896	73.94
242.13	77.94
242.363	82.94
242.597	87.94
242.83	75.94
243.064	83.94
243.298	83.94
243.531	73.94
243.765	73.94
243.998	78.94
244.232	78.94
244.465	80.94
244.699	89.94
244.932	84.94
245.166	77.94
245.399	80.94
245.633	78.94
245.866	83.94
246.099	72.94
246.333	85.94
246.566	86.94
246.8	71.94
247.033	88.94
247.266	80.94
247.5	71.94
247.733	81.94
247.966	67.94
248.2	81.94
248.433	81.94
248.666	80.94
248.899	82.94
249.133	87.94
249.366	105.94
249.599	93.94
249.832	73.94
250.066	74.94
250.299	87.94
250.532	76.94
250.765	76.94
250.998	79.94
251.231	84.94
251.465	88.94
251.698	76.94
251.931	71.94
252.164	96.94
252.397	86.94
252.63	75.94
252.863	66.94
253.096	80.94
253.329	75.94
253.562	70.94
253.795	81.94
254.028	86.94
254.261	77.94
254.494	85.94
254.727	92.94
254.96	75.94
255.193	78.94
255.426	91.94
255.659	73.94
255.892	83.94
256.124	80.94
256.357	76.94
256.59	92.94
256.823	86.94
257.056	73.94
257.289	75.94
257.521	85.94
257.754	74.94
257.987	92.94
258.22	86.94
258.452	90.94
258.685	70.94
258.918	83.94
259.151	84.94
259.383	72.94
259.616	73.94
259.849	79.94
260.081	70.94
260.314	90.94
260.547	92.94
260.779	72.94
261.012	79.94
261.244	78.94
261.477	99.94
261.71	96.94
261.942	99.94
262.175	125.94
262.407	93.94
262.64	80.94
262.872	90.94
263.105	92.94
263.337	89.94
263.57	75.94
263.802	80.94
264.035	83.94
264.267	81.94
264.499	77.94
264.732	78.94
264.964	77.94
265.197	80.94
265.429	75.94
265.661	79.94
265.894	86.94
266.126	73.94
266.358	86.94
266.591	90.94
266.823	80.94
267.055	68.94
267.287	88.94
267.52	78.94
267.752	85.94
267.984	87.94
268.216	76.94
268.448	84.94
268.681	81.94
268.913	74.94
269.145	81.94
269.377	78.94
269.609	67.94
269.841	92.94
270.073	75.94
270.306	76.94
270.538	80.94
270.77	85.94
271.002	87.94
271.234	92.94
271.466	84.94
271.698	90.94
271.93	81.94
272.162	78.94
272.394	92.94
272.626	84.94
272.858	76.94
273.09	84.94
273.322	86.94
273.553	86.94
273.785	98.94
274.017	79.94
274.249	78.94
274.481	77.94
274.713	89.94
274.945	92.94
275.176	76.94
275.408	93.94
275.64	75.94
275.872	77.94
276.104	87.94
276.335	91.94
276.567	97.94
276.799	103.94
277.031	98.94
277.262	90.94
277.494	88.94
277.726	86.94
277.957	85.94
278.189	88.94
278.421	79.94
278.652	89.94
278.884	82.94
279.115	81.94
279.347	84.94
279.579	93.94
279.81	90.94
280.042	95.94
280.273	88.94
280.505	90.94
280.736	84.94
280.968	73.94
281.199	85.94
281.431	92.94
281.662	91.94
281.894	81.94
282.125	84.94
282.356	125.94
282.588	149.94
282.819	127.94
283.051	85.94
283.282	77.94
283.513	73.94
283.745	95.94
283.976	81.94
284.207	93.94
284.439	94.94
284.67	79.94
284.901	73.94
285.132	92.94
285.364	73.94
285.595	88.94
285.826	84.94
286.057	85.94
286.288	92.94
286.52	85.94
286.751	87.94
286.982	78.94
287.213	85.94
287.444	89.94
287.675	83.94
287.906	105.94
288.138	69.94
288.369	88.94
288.6	91.94
288.831	86.94
289.062	84.94
289.293	85.94
289.524	80.94
289.755	87.94
289.986	86.94
290.217	87.94
290.448	74.94
290.679	95.94
290.91	82.94
291.141	87.94
291.371	88.94
291.602	86.94
291.833	92.94
292.064	89.94
292.295	77.94
292.526	74.94
292.757	90.94
292.987	87.94
293.218	81.94
293.449	70.94
293.68	89.94
293.91	88.94
294.141	87.94
294.372	81.94
294.603	81.94
294.833	84.94
295.064	88.94
295.295	90.94
295.525	87.94
295.756	102.94
295.987	116.94
296.217	135.94
296.448	113.94
296.679	89.94
296.909	87.94
297.14	97.94
297.37	83.94
297.601	93.94
297.831	94.94
298.062	91.94
298.292	87.94
298.523	95.94
298.753	90.94
298.984	89.94
299.214	82.94
299.445	99.94
299.675	89.94
299.905	98.94
300.136	90.94
300.366	69.94
300.597	86.94
300.827	92.94
301.057	100.94
301.288	97.94
301.518	99.94
301.748	87.94
301.979	88.94
302.209	72.94
302.439	90.94
302.669	90.94
302.9	101.94
303.13	84.94
303.36	105.94
303.59	100.94
303.82	107.94
304.051	86.94
304.281	82.94
304.511	95.94
304.741	93.94
304.971	93.94
305.201	80.94
305.431	86.94
305.661	93.94
305.891	98.94
306.121	99.94
306.352	101.94
306.582	98.94
306.812	98.94
307.042	86.94
307.272	83.94
307.502	92.94
307.731	94.94
307.961	100.94
308.191	92.94
308.421	84.94
308.651	92.94
308.881	83.94
309.111	102.94
309.341	89.94
309.571	107.94
309.8	100.94
310.03	93.94
310.26	86.94
310.49	99.94
310.72	101.94
310.949	96.94
311.179	106.94
311.409	105.94
311.639	91.94
311.868	87.94
312.098	107.94
312.328	86.94
312.557	97.94
312.787	101.94
313.017	96.94
313.246	78.94
313.476	89.94
313.706	91.94
313.935	96.94
314.165	105.94
314.394	90.94
314.624	103.94
314.853	110.94
315.083	94.94
315.312	99.94
315.542	83.94
315.771	85.94
316.001	80.94
316.23	94.94
316.46	95.94
316.689	93.94
316.919	87.94
317.148	91.94
317.377	99.94
317.607	102.94
317.836	99.94
318.065	90.94
318.295	79.94
318.524	94.94
318.753	112.94
318.983	100.94
319.212	93.94
319.441	116.94
319.67	123.94
319.9	103.94
320.129	101.94
320.358	102.94
320.587	86.94
320.816	105.94
321.046	106.94
321.275	92.94
321.504	92.94
321.733	94.94
321.962	105.94
322.191	89.94
322.42	100.94
322.649	109.94
322.878	111.94
323.108	106.94
323.337	135.94
323.566	117.94
323.795	157.94
324.024	207.94
324.253	408.94
324.482	833.94
324.71	1711.94
324.939	2233.94
325.168	823.94
325.397	251.94
325.626	145.94
325.855	114.94
326.084	139.94
326.313	131.94
326.542	154.94
326.77	232.94
326.999	465.94
327.228	954.94
327.457	1755.94
327.686	1413.94
327.914	383.94
328.143	184.94
328.372	146.94
328.6	130.94
328.829	128.94
329.058	134.94
329.287	123.94
329.515	130.94
329.744	94.94
329.972	91.94
330.201	101.94
330.43	101.94
330.658	103.94
330.887	146.94
331.115	127.94
331.344	103.94
331.572	98.94
331.801	98.94
332.03	89.94
332.258	91.94
332.486	92.94
332.715	85.94
332.943	81.94
333.172	83.94
333.4	101.94
333.629	97.94
333.857	102.94
334.085	97.94
334.314	102.94
334.542	107.94
334.771	87.94
334.999	103.94
335.227	107.94
335.455	93.94
335.684	99.94
335.912	100.94
336.14	90.94
336.369	84.94
336.597	87.94
336.825	87.94
337.053	99.94
337.281	90.94
337.51	96.94
337.738	92.94
337.966	81.94
338.194	96.94
338.422	105.94
338.65	101.94
338.878	78.94
339.106	93.94
339.334	87.94
339.562	97.94
339.79	83.94
340.018	90.94
340.246	89.94
340.474	96.94
340.702	96.94
340.93	100.94
341.158	95.94
341.386	95.94
341.614	105.94
341.842	84.94
342.07	90.94
342.298	101.94
342.526	78.94
342.754	95.94
342.981	90.94
343.209	84.94
343.437	92.94
343.665	98.94
343.893	81.94
344.12	94.94
344.348	100.94
344.576	76.94
344.804	91.94
345.031	102.94
345.259	106.94
345.487	95.94
345.714	84.94
345.942	96.94
346.17	101.94
346.397	78.94
346.625	86.94
346.853	88.94
347.08	91.94
347.308	98.94
347.535	94.94
347.763	84.94
347.99	82.94
348.218	98.94
348.445	101.94
348.673	93.94
348.9	89.94
349.128	98.94
349.355	91.94
349.583	86.94
349.81	78.94
350.037	92.94
350.265	91.94
350.492	91.94
350.72	91.94
350.947	106.94
351.174	101.94
351.402	107.94
351.629	110.94
351.856	109.94
352.083	96.94
352.311	100.94
352.538	109.94
352.765	115.94
352.992	102.94
353.22	113.94
353.447	94.94
353.674	88.94
353.901	86.94
354.128	90.94
354.355	87.94
354.583	110.94
354.81	108.94
355.037	98.94
355.264	88.94
355.491	100.94
355.718	105.94
355.945	115.94
356.172	90.94
356.399	102.94
356.626	102.94
356.853	95.94
357.08	94.94
357.307	88.94
357.534	103.94
357.761	93.94
357.988	89.94
358.215	97.94
358.441	101.94
358.668	93.94
358.895	95.94
359.122	90.94
359.349	82.94
359.576	96.94
359.802	109.94
360.029	113.94
360.256	111.94
360.483	106.94
360.709	88.94
360.936	94.94
361.163	86.94
361.39	87.94
361.616	100.94
361.843	105.94
362.07	81.94
362.296	90.94
362.523	88.94
362.749	96.94
362.976	97.94
363.203	98.94
363.429	84.94
363.656	84.94
363.882	83.94
364.109	94.94
364.335	97.94
364.562	86.94
364.788	89.94
365.015	108.94
365.241	95.94
365.468	111.94
365.694	87.94
365.92	98.94
366.147	89.94
366.373	89.94
366.599	94.94
366.826	92.94
367.052	85.94
367.278	93.94
367.505	81.94
367.731	92.94
367.957	89.94
368.184	90.94
368.41	99.94
368.636	107.94
368.862	116.94
369.089	101.94
369.315	91.94
369.541	89.94
369.767	80.94
369.993	95.94
370.219	80.94
370.445	79.94
370.672	81.94
370.898	82.94
371.124	77.94
371.35	91.94
371.576	97.94
371.802	90.94
372.028	79.94
372.254	87.94
372.48	66.94
372.706	81.94
372.932	96.94
373.158	90.94
373.384	93.94
373.61	85.94
373.835	76.94
374.061	93.94
374.287	96.94
374.513	79.94
374.739	99.94
374.965	86.94
375.191	91.94
375.416	91.94
375.642	91.94
375.868	91.94
376.094	78.94
376.319	92.94
376.545	81.94
376.771	89.94
376.997	99.94
377.222	99.94
377.448	85.94
377.674	88.94
377.899	89.94
378.125	75.94
378.35	93.94
378.576	78.94
378.802	88.94
379.027	86.94
379.253	89.94
379.478	102.94
379.704	90.94
379.929	94.94
380.155	86.94
380.38	102.94
380.606	89.94
380.831	103.94
381.057	89.94
381.282	90.94
381.507	105.94
381.733	102.94
381.958	101.94
382.184	92.94
382.409	105.94
382.634	95.94
382.86	90.94
383.085	106.94
383.31	93.94
383.535	91.94
383.761	126.94
383.986	122.94
384.211	99.94
384.436	105.94
384.662	106.94
384.887	94.94
385.112	118.94
385.337	97.94
385.562	97.94
385.787	122.94
386.013	110.94
386.238	131.94
386.463	118.94
386.688	102.94
386.913	86.94
387.138	94.94
387.363	105.94
387.588	103.94
387.813	105.94
388.038	118.94
388.263	112.94
388.488	114.94
388.713	104.94
388.938	89.94
389.163	82.94
389.387	105.94
389.612	91.94
389.837	93.94
390.062	85.94
390.287	92.94
390.512	91.94
390.736	93.94
390.961	77.94
391.186	86.94
391.411	91.94
391.636	98.94
391.86	94.94
392.085	75.94
392.31	91.94
392.534	88.94
392.759	81.94
392.984	87.94
393.208	94.94
393.433	97.94
393.658	96.94
393.882	90.94
394.107	86.94
394.331	92.94
394.556	100.94
394.78	102.94
395.005	70.94
395.229	83.94
395.454	92.94
395.678	79.94
395.903	81.94
396.127	78.94
396.352	81.94
396.576	71.94
396.801	81.94
397.025	87.94
397.249	90.94
397.474	91.94
397.698	103.94
397.922	94.94
398.147	87.94
398.371	92.94
398.595	70.94
398.82	83.94
399.044	78.94
399.268	78.94
399.492	89.94
399.717	102.94
399.941	90.94
400.165	111.94
400.389	103.94
400.613	77.94
400.837	103.94
401.062	89.94
401.286	88.94
401.51	87.94
401.734	105.94
401.958	122.94
402.182	110.94
402.406	145.94
402.63	114.94
402.854	97.94
403.078	83.94
403.302	94.94
403.526	76.94
403.75	91.94
403.974	91.94
404.198	82.94
404.422	87.94
404.645	95.94
404.869	91.94
405.093	97.94
405.317	85.94
405.541	84.94
405.765	107.94
405.988	117.94
406.212	159.94
406.436	203.94
406.66	143.94
406.883	95.94
407.107	108.94
407.331	100.94
407.555	91.94
407.778	95.94
408.002	98.94
408.226	88.94
408.449	92.94
408.673	86.94
408.896	87.94
409.12	89.94
409.344	99.94
409.567	86.94
409.791	98.94
410.014	99.94
410.238	92.94
410.461	90.94
410.685	97.94
410.908	98.94
411.132	112.94
411.355	84.94
411.578	82.94
411.802	95.94
412.025	81.94
412.249	95.94
412.472	91.94
412.695	72.94
412.919	92.94
413.142	88.94
413.365	86.94
413.589	98.94
413.812	89.94
414.035	101.94
414.258	97.94
414.482	92.94
414.705	94.94
414.928	96.94
415.151	100.94
415.374	107.94
415.597	76.94
415.821	74.94
416.044	90.94
416.267	95.94
416.49	93.94
416.713	91.94
416.936	88.94
417.159	100.94
417.382	83.94
417.605	91.94
417.828	71.94
418.051	89.94
418.274	112.94
418.497	95.94
418.72	91.94
418.943	97.94
419.166	93.94
419.389	95.94
419.611	89.94
419.834	76.94
420.057	92.94
420.28	96.94
420.503	81.94
420.726	91.94
420.948	88.94
421.171	92.94
421.394	102.94
421.617	87.94
421.839	94.94
422.062	84.94
422.285	97.94
422.507	99.94
422.73	91.94
422.953	86.94
423.175	95.94
423.398	85.94
423.621	90.94
423.843	95.94
424.066	87.94
424.288	96.94
424.511	87.94
424.733	87.94
424.956	101.94
425.178	118.94
425.401	95.94
425.623	112.94
425.846	87.94
426.068	93.94
426.291	83.94
426.513	90.94
426.735	91.94
426.958	93.94
427.18	111.94
427.402	132.94
427.625	157.94
427.847	126.94
428.069	94.94
428.292	105.94
428.514	70.94
428.736	90.94
428.958	82.94
429.181	81.94
429.403	88.94
429.625	93.94
429.847	83.94
430.069	84.94
430.292	92.94
430.514	91.94
430.736	81.94
430.958	96.94
431.18	84.94
431.402	95.94
431.624	92.94
431.846	80.94
432.068	85.94
432.29	94.94
432.512	92.94
432.734	89.94
432.956	81.94
433.178	101.94
433.4	85.94
433.622	94.94
433.844	73.94
434.066	91.94
434.287	100.94
434.509	90.94
434.731	97.94
434.953	103.94
435.175	79.94
435.397	92.94
435.618	95.94
435.84	102.94
436.062	115.94
436.284	117.94
436.505	100.94
436.727	94.94
436.949	92.94
437.17	90.94
437.392	79.94
437.614	86.94
437.835	113.94
438.057	98.94
438.278	103.94
438.5	109.94
438.721	111.94
438.943	99.94
439.165	83.94
439.386	104.94
439.608	98.94
439.829	95.94
440.05	111.94
440.272	134.94
440.493	113.94
440.715	86.94
440.936	87.94
441.158	73.94
441.379	99.94
441.6	97.94
441.822	89.94
442.043	99.94
442.264	97.94
442.486	86.94
442.707	87.94
442.928	108.94
443.149	107.94
443.371	126.94
443.592	111.94
443.813	108.94
444.034	104.94
444.255	86.94
444.476	85.94
444.698	103.94
444.919	89.94
445.14	118.94
445.361	123.94
445.582	102.94
445.803	121.94
446.024	131.94
446.245	132.94
446.466	95.94
446.687	75.94
446.908	81.94
447.129	91.94
447.35	82.94
447.571	83.94
447.792	104.94
448.013	110.94
448.234	106.94
448.455	96.94
448.675	94.94
448.896	93.94
449.117	99.94
449.338	113.94
449.559	128.94
449.779	131.94
450	93.94
450.221	106.94
450.442	92.94
450.662	86.94
450.883	96.94
451.104	100.94
451.324	87.94
451.545	82.94
451.766	99.94
451.986	101.94
452.207	87.94
452.428	76.94
452.648	91.94
452.869	106.94
453.089	101.94
453.31	119.94
453.53	96.94
453.751	92.94
453.971	105.94
454.192	102.94
454.412	80.94
454.633	86.94
454.853	79.94
455.073	85.94
455.294	87.94
455.514	102.94
455.734	82.94
455.955	81.94
456.175	79.94
456.395	78.94
456.616	77.94
456.836	86.94
457.056	92.94
457.276	81.94
457.497	86.94
457.717	70.94
457.937	87.94
458.157	81.94
458.377	98.94
458.598	97.94
458.818	145.94
459.038	167.94
459.258	120.94
459.478	87.94
459.698	97.94
459.918	85.94
460.138	84.94
460.358	75.94
460.578	89.94
460.798	96.94
461.018	87.94
461.238	81.94
461.458	88.94
461.678	91.94
461.898	84.94
462.118	91.94
462.338	73.94
462.558	89.94
462.777	98.94
462.997	105.94
463.217	78.94
463.437	79.94
463.657	83.94
463.876	95.94
464.096	81.94
464.316	82.94
464.536	85.94
464.755	97.94
464.975	112.94
465.195	157.94
465.414	141.94
465.634	90.94
465.854	83.94
466.073	88.94
466.293	82.94
466.512	90.94
466.732	85.94
466.951	115.94
467.171	98.94
467.391	97.94
467.61	102.94
467.829	82.94
468.049	86.94
468.268	86.94
468.488	84.94
468.707	91.94
468.927	99.94
469.146	83.94
469.365	80.94
469.585	89.94
469.804	102.94
470.023	109.94
470.243	98.94
470.462	82.94
470.681	101.94
470.901	89.94
471.12	77.94
471.339	78.94
471.558	86.94
471.777	84.94
471.997	101.94
472.216	83.94
472.435	86.94
472.654	91.94
472.873	83.94
473.092	100.94
473.311	88.94
473.53	81.94
473.749	92.94
473.968	103.94
474.187	101.94
474.406	89.94
474.625	85.94
474.844	92.94
475.063	95.94
475.282	82.94
475.501	90.94
475.72	89.94
475.939	95.94
476.158	82.94
476.377	71.94
476.596	78.94
476.814	86.94
477.033	91.94
477.252	91.94
477.471	91.94
477.69	86.94
477.908	83.94
478.127	74.94
478.346	96.94
478.564	105.94
478.783	103.94
479.002	78.94
479.22	86.94
479.439	92.94
479.658	94.94
479.876	96.94
480.095	98.94
480.313	105.94
480.532	111.94
480.751	81.94
480.969	76.94
481.188	88.94
481.406	83.94
481.624	95.94
481.843	87.94
482.061	88.94
482.28	87.94
482.498	103.94
482.717	79.94
482.935	89.94
483.153	101.94
483.372	75.94
483.59	85.94
483.808	102.94
484.027	97.94
484.245	108.94
484.463	91.94
484.681	95.94
484.9	103.94
485.118	101.94
485.336	95.94
485.554	116.94
485.772	110.94
485.99	107.94
486.209	94.94
486.427	105.94
486.645	93.94
486.863	109.94
487.081	99.94
487.299	94.94
487.517	102.94
487.735	93.94
487.953	88.94
488.171	99.94
488.389	99.94
488.607	99.94
488.825	88.94
489.043	85.94
489.261	86.94
489.479	93.94
489.696	95.94
489.914	96.94
490.132	93.94
490.35	87.94
490.568	81.94
490.786	97.94
491.003	82.94
491.221	89.94
491.439	85.94
491.657	100.94
491.874	84.94
492.092	74.94
492.31	84.94
492.527	95.94
492.745	82.94
492.963	103.94
493.18	77.94
493.398	89.94
493.615	95.94
493.833	99.94
494.05	78.94
494.268	101.94
494.485	93.94
494.703	99.94
494.92	93.94
495.138	97.94
495.355	84.94
495.573	109.94
495.79	90.94
496.008	83.94
496.225	85.94
496.442	91.94
496.66	92.94
496.877	87.94
497.094	95.94
497.312	83.94
497.529	80.94
497.746	86.94
497.963	86.94
498.181	93.94
498.398	106.94
498.615	103.94
498.832	99.94
499.049	97.94
499.267	99.94
499.484	96.94
499.701	81.94
499.918	87.94
500.135	89.94
500.352	83.94
500.569	103.94
500.786	83.94
501.003	92.94
501.22	79.94
501.437	84.94
501.654	92.94
501.871	101.94
502.088	99.94
502.305	103.94
502.522	115.94
502.739	80.94
502.956	89.94
503.172	101.94
503.389	89.94
503.606	96.94
503.823	92.94
504.04	79.94
504.256	97.94
504.473	92.94
504.69	81.94
504.907	100.94
505.123	97.94
505.34	81.94
505.557	75.94
505.773	104.94
505.99	99.94
506.207	82.94
506.423	74.94
506.64	81.94
506.856	85.94
507.073	103.94
507.289	102.94
507.506	90.94
507.722	101.94
507.939	110.94
508.155	108.94
508.372	112.94
508.588	93.94
508.805	101.94
509.021	93.94
509.238	94.94
509.454	105.94
509.67	96.94
509.887	92.94
510.103	118.94
510.319	210.94
510.536	766.94
510.752	2404.94
510.968	667.94
511.184	167.94
511.401	111.94
511.617	101.94
511.833	92.94
512.049	88.94
512.265	99.94
512.481	102.94
512.698	97.94
512.914	102.94
513.13	91.94
513.346	94.94
513.562	88.94
513.778	99.94
513.994	116.94
514.21	109.94
514.426	118.94
514.642	129.94
514.858	139.94
515.074	164.94
515.29	439.94
515.506	1478.94
515.721	565.94
