Data from Uncirc_2006_H10_HRD10591_00028.txt Node
Date: Wed Jan 03 10:25:00 EST 2024
User: Yrep
Spectrometer: HR+D1059
Trigger mode: 1
Integration Time (sec): 1.000000E-1
Scans to average: 1
Electric dark correction enabled: true
Nonlinearity correction enabled: false
Boxcar width: 0
XAxis mode: Wavelengths
Number of Pixels in Spectrum: 2048
>>>>>Begin Spectral Data<<<<<
223.165	-15.25
223.4	-15.25
223.635	-15.25
223.869	-26.25
224.104	-18.25
224.338	-11.25
224.573	-6.25
224.808	-24.25
225.042	-12.25
225.277	-12.25
225.511	4.75
225.746	7.75
225.98	-5.25
226.215	17.75
226.449	28.75
226.683	26.75
226.918	14.75
227.152	30.75
227.387	35.75
227.621	47.75
227.856	42.75
228.09	41.75
228.324	40.75
228.559	52.75
228.793	58.75
229.027	60.75
229.262	64.75
229.496	70.75
229.73	79.75
229.964	81.75
230.199	78.75
230.433	81.75
230.667	81.75
230.901	72.75
231.136	79.75
231.37	77.75
231.604	79.75
231.838	69.75
232.072	71.75
232.306	71.75
232.541	68.75
232.775	87.75
233.009	82.75
233.243	73.75
233.477	70.75
233.711	84.75
233.945	65.75
234.179	79.75
234.413	76.75
234.647	87.75
234.881	81.75
235.115	76.75
235.349	81.75
235.583	73.75
235.817	76.75
236.051	83.75
236.285	73.75
236.519	77.75
236.753	78.75
236.987	78.75
237.221	70.75
237.455	81.75
237.689	91.75
237.922	83.75
238.156	76.75
238.39	76.75
238.624	65.75
238.858	64.75
239.091	82.75
239.325	73.75
239.559	85.75
239.793	76.75
240.027	83.75
240.26	82.75
240.494	73.75
240.728	76.75
240.961	84.75
241.195	68.75
241.429	66.75
241.662	75.75
241.896	69.75
242.13	73.75
242.363	75.75
242.597	91.75
242.83	93.75
243.064	82.75
243.298	94.75
243.531	76.75
243.765	68.75
243.998	91.75
244.232	81.75
244.465	90.75
244.699	88.75
244.932	71.75
245.166	77.75
245.399	62.75
245.633	81.75
245.866	66.75
246.099	84.75
246.333	82.75
246.566	69.75
246.8	63.75
247.033	71.75
247.266	80.75
247.5	95.75
247.733	87.75
247.966	82.75
248.2	79.75
248.433	66.75
248.666	92.75
248.899	93.75
249.133	82.75
249.366	82.75
249.599	97.75
249.832	73.75
250.066	81.75
250.299	81.75
250.532	84.75
250.765	77.75
250.998	95.75
251.231	87.75
251.465	63.75
251.698	70.75
251.931	83.75
252.164	79.75
252.397	77.75
252.63	81.75
252.863	70.75
253.096	82.75
253.329	81.75
253.562	79.75
253.795	82.75
254.028	69.75
254.261	85.75
254.494	70.75
254.727	94.75
254.96	93.75
255.193	73.75
255.426	81.75
255.659	96.75
255.892	82.75
256.124	87.75
256.357	72.75
256.59	68.75
256.823	85.75
257.056	77.75
257.289	79.75
257.521	96.75
257.754	86.75
257.987	85.75
258.22	78.75
258.452	75.75
258.685	78.75
258.918	85.75
259.151	90.75
259.383	80.75
259.616	70.75
259.849	107.75
260.081	86.75
260.314	70.75
260.547	86.75
260.779	82.75
261.012	72.75
261.244	92.75
261.477	84.75
261.71	81.75
261.942	105.75
262.175	109.75
262.407	82.75
262.64	78.75
262.872	69.75
263.105	87.75
263.337	86.75
263.57	93.75
263.802	80.75
264.035	70.75
264.267	78.75
264.499	74.75
264.732	79.75
264.964	86.75
265.197	85.75
265.429	80.75
265.661	94.75
265.894	85.75
266.126	105.75
266.358	82.75
266.591	78.75
266.823	85.75
267.055	99.75
267.287	90.75
267.52	93.75
267.752	85.75
267.984	68.75
268.216	75.75
268.448	92.75
268.681	85.75
268.913	72.75
269.145	73.75
269.377	70.75
269.609	82.75
269.841	80.75
270.073	86.75
270.306	72.75
270.538	88.75
270.77	77.75
271.002	95.75
271.234	87.75
271.466	91.75
271.698	97.75
271.93	97.75
272.162	85.75
272.394	81.75
272.626	81.75
272.858	76.75
273.09	78.75
273.322	79.75
273.553	88.75
273.785	75.75
274.017	86.75
274.249	85.75
274.481	81.75
274.713	87.75
274.945	88.75
275.176	88.75
275.408	97.75
275.64	85.75
275.872	91.75
276.104	81.75
276.335	95.75
276.567	81.75
276.799	100.75
277.031	96.75
277.262	71.75
277.494	88.75
277.726	95.75
277.957	82.75
278.189	74.75
278.421	73.75
278.652	81.75
278.884	83.75
279.115	76.75
279.347	79.75
279.579	80.75
279.81	96.75
280.042	92.75
280.273	83.75
280.505	81.75
280.736	92.75
280.968	87.75
281.199	89.75
281.431	93.75
281.662	91.75
281.894	79.75
282.125	89.75
282.356	96.75
282.588	124.75
282.819	105.75
283.051	85.75
283.282	94.75
283.513	96.75
283.745	94.75
283.976	99.75
284.207	74.75
284.439	81.75
284.67	84.75
284.901	87.75
285.132	93.75
285.364	86.75
285.595	79.75
285.826	96.75
286.057	84.75
286.288	81.75
286.52	80.75
286.751	81.75
286.982	84.75
287.213	79.75
287.444	90.75
287.675	86.75
287.906	90.75
288.138	95.75
288.369	85.75
288.6	92.75
288.831	86.75
289.062	98.75
289.293	86.75
289.524	84.75
289.755	95.75
289.986	95.75
290.217	84.75
290.448	94.75
290.679	93.75
290.91	90.75
291.141	84.75
291.371	84.75
291.602	89.75
291.833	86.75
292.064	105.75
292.295	91.75
292.526	102.75
292.757	98.75
292.987	86.75
293.218	87.75
293.449	75.75
293.68	94.75
293.91	83.75
294.141	101.75
294.372	80.75
294.603	105.75
294.833	86.75
295.064	91.75
295.295	85.75
295.525	87.75
295.756	97.75
295.987	109.75
296.217	129.75
296.448	100.75
296.679	92.75
296.909	83.75
297.14	70.75
297.37	88.75
297.601	84.75
297.831	70.75
298.062	78.75
298.292	80.75
298.523	87.75
298.753	92.75
298.984	90.75
299.214	98.75
299.445	84.75
299.675	89.75
299.905	81.75
300.136	87.75
300.366	94.75
300.597	76.75
300.827	79.75
301.057	91.75
301.288	102.75
301.518	76.75
301.748	96.75
301.979	95.75
302.209	81.75
302.439	84.75
302.669	75.75
302.9	90.75
303.13	88.75
303.36	91.75
303.59	94.75
303.82	93.75
304.051	97.75
304.281	92.75
304.511	83.75
304.741	66.75
304.971	70.75
305.201	91.75
305.431	84.75
305.661	88.75
305.891	95.75
306.121	83.75
306.352	98.75
306.582	102.75
306.812	89.75
307.042	82.75
307.272	73.75
307.502	94.75
307.731	94.75
307.961	90.75
308.191	86.75
308.421	95.75
308.651	85.75
308.881	85.75
309.111	81.75
309.341	89.75
309.571	98.75
309.8	105.75
310.03	94.75
310.26	90.75
310.49	106.75
310.72	93.75
310.949	102.75
311.179	89.75
311.409	86.75
311.639	100.75
311.868	87.75
312.098	90.75
312.328	93.75
312.557	90.75
312.787	95.75
313.017	85.75
313.246	89.75
313.476	83.75
313.706	85.75
313.935	91.75
314.165	83.75
314.394	88.75
314.624	90.75
314.853	85.75
315.083	90.75
315.312	90.75
315.542	95.75
315.771	93.75
316.001	87.75
316.23	90.75
316.46	90.75
316.689	94.75
316.919	95.75
317.148	85.75
317.377	93.75
317.607	93.75
317.836	100.75
318.065	91.75
318.295	87.75
318.524	94.75
318.753	91.75
318.983	78.75
319.212	106.75
319.441	112.75
319.67	89.75
319.9	99.75
320.129	93.75
320.358	87.75
320.587	90.75
320.816	91.75
321.046	94.75
321.275	97.75
321.504	94.75
321.733	88.75
321.962	93.75
322.191	100.75
322.42	107.75
322.649	109.75
322.878	91.75
323.108	94.75
323.337	116.75
323.566	129.75
323.795	147.75
324.024	188.75
324.253	360.75
324.482	755.75
324.71	1514.75
324.939	2004.75
325.168	744.75
325.397	229.75
325.626	146.75
325.855	129.75
326.084	130.75
326.313	131.75
326.542	141.75
326.77	222.75
326.999	444.75
327.228	880.75
327.457	1561.75
327.686	1281.75
327.914	342.75
328.143	170.75
328.372	123.75
328.6	114.75
328.829	105.75
329.058	96.75
329.287	115.75
329.515	105.75
329.744	109.75
329.972	105.75
330.201	91.75
330.43	99.75
330.658	115.75
330.887	119.75
331.115	123.75
331.344	102.75
331.572	90.75
331.801	104.75
332.03	105.75
332.258	105.75
332.486	86.75
332.715	94.75
332.943	94.75
333.172	88.75
333.4	95.75
333.629	101.75
333.857	110.75
334.085	100.75
334.314	96.75
334.542	89.75
334.771	94.75
334.999	102.75
335.227	94.75
335.455	94.75
335.684	89.75
335.912	98.75
336.14	86.75
336.369	74.75
336.597	94.75
336.825	98.75
337.053	83.75
337.281	91.75
337.51	87.75
337.738	95.75
337.966	91.75
338.194	82.75
338.422	94.75
338.65	94.75
338.878	91.75
339.106	94.75
339.334	77.75
339.562	100.75
339.79	89.75
340.018	77.75
340.246	81.75
340.474	107.75
340.702	96.75
340.93	93.75
341.158	98.75
341.386	76.75
341.614	94.75
341.842	94.75
342.07	82.75
342.298	88.75
342.526	79.75
342.754	82.75
342.981	92.75
343.209	91.75
343.437	94.75
343.665	87.75
343.893	93.75
344.12	83.75
344.348	92.75
344.576	94.75
344.804	98.75
345.031	90.75
345.259	99.75
345.487	95.75
345.714	94.75
345.942	94.75
346.17	92.75
346.397	87.75
346.625	87.75
346.853	86.75
347.08	79.75
347.308	101.75
347.535	91.75
347.763	101.75
347.99	86.75
348.218	110.75
348.445	101.75
348.673	98.75
348.9	88.75
349.128	96.75
349.355	95.75
349.583	105.75
349.81	90.75
350.037	94.75
350.265	93.75
350.492	79.75
350.72	99.75
350.947	94.75
351.174	100.75
351.402	113.75
351.629	91.75
351.856	95.75
352.083	108.75
352.311	95.75
352.538	102.75
352.765	97.75
352.992	114.75
353.22	115.75
353.447	104.75
353.674	107.75
353.901	87.75
354.128	85.75
354.355	92.75
354.583	89.75
354.81	94.75
355.037	102.75
355.264	97.75
355.491	87.75
355.718	103.75
355.945	94.75
356.172	90.75
356.399	95.75
356.626	87.75
356.853	85.75
357.08	97.75
357.307	88.75
357.534	77.75
357.761	88.75
357.988	95.75
358.215	85.75
358.441	102.75
358.668	85.75
358.895	104.75
359.122	79.75
359.349	91.75
359.576	79.75
359.802	93.75
360.029	104.75
360.256	105.75
360.483	93.75
360.709	91.75
360.936	87.75
361.163	87.75
361.39	93.75
361.616	91.75
361.843	85.75
362.07	102.75
362.296	78.75
362.523	92.75
362.749	105.75
362.976	88.75
363.203	90.75
363.429	75.75
363.656	69.75
363.882	85.75
364.109	72.75
364.335	101.75
364.562	102.75
364.788	92.75
365.015	85.75
365.241	91.75
365.468	98.75
365.694	97.75
365.92	82.75
366.147	76.75
366.373	79.75
366.599	84.75
366.826	85.75
367.052	83.75
367.278	99.75
367.505	91.75
367.731	92.75
367.957	70.75
368.184	91.75
368.41	99.75
368.636	102.75
368.862	110.75
369.089	111.75
369.315	95.75
369.541	86.75
369.767	81.75
369.993	103.75
370.219	91.75
370.445	93.75
370.672	87.75
370.898	91.75
371.124	83.75
371.35	94.75
371.576	92.75
371.802	89.75
372.028	83.75
372.254	106.75
372.48	99.75
372.706	95.75
372.932	97.75
373.158	86.75
373.384	81.75
373.61	87.75
373.835	79.75
374.061	74.75
374.287	78.75
374.513	97.75
374.739	93.75
374.965	95.75
375.191	96.75
375.416	68.75
375.642	98.75
375.868	98.75
376.094	87.75
376.319	87.75
376.545	82.75
376.771	83.75
376.997	71.75
377.222	82.75
377.448	86.75
377.674	81.75
377.899	93.75
378.125	93.75
378.35	86.75
378.576	84.75
378.802	86.75
379.027	96.75
379.253	95.75
379.478	97.75
379.704	108.75
379.929	80.75
380.155	89.75
380.38	94.75
380.606	99.75
380.831	97.75
381.057	108.75
381.282	94.75
381.507	91.75
381.733	108.75
381.958	97.75
382.184	82.75
382.409	103.75
382.634	102.75
382.86	95.75
383.085	95.75
383.31	92.75
383.535	109.75
383.761	97.75
383.986	86.75
384.211	103.75
384.436	92.75
384.662	86.75
384.887	98.75
385.112	122.75
385.337	112.75
385.562	105.75
385.787	111.75
386.013	107.75
386.238	122.75
386.463	123.75
386.688	109.75
386.913	109.75
387.138	108.75
387.363	86.75
387.588	85.75
387.813	99.75
388.038	109.75
388.263	122.75
388.488	105.75
388.713	93.75
388.938	89.75
389.163	94.75
389.387	83.75
389.612	98.75
389.837	87.75
390.062	88.75
390.287	93.75
390.512	94.75
390.736	74.75
390.961	88.75
391.186	81.75
391.411	93.75
391.636	98.75
391.86	81.75
392.085	80.75
392.31	88.75
392.534	86.75
392.759	94.75
392.984	92.75
393.208	75.75
393.433	100.75
393.658	81.75
393.882	79.75
394.107	86.75
394.331	95.75
394.556	69.75
394.78	77.75
395.005	92.75
395.229	90.75
395.454	85.75
395.678	97.75
395.903	92.75
396.127	101.75
396.352	95.75
396.576	103.75
396.801	93.75
397.025	83.75
397.249	75.75
397.474	84.75
397.698	90.75
397.922	98.75
398.147	92.75
398.371	78.75
398.595	89.75
398.82	89.75
399.044	74.75
399.268	82.75
399.492	72.75
399.717	83.75
399.941	83.75
400.165	83.75
400.389	90.75
400.613	85.75
400.837	93.75
401.062	89.75
401.286	99.75
401.51	81.75
401.734	85.75
401.958	99.75
402.182	109.75
402.406	145.75
402.63	107.75
402.854	93.75
403.078	73.75
403.302	74.75
403.526	90.75
403.75	91.75
403.974	78.75
404.198	91.75
404.422	85.75
404.645	97.75
404.869	99.75
405.093	87.75
405.317	103.75
405.541	99.75
405.765	93.75
405.988	110.75
406.212	153.75
406.436	194.75
406.66	141.75
406.883	89.75
407.107	97.75
407.331	84.75
407.555	92.75
407.778	71.75
408.002	83.75
408.226	89.75
408.449	80.75
408.673	78.75
408.896	94.75
409.12	103.75
409.344	88.75
409.567	72.75
409.791	85.75
410.014	91.75
410.238	96.75
410.461	87.75
410.685	87.75
410.908	89.75
411.132	106.75
411.355	90.75
411.578	97.75
411.802	102.75
412.025	79.75
412.249	80.75
412.472	74.75
412.695	82.75
412.919	97.75
413.142	92.75
413.365	88.75
413.589	95.75
413.812	94.75
414.035	90.75
414.258	94.75
414.482	84.75
414.705	91.75
414.928	99.75
415.151	89.75
415.374	77.75
415.597	94.75
415.821	79.75
416.044	96.75
416.267	88.75
416.49	88.75
416.713	84.75
416.936	87.75
417.159	97.75
417.382	84.75
417.605	80.75
417.828	108.75
418.051	99.75
418.274	93.75
418.497	94.75
418.72	86.75
418.943	76.75
419.166	85.75
419.389	97.75
419.611	78.75
419.834	84.75
420.057	94.75
420.28	86.75
420.503	82.75
420.726	81.75
420.948	82.75
421.171	93.75
421.394	89.75
421.617	95.75
421.839	88.75
422.062	82.75
422.285	94.75
422.507	98.75
422.73	93.75
422.953	93.75
423.175	94.75
423.398	79.75
423.621	98.75
423.843	89.75
424.066	88.75
424.288	83.75
424.511	98.75
424.733	87.75
424.956	97.75
425.178	97.75
425.401	80.75
425.623	82.75
425.846	86.75
426.068	90.75
426.291	95.75
426.513	110.75
426.735	93.75
426.958	95.75
427.18	92.75
427.402	108.75
427.625	145.75
427.847	113.75
428.069	95.75
428.292	83.75
428.514	78.75
428.736	65.75
428.958	92.75
429.181	79.75
429.403	87.75
429.625	77.75
429.847	86.75
430.069	105.75
430.292	94.75
430.514	94.75
430.736	87.75
430.958	81.75
431.18	68.75
431.402	88.75
431.624	87.75
431.846	89.75
432.068	84.75
432.29	93.75
432.512	91.75
432.734	81.75
432.956	89.75
433.178	100.75
433.4	96.75
433.622	74.75
433.844	85.75
434.066	84.75
434.287	79.75
434.509	81.75
434.731	87.75
434.953	98.75
435.175	90.75
435.397	92.75
435.618	93.75
435.84	99.75
436.062	109.75
436.284	111.75
436.505	94.75
436.727	119.75
436.949	85.75
437.17	98.75
437.392	97.75
437.614	97.75
437.835	99.75
438.057	111.75
438.278	106.75
438.5	88.75
438.721	112.75
438.943	86.75
439.165	88.75
439.386	83.75
439.608	105.75
439.829	87.75
440.05	108.75
440.272	108.75
440.493	92.75
440.715	90.75
440.936	85.75
441.158	92.75
441.379	85.75
441.6	87.75
441.822	85.75
442.043	80.75
442.264	83.75
442.486	100.75
442.707	98.75
442.928	103.75
443.149	114.75
443.371	115.75
443.592	107.75
443.813	123.75
444.034	89.75
444.255	100.75
444.476	94.75
444.698	80.75
444.919	95.75
445.14	144.75
445.361	114.75
445.582	101.75
445.803	127.75
446.024	108.75
446.245	125.75
446.466	109.75
446.687	84.75
446.908	88.75
447.129	83.75
447.35	78.75
447.571	82.75
447.792	70.75
448.013	101.75
448.234	94.75
448.455	90.75
448.675	104.75
448.896	96.75
449.117	89.75
449.338	109.75
449.559	123.75
449.779	116.75
450	79.75
450.221	76.75
450.442	89.75
450.662	106.75
450.883	110.75
451.104	93.75
451.324	98.75
451.545	84.75
451.766	84.75
451.986	82.75
452.207	105.75
452.428	90.75
452.648	105.75
452.869	101.75
453.089	102.75
453.31	112.75
453.53	96.75
453.751	83.75
453.971	87.75
454.192	113.75
454.412	99.75
454.633	85.75
454.853	79.75
455.073	74.75
455.294	97.75
455.514	86.75
455.734	104.75
455.955	85.75
456.175	80.75
456.395	94.75
456.616	96.75
456.836	81.75
457.056	94.75
457.276	81.75
457.497	91.75
457.717	89.75
457.937	83.75
458.157	86.75
458.377	92.75
458.598	91.75
458.818	137.75
459.038	138.75
459.258	111.75
459.478	84.75
459.698	99.75
459.918	83.75
460.138	67.75
460.358	93.75
460.578	84.75
460.798	91.75
461.018	69.75
461.238	71.75
461.458	92.75
461.678	77.75
461.898	95.75
462.118	73.75
462.338	99.75
462.558	89.75
462.777	85.75
462.997	93.75
463.217	98.75
463.437	80.75
463.657	81.75
463.876	85.75
464.096	92.75
464.316	87.75
464.536	102.75
464.755	92.75
464.975	98.75
465.195	146.75
465.414	134.75
465.634	102.75
465.854	97.75
466.073	86.75
466.293	90.75
466.512	86.75
466.732	79.75
466.951	87.75
467.171	92.75
467.391	90.75
467.61	87.75
467.829	80.75
468.049	77.75
468.268	100.75
468.488	87.75
468.707	77.75
468.927	82.75
469.146	87.75
469.365	79.75
469.585	76.75
469.804	93.75
470.023	87.75
470.243	92.75
470.462	86.75
470.681	103.75
470.901	92.75
471.12	98.75
471.339	97.75
471.558	79.75
471.777	93.75
471.997	92.75
472.216	90.75
472.435	87.75
472.654	98.75
472.873	78.75
473.092	74.75
473.311	98.75
473.53	89.75
473.749	86.75
473.968	86.75
474.187	95.75
474.406	89.75
474.625	95.75
474.844	91.75
475.063	80.75
475.282	91.75
475.501	69.75
475.72	82.75
475.939	76.75
476.158	82.75
476.377	89.75
476.596	97.75
476.814	98.75
477.033	86.75
477.252	90.75
477.471	97.75
477.69	82.75
477.908	84.75
478.127	83.75
478.346	93.75
478.564	102.75
478.783	93.75
479.002	83.75
479.22	102.75
479.439	87.75
479.658	83.75
479.876	85.75
480.095	75.75
480.313	90.75
480.532	89.75
480.751	91.75
480.969	74.75
481.188	93.75
481.406	89.75
481.624	74.75
481.843	78.75
482.061	95.75
482.28	92.75
482.498	110.75
482.717	88.75
482.935	73.75
483.153	93.75
483.372	70.75
483.59	85.75
483.808	75.75
484.027	85.75
484.245	86.75
484.463	81.75
484.681	93.75
484.9	83.75
485.118	109.75
485.336	92.75
485.554	91.75
485.772	94.75
485.99	102.75
486.209	101.75
486.427	94.75
486.645	111.75
486.863	114.75
487.081	92.75
487.299	89.75
487.517	96.75
487.735	94.75
487.953	99.75
488.171	79.75
488.389	103.75
488.607	98.75
488.825	95.75
489.043	78.75
489.261	91.75
489.479	101.75
489.696	95.75
489.914	86.75
490.132	97.75
490.35	82.75
490.568	102.75
490.786	100.75
491.003	94.75
491.221	94.75
491.439	95.75
491.657	84.75
491.874	93.75
492.092	92.75
492.31	95.75
492.527	95.75
492.745	96.75
492.963	98.75
493.18	94.75
493.398	100.75
493.615	84.75
493.833	97.75
494.05	99.75
494.268	83.75
494.485	78.75
494.703	76.75
494.92	91.75
495.138	85.75
495.355	81.75
495.573	81.75
495.79	84.75
496.008	101.75
496.225	84.75
496.442	83.75
496.66	92.75
496.877	99.75
497.094	89.75
497.312	98.75
497.529	86.75
497.746	95.75
497.963	91.75
498.181	95.75
498.398	102.75
498.615	117.75
498.832	94.75
499.049	90.75
499.267	105.75
499.484	87.75
499.701	88.75
499.918	95.75
500.135	93.75
500.352	111.75
500.569	77.75
500.786	97.75
501.003	91.75
501.22	91.75
501.437	83.75
501.654	96.75
501.871	91.75
502.088	91.75
502.305	106.75
502.522	74.75
502.739	86.75
502.956	76.75
503.172	96.75
503.389	95.75
503.606	102.75
503.823	87.75
504.04	77.75
504.256	93.75
504.473	88.75
504.69	88.75
504.907	82.75
505.123	89.75
505.34	95.75
505.557	90.75
505.773	108.75
505.99	83.75
506.207	94.75
506.423	93.75
506.64	99.75
506.856	96.75
507.073	88.75
507.289	101.75
507.506	92.75
507.722	99.75
507.939	94.75
508.155	100.75
508.372	98.75
508.588	95.75
508.805	80.75
509.021	101.75
509.238	87.75
509.454	98.75
509.67	103.75
509.887	123.75
510.103	118.75
510.319	199.75
510.536	700.75
510.752	2091.75
510.968	588.75
511.184	137.75
511.401	110.75
511.617	84.75
511.833	95.75
512.049	98.75
512.265	110.75
512.481	78.75
512.698	93.75
512.914	95.75
513.13	89.75
513.346	89.75
513.562	95.75
513.778	98.75
513.994	87.75
514.21	100.75
514.426	93.75
514.642	123.75
514.858	106.75
515.074	153.75
515.29	397.75
515.506	1251.75
515.721	494.75
515.937	137.75
516.153	122.75
516.369	88.75
516.585	88.75
516.801	88.75
