Data from Uncirc_2006_H10_HRD10591_00031.txt Node
Date: Wed Jan 03 10:25:01 EST 2024
User: Yrep
Spectrometer: HR+D1059
Trigger mode: 1
Integration Time (sec): 1.000000E-1
Scans to average: 1
Electric dark correction enabled: true
Nonlinearity correction enabled: false
Boxcar width: 0
XAxis mode: Wavelengths
Number of Pixels in Spectrum: 2048
>>>>>Begin Spectral Data<<<<<
223.165	-16.69
223.4	-16.69
223.635	-16.69
223.869	-10.69
224.104	-10.69
224.338	-26.69
224.573	-8.69
224.808	-11.69
225.042	-5.69
225.277	-7.69
225.511	-16.69
225.746	1.31
225.98	0.31
226.215	8.31
226.449	10.31
226.683	31.31
226.918	26.31
227.152	37.31
227.387	59.31
227.621	45.31
227.856	54.31
228.09	48.31
228.324	63.31
228.559	71.31
228.793	56.31
229.027	48.31
229.262	72.31
229.496	77.31
229.73	83.31
229.964	69.31
230.199	76.31
230.433	77.31
230.667	78.31
230.901	84.31
231.136	86.31
231.37	77.31
231.604	82.31
231.838	87.31
232.072	79.31
232.306	75.31
232.541	76.31
232.775	89.31
233.009	67.31
233.243	94.31
233.477	68.31
233.711	88.31
233.945	78.31
234.179	85.31
234.413	90.31
234.647	81.31
234.881	88.31
235.115	85.31
235.349	68.31
235.583	79.31
235.817	77.31
236.051	75.31
236.285	79.31
236.519	69.31
236.753	75.31
236.987	75.31
237.221	74.31
237.455	85.31
237.689	62.31
237.922	81.31
238.156	86.31
238.39	80.31
238.624	79.31
238.858	94.31
239.091	81.31
239.325	77.31
239.559	84.31
239.793	92.31
240.027	62.31
240.26	75.31
240.494	81.31
240.728	87.31
240.961	82.31
241.195	79.31
241.429	63.31
241.662	89.31
241.896	79.31
242.13	85.31
242.363	83.31
242.597	76.31
242.83	88.31
243.064	92.31
243.298	84.31
243.531	75.31
243.765	90.31
243.998	74.31
244.232	69.31
244.465	81.31
244.699	83.31
244.932	79.31
245.166	72.31
245.399	87.31
245.633	83.31
245.866	77.31
246.099	85.31
246.333	79.31
246.566	74.31
246.8	71.31
247.033	75.31
247.266	79.31
247.5	80.31
247.733	87.31
247.966	82.31
248.2	76.31
248.433	92.31
248.666	86.31
248.899	76.31
249.133	74.31
249.366	102.31
249.599	104.31
249.832	92.31
250.066	81.31
250.299	74.31
250.532	69.31
250.765	73.31
250.998	83.31
251.231	95.31
251.465	89.31
251.698	75.31
251.931	88.31
252.164	77.31
252.397	87.31
252.63	82.31
252.863	76.31
253.096	73.31
253.329	80.31
253.562	84.31
253.795	85.31
254.028	94.31
254.261	77.31
254.494	83.31
254.727	88.31
254.96	69.31
255.193	73.31
255.426	82.31
255.659	78.31
255.892	88.31
256.124	94.31
256.357	82.31
256.59	86.31
256.823	87.31
257.056	76.31
257.289	87.31
257.521	79.31
257.754	85.31
257.987	70.31
258.22	92.31
258.452	76.31
258.685	80.31
258.918	75.31
259.151	82.31
259.383	78.31
259.616	84.31
259.849	83.31
260.081	78.31
260.314	85.31
260.547	87.31
260.779	77.31
261.012	91.31
261.244	95.31
261.477	69.31
261.71	90.31
261.942	110.31
262.175	117.31
262.407	89.31
262.64	79.31
262.872	83.31
263.105	86.31
263.337	83.31
263.57	80.31
263.802	85.31
264.035	78.31
264.267	63.31
264.499	76.31
264.732	85.31
264.964	105.31
265.197	77.31
265.429	84.31
265.661	84.31
265.894	75.31
266.126	92.31
266.358	80.31
266.591	95.31
266.823	97.31
267.055	88.31
267.287	87.31
267.52	85.31
267.752	84.31
267.984	82.31
268.216	90.31
268.448	88.31
268.681	93.31
268.913	83.31
269.145	89.31
269.377	80.31
269.609	89.31
269.841	81.31
270.073	97.31
270.306	96.31
270.538	97.31
270.77	86.31
271.002	85.31
271.234	75.31
271.466	76.31
271.698	84.31
271.93	101.31
272.162	91.31
272.394	75.31
272.626	86.31
272.858	67.31
273.09	80.31
273.322	76.31
273.553	89.31
273.785	82.31
274.017	77.31
274.249	77.31
274.481	86.31
274.713	94.31
274.945	104.31
275.176	79.31
275.408	73.31
275.64	78.31
275.872	91.31
276.104	95.31
276.335	93.31
276.567	90.31
276.799	115.31
277.031	111.31
277.262	89.31
277.494	85.31
277.726	84.31
277.957	86.31
278.189	83.31
278.421	81.31
278.652	88.31
278.884	100.31
279.115	88.31
279.347	96.31
279.579	83.31
279.81	73.31
280.042	77.31
280.273	87.31
280.505	94.31
280.736	90.31
280.968	101.31
281.199	80.31
281.431	98.31
281.662	94.31
281.894	100.31
282.125	108.31
282.356	113.31
282.588	112.31
282.819	104.31
283.051	92.31
283.282	86.31
283.513	83.31
283.745	86.31
283.976	90.31
284.207	92.31
284.439	79.31
284.67	95.31
284.901	99.31
285.132	97.31
285.364	88.31
285.595	73.31
285.826	86.31
286.057	98.31
286.288	82.31
286.52	83.31
286.751	81.31
286.982	93.31
287.213	88.31
287.444	75.31
287.675	95.31
287.906	85.31
288.138	96.31
288.369	86.31
288.6	86.31
288.831	90.31
289.062	92.31
289.293	97.31
289.524	75.31
289.755	96.31
289.986	93.31
290.217	85.31
290.448	84.31
290.679	78.31
290.91	87.31
291.141	91.31
291.371	94.31
291.602	85.31
291.833	73.31
292.064	86.31
292.295	84.31
292.526	91.31
292.757	85.31
292.987	97.31
293.218	87.31
293.449	101.31
293.68	96.31
293.91	80.31
294.141	89.31
294.372	96.31
294.603	83.31
294.833	85.31
295.064	98.31
295.295	87.31
295.525	89.31
295.756	98.31
295.987	122.31
296.217	127.31
296.448	127.31
296.679	110.31
296.909	89.31
297.14	83.31
297.37	75.31
297.601	98.31
297.831	89.31
298.062	94.31
298.292	93.31
298.523	89.31
298.753	83.31
298.984	80.31
299.214	87.31
299.445	98.31
299.675	76.31
299.905	103.31
300.136	104.31
300.366	98.31
300.597	88.31
300.827	96.31
301.057	89.31
301.288	108.31
301.518	101.31
301.748	100.31
301.979	96.31
302.209	93.31
302.439	80.31
302.669	101.31
302.9	89.31
303.13	100.31
303.36	100.31
303.59	104.31
303.82	99.31
304.051	83.31
304.281	97.31
304.511	103.31
304.741	94.31
304.971	98.31
305.201	92.31
305.431	86.31
305.661	99.31
305.891	90.31
306.121	93.31
306.352	101.31
306.582	98.31
306.812	91.31
307.042	92.31
307.272	82.31
307.502	91.31
307.731	93.31
307.961	91.31
308.191	88.31
308.421	85.31
308.651	90.31
308.881	104.31
309.111	99.31
309.341	104.31
309.571	109.31
309.8	94.31
310.03	101.31
310.26	92.31
310.49	91.31
310.72	102.31
310.949	108.31
311.179	116.31
311.409	99.31
311.639	87.31
311.868	86.31
312.098	89.31
312.328	88.31
312.557	103.31
312.787	103.31
313.017	108.31
313.246	105.31
313.476	103.31
313.706	105.31
313.935	92.31
314.165	102.31
314.394	91.31
314.624	91.31
314.853	117.31
315.083	90.31
315.312	99.31
315.542	108.31
315.771	85.31
316.001	101.31
316.23	93.31
316.46	86.31
316.689	92.31
316.919	99.31
317.148	85.31
317.377	110.31
317.607	99.31
317.836	88.31
318.065	104.31
318.295	97.31
318.524	80.31
318.753	94.31
318.983	110.31
319.212	97.31
319.441	102.31
319.67	114.31
319.9	93.31
320.129	95.31
320.358	100.31
320.587	102.31
320.816	111.31
321.046	109.31
321.275	107.31
321.504	104.31
321.733	88.31
321.962	97.31
322.191	107.31
322.42	108.31
322.649	103.31
322.878	99.31
323.108	131.31
323.337	143.31
323.566	116.31
323.795	132.31
324.024	207.31
324.253	368.31
324.482	781.31
324.71	1604.31
324.939	2097.31
325.168	767.31
325.397	231.31
325.626	151.31
325.855	135.31
326.084	134.31
326.313	133.31
326.542	159.31
326.77	239.31
326.999	455.31
327.228	928.31
327.457	1626.31
327.686	1315.31
327.914	343.31
328.143	182.31
328.372	147.31
328.6	122.31
328.829	131.31
329.058	116.31
329.287	111.31
329.515	104.31
329.744	102.31
329.972	107.31
330.201	103.31
330.43	107.31
330.658	109.31
330.887	123.31
331.115	125.31
331.344	106.31
331.572	93.31
331.801	86.31
332.03	87.31
332.258	113.31
332.486	96.31
332.715	85.31
332.943	96.31
333.172	104.31
333.4	101.31
333.629	89.31
333.857	109.31
334.085	87.31
334.314	98.31
334.542	97.31
334.771	107.31
334.999	100.31
335.227	95.31
335.455	86.31
335.684	109.31
335.912	99.31
336.14	102.31
336.369	99.31
336.597	106.31
336.825	97.31
337.053	97.31
337.281	95.31
337.51	84.31
337.738	95.31
337.966	93.31
338.194	100.31
338.422	106.31
338.65	90.31
338.878	81.31
339.106	99.31
339.334	99.31
339.562	97.31
339.79	92.31
340.018	101.31
340.246	93.31
340.474	102.31
340.702	89.31
340.93	92.31
341.158	93.31
341.386	95.31
341.614	92.31
341.842	84.31
342.07	94.31
342.298	93.31
342.526	81.31
342.754	95.31
342.981	89.31
343.209	93.31
343.437	100.31
343.665	99.31
343.893	99.31
344.12	94.31
344.348	92.31
344.576	82.31
344.804	84.31
345.031	86.31
345.259	103.31
345.487	110.31
345.714	103.31
345.942	96.31
346.17	92.31
346.397	101.31
346.625	101.31
346.853	96.31
347.08	99.31
347.308	103.31
347.535	104.31
347.763	113.31
347.99	93.31
348.218	99.31
348.445	104.31
348.673	103.31
348.9	91.31
349.128	102.31
349.355	101.31
349.583	81.31
349.81	92.31
350.037	100.31
350.265	92.31
350.492	111.31
350.72	95.31
350.947	98.31
351.174	108.31
351.402	102.31
351.629	103.31
351.856	118.31
352.083	100.31
352.311	103.31
352.538	118.31
352.765	98.31
352.992	106.31
353.22	113.31
353.447	97.31
353.674	108.31
353.901	95.31
354.128	109.31
354.355	97.31
354.583	87.31
354.81	95.31
355.037	108.31
355.264	98.31
355.491	93.31
355.718	84.31
355.945	110.31
356.172	87.31
356.399	108.31
356.626	102.31
356.853	102.31
357.08	82.31
357.307	91.31
357.534	88.31
357.761	96.31
357.988	91.31
358.215	94.31
358.441	89.31
358.668	99.31
358.895	113.31
359.122	94.31
359.349	89.31
359.576	114.31
359.802	105.31
360.029	101.31
360.256	110.31
360.483	93.31
360.709	96.31
360.936	86.31
361.163	87.31
361.39	87.31
361.616	83.31
361.843	88.31
362.07	107.31
362.296	90.31
362.523	93.31
362.749	97.31
362.976	87.31
363.203	105.31
363.429	89.31
363.656	85.31
363.882	90.31
364.109	86.31
364.335	70.31
364.562	98.31
364.788	90.31
365.015	92.31
365.241	97.31
365.468	76.31
365.694	107.31
365.92	87.31
366.147	87.31
366.373	87.31
366.599	87.31
366.826	79.31
367.052	93.31
367.278	81.31
367.505	93.31
367.731	102.31
367.957	91.31
368.184	100.31
368.41	102.31
368.636	111.31
368.862	113.31
369.089	95.31
369.315	90.31
369.541	101.31
369.767	93.31
369.993	100.31
370.219	90.31
370.445	89.31
370.672	100.31
370.898	97.31
371.124	95.31
371.35	81.31
371.576	88.31
371.802	85.31
372.028	88.31
372.254	97.31
372.48	83.31
372.706	95.31
372.932	87.31
373.158	98.31
373.384	92.31
373.61	110.31
373.835	101.31
374.061	95.31
374.287	95.31
374.513	100.31
374.739	91.31
374.965	96.31
375.191	81.31
375.416	97.31
375.642	94.31
375.868	97.31
376.094	92.31
376.319	93.31
376.545	74.31
376.771	96.31
376.997	83.31
377.222	82.31
377.448	81.31
377.674	91.31
377.899	86.31
378.125	101.31
378.35	87.31
378.576	98.31
378.802	92.31
379.027	100.31
379.253	92.31
379.478	94.31
379.704	94.31
379.929	77.31
380.155	96.31
380.38	89.31
380.606	99.31
380.831	110.31
381.057	94.31
381.282	100.31
381.507	91.31
381.733	104.31
381.958	97.31
382.184	103.31
382.409	98.31
382.634	103.31
382.86	95.31
383.085	104.31
383.31	118.31
383.535	94.31
383.761	102.31
383.986	101.31
384.211	103.31
384.436	117.31
384.662	112.31
384.887	105.31
385.112	103.31
385.337	99.31
385.562	111.31
385.787	116.31
386.013	123.31
386.238	97.31
386.463	114.31
386.688	107.31
386.913	96.31
387.138	116.31
387.363	102.31
387.588	96.31
387.813	103.31
388.038	126.31
388.263	109.31
388.488	113.31
388.713	96.31
388.938	106.31
389.163	103.31
389.387	95.31
389.612	90.31
389.837	110.31
390.062	103.31
390.287	82.31
390.512	88.31
390.736	102.31
390.961	95.31
391.186	94.31
391.411	101.31
391.636	94.31
391.86	84.31
392.085	71.31
392.31	88.31
392.534	91.31
392.759	90.31
392.984	91.31
393.208	95.31
393.433	92.31
393.658	88.31
393.882	83.31
394.107	90.31
394.331	96.31
394.556	81.31
394.78	87.31
395.005	103.31
395.229	86.31
395.454	83.31
395.678	87.31
395.903	97.31
396.127	89.31
396.352	89.31
396.576	93.31
396.801	79.31
397.025	96.31
397.249	88.31
397.474	91.31
397.698	77.31
397.922	85.31
398.147	86.31
398.371	89.31
398.595	76.31
398.82	96.31
399.044	100.31
399.268	88.31
399.492	99.31
399.717	90.31
399.941	85.31
400.165	92.31
400.389	89.31
400.613	90.31
400.837	80.31
401.062	89.31
401.286	83.31
401.51	91.31
401.734	99.31
401.958	105.31
402.182	117.31
402.406	145.31
402.63	101.31
402.854	93.31
403.078	95.31
403.302	95.31
403.526	91.31
403.75	85.31
403.974	82.31
404.198	80.31
404.422	86.31
404.645	92.31
404.869	79.31
405.093	96.31
405.317	99.31
405.541	98.31
405.765	89.31
405.988	114.31
406.212	142.31
406.436	189.31
406.66	134.31
406.883	103.31
407.107	95.31
407.331	89.31
407.555	97.31
407.778	94.31
408.002	99.31
408.226	95.31
408.449	97.31
408.673	94.31
408.896	89.31
409.12	90.31
409.344	101.31
409.567	92.31
409.791	89.31
410.014	93.31
410.238	103.31
410.461	88.31
410.685	87.31
410.908	104.31
411.132	104.31
411.355	86.31
411.578	92.31
411.802	96.31
412.025	91.31
412.249	80.31
412.472	87.31
412.695	88.31
412.919	82.31
413.142	96.31
413.365	103.31
413.589	86.31
413.812	96.31
414.035	84.31
414.258	96.31
414.482	87.31
414.705	100.31
414.928	90.31
415.151	95.31
415.374	91.31
415.597	104.31
415.821	108.31
416.044	89.31
416.267	109.31
416.49	80.31
416.713	92.31
416.936	80.31
417.159	87.31
417.382	86.31
417.605	83.31
417.828	84.31
418.051	91.31
418.274	101.31
418.497	99.31
418.72	93.31
418.943	93.31
419.166	78.31
419.389	85.31
419.611	80.31
419.834	102.31
420.057	88.31
420.28	85.31
420.503	80.31
420.726	96.31
420.948	101.31
421.171	99.31
421.394	94.31
421.617	89.31
421.839	95.31
422.062	96.31
422.285	99.31
422.507	112.31
422.73	107.31
422.953	107.31
423.175	90.31
423.398	97.31
423.621	91.31
423.843	92.31
424.066	95.31
424.288	91.31
424.511	92.31
424.733	103.31
424.956	114.31
425.178	96.31
425.401	92.31
425.623	105.31
425.846	80.31
426.068	91.31
426.291	99.31
426.513	100.31
426.735	83.31
426.958	107.31
427.18	108.31
427.402	123.31
427.625	143.31
427.847	123.31
428.069	97.31
428.292	79.31
428.514	101.31
428.736	98.31
428.958	99.31
429.181	85.31
429.403	89.31
429.625	83.31
429.847	91.31
430.069	89.31
430.292	93.31
430.514	101.31
430.736	90.31
430.958	89.31
431.18	68.31
431.402	93.31
431.624	81.31
431.846	86.31
432.068	81.31
432.29	89.31
432.512	94.31
432.734	85.31
432.956	92.31
433.178	91.31
433.4	94.31
433.622	88.31
433.844	85.31
434.066	83.31
434.287	86.31
434.509	99.31
434.731	104.31
434.953	86.31
435.175	89.31
435.397	89.31
435.618	106.31
435.84	98.31
436.062	128.31
436.284	126.31
436.505	106.31
436.727	106.31
436.949	90.31
437.17	86.31
437.392	79.31
437.614	85.31
437.835	110.31
438.057	111.31
438.278	103.31
438.5	95.31
438.721	118.31
438.943	113.31
439.165	97.31
439.386	93.31
439.608	94.31
439.829	92.31
440.05	126.31
440.272	148.31
440.493	103.31
440.715	83.31
440.936	99.31
441.158	84.31
441.379	101.31
441.6	94.31
441.822	107.31
442.043	93.31
442.264	102.31
442.486	91.31
442.707	107.31
442.928	106.31
443.149	121.31
443.371	123.31
443.592	110.31
443.813	106.31
444.034	98.31
444.255	92.31
444.476	87.31
444.698	87.31
444.919	82.31
445.14	133.31
445.361	118.31
445.582	108.31
445.803	138.31
446.024	127.31
446.245	115.31
446.466	106.31
446.687	93.31
446.908	86.31
447.129	75.31
447.35	102.31
447.571	91.31
447.792	108.31
448.013	99.31
448.234	100.31
448.455	98.31
448.675	97.31
448.896	111.31
449.117	101.31
449.338	110.31
449.559	125.31
449.779	137.31
450	95.31
450.221	88.31
450.442	76.31
450.662	104.31
450.883	101.31
451.104	106.31
451.324	99.31
451.545	89.31
451.766	95.31
451.986	97.31
452.207	88.31
452.428	96.31
452.648	99.31
452.869	115.31
453.089	116.31
453.31	112.31
453.53	88.31
453.751	98.31
453.971	100.31
454.192	111.31
454.412	90.31
454.633	79.31
454.853	95.31
455.073	66.31
455.294	89.31
455.514	89.31
455.734	83.31
455.955	79.31
456.175	93.31
456.395	78.31
456.616	82.31
456.836	86.31
457.056	97.31
457.276	79.31
457.497	87.31
457.717	81.31
457.937	88.31
458.157	82.31
458.377	89.31
458.598	101.31
458.818	147.31
459.038	131.31
459.258	117.31
459.478	91.31
459.698	94.31
459.918	90.31
460.138	84.31
460.358	87.31
460.578	98.31
460.798	97.31
461.018	101.31
461.238	94.31
461.458	96.31
461.678	92.31
461.898	91.31
462.118	102.31
462.338	89.31
462.558	81.31
462.777	89.31
462.997	84.31
463.217	102.31
463.437	88.31
463.657	83.31
463.876	80.31
464.096	92.31
464.316	97.31
464.536	100.31
464.755	101.31
464.975	110.31
465.195	159.31
465.414	146.31
465.634	98.31
465.854	87.31
466.073	83.31
466.293	93.31
466.512	75.31
466.732	83.31
466.951	87.31
467.171	87.31
467.391	86.31
467.61	110.31
467.829	99.31
468.049	83.31
468.268	106.31
468.488	93.31
468.707	78.31
468.927	79.31
469.146	95.31
469.365	74.31
469.585	85.31
469.804	99.31
470.023	92.31
470.243	83.31
470.462	94.31
470.681	101.31
470.901	73.31
471.12	98.31
471.339	96.31
471.558	85.31
471.777	93.31
471.997	96.31
472.216	90.31
472.435	86.31
472.654	101.31
472.873	97.31
473.092	96.31
473.311	83.31
473.53	84.31
473.749	81.31
473.968	111.31
474.187	106.31
474.406	96.31
474.625	93.31
474.844	84.31
475.063	91.31
475.282	93.31
475.501	84.31
475.72	83.31
475.939	85.31
476.158	83.31
476.377	90.31
476.596	88.31
476.814	80.31
477.033	106.31
477.252	80.31
477.471	81.31
477.69	84.31
477.908	85.31
478.127	84.31
478.346	96.31
478.564	92.31
478.783	89.31
479.002	102.31
479.22	94.31
479.439	94.31
479.658	98.31
479.876	99.31
480.095	83.31
480.313	95.31
480.532	89.31
480.751	87.31
480.969	82.31
481.188	93.31
481.406	86.31
481.624	104.31
481.843	101.31
482.061	100.31
482.28	96.31
482.498	88.31
482.717	72.31
482.935	91.31
483.153	98.31
483.372	82.31
483.59	91.31
483.808	102.31
484.027	100.31
484.245	89.31
484.463	105.31
484.681	97.31
484.9	99.31
485.118	98.31
485.336	91.31
485.554	89.31
485.772	105.31
485.99	99.31
486.209	109.31
486.427	107.31
486.645	93.31
486.863	107.31
487.081	95.31
487.299	94.31
487.517	86.31
487.735	86.31
487.953	101.31
488.171	101.31
488.389	96.31
488.607	93.31
488.825	101.31
489.043	102.31
489.261	93.31
489.479	79.31
489.696	106.31
489.914	79.31
490.132	88.31
490.35	91.31
490.568	90.31
490.786	106.31
491.003	88.31
491.221	84.31
491.439	88.31
491.657	112.31
491.874	103.31
492.092	95.31
492.31	86.31
492.527	89.31
492.745	93.31
492.963	100.31
493.18	96.31
493.398	93.31
493.615	101.31
493.833	86.31
494.05	93.31
494.268	80.31
494.485	85.31
494.703	101.31
494.92	79.31
495.138	106.31
495.355	98.31
495.573	77.31
495.79	84.31
496.008	88.31
496.225	81.31
496.442	98.31
496.66	87.31
496.877	86.31
497.094	83.31
497.312	87.31
497.529	103.31
497.746	87.31
497.963	91.31
498.181	92.31
498.398	89.31
498.615	99.31
498.832	95.31
499.049	98.31
499.267	99.31
499.484	88.31
499.701	95.31
499.918	81.31
500.135	87.31
500.352	98.31
500.569	97.31
500.786	81.31
501.003	95.31
501.22	96.31
501.437	95.31
501.654	95.31
501.871	105.31
502.088	98.31
502.305	107.31
502.522	89.31
502.739	84.31
502.956	97.31
503.172	98.31
503.389	95.31
503.606	112.31
503.823	105.31
504.04	101.31
504.256	99.31
504.473	95.31
504.69	103.31
504.907	109.31
505.123	95.31
505.34	73.31
505.557	80.31
505.773	92.31
505.99	92.31
506.207	94.31
506.423	95.31
506.64	95.31
506.856	110.31
507.073	105.31
507.289	93.31
507.506	72.31
507.722	114.31
507.939	117.31
508.155	91.31
508.372	91.31
508.588	105.31
508.805	103.31
509.021	107.31
509.238	77.31
509.454	88.31
509.67	104.31
509.887	114.31
510.103	141.31
510.319	229.31
510.536	753.31
510.752	2261.31
510.968	651.31
511.184	157.31
511.401	95.31
511.617	101.31
511.833	95.31
512.049	99.31
512.265	97.31
512.481	87.31
512.698	94.31
512.914	95.31
513.13	105.31
513.346	100.31
513.562	99.31
513.778	97.31
513.994	101.31
514.21	106.31
514.426	107.31
514.642	127.31
514.858	125.31
515.074	163.31
