Data from Uncirc_2006_H10_HRD10591_00076.txt Node
Date: Wed Jan 03 10:25:10 EST 2024
User: Yrep
Spectrometer: HR+D1059
Trigger mode: 1
Integration Time (sec): 1.000000E-1
Scans to average: 1
Electric dark correction enabled: true
Nonlinearity correction enabled: false
Boxcar width: 0
XAxis mode: Wavelengths
Number of Pixels in Spectrum: 2048
>>>>>Begin Spectral Data<<<<<
223.165	-20.06
223.4	-20.06
223.635	-20.06
223.869	-18.06
224.104	-21.06
224.338	-16.06
224.573	-15.06
224.808	-9.06
225.042	-26.06
225.277	0.94
225.511	0.94
225.746	4.94
225.98	7.94
226.215	9.94
226.449	20.94
226.683	16.94
226.918	21.94
227.152	40.94
227.387	39.94
227.621	34.94
227.856	32.94
228.09	35.94
228.324	40.94
228.559	63.94
228.793	56.94
229.027	67.94
229.262	60.94
229.496	74.94
229.73	69.94
229.964	76.94
230.199	63.94
230.433	75.94
230.667	79.94
230.901	72.94
231.136	80.94
231.37	69.94
231.604	93.94
231.838	80.94
232.072	86.94
232.306	89.94
232.541	72.94
232.775	90.94
233.009	81.94
233.243	80.94
233.477	95.94
233.711	87.94
233.945	74.94
234.179	88.94
234.413	84.94
234.647	69.94
234.881	69.94
235.115	76.94
235.349	79.94
235.583	71.94
235.817	79.94
236.051	73.94
236.285	76.94
236.519	92.94
236.753	83.94
236.987	77.94
237.221	78.94
237.455	72.94
237.689	86.94
237.922	74.94
238.156	73.94
238.39	75.94
238.624	66.94
238.858	84.94
239.091	90.94
239.325	80.94
239.559	82.94
239.793	76.94
240.027	74.94
240.26	76.94
240.494	79.94
240.728	74.94
240.961	71.94
241.195	74.94
241.429	71.94
241.662	78.94
241.896	81.94
242.13	82.94
242.363	80.94
242.597	75.94
242.83	70.94
243.064	75.94
243.298	85.94
243.531	84.94
243.765	78.94
243.998	74.94
244.232	72.94
244.465	87.94
244.699	75.94
244.932	75.94
245.166	75.94
245.399	69.94
245.633	74.94
245.866	93.94
246.099	71.94
246.333	67.94
246.566	81.94
246.8	74.94
247.033	76.94
247.266	63.94
247.5	85.94
247.733	71.94
247.966	86.94
248.2	80.94
248.433	79.94
248.666	91.94
248.899	78.94
249.133	84.94
249.366	102.94
249.599	98.94
249.832	91.94
250.066	70.94
250.299	90.94
250.532	81.94
250.765	81.94
250.998	78.94
251.231	78.94
251.465	76.94
251.698	91.94
251.931	89.94
252.164	88.94
252.397	71.94
252.63	70.94
252.863	71.94
253.096	86.94
253.329	77.94
253.562	71.94
253.795	80.94
254.028	74.94
254.261	73.94
254.494	82.94
254.727	69.94
254.96	85.94
255.193	86.94
255.426	74.94
255.659	73.94
255.892	86.94
256.124	88.94
256.357	86.94
256.59	73.94
256.823	79.94
257.056	77.94
257.289	78.94
257.521	74.94
257.754	84.94
257.987	93.94
258.22	69.94
258.452	75.94
258.685	84.94
258.918	82.94
259.151	78.94
259.383	81.94
259.616	79.94
259.849	78.94
260.081	83.94
260.314	75.94
260.547	75.94
260.779	89.94
261.012	79.94
261.244	83.94
261.477	89.94
261.71	84.94
261.942	103.94
262.175	108.94
262.407	106.94
262.64	80.94
262.872	80.94
263.105	81.94
263.337	75.94
263.57	76.94
263.802	64.94
264.035	81.94
264.267	71.94
264.499	100.94
264.732	93.94
264.964	92.94
265.197	75.94
265.429	80.94
265.661	84.94
265.894	84.94
266.126	85.94
266.358	78.94
266.591	81.94
266.823	94.94
267.055	78.94
267.287	70.94
267.52	74.94
267.752	87.94
267.984	79.94
268.216	72.94
268.448	84.94
268.681	82.94
268.913	77.94
269.145	84.94
269.377	84.94
269.609	89.94
269.841	92.94
270.073	70.94
270.306	86.94
270.538	81.94
270.77	92.94
271.002	81.94
271.234	66.94
271.466	82.94
271.698	77.94
271.93	83.94
272.162	92.94
272.394	87.94
272.626	79.94
272.858	85.94
273.09	75.94
273.322	82.94
273.553	90.94
273.785	87.94
274.017	71.94
274.249	75.94
274.481	69.94
274.713	82.94
274.945	98.94
275.176	81.94
275.408	94.94
275.64	91.94
275.872	76.94
276.104	84.94
276.335	74.94
276.567	101.94
276.799	93.94
277.031	74.94
277.262	89.94
277.494	83.94
277.726	96.94
277.957	95.94
278.189	77.94
278.421	90.94
278.652	100.94
278.884	78.94
279.115	81.94
279.347	97.94
279.579	75.94
279.81	100.94
280.042	99.94
280.273	89.94
280.505	89.94
280.736	74.94
280.968	84.94
281.199	83.94
281.431	90.94
281.662	84.94
281.894	75.94
282.125	85.94
282.356	110.94
282.588	110.94
282.819	93.94
283.051	87.94
283.282	71.94
283.513	81.94
283.745	89.94
283.976	104.94
284.207	85.94
284.439	80.94
284.67	81.94
284.901	84.94
285.132	84.94
285.364	90.94
285.595	97.94
285.826	87.94
286.057	90.94
286.288	85.94
286.52	94.94
286.751	90.94
286.982	105.94
287.213	91.94
287.444	91.94
287.675	95.94
287.906	90.94
288.138	86.94
288.369	84.94
288.6	84.94
288.831	84.94
289.062	90.94
289.293	96.94
289.524	88.94
289.755	76.94
289.986	81.94
290.217	88.94
290.448	79.94
290.679	92.94
290.91	98.94
291.141	78.94
291.371	97.94
291.602	87.94
291.833	87.94
292.064	79.94
292.295	82.94
292.526	104.94
292.757	103.94
292.987	82.94
293.218	83.94
293.449	90.94
293.68	83.94
293.91	78.94
294.141	94.94
294.372	92.94
294.603	91.94
294.833	85.94
295.064	89.94
295.295	76.94
295.525	88.94
295.756	92.94
295.987	116.94
296.217	102.94
296.448	117.94
296.679	91.94
296.909	91.94
297.14	97.94
297.37	80.94
297.601	84.94
297.831	77.94
298.062	94.94
298.292	90.94
298.523	86.94
298.753	89.94
298.984	91.94
299.214	78.94
299.445	87.94
299.675	84.94
299.905	99.94
300.136	79.94
300.366	84.94
300.597	86.94
300.827	93.94
301.057	100.94
301.288	94.94
301.518	96.94
301.748	85.94
301.979	96.94
302.209	100.94
302.439	82.94
302.669	97.94
302.9	82.94
303.13	87.94
303.36	92.94
303.59	97.94
303.82	93.94
304.051	94.94
304.281	101.94
304.511	90.94
304.741	94.94
304.971	96.94
305.201	78.94
305.431	101.94
305.661	85.94
305.891	87.94
306.121	80.94
306.352	103.94
306.582	108.94
306.812	92.94
307.042	92.94
307.272	80.94
307.502	88.94
307.731	80.94
307.961	76.94
308.191	97.94
308.421	102.94
308.651	89.94
308.881	79.94
309.111	100.94
309.341	79.94
309.571	94.94
309.8	99.94
310.03	85.94
310.26	104.94
310.49	86.94
310.72	91.94
310.949	104.94
311.179	91.94
311.409	93.94
311.639	102.94
311.868	106.94
312.098	75.94
312.328	94.94
312.557	103.94
312.787	91.94
313.017	95.94
313.246	83.94
313.476	82.94
313.706	83.94
313.935	87.94
314.165	92.94
314.394	90.94
314.624	100.94
314.853	81.94
315.083	98.94
315.312	93.94
315.542	87.94
315.771	101.94
316.001	97.94
316.23	84.94
316.46	74.94
316.689	87.94
316.919	92.94
317.148	87.94
317.377	95.94
317.607	104.94
317.836	76.94
318.065	84.94
318.295	100.94
318.524	90.94
318.753	89.94
318.983	92.94
319.212	102.94
319.441	101.94
319.67	114.94
319.9	94.94
320.129	95.94
320.358	84.94
320.587	95.94
320.816	100.94
321.046	101.94
321.275	89.94
321.504	86.94
321.733	71.94
321.962	96.94
322.191	95.94
322.42	104.94
322.649	115.94
322.878	97.94
323.108	111.94
323.337	115.94
323.566	132.94
323.795	157.94
324.024	202.94
324.253	385.94
324.482	829.94
324.71	1671.94
324.939	2161.94
325.168	797.94
325.397	229.94
325.626	151.94
325.855	123.94
326.084	135.94
326.313	120.94
326.542	162.94
326.77	238.94
326.999	465.94
327.228	939.94
327.457	1714.94
327.686	1328.94
327.914	359.94
328.143	201.94
328.372	133.94
328.6	115.94
328.829	129.94
329.058	107.94
329.287	125.94
329.515	104.94
329.744	100.94
329.972	93.94
330.201	98.94
330.43	94.94
330.658	104.94
330.887	116.94
331.115	99.94
331.344	93.94
331.572	84.94
331.801	91.94
332.03	105.94
332.258	112.94
332.486	101.94
332.715	90.94
332.943	99.94
333.172	91.94
333.4	90.94
333.629	100.94
333.857	93.94
334.085	105.94
334.314	98.94
334.542	88.94
334.771	87.94
334.999	107.94
335.227	93.94
335.455	103.94
335.684	103.94
335.912	105.94
336.14	89.94
336.369	90.94
336.597	82.94
336.825	91.94
337.053	97.94
337.281	95.94
337.51	94.94
337.738	100.94
337.966	100.94
338.194	101.94
338.422	86.94
338.65	89.94
338.878	69.94
339.106	83.94
339.334	96.94
339.562	93.94
339.79	83.94
340.018	70.94
340.246	89.94
340.474	90.94
340.702	85.94
340.93	83.94
341.158	95.94
341.386	100.94
341.614	84.94
341.842	88.94
342.07	113.94
342.298	89.94
342.526	82.94
342.754	98.94
342.981	100.94
343.209	84.94
343.437	93.94
343.665	97.94
343.893	97.94
344.12	92.94
344.348	86.94
344.576	78.94
344.804	87.94
345.031	78.94
345.259	91.94
345.487	100.94
345.714	106.94
345.942	97.94
346.17	105.94
346.397	86.94
346.625	92.94
346.853	86.94
347.08	88.94
347.308	80.94
347.535	87.94
347.763	90.94
347.99	92.94
348.218	92.94
348.445	108.94
348.673	88.94
348.9	92.94
349.128	87.94
349.355	88.94
349.583	93.94
349.81	83.94
350.037	93.94
350.265	86.94
350.492	85.94
350.72	95.94
350.947	103.94
351.174	107.94
351.402	97.94
351.629	91.94
351.856	92.94
352.083	106.94
352.311	116.94
352.538	103.94
352.765	115.94
352.992	93.94
353.22	115.94
353.447	106.94
353.674	104.94
353.901	104.94
354.128	95.94
354.355	101.94
354.583	102.94
354.81	103.94
355.037	96.94
355.264	94.94
355.491	98.94
355.718	79.94
355.945	105.94
356.172	108.94
356.399	85.94
356.626	90.94
356.853	92.94
357.08	87.94
357.307	112.94
357.534	103.94
357.761	102.94
357.988	94.94
358.215	89.94
358.441	98.94
358.668	94.94
358.895	96.94
359.122	83.94
359.349	73.94
359.576	87.94
359.802	100.94
360.029	100.94
360.256	102.94
360.483	90.94
360.709	90.94
360.936	92.94
361.163	94.94
361.39	97.94
361.616	91.94
361.843	104.94
362.07	82.94
362.296	98.94
362.523	94.94
362.749	80.94
362.976	102.94
363.203	89.94
363.429	92.94
363.656	92.94
363.882	82.94
364.109	78.94
364.335	81.94
364.562	94.94
364.788	87.94
365.015	87.94
365.241	78.94
365.468	102.94
365.694	104.94
365.92	92.94
366.147	87.94
366.373	82.94
366.599	102.94
366.826	89.94
367.052	97.94
367.278	85.94
367.505	84.94
367.731	90.94
367.957	87.94
368.184	85.94
368.41	97.94
368.636	118.94
368.862	113.94
369.089	111.94
369.315	78.94
369.541	81.94
369.767	90.94
369.993	93.94
370.219	95.94
370.445	85.94
370.672	89.94
370.898	91.94
371.124	85.94
371.35	97.94
371.576	86.94
371.802	75.94
372.028	83.94
372.254	79.94
372.48	85.94
372.706	99.94
372.932	80.94
373.158	89.94
373.384	88.94
373.61	82.94
373.835	83.94
374.061	90.94
374.287	95.94
374.513	78.94
374.739	92.94
374.965	85.94
375.191	87.94
375.416	92.94
375.642	95.94
375.868	90.94
376.094	87.94
376.319	79.94
376.545	83.94
376.771	78.94
376.997	90.94
377.222	97.94
377.448	85.94
377.674	93.94
377.899	91.94
378.125	90.94
378.35	98.94
378.576	95.94
378.802	95.94
379.027	91.94
379.253	81.94
379.478	80.94
379.704	101.94
379.929	98.94
380.155	87.94
380.38	97.94
380.606	90.94
380.831	94.94
381.057	94.94
381.282	91.94
381.507	101.94
381.733	82.94
381.958	84.94
382.184	107.94
382.409	99.94
382.634	100.94
382.86	112.94
383.085	93.94
383.31	105.94
383.535	97.94
383.761	85.94
383.986	98.94
384.211	116.94
384.436	99.94
384.662	87.94
384.887	98.94
385.112	98.94
385.337	112.94
385.562	96.94
385.787	94.94
386.013	94.94
386.238	113.94
386.463	96.94
386.688	106.94
386.913	108.94
387.138	107.94
387.363	99.94
387.588	89.94
387.813	100.94
388.038	108.94
388.263	96.94
388.488	102.94
388.713	98.94
388.938	93.94
389.163	107.94
389.387	91.94
389.612	94.94
389.837	94.94
390.062	101.94
390.287	96.94
390.512	105.94
390.736	90.94
390.961	86.94
391.186	93.94
391.411	92.94
391.636	85.94
391.86	80.94
392.085	69.94
392.31	90.94
392.534	89.94
392.759	87.94
392.984	106.94
393.208	95.94
393.433	88.94
393.658	88.94
393.882	62.94
394.107	86.94
394.331	83.94
394.556	84.94
394.78	92.94
395.005	100.94
395.229	98.94
395.454	96.94
395.678	68.94
395.903	87.94
396.127	82.94
396.352	78.94
396.576	79.94
396.801	101.94
397.025	81.94
397.249	87.94
397.474	79.94
397.698	95.94
397.922	80.94
398.147	89.94
398.371	96.94
398.595	88.94
398.82	92.94
399.044	91.94
399.268	92.94
399.492	69.94
399.717	89.94
399.941	80.94
400.165	97.94
400.389	91.94
400.613	92.94
400.837	94.94
401.062	91.94
401.286	100.94
401.51	89.94
401.734	90.94
401.958	92.94
402.182	137.94
402.406	147.94
402.63	115.94
402.854	81.94
403.078	92.94
403.302	94.94
403.526	89.94
403.75	95.94
403.974	87.94
404.198	95.94
404.422	91.94
404.645	73.94
404.869	92.94
405.093	94.94
405.317	96.94
405.541	95.94
405.765	97.94
405.988	106.94
406.212	160.94
406.436	207.94
406.66	142.94
406.883	92.94
407.107	87.94
407.331	87.94
407.555	101.94
407.778	90.94
408.002	91.94
408.226	86.94
408.449	100.94
408.673	91.94
408.896	84.94
409.12	103.94
409.344	105.94
409.567	83.94
409.791	86.94
410.014	82.94
410.238	92.94
410.461	90.94
410.685	92.94
410.908	96.94
411.132	100.94
411.355	96.94
411.578	97.94
411.802	91.94
412.025	84.94
412.249	95.94
412.472	96.94
412.695	92.94
412.919	91.94
413.142	89.94
413.365	108.94
413.589	94.94
413.812	87.94
414.035	88.94
414.258	81.94
414.482	96.94
414.705	86.94
414.928	99.94
415.151	96.94
415.374	96.94
415.597	108.94
415.821	86.94
416.044	104.94
416.267	98.94
416.49	74.94
416.713	90.94
416.936	71.94
417.159	77.94
417.382	92.94
417.605	94.94
417.828	82.94
418.051	95.94
418.274	95.94
418.497	100.94
418.72	94.94
418.943	79.94
419.166	86.94
419.389	87.94
419.611	88.94
419.834	92.94
420.057	93.94
420.28	91.94
420.503	74.94
420.726	83.94
420.948	81.94
421.171	93.94
421.394	80.94
421.617	81.94
421.839	79.94
422.062	80.94
422.285	83.94
422.507	95.94
422.73	99.94
422.953	84.94
423.175	75.94
423.398	85.94
423.621	84.94
423.843	104.94
424.066	100.94
424.288	99.94
424.511	91.94
424.733	97.94
424.956	108.94
425.178	86.94
425.401	92.94
425.623	100.94
425.846	90.94
426.068	91.94
426.291	108.94
426.513	92.94
426.735	79.94
426.958	90.94
427.18	82.94
427.402	135.94
427.625	145.94
427.847	114.94
428.069	97.94
428.292	77.94
428.514	79.94
428.736	78.94
428.958	84.94
429.181	95.94
429.403	91.94
429.625	85.94
429.847	85.94
430.069	101.94
430.292	82.94
430.514	86.94
430.736	78.94
430.958	86.94
431.18	92.94
431.402	82.94
431.624	90.94
431.846	84.94
432.068	92.94
432.29	87.94
432.512	99.94
432.734	88.94
432.956	113.94
433.178	109.94
433.4	100.94
433.622	82.94
433.844	96.94
434.066	82.94
434.287	98.94
434.509	86.94
434.731	90.94
434.953	81.94
435.175	105.94
435.397	84.94
435.618	71.94
435.84	93.94
436.062	112.94
436.284	105.94
436.505	98.94
436.727	108.94
436.949	78.94
437.17	87.94
437.392	90.94
437.614	96.94
437.835	104.94
438.057	106.94
438.278	103.94
438.5	85.94
438.721	114.94
438.943	84.94
439.165	79.94
439.386	83.94
439.608	96.94
439.829	99.94
440.05	114.94
440.272	150.94
440.493	93.94
440.715	79.94
440.936	83.94
441.158	97.94
441.379	95.94
441.6	96.94
441.822	77.94
442.043	89.94
442.264	88.94
442.486	86.94
442.707	98.94
442.928	102.94
443.149	119.94
443.371	114.94
443.592	94.94
443.813	97.94
444.034	105.94
444.255	80.94
444.476	97.94
444.698	82.94
444.919	94.94
445.14	127.94
445.361	113.94
445.582	109.94
445.803	112.94
446.024	119.94
446.245	126.94
446.466	97.94
446.687	85.94
446.908	96.94
447.129	97.94
447.35	92.94
447.571	81.94
447.792	85.94
448.013	93.94
448.234	94.94
448.455	95.94
448.675	118.94
448.896	114.94
449.117	91.94
449.338	106.94
449.559	122.94
449.779	124.94
450	98.94
450.221	91.94
450.442	81.94
450.662	111.94
450.883	94.94
451.104	107.94
451.324	92.94
451.545	78.94
451.766	83.94
451.986	92.94
452.207	90.94
452.428	84.94
452.648	94.94
452.869	108.94
453.089	109.94
453.31	106.94
453.53	91.94
453.751	73.94
453.971	100.94
454.192	113.94
454.412	86.94
454.633	109.94
454.853	90.94
455.073	75.94
455.294	85.94
455.514	98.94
455.734	90.94
455.955	89.94
456.175	83.94
456.395	88.94
456.616	83.94
456.836	87.94
457.056	75.94
457.276	85.94
457.497	79.94
457.717	77.94
457.937	84.94
458.157	90.94
458.377	95.94
458.598	108.94
458.818	130.94
459.038	137.94
459.258	122.94
459.478	84.94
459.698	87.94
459.918	75.94
460.138	91.94
460.358	86.94
460.578	85.94
460.798	83.94
461.018	97.94
461.238	81.94
461.458	89.94
461.678	80.94
461.898	68.94
462.118	91.94
462.338	98.94
462.558	94.94
462.777	104.94
462.997	84.94
463.217	85.94
463.437	81.94
463.657	92.94
463.876	94.94
464.096	83.94
464.316	87.94
464.536	101.94
464.755	91.94
464.975	105.94
465.195	143.94
465.414	158.94
465.634	95.94
465.854	87.94
466.073	84.94
466.293	85.94
466.512	84.94
466.732	95.94
466.951	74.94
467.171	89.94
467.391	98.94
467.61	97.94
467.829	94.94
468.049	97.94
468.268	97.94
468.488	93.94
468.707	82.94
468.927	88.94
469.146	88.94
469.365	97.94
469.585	92.94
469.804	101.94
470.023	104.94
470.243	95.94
470.462	105.94
470.681	103.94
470.901	87.94
471.12	84.94
471.339	92.94
471.558	82.94
471.777	84.94
471.997	81.94
472.216	86.94
472.435	76.94
472.654	83.94
472.873	97.94
473.092	78.94
473.311	86.94
473.53	80.94
473.749	93.94
473.968	84.94
474.187	103.94
474.406	93.94
474.625	84.94
474.844	93.94
475.063	97.94
475.282	81.94
475.501	88.94
475.72	81.94
475.939	85.94
476.158	82.94
476.377	102.94
476.596	90.94
476.814	103.94
477.033	111.94
477.252	86.94
477.471	94.94
477.69	95.94
477.908	95.94
478.127	80.94
478.346	99.94
478.564	90.94
478.783	96.94
479.002	98.94
479.22	92.94
479.439	105.94
479.658	87.94
479.876	91.94
480.095	79.94
480.313	97.94
480.532	102.94
480.751	83.94
480.969	106.94
481.188	89.94
481.406	87.94
481.624	91.94
481.843	87.94
482.061	81.94
482.28	94.94
482.498	90.94
482.717	91.94
482.935	89.94
483.153	92.94
483.372	84.94
483.59	93.94
483.808	78.94
484.027	82.94
484.245	91.94
484.463	100.94
484.681	91.94
484.9	87.94
485.118	93.94
485.336	93.94
485.554	103.94
485.772	106.94
485.99	108.94
486.209	86.94
486.427	101.94
486.645	103.94
486.863	103.94
487.081	92.94
487.299	87.94
487.517	91.94
487.735	88.94
487.953	99.94
488.171	90.94
488.389	81.94
488.607	86.94
488.825	82.94
489.043	81.94
489.261	72.94
489.479	81.94
489.696	90.94
489.914	103.94
490.132	81.94
490.35	93.94
490.568	76.94
490.786	95.94
491.003	98.94
491.221	100.94
491.439	97.94
491.657	105.94
491.874	106.94
492.092	77.94
492.31	95.94
492.527	98.94
492.745	93.94
492.963	90.94
493.18	91.94
493.398	104.94
493.615	86.94
493.833	99.94
494.05	91.94
494.268	89.94
494.485	78.94
494.703	77.94
494.92	88.94
495.138	87.94
495.355	83.94
495.573	76.94
495.79	93.94
496.008	89.94
496.225	85.94
496.442	83.94
496.66	96.94
496.877	90.94
497.094	80.94
497.312	93.94
497.529	72.94
497.746	86.94
497.963	93.94
498.181	74.94
498.398	92.94
498.615	91.94
498.832	92.94
499.049	93.94
499.267	93.94
499.484	91.94
499.701	91.94
499.918	86.94
500.135	91.94
500.352	88.94
500.569	65.94
500.786	82.94
501.003	95.94
501.22	93.94
501.437	86.94
501.654	109.94
501.871	93.94
502.088	73.94
502.305	86.94
502.522	87.94
502.739	81.94
502.956	97.94
503.172	85.94
503.389	101.94
503.606	93.94
503.823	90.94
504.04	84.94
504.256	94.94
504.473	70.94
504.69	90.94
504.907	102.94
505.123	97.94
505.34	82.94
505.557	73.94
505.773	89.94
505.99	83.94
506.207	96.94
506.423	89.94
506.64	102.94
506.856	107.94
507.073	100.94
507.289	87.94
507.506	100.94
507.722	105.94
507.939	111.94
508.155	98.94
508.372	105.94
508.588	110.94
508.805	101.94
509.021	82.94
509.238	86.94
509.454	105.94
509.67	111.94
509.887	113.94
510.103	119.94
510.319	195.94
510.536	685.94
510.752	2156.94
510.968	611.94
511.184	153.94
511.401	115.94
511.617	105.94
511.833	91.94
512.049	95.94
512.265	92.94
512.481	83.94
512.698	77.94
512.914	96.94
513.13	103.94
513.346	98.94
513.562	93.94
513.778	90.94
513.994	97.94
514.21	94.94
514.426	108.94
514.642	104.94
514.858	121.94
515.074	148.94
515.29	401.94
515.506	1317.94
515.721	484.94
515.937	132.94
516.153	115.94
516.369	94.94
