Data from Uncirc_2006_H10_HRD10591_00060.txt Node
Date: Wed Jan 03 10:25:07 EST 2024
User: Yrep
Spectrometer: HR+D1059
Trigger mode: 1
Integration Time (sec): 1.000000E-1
Scans to average: 1
Electric dark correction enabled: true
Nonlinearity correction enabled: false
Boxcar width: 0
XAxis mode: Wavelengths
Number of Pixels in Spectrum: 2048
>>>>>Begin Spectral Data<<<<<
223.165	-18.31
223.4	-18.31
223.635	-18.31
223.869	-18.31
224.104	-14.31
224.338	-14.31
224.573	-26.31
224.808	-11.31
225.042	-6.31
225.277	-14.31
225.511	-11.31
225.746	-4.31
225.98	13.69
226.215	16.69
226.449	33.69
226.683	18.69
226.918	23.69
227.152	32.69
227.387	35.69
227.621	47.69
227.856	31.69
228.09	43.69
228.324	71.69
228.559	61.69
228.793	63.69
229.027	61.69
229.262	65.69
229.496	80.69
229.73	73.69
229.964	96.69
230.199	80.69
230.433	73.69
230.667	94.69
230.901	88.69
231.136	85.69
231.37	79.69
231.604	87.69
231.838	90.69
232.072	84.69
232.306	81.69
232.541	93.69
232.775	91.69
233.009	96.69
233.243	99.69
233.477	88.69
233.711	97.69
233.945	99.69
234.179	80.69
234.413	86.69
234.647	76.69
234.881	82.69
235.115	86.69
235.349	70.69
235.583	82.69
235.817	76.69
236.051	100.69
236.285	91.69
236.519	74.69
236.753	82.69
236.987	83.69
237.221	74.69
237.455	83.69
237.689	81.69
237.922	85.69
238.156	88.69
238.39	90.69
238.624	86.69
238.858	76.69
239.091	79.69
239.325	79.69
239.559	67.69
239.793	88.69
240.027	71.69
240.26	91.69
240.494	81.69
240.728	79.69
240.961	81.69
241.195	62.69
241.429	82.69
241.662	69.69
241.896	71.69
242.13	86.69
242.363	75.69
242.597	84.69
242.83	85.69
243.064	72.69
243.298	82.69
243.531	83.69
243.765	70.69
243.998	84.69
244.232	70.69
244.465	90.69
244.699	82.69
244.932	101.69
245.166	80.69
245.399	80.69
245.633	77.69
245.866	98.69
246.099	89.69
246.333	72.69
246.566	77.69
246.8	81.69
247.033	81.69
247.266	91.69
247.5	67.69
247.733	75.69
247.966	93.69
248.2	79.69
248.433	80.69
248.666	83.69
248.899	88.69
249.133	82.69
249.366	95.69
249.599	100.69
249.832	92.69
250.066	82.69
250.299	91.69
250.532	91.69
250.765	72.69
250.998	87.69
251.231	75.69
251.465	78.69
251.698	78.69
251.931	86.69
252.164	69.69
252.397	92.69
252.63	81.69
252.863	99.69
253.096	77.69
253.329	88.69
253.562	83.69
253.795	89.69
254.028	81.69
254.261	105.69
254.494	82.69
254.727	86.69
254.96	78.69
255.193	83.69
255.426	81.69
255.659	82.69
255.892	86.69
256.124	90.69
256.357	79.69
256.59	86.69
256.823	91.69
257.056	91.69
257.289	99.69
257.521	85.69
257.754	93.69
257.987	91.69
258.22	85.69
258.452	76.69
258.685	84.69
258.918	86.69
259.151	82.69
259.383	79.69
259.616	87.69
259.849	74.69
260.081	100.69
260.314	84.69
260.547	79.69
260.779	88.69
261.012	79.69
261.244	86.69
261.477	79.69
261.71	94.69
261.942	114.69
262.175	104.69
262.407	105.69
262.64	89.69
262.872	95.69
263.105	89.69
263.337	96.69
263.57	93.69
263.802	98.69
264.035	93.69
264.267	96.69
264.499	88.69
264.732	87.69
264.964	86.69
265.197	88.69
265.429	75.69
265.661	87.69
265.894	86.69
266.126	90.69
266.358	90.69
266.591	83.69
266.823	78.69
267.055	82.69
267.287	81.69
267.52	61.69
267.752	93.69
267.984	77.69
268.216	95.69
268.448	90.69
268.681	81.69
268.913	92.69
269.145	83.69
269.377	91.69
269.609	92.69
269.841	93.69
270.073	86.69
270.306	91.69
270.538	86.69
270.77	87.69
271.002	94.69
271.234	89.69
271.466	89.69
271.698	97.69
271.93	80.69
272.162	83.69
272.394	80.69
272.626	99.69
272.858	93.69
273.09	93.69
273.322	89.69
273.553	85.69
273.785	90.69
274.017	89.69
274.249	74.69
274.481	94.69
274.713	94.69
274.945	96.69
275.176	87.69
275.408	81.69
275.64	83.69
275.872	91.69
276.104	96.69
276.335	90.69
276.567	97.69
276.799	108.69
277.031	97.69
277.262	94.69
277.494	86.69
277.726	82.69
277.957	90.69
278.189	79.69
278.421	101.69
278.652	97.69
278.884	81.69
279.115	80.69
279.347	88.69
279.579	84.69
279.81	110.69
280.042	85.69
280.273	85.69
280.505	84.69
280.736	93.69
280.968	95.69
281.199	99.69
281.431	96.69
281.662	81.69
281.894	88.69
282.125	111.69
282.356	116.69
282.588	119.69
282.819	112.69
283.051	86.69
283.282	90.69
283.513	98.69
283.745	112.69
283.976	89.69
284.207	86.69
284.439	89.69
284.67	87.69
284.901	95.69
285.132	92.69
285.364	85.69
285.595	101.69
285.826	101.69
286.057	90.69
286.288	88.69
286.52	99.69
286.751	82.69
286.982	103.69
287.213	106.69
287.444	95.69
287.675	84.69
287.906	90.69
288.138	83.69
288.369	100.69
288.6	103.69
288.831	91.69
289.062	86.69
289.293	86.69
289.524	88.69
289.755	99.69
289.986	98.69
290.217	84.69
290.448	88.69
290.679	85.69
290.91	94.69
291.141	100.69
291.371	90.69
291.602	81.69
291.833	91.69
292.064	90.69
292.295	96.69
292.526	94.69
292.757	82.69
292.987	102.69
293.218	90.69
293.449	82.69
293.68	87.69
293.91	92.69
294.141	99.69
294.372	87.69
294.603	81.69
294.833	101.69
295.064	84.69
295.295	102.69
295.525	97.69
295.756	93.69
295.987	97.69
296.217	148.69
296.448	129.69
296.679	113.69
296.909	98.69
297.14	92.69
297.37	95.69
297.601	99.69
297.831	96.69
298.062	78.69
298.292	82.69
298.523	101.69
298.753	89.69
298.984	96.69
299.214	81.69
299.445	91.69
299.675	90.69
299.905	99.69
300.136	102.69
300.366	81.69
300.597	89.69
300.827	101.69
301.057	102.69
301.288	104.69
301.518	83.69
301.748	106.69
301.979	88.69
302.209	95.69
302.439	94.69
302.669	103.69
302.9	89.69
303.13	88.69
303.36	91.69
303.59	99.69
303.82	104.69
304.051	90.69
304.281	86.69
304.511	98.69
304.741	103.69
304.971	99.69
305.201	87.69
305.431	89.69
305.661	87.69
305.891	86.69
306.121	102.69
306.352	78.69
306.582	105.69
306.812	103.69
307.042	101.69
307.272	89.69
307.502	103.69
307.731	97.69
307.961	110.69
308.191	106.69
308.421	94.69
308.651	97.69
308.881	96.69
309.111	79.69
309.341	96.69
309.571	95.69
309.8	92.69
310.03	98.69
310.26	115.69
310.49	99.69
310.72	102.69
310.949	109.69
311.179	109.69
311.409	89.69
311.639	86.69
311.868	109.69
312.098	97.69
312.328	86.69
312.557	97.69
312.787	106.69
313.017	105.69
313.246	93.69
313.476	90.69
313.706	97.69
313.935	86.69
314.165	86.69
314.394	96.69
314.624	103.69
314.853	91.69
315.083	96.69
315.312	105.69
315.542	95.69
315.771	92.69
316.001	88.69
316.23	102.69
316.46	105.69
316.689	93.69
316.919	84.69
317.148	91.69
317.377	87.69
317.607	97.69
317.836	98.69
318.065	94.69
318.295	92.69
318.524	103.69
318.753	93.69
318.983	86.69
319.212	104.69
319.441	108.69
319.67	95.69
319.9	87.69
320.129	90.69
320.358	97.69
320.587	79.69
320.816	95.69
321.046	118.69
321.275	82.69
321.504	98.69
321.733	91.69
321.962	106.69
322.191	103.69
322.42	96.69
322.649	110.69
322.878	114.69
323.108	130.69
323.337	129.69
323.566	139.69
323.795	161.69
324.024	212.69
324.253	378.69
324.482	825.69
324.71	1640.69
324.939	2177.69
325.168	786.69
325.397	230.69
325.626	139.69
325.855	139.69
326.084	128.69
326.313	132.69
326.542	155.69
326.77	230.69
326.999	454.69
327.228	898.69
327.457	1667.69
327.686	1315.69
327.914	344.69
328.143	170.69
328.372	152.69
328.6	126.69
328.829	112.69
329.058	112.69
329.287	121.69
329.515	107.69
329.744	96.69
329.972	106.69
330.201	109.69
330.43	114.69
330.658	115.69
330.887	128.69
331.115	108.69
331.344	103.69
331.572	99.69
331.801	97.69
332.03	106.69
332.258	91.69
332.486	108.69
332.715	99.69
332.943	98.69
333.172	93.69
333.4	96.69
333.629	123.69
333.857	113.69
334.085	114.69
334.314	113.69
334.542	101.69
334.771	99.69
334.999	99.69
335.227	88.69
335.455	96.69
335.684	88.69
335.912	88.69
336.14	96.69
336.369	97.69
336.597	94.69
336.825	94.69
337.053	85.69
337.281	75.69
337.51	96.69
337.738	96.69
337.966	91.69
338.194	91.69
338.422	94.69
338.65	90.69
338.878	99.69
339.106	101.69
339.334	92.69
339.562	93.69
339.79	88.69
340.018	92.69
340.246	99.69
340.474	93.69
340.702	90.69
340.93	99.69
341.158	94.69
341.386	85.69
341.614	112.69
341.842	107.69
342.07	98.69
342.298	90.69
342.526	90.69
342.754	84.69
342.981	75.69
343.209	79.69
343.437	92.69
343.665	88.69
343.893	94.69
344.12	100.69
344.348	101.69
344.576	86.69
344.804	93.69
345.031	96.69
345.259	93.69
345.487	107.69
345.714	106.69
345.942	109.69
346.17	86.69
346.397	90.69
346.625	98.69
346.853	105.69
347.08	97.69
347.308	95.69
347.535	100.69
347.763	101.69
347.99	103.69
348.218	112.69
348.445	110.69
348.673	109.69
348.9	96.69
349.128	101.69
349.355	96.69
349.583	102.69
349.81	114.69
350.037	100.69
350.265	98.69
350.492	105.69
350.72	92.69
350.947	107.69
351.174	119.69
351.402	101.69
351.629	100.69
351.856	107.69
352.083	115.69
352.311	103.69
352.538	110.69
352.765	118.69
352.992	103.69
353.22	117.69
353.447	111.69
353.674	114.69
353.901	99.69
354.128	111.69
354.355	109.69
354.583	98.69
354.81	93.69
355.037	94.69
355.264	89.69
355.491	96.69
355.718	89.69
355.945	111.69
356.172	99.69
356.399	102.69
356.626	94.69
356.853	109.69
357.08	94.69
357.307	79.69
357.534	98.69
357.761	90.69
357.988	101.69
358.215	100.69
358.441	96.69
358.668	106.69
358.895	69.69
359.122	96.69
359.349	105.69
359.576	88.69
359.802	89.69
360.029	115.69
360.256	96.69
360.483	104.69
360.709	102.69
360.936	102.69
361.163	110.69
361.39	101.69
361.616	91.69
361.843	94.69
362.07	89.69
362.296	89.69
362.523	103.69
362.749	88.69
362.976	98.69
363.203	108.69
363.429	90.69
363.656	98.69
363.882	88.69
364.109	104.69
364.335	105.69
364.562	102.69
364.788	85.69
365.015	87.69
365.241	111.69
365.468	114.69
365.694	96.69
365.92	93.69
366.147	82.69
366.373	87.69
366.599	88.69
366.826	101.69
367.052	80.69
367.278	87.69
367.505	105.69
367.731	94.69
367.957	96.69
368.184	91.69
368.41	103.69
368.636	102.69
368.862	115.69
369.089	93.69
369.315	90.69
369.541	92.69
369.767	102.69
369.993	100.69
370.219	89.69
370.445	89.69
370.672	98.69
370.898	88.69
371.124	99.69
371.35	97.69
371.576	78.69
371.802	95.69
372.028	88.69
372.254	90.69
372.48	101.69
372.706	89.69
372.932	80.69
373.158	83.69
373.384	102.69
373.61	103.69
373.835	94.69
374.061	91.69
374.287	78.69
374.513	94.69
374.739	91.69
374.965	77.69
375.191	91.69
375.416	98.69
375.642	95.69
375.868	94.69
376.094	101.69
376.319	85.69
376.545	86.69
376.771	89.69
376.997	94.69
377.222	90.69
377.448	85.69
377.674	100.69
377.899	95.69
378.125	96.69
378.35	86.69
378.576	93.69
378.802	100.69
379.027	92.69
379.253	114.69
379.478	81.69
379.704	94.69
379.929	105.69
380.155	93.69
380.38	98.69
380.606	87.69
380.831	110.69
381.057	96.69
381.282	88.69
381.507	117.69
381.733	102.69
381.958	91.69
382.184	105.69
382.409	106.69
382.634	96.69
382.86	106.69
383.085	101.69
383.31	110.69
383.535	102.69
383.761	105.69
383.986	99.69
384.211	87.69
384.436	103.69
384.662	104.69
384.887	97.69
385.112	98.69
385.337	105.69
385.562	104.69
385.787	109.69
386.013	109.69
386.238	112.69
386.463	98.69
386.688	111.69
386.913	99.69
387.138	113.69
387.363	93.69
387.588	105.69
387.813	110.69
388.038	103.69
388.263	102.69
388.488	94.69
388.713	97.69
388.938	97.69
389.163	109.69
389.387	91.69
389.612	96.69
389.837	101.69
390.062	94.69
390.287	97.69
390.512	101.69
390.736	103.69
390.961	93.69
391.186	99.69
391.411	100.69
391.636	110.69
391.86	85.69
392.085	88.69
392.31	94.69
392.534	90.69
392.759	89.69
392.984	93.69
393.208	103.69
393.433	88.69
393.658	83.69
393.882	81.69
394.107	90.69
394.331	87.69
394.556	93.69
394.78	95.69
395.005	90.69
395.229	96.69
395.454	89.69
395.678	84.69
395.903	90.69
396.127	87.69
396.352	69.69
396.576	110.69
396.801	105.69
397.025	82.69
397.249	96.69
397.474	97.69
397.698	87.69
397.922	100.69
398.147	99.69
398.371	84.69
398.595	88.69
398.82	98.69
399.044	75.69
399.268	103.69
399.492	106.69
399.717	104.69
399.941	90.69
400.165	91.69
400.389	97.69
400.613	95.69
400.837	84.69
401.062	106.69
401.286	100.69
401.51	112.69
401.734	99.69
401.958	102.69
402.182	116.69
402.406	149.69
402.63	118.69
402.854	103.69
403.078	96.69
403.302	85.69
403.526	87.69
403.75	74.69
403.974	95.69
404.198	85.69
404.422	91.69
404.645	92.69
404.869	97.69
405.093	87.69
405.317	91.69
405.541	90.69
405.765	103.69
405.988	120.69
406.212	173.69
406.436	221.69
406.66	146.69
406.883	109.69
407.107	107.69
407.331	103.69
407.555	112.69
407.778	93.69
408.002	98.69
408.226	97.69
408.449	91.69
408.673	88.69
408.896	81.69
409.12	92.69
409.344	97.69
409.567	85.69
409.791	96.69
410.014	112.69
410.238	101.69
410.461	95.69
410.685	93.69
410.908	116.69
411.132	110.69
411.355	97.69
411.578	104.69
411.802	88.69
412.025	76.69
412.249	94.69
412.472	94.69
412.695	82.69
412.919	92.69
413.142	90.69
413.365	89.69
413.589	91.69
413.812	88.69
414.035	103.69
414.258	77.69
414.482	92.69
414.705	104.69
414.928	94.69
415.151	101.69
415.374	90.69
415.597	91.69
415.821	89.69
416.044	93.69
416.267	101.69
416.49	109.69
416.713	85.69
416.936	95.69
417.159	69.69
417.382	100.69
417.605	125.69
417.828	114.69
418.051	95.69
418.274	70.69
418.497	76.69
418.72	91.69
418.943	95.69
419.166	96.69
419.389	79.69
419.611	74.69
419.834	85.69
420.057	91.69
420.28	99.69
420.503	85.69
420.726	94.69
420.948	97.69
421.171	87.69
421.394	82.69
421.617	96.69
421.839	94.69
422.062	94.69
422.285	90.69
422.507	101.69
422.73	115.69
422.953	94.69
423.175	87.69
423.398	82.69
423.621	87.69
423.843	95.69
424.066	91.69
424.288	98.69
424.511	87.69
424.733	95.69
424.956	98.69
425.178	93.69
425.401	105.69
425.623	114.69
425.846	89.69
426.068	102.69
426.291	97.69
426.513	97.69
426.735	91.69
426.958	109.69
427.18	98.69
427.402	129.69
427.625	154.69
427.847	141.69
428.069	107.69
428.292	98.69
428.514	89.69
428.736	86.69
428.958	92.69
429.181	104.69
429.403	98.69
429.625	87.69
429.847	100.69
430.069	97.69
430.292	105.69
430.514	88.69
430.736	83.69
430.958	88.69
431.18	91.69
431.402	76.69
431.624	80.69
431.846	88.69
432.068	85.69
432.29	86.69
432.512	90.69
432.734	104.69
432.956	92.69
433.178	92.69
433.4	96.69
433.622	96.69
433.844	102.69
434.066	85.69
434.287	96.69
434.509	91.69
434.731	100.69
434.953	88.69
435.175	98.69
435.397	95.69
435.618	116.69
435.84	100.69
436.062	118.69
436.284	133.69
436.505	111.69
436.727	101.69
436.949	91.69
437.17	92.69
437.392	82.69
437.614	100.69
437.835	109.69
438.057	119.69
438.278	105.69
438.5	88.69
438.721	110.69
438.943	101.69
439.165	97.69
439.386	85.69
439.608	97.69
439.829	94.69
440.05	124.69
440.272	135.69
440.493	99.69
440.715	82.69
440.936	92.69
441.158	103.69
441.379	78.69
441.6	102.69
441.822	97.69
442.043	108.69
442.264	99.69
442.486	110.69
442.707	83.69
442.928	103.69
443.149	134.69
443.371	114.69
443.592	102.69
443.813	115.69
444.034	105.69
444.255	91.69
444.476	90.69
444.698	94.69
444.919	83.69
445.14	141.69
445.361	110.69
445.582	99.69
445.803	113.69
446.024	128.69
446.245	133.69
446.466	103.69
446.687	90.69
446.908	83.69
447.129	90.69
447.35	89.69
447.571	87.69
447.792	89.69
448.013	90.69
448.234	105.69
448.455	98.69
448.675	98.69
448.896	122.69
449.117	98.69
449.338	88.69
449.559	123.69
449.779	127.69
450	91.69
450.221	77.69
450.442	105.69
450.662	91.69
450.883	99.69
451.104	98.69
451.324	101.69
451.545	93.69
451.766	82.69
451.986	89.69
452.207	102.69
452.428	85.69
452.648	83.69
452.869	94.69
453.089	106.69
453.31	111.69
453.53	92.69
453.751	103.69
453.971	110.69
454.192	100.69
454.412	91.69
454.633	88.69
454.853	85.69
455.073	92.69
455.294	89.69
455.514	90.69
455.734	97.69
455.955	90.69
456.175	82.69
456.395	101.69
456.616	78.69
456.836	78.69
457.056	82.69
457.276	88.69
457.497	91.69
457.717	93.69
457.937	88.69
458.157	84.69
458.377	88.69
458.598	106.69
458.818	139.69
459.038	141.69
459.258	101.69
459.478	86.69
459.698	101.69
459.918	71.69
460.138	85.69
460.358	82.69
460.578	92.69
460.798	95.69
461.018	110.69
461.238	92.69
461.458	91.69
461.678	88.69
461.898	93.69
462.118	104.69
462.338	79.69
462.558	88.69
462.777	96.69
462.997	104.69
463.217	89.69
463.437	91.69
463.657	81.69
463.876	88.69
464.096	97.69
464.316	89.69
464.536	99.69
464.755	92.69
464.975	103.69
465.195	154.69
465.414	148.69
465.634	102.69
465.854	93.69
466.073	95.69
466.293	85.69
466.512	93.69
466.732	95.69
466.951	84.69
467.171	85.69
467.391	99.69
467.61	90.69
467.829	97.69
468.049	99.69
468.268	95.69
468.488	91.69
468.707	90.69
468.927	87.69
469.146	85.69
469.365	81.69
469.585	97.69
469.804	89.69
470.023	89.69
470.243	105.69
470.462	113.69
470.681	110.69
470.901	90.69
471.12	86.69
471.339	89.69
471.558	102.69
471.777	90.69
471.997	85.69
472.216	89.69
472.435	87.69
472.654	88.69
472.873	87.69
473.092	101.69
473.311	79.69
473.53	84.69
473.749	93.69
473.968	106.69
474.187	111.69
474.406	103.69
474.625	93.69
474.844	87.69
475.063	102.69
475.282	89.69
475.501	90.69
475.72	97.69
475.939	101.69
476.158	95.69
476.377	90.69
476.596	78.69
476.814	89.69
477.033	88.69
477.252	95.69
477.471	82.69
477.69	84.69
477.908	85.69
478.127	86.69
478.346	84.69
478.564	91.69
478.783	90.69
479.002	89.69
479.22	89.69
479.439	97.69
479.658	113.69
479.876	99.69
480.095	87.69
480.313	97.69
480.532	87.69
480.751	93.69
480.969	97.69
481.188	85.69
481.406	93.69
481.624	86.69
481.843	91.69
482.061	92.69
482.28	99.69
482.498	99.69
482.717	83.69
482.935	94.69
483.153	97.69
483.372	92.69
483.59	82.69
483.808	101.69
484.027	112.69
484.245	87.69
484.463	78.69
484.681	107.69
484.9	102.69
485.118	92.69
485.336	98.69
485.554	94.69
485.772	94.69
485.99	102.69
486.209	111.69
486.427	105.69
486.645	114.69
486.863	106.69
487.081	114.69
487.299	97.69
487.517	96.69
487.735	99.69
487.953	73.69
488.171	90.69
488.389	90.69
488.607	106.69
488.825	97.69
489.043	99.69
489.261	102.69
489.479	81.69
489.696	86.69
489.914	80.69
490.132	101.69
490.35	93.69
490.568	84.69
490.786	108.69
491.003	77.69
491.221	85.69
491.439	103.69
491.657	101.69
491.874	103.69
492.092	90.69
492.31	94.69
492.527	91.69
492.745	96.69
492.963	81.69
493.18	88.69
493.398	107.69
493.615	98.69
493.833	102.69
494.05	110.69
494.268	95.69
494.485	97.69
494.703	100.69
494.92	104.69
495.138	93.69
495.355	107.69
495.573	98.69
495.79	84.69
496.008	94.69
496.225	84.69
496.442	85.69
496.66	89.69
496.877	102.69
497.094	95.69
497.312	91.69
497.529	111.69
497.746	88.69
497.963	89.69
498.181	97.69
498.398	96.69
498.615	93.69
498.832	105.69
499.049	77.69
499.267	101.69
499.484	96.69
499.701	104.69
499.918	95.69
500.135	110.69
500.352	82.69
500.569	88.69
500.786	89.69
501.003	79.69
501.22	102.69
501.437	109.69
501.654	85.69
501.871	99.69
502.088	99.69
502.305	104.69
502.522	96.69
502.739	97.69
502.956	81.69
503.172	100.69
503.389	102.69
503.606	99.69
503.823	97.69
504.04	106.69
504.256	96.69
504.473	84.69
504.69	93.69
504.907	100.69
505.123	81.69
505.34	95.69
505.557	86.69
505.773	94.69
505.99	110.69
506.207	108.69
506.423	81.69
506.64	73.69
506.856	89.69
507.073	96.69
507.289	90.69
507.506	90.69
507.722	110.69
507.939	122.69
508.155	96.69
508.372	81.69
508.588	86.69
508.805	84.69
509.021	95.69
509.238	94.69
509.454	101.69
509.67	95.69
509.887	115.69
510.103	125.69
510.319	193.69
510.536	718.69
510.752	2185.69
510.968	619.69
511.184	160.69
511.401	110.69
511.617	93.69
511.833	103.69
512.049	88.69
512.265	92.69
512.481	91.69
512.698	107.69
512.914	97.69
513.13	88.69
513.346	90.69
513.562	105.69
513.778	91.69
513.994	97.69
514.21	106.69
514.426	106.69
514.642	126.69
