Data from Uncirc_2006_H10_HRD10591_00051.txt Node
Date: Wed Jan 03 10:25:05 EST 2024
User: Yrep
Spectrometer: HR+D1059
Trigger mode: 1
Integration Time (sec): 1.000000E-1
Scans to average: 1
Electric dark correction enabled: true
Nonlinearity correction enabled: false
Boxcar width: 0
XAxis mode: Wavelengths
Number of Pixels in Spectrum: 2048
>>>>>Begin Spectral Data<<<<<
223.165	-26.5
223.4	-26.5
223.635	-26.5
223.869	-9.5
224.104	-19.5
224.338	-13.5
224.573	-0.5
224.808	-17.5
225.042	1.5
225.277	-1.5
225.511	-2.5
225.746	2.5
225.98	4.5
226.215	-9.5
226.449	11.5
226.683	12.5
226.918	42.5
227.152	25.5
227.387	38.5
227.621	51.5
227.856	30.5
228.09	41.5
228.324	62.5
228.559	39.5
228.793	37.5
229.027	58.5
229.262	74.5
229.496	80.5
229.73	70.5
229.964	80.5
230.199	89.5
230.433	72.5
230.667	87.5
230.901	75.5
231.136	79.5
231.37	75.5
231.604	83.5
231.838	84.5
232.072	83.5
232.306	87.5
232.541	89.5
232.775	85.5
233.009	70.5
233.243	79.5
233.477	86.5
233.711	85.5
233.945	85.5
234.179	83.5
234.413	86.5
234.647	86.5
234.881	92.5
235.115	82.5
235.349	86.5
235.583	62.5
235.817	72.5
236.051	80.5
236.285	90.5
236.519	83.5
236.753	74.5
236.987	68.5
237.221	78.5
237.455	89.5
237.689	94.5
237.922	75.5
238.156	68.5
238.39	64.5
238.624	71.5
238.858	83.5
239.091	86.5
239.325	87.5
239.559	75.5
239.793	68.5
240.027	91.5
240.26	75.5
240.494	78.5
240.728	78.5
240.961	82.5
241.195	80.5
241.429	76.5
241.662	68.5
241.896	69.5
242.13	66.5
242.363	79.5
242.597	80.5
242.83	77.5
243.064	79.5
243.298	76.5
243.531	74.5
243.765	74.5
243.998	82.5
244.232	85.5
244.465	72.5
244.699	83.5
244.932	79.5
245.166	77.5
245.399	79.5
245.633	92.5
245.866	78.5
246.099	73.5
246.333	71.5
246.566	68.5
246.8	75.5
247.033	86.5
247.266	80.5
247.5	72.5
247.733	75.5
247.966	78.5
248.2	81.5
248.433	84.5
248.666	87.5
248.899	92.5
249.133	100.5
249.366	98.5
249.599	78.5
249.832	78.5
250.066	78.5
250.299	75.5
250.532	65.5
250.765	72.5
250.998	79.5
251.231	77.5
251.465	76.5
251.698	79.5
251.931	85.5
252.164	75.5
252.397	78.5
252.63	71.5
252.863	76.5
253.096	76.5
253.329	82.5
253.562	74.5
253.795	71.5
254.028	87.5
254.261	90.5
254.494	83.5
254.727	72.5
254.96	70.5
255.193	86.5
255.426	83.5
255.659	76.5
255.892	84.5
256.124	93.5
256.357	90.5
256.59	87.5
256.823	80.5
257.056	81.5
257.289	83.5
257.521	74.5
257.754	91.5
257.987	96.5
258.22	78.5
258.452	73.5
258.685	82.5
258.918	81.5
259.151	107.5
259.383	73.5
259.616	80.5
259.849	84.5
260.081	74.5
260.314	84.5
260.547	82.5
260.779	80.5
261.012	53.5
261.244	68.5
261.477	80.5
261.71	107.5
261.942	101.5
262.175	106.5
262.407	84.5
262.64	83.5
262.872	82.5
263.105	75.5
263.337	81.5
263.57	91.5
263.802	86.5
264.035	88.5
264.267	89.5
264.499	80.5
264.732	91.5
264.964	94.5
265.197	80.5
265.429	84.5
265.661	77.5
265.894	93.5
266.126	87.5
266.358	82.5
266.591	82.5
266.823	95.5
267.055	77.5
267.287	76.5
267.52	79.5
267.752	83.5
267.984	91.5
268.216	72.5
268.448	99.5
268.681	84.5
268.913	76.5
269.145	82.5
269.377	71.5
269.609	86.5
269.841	87.5
270.073	80.5
270.306	84.5
270.538	92.5
270.77	68.5
271.002	87.5
271.234	88.5
271.466	83.5
271.698	87.5
271.93	81.5
272.162	83.5
272.394	88.5
272.626	102.5
272.858	92.5
273.09	70.5
273.322	70.5
273.553	101.5
273.785	87.5
274.017	76.5
274.249	91.5
274.481	97.5
274.713	86.5
274.945	86.5
275.176	82.5
275.408	83.5
275.64	88.5
275.872	84.5
276.104	100.5
276.335	95.5
276.567	92.5
276.799	101.5
277.031	92.5
277.262	75.5
277.494	81.5
277.726	85.5
277.957	76.5
278.189	88.5
278.421	98.5
278.652	66.5
278.884	88.5
279.115	84.5
279.347	77.5
279.579	88.5
279.81	89.5
280.042	85.5
280.273	89.5
280.505	75.5
280.736	84.5
280.968	95.5
281.199	92.5
281.431	98.5
281.662	80.5
281.894	88.5
282.125	98.5
282.356	124.5
282.588	110.5
282.819	115.5
283.051	93.5
283.282	101.5
283.513	99.5
283.745	75.5
283.976	91.5
284.207	85.5
284.439	91.5
284.67	84.5
284.901	94.5
285.132	101.5
285.364	76.5
285.595	93.5
285.826	91.5
286.057	81.5
286.288	109.5
286.52	95.5
286.751	80.5
286.982	94.5
287.213	97.5
287.444	102.5
287.675	88.5
287.906	86.5
288.138	98.5
288.369	91.5
288.6	83.5
288.831	93.5
289.062	82.5
289.293	103.5
289.524	93.5
289.755	100.5
289.986	88.5
290.217	85.5
290.448	83.5
290.679	91.5
290.91	92.5
291.141	94.5
291.371	85.5
291.602	97.5
291.833	93.5
292.064	99.5
292.295	83.5
292.526	95.5
292.757	89.5
292.987	84.5
293.218	77.5
293.449	92.5
293.68	89.5
293.91	87.5
294.141	102.5
294.372	94.5
294.603	93.5
294.833	83.5
295.064	73.5
295.295	78.5
295.525	105.5
295.756	106.5
295.987	122.5
296.217	127.5
296.448	116.5
296.679	90.5
296.909	91.5
297.14	96.5
297.37	77.5
297.601	94.5
297.831	93.5
298.062	80.5
298.292	86.5
298.523	90.5
298.753	78.5
298.984	78.5
299.214	87.5
299.445	93.5
299.675	106.5
299.905	90.5
300.136	85.5
300.366	76.5
300.597	93.5
300.827	107.5
301.057	92.5
301.288	104.5
301.518	90.5
301.748	85.5
301.979	98.5
302.209	93.5
302.439	93.5
302.669	90.5
302.9	90.5
303.13	106.5
303.36	98.5
303.59	109.5
303.82	113.5
304.051	92.5
304.281	92.5
304.511	92.5
304.741	94.5
304.971	98.5
305.201	83.5
305.431	81.5
305.661	79.5
305.891	90.5
306.121	95.5
306.352	88.5
306.582	104.5
306.812	97.5
307.042	93.5
307.272	91.5
307.502	88.5
307.731	78.5
307.961	98.5
308.191	101.5
308.421	94.5
308.651	103.5
308.881	95.5
309.111	92.5
309.341	94.5
309.571	90.5
309.8	95.5
310.03	92.5
310.26	93.5
310.49	94.5
310.72	99.5
310.949	109.5
311.179	87.5
311.409	99.5
311.639	90.5
311.868	94.5
312.098	99.5
312.328	112.5
312.557	105.5
312.787	96.5
313.017	99.5
313.246	90.5
313.476	98.5
313.706	95.5
313.935	87.5
314.165	80.5
314.394	94.5
314.624	108.5
314.853	79.5
315.083	92.5
315.312	100.5
315.542	102.5
315.771	84.5
316.001	94.5
316.23	84.5
316.46	97.5
316.689	94.5
316.919	83.5
317.148	96.5
317.377	103.5
317.607	99.5
317.836	90.5
318.065	107.5
318.295	104.5
318.524	87.5
318.753	90.5
318.983	84.5
319.212	94.5
319.441	102.5
319.67	108.5
319.9	94.5
320.129	101.5
320.358	97.5
320.587	86.5
320.816	94.5
321.046	95.5
321.275	83.5
321.504	89.5
321.733	82.5
321.962	102.5
322.191	101.5
322.42	96.5
322.649	106.5
322.878	97.5
323.108	113.5
323.337	117.5
323.566	136.5
323.795	149.5
324.024	188.5
324.253	386.5
324.482	818.5
324.71	1610.5
324.939	2156.5
325.168	778.5
325.397	224.5
325.626	145.5
325.855	110.5
326.084	118.5
326.313	136.5
326.542	150.5
326.77	218.5
326.999	454.5
327.228	935.5
327.457	1695.5
327.686	1334.5
327.914	363.5
328.143	184.5
328.372	152.5
328.6	100.5
328.829	104.5
329.058	123.5
329.287	130.5
329.515	108.5
329.744	96.5
329.972	98.5
330.201	88.5
330.43	104.5
330.658	102.5
330.887	127.5
331.115	121.5
331.344	97.5
331.572	104.5
331.801	98.5
332.03	101.5
332.258	88.5
332.486	104.5
332.715	99.5
332.943	86.5
333.172	102.5
333.4	103.5
333.629	115.5
333.857	119.5
334.085	100.5
334.314	103.5
334.542	88.5
334.771	89.5
334.999	88.5
335.227	94.5
335.455	96.5
335.684	96.5
335.912	91.5
336.14	98.5
336.369	88.5
336.597	110.5
336.825	101.5
337.053	100.5
337.281	86.5
337.51	92.5
337.738	74.5
337.966	92.5
338.194	93.5
338.422	99.5
338.65	76.5
338.878	100.5
339.106	99.5
339.334	78.5
339.562	91.5
339.79	94.5
340.018	81.5
340.246	93.5
340.474	88.5
340.702	92.5
340.93	94.5
341.158	96.5
341.386	81.5
341.614	77.5
341.842	99.5
342.07	105.5
342.298	82.5
342.526	96.5
342.754	89.5
342.981	84.5
343.209	84.5
343.437	93.5
343.665	97.5
343.893	83.5
344.12	99.5
344.348	95.5
344.576	89.5
344.804	83.5
345.031	101.5
345.259	98.5
345.487	93.5
345.714	88.5
345.942	95.5
346.17	95.5
346.397	85.5
346.625	95.5
346.853	91.5
347.08	86.5
347.308	108.5
347.535	108.5
347.763	98.5
347.99	92.5
348.218	90.5
348.445	93.5
348.673	96.5
348.9	86.5
349.128	98.5
349.355	86.5
349.583	97.5
349.81	95.5
350.037	101.5
350.265	101.5
350.492	100.5
350.72	88.5
350.947	90.5
351.174	106.5
351.402	118.5
351.629	103.5
351.856	95.5
352.083	110.5
352.311	119.5
352.538	93.5
352.765	122.5
352.992	116.5
353.22	101.5
353.447	106.5
353.674	113.5
353.901	90.5
354.128	104.5
354.355	91.5
354.583	99.5
354.81	90.5
355.037	113.5
355.264	99.5
355.491	89.5
355.718	87.5
355.945	88.5
356.172	91.5
356.399	84.5
356.626	84.5
356.853	89.5
357.08	91.5
357.307	91.5
357.534	97.5
357.761	103.5
357.988	95.5
358.215	95.5
358.441	102.5
358.668	89.5
358.895	92.5
359.122	91.5
359.349	86.5
359.576	92.5
359.802	89.5
360.029	103.5
360.256	104.5
360.483	94.5
360.709	87.5
360.936	95.5
361.163	89.5
361.39	93.5
361.616	107.5
361.843	87.5
362.07	83.5
362.296	94.5
362.523	88.5
362.749	100.5
362.976	91.5
363.203	98.5
363.429	90.5
363.656	103.5
363.882	105.5
364.109	94.5
364.335	85.5
364.562	92.5
364.788	110.5
365.015	88.5
365.241	92.5
365.468	113.5
365.694	111.5
365.92	81.5
366.147	106.5
366.373	84.5
366.599	91.5
366.826	82.5
367.052	74.5
367.278	88.5
367.505	95.5
367.731	92.5
367.957	85.5
368.184	89.5
368.41	85.5
368.636	109.5
368.862	114.5
369.089	100.5
369.315	88.5
369.541	87.5
369.767	93.5
369.993	89.5
370.219	91.5
370.445	95.5
370.672	97.5
370.898	96.5
371.124	85.5
371.35	98.5
371.576	93.5
371.802	85.5
372.028	81.5
372.254	94.5
372.48	78.5
372.706	82.5
372.932	84.5
373.158	95.5
373.384	102.5
373.61	90.5
373.835	84.5
374.061	93.5
374.287	72.5
374.513	98.5
374.739	85.5
374.965	88.5
375.191	86.5
375.416	90.5
375.642	95.5
375.868	93.5
376.094	84.5
376.319	80.5
376.545	79.5
376.771	65.5
376.997	92.5
377.222	94.5
377.448	98.5
377.674	94.5
377.899	94.5
378.125	78.5
378.35	85.5
378.576	100.5
378.802	90.5
379.027	111.5
379.253	98.5
379.478	100.5
379.704	79.5
379.929	93.5
380.155	98.5
380.38	93.5
380.606	103.5
380.831	84.5
381.057	100.5
381.282	98.5
381.507	107.5
381.733	99.5
381.958	96.5
382.184	82.5
382.409	94.5
382.634	106.5
382.86	108.5
383.085	108.5
383.31	103.5
383.535	98.5
383.761	92.5
383.986	92.5
384.211	94.5
384.436	95.5
384.662	94.5
384.887	101.5
385.112	111.5
385.337	107.5
385.562	113.5
385.787	106.5
386.013	115.5
386.238	106.5
386.463	115.5
386.688	122.5
386.913	101.5
387.138	95.5
387.363	107.5
387.588	101.5
387.813	92.5
388.038	110.5
388.263	111.5
388.488	97.5
388.713	104.5
388.938	107.5
389.163	98.5
389.387	95.5
389.612	73.5
389.837	81.5
390.062	99.5
390.287	84.5
390.512	87.5
390.736	86.5
390.961	102.5
391.186	92.5
391.411	88.5
391.636	104.5
391.86	94.5
392.085	85.5
392.31	91.5
392.534	79.5
392.759	88.5
392.984	90.5
393.208	92.5
393.433	81.5
393.658	100.5
393.882	84.5
394.107	88.5
394.331	88.5
394.556	102.5
394.78	103.5
395.005	97.5
395.229	78.5
395.454	87.5
395.678	90.5
395.903	96.5
396.127	83.5
396.352	79.5
396.576	82.5
396.801	92.5
397.025	90.5
397.249	81.5
397.474	83.5
397.698	85.5
397.922	102.5
398.147	81.5
398.371	86.5
398.595	81.5
398.82	89.5
399.044	87.5
399.268	96.5
399.492	72.5
399.717	82.5
399.941	99.5
400.165	95.5
400.389	86.5
400.613	86.5
400.837	96.5
401.062	85.5
401.286	75.5
401.51	80.5
401.734	91.5
401.958	84.5
402.182	117.5
402.406	125.5
402.63	112.5
402.854	99.5
403.078	92.5
403.302	87.5
403.526	101.5
403.75	88.5
403.974	97.5
404.198	96.5
404.422	101.5
404.645	86.5
404.869	90.5
405.093	72.5
405.317	80.5
405.541	93.5
405.765	108.5
405.988	119.5
406.212	166.5
406.436	203.5
406.66	148.5
406.883	92.5
407.107	91.5
407.331	81.5
407.555	101.5
407.778	86.5
408.002	96.5
408.226	91.5
408.449	93.5
408.673	87.5
408.896	95.5
409.12	94.5
409.344	102.5
409.567	93.5
409.791	80.5
410.014	93.5
410.238	111.5
410.461	102.5
410.685	93.5
410.908	102.5
411.132	125.5
411.355	94.5
411.578	104.5
411.802	85.5
412.025	84.5
412.249	87.5
412.472	97.5
412.695	82.5
412.919	72.5
413.142	95.5
413.365	86.5
413.589	93.5
413.812	104.5
414.035	88.5
414.258	115.5
414.482	88.5
414.705	82.5
414.928	86.5
415.151	95.5
415.374	86.5
415.597	87.5
415.821	76.5
416.044	102.5
416.267	101.5
416.49	89.5
416.713	74.5
416.936	85.5
417.159	82.5
417.382	75.5
417.605	93.5
417.828	105.5
418.051	87.5
418.274	96.5
418.497	83.5
418.72	90.5
418.943	95.5
419.166	106.5
419.389	91.5
419.611	94.5
419.834	99.5
420.057	90.5
420.28	86.5
420.503	90.5
420.726	84.5
420.948	80.5
421.171	96.5
421.394	102.5
421.617	83.5
421.839	95.5
422.062	110.5
422.285	92.5
422.507	103.5
422.73	108.5
422.953	91.5
423.175	88.5
423.398	102.5
423.621	83.5
423.843	91.5
424.066	82.5
424.288	70.5
424.511	96.5
424.733	88.5
424.956	111.5
425.178	109.5
425.401	91.5
425.623	104.5
425.846	96.5
426.068	98.5
426.291	94.5
426.513	88.5
426.735	88.5
426.958	83.5
427.18	106.5
427.402	130.5
427.625	146.5
427.847	124.5
428.069	103.5
428.292	70.5
428.514	82.5
428.736	91.5
428.958	94.5
429.181	83.5
429.403	101.5
429.625	79.5
429.847	78.5
430.069	101.5
430.292	102.5
430.514	77.5
430.736	69.5
430.958	75.5
431.18	89.5
431.402	98.5
431.624	69.5
431.846	87.5
432.068	83.5
432.29	93.5
432.512	83.5
432.734	78.5
432.956	81.5
433.178	105.5
433.4	97.5
433.622	89.5
433.844	89.5
434.066	97.5
434.287	100.5
434.509	91.5
434.731	98.5
434.953	84.5
435.175	89.5
435.397	92.5
435.618	107.5
435.84	104.5
436.062	117.5
436.284	114.5
436.505	83.5
436.727	107.5
436.949	88.5
437.17	88.5
437.392	87.5
437.614	84.5
437.835	96.5
438.057	116.5
438.278	98.5
438.5	96.5
438.721	103.5
438.943	112.5
439.165	88.5
439.386	98.5
439.608	87.5
439.829	82.5
440.05	116.5
440.272	145.5
440.493	99.5
440.715	87.5
440.936	96.5
441.158	94.5
441.379	91.5
441.6	82.5
441.822	91.5
442.043	91.5
442.264	107.5
442.486	104.5
442.707	96.5
442.928	100.5
443.149	104.5
443.371	122.5
443.592	106.5
443.813	98.5
444.034	93.5
444.255	96.5
444.476	79.5
444.698	84.5
444.919	87.5
445.14	123.5
445.361	126.5
445.582	109.5
445.803	126.5
446.024	105.5
446.245	126.5
446.466	111.5
446.687	91.5
446.908	95.5
447.129	92.5
447.35	56.5
447.571	97.5
447.792	83.5
448.013	100.5
448.234	102.5
448.455	101.5
448.675	112.5
448.896	99.5
449.117	93.5
449.338	104.5
449.559	108.5
449.779	116.5
450	103.5
450.221	86.5
450.442	94.5
450.662	97.5
450.883	107.5
451.104	94.5
451.324	82.5
451.545	80.5
451.766	80.5
451.986	92.5
452.207	93.5
452.428	104.5
452.648	88.5
452.869	107.5
453.089	112.5
453.31	105.5
453.53	106.5
453.751	97.5
453.971	109.5
454.192	102.5
454.412	76.5
454.633	70.5
454.853	87.5
455.073	90.5
455.294	84.5
455.514	98.5
455.734	91.5
455.955	87.5
456.175	88.5
456.395	91.5
456.616	78.5
456.836	81.5
457.056	90.5
457.276	93.5
457.497	79.5
457.717	81.5
457.937	95.5
458.157	85.5
458.377	91.5
458.598	114.5
458.818	146.5
459.038	145.5
459.258	102.5
459.478	92.5
459.698	96.5
459.918	84.5
460.138	78.5
460.358	92.5
460.578	88.5
460.798	87.5
461.018	97.5
461.238	88.5
461.458	85.5
461.678	87.5
461.898	99.5
462.118	82.5
462.338	74.5
462.558	90.5
462.777	97.5
462.997	96.5
463.217	79.5
463.437	86.5
463.657	84.5
463.876	83.5
464.096	97.5
464.316	92.5
464.536	99.5
464.755	96.5
464.975	95.5
465.195	149.5
465.414	144.5
465.634	89.5
465.854	91.5
466.073	91.5
466.293	86.5
466.512	84.5
466.732	95.5
466.951	92.5
467.171	110.5
467.391	100.5
467.61	98.5
467.829	87.5
468.049	94.5
468.268	92.5
468.488	90.5
468.707	83.5
468.927	82.5
469.146	72.5
469.365	87.5
469.585	79.5
469.804	89.5
470.023	90.5
470.243	90.5
470.462	102.5
470.681	111.5
470.901	87.5
471.12	74.5
471.339	92.5
471.558	91.5
471.777	79.5
471.997	95.5
472.216	93.5
472.435	94.5
472.654	85.5
472.873	90.5
473.092	82.5
473.311	92.5
473.53	91.5
473.749	88.5
473.968	94.5
474.187	99.5
474.406	75.5
474.625	82.5
474.844	100.5
475.063	84.5
475.282	91.5
475.501	83.5
475.72	91.5
475.939	78.5
476.158	72.5
476.377	91.5
476.596	81.5
476.814	99.5
477.033	95.5
477.252	80.5
477.471	67.5
477.69	79.5
477.908	103.5
478.127	113.5
478.346	94.5
478.564	87.5
478.783	91.5
479.002	96.5
479.22	91.5
479.439	101.5
479.658	93.5
479.876	86.5
480.095	83.5
480.313	92.5
480.532	91.5
480.751	88.5
480.969	95.5
481.188	100.5
481.406	83.5
481.624	92.5
481.843	84.5
482.061	94.5
482.28	97.5
482.498	100.5
482.717	90.5
482.935	92.5
483.153	83.5
483.372	92.5
483.59	87.5
483.808	84.5
484.027	81.5
484.245	95.5
484.463	83.5
484.681	94.5
484.9	89.5
485.118	88.5
485.336	99.5
485.554	101.5
485.772	102.5
485.99	103.5
486.209	95.5
486.427	109.5
486.645	111.5
486.863	115.5
487.081	101.5
487.299	88.5
487.517	99.5
487.735	98.5
487.953	103.5
488.171	94.5
488.389	112.5
488.607	103.5
488.825	116.5
489.043	82.5
489.261	92.5
489.479	88.5
489.696	89.5
489.914	93.5
490.132	86.5
490.35	83.5
490.568	109.5
490.786	99.5
491.003	93.5
491.221	77.5
491.439	94.5
491.657	83.5
491.874	92.5
492.092	101.5
492.31	87.5
492.527	93.5
492.745	90.5
492.963	88.5
493.18	98.5
493.398	85.5
493.615	105.5
493.833	99.5
494.05	81.5
494.268	92.5
494.485	86.5
494.703	93.5
494.92	92.5
495.138	103.5
495.355	102.5
495.573	94.5
495.79	99.5
496.008	100.5
496.225	83.5
496.442	94.5
496.66	100.5
496.877	110.5
497.094	101.5
497.312	106.5
497.529	97.5
497.746	95.5
497.963	99.5
498.181	94.5
498.398	96.5
498.615	107.5
498.832	93.5
499.049	84.5
499.267	98.5
499.484	85.5
499.701	94.5
499.918	96.5
500.135	96.5
500.352	98.5
500.569	101.5
500.786	95.5
501.003	98.5
501.22	86.5
501.437	108.5
501.654	102.5
501.871	96.5
502.088	79.5
502.305	78.5
502.522	96.5
502.739	90.5
502.956	73.5
503.172	94.5
503.389	88.5
503.606	94.5
503.823	100.5
504.04	97.5
504.256	96.5
504.473	81.5
504.69	94.5
504.907	103.5
505.123	100.5
505.34	104.5
505.557	101.5
505.773	96.5
505.99	87.5
506.207	77.5
506.423	86.5
506.64	111.5
506.856	100.5
507.073	95.5
507.289	98.5
507.506	93.5
507.722	106.5
507.939	112.5
508.155	80.5
508.372	98.5
508.588	82.5
508.805	103.5
509.021	92.5
509.238	96.5
509.454	111.5
509.67	99.5
509.887	107.5
510.103	135.5
510.319	200.5
510.536	709.5
510.752	2168.5
510.968	641.5
511.184	144.5
511.401	118.5
511.617	100.5
511.833	97.5
512.049	87.5
512.265	89.5
512.481	87.5
512.698	86.5
512.914	102.5
513.13	104.5
513.346	102.5
513.562	90.5
513.778	102.5
513.994	91.5
514.21	98.5
514.426	99.5
514.642	132.5
514.858	122.5
515.074	171.5
515.29	414.5
515.506	1318.5
515.721	495.5
515.937	151.5
516.153	108.5
516.369	94.5
516.585	87.5
516.801	78.5
517.016	82.5
517.232	95.5
517.448	95.5
517.664	105.5
517.879	94.5
518.095	88.5
518.311	82.5
518.527	101.5
518.742	98.5
518.958	89.5
519.173	102.5
519.389	83.5
519.605	95.5
519.82	112.5
520.036	102.5
520.251	135.5
520.467	114.5
520.682	109.5
520.898	103.5
521.113	105.5
521.329	138.5
521.544	204.5
521.76	508.5
521.975	2163.5
522.19	1322.5
522.406	298.5
522.621	121.5
522.836	96.5
523.052	96.5
523.267	101.5
523.482	78.5
523.698	97.5
523.913	117.5
524.128	107.5
524.343	109.5
524.559	93.5
524.774	80.5
524.989	106.5
525.204	112.5
525.419	95.5
525.634	96.5
525.849	87.5
526.064	98.5
526.28	95.5
526.495	78.5
526.71	81.5
526.925	77.5
527.14	88.5
527.355	90.5
527.57	96.5
527.785	98.5
527.999	93.5
528.214	98.5
528.429	103.5
528.644	98.5
528.859	80.5
529.074	101.5
529.289	123.5
529.503	165.5
529.718	103.5
529.933	96.5
530.148	97.5
530.363	89.5
530.577	97.5
530.792	96.5
531.007	79.5
531.221	107.5
531.436	82.5
531.651	90.5
531.865	89.5
532.08	76.5
532.295	101.5
532.509	94.5
532.724	87.5
532.938	102.5
533.153	101.5
533.367	101.5
533.582	82.5
533.796	99.5
534.011	91.5
534.225	90.5
534.44	90.5
534.654	111.5
534.868	107.5
535.083	98.5
