Data from Uncirc_2006_H10_HRD10591_00080.txt Node
Date: Wed Jan 03 10:25:11 EST 2024
User: Yrep
Spectrometer: HR+D1059
Trigger mode: 1
Integration Time (sec): 1.000000E-1
Scans to average: 1
Electric dark correction enabled: true
Nonlinearity correction enabled: false
Boxcar width: 0
XAxis mode: Wavelengths
Number of Pixels in Spectrum: 2048
>>>>>Begin Spectral Data<<<<<
223.165	-20.69
223.4	-20.69
223.635	-20.69
223.869	-6.69
224.104	-32.69
224.338	-22.69
224.573	-21.69
224.808	-15.69
225.042	-14.69
225.277	6.31
225.511	-1.69
225.746	1.31
225.98	12.31
226.215	10.31
226.449	28.31
226.683	14.31
226.918	38.31
227.152	25.31
227.387	42.31
227.621	40.31
227.856	49.31
228.09	45.31
228.324	49.31
228.559	55.31
228.793	65.31
229.027	66.31
229.262	63.31
229.496	73.31
229.73	79.31
229.964	76.31
230.199	70.31
230.433	85.31
230.667	77.31
230.901	79.31
231.136	70.31
231.37	78.31
231.604	88.31
231.838	85.31
232.072	88.31
232.306	69.31
232.541	86.31
232.775	89.31
233.009	81.31
233.243	96.31
233.477	81.31
233.711	86.31
233.945	73.31
234.179	79.31
234.413	78.31
234.647	82.31
234.881	84.31
235.115	72.31
235.349	83.31
235.583	82.31
235.817	87.31
236.051	71.31
236.285	77.31
236.519	78.31
236.753	81.31
236.987	80.31
237.221	79.31
237.455	72.31
237.689	81.31
237.922	76.31
238.156	70.31
238.39	94.31
238.624	79.31
238.858	66.31
239.091	82.31
239.325	88.31
239.559	81.31
239.793	93.31
240.027	72.31
240.26	74.31
240.494	81.31
240.728	83.31
240.961	83.31
241.195	82.31
241.429	89.31
241.662	92.31
241.896	76.31
242.13	84.31
242.363	80.31
242.597	89.31
242.83	66.31
243.064	74.31
243.298	81.31
243.531	79.31
243.765	89.31
243.998	77.31
244.232	85.31
244.465	94.31
244.699	72.31
244.932	87.31
245.166	79.31
245.399	84.31
245.633	90.31
245.866	85.31
246.099	83.31
246.333	89.31
246.566	77.31
246.8	83.31
247.033	81.31
247.266	75.31
247.5	86.31
247.733	87.31
247.966	92.31
248.2	95.31
248.433	66.31
248.666	76.31
248.899	77.31
249.133	75.31
249.366	93.31
249.599	95.31
249.832	74.31
250.066	87.31
250.299	95.31
250.532	80.31
250.765	79.31
250.998	76.31
251.231	84.31
251.465	68.31
251.698	74.31
251.931	75.31
252.164	87.31
252.397	82.31
252.63	81.31
252.863	83.31
253.096	79.31
253.329	94.31
253.562	70.31
253.795	93.31
254.028	85.31
254.261	87.31
254.494	95.31
254.727	89.31
254.96	84.31
255.193	80.31
255.426	95.31
255.659	71.31
255.892	65.31
256.124	76.31
256.357	80.31
256.59	82.31
256.823	81.31
257.056	75.31
257.289	81.31
257.521	86.31
257.754	69.31
257.987	93.31
258.22	82.31
258.452	90.31
258.685	66.31
258.918	78.31
259.151	82.31
259.383	81.31
259.616	76.31
259.849	72.31
260.081	89.31
260.314	78.31
260.547	89.31
260.779	80.31
261.012	77.31
261.244	93.31
261.477	85.31
261.71	96.31
261.942	109.31
262.175	110.31
262.407	97.31
262.64	88.31
262.872	86.31
263.105	84.31
263.337	78.31
263.57	87.31
263.802	94.31
264.035	89.31
264.267	91.31
264.499	90.31
264.732	74.31
264.964	74.31
265.197	75.31
265.429	90.31
265.661	83.31
265.894	95.31
266.126	87.31
266.358	76.31
266.591	85.31
266.823	86.31
267.055	73.31
267.287	93.31
267.52	95.31
267.752	90.31
267.984	82.31
268.216	71.31
268.448	84.31
268.681	89.31
268.913	88.31
269.145	104.31
269.377	81.31
269.609	87.31
269.841	89.31
270.073	92.31
270.306	86.31
270.538	80.31
270.77	79.31
271.002	64.31
271.234	104.31
271.466	90.31
271.698	83.31
271.93	81.31
272.162	97.31
272.394	95.31
272.626	81.31
272.858	104.31
273.09	90.31
273.322	87.31
273.553	88.31
273.785	90.31
274.017	93.31
274.249	85.31
274.481	79.31
274.713	94.31
274.945	86.31
275.176	80.31
275.408	81.31
275.64	94.31
275.872	85.31
276.104	105.31
276.335	93.31
276.567	97.31
276.799	85.31
277.031	86.31
277.262	90.31
277.494	91.31
277.726	88.31
277.957	80.31
278.189	86.31
278.421	87.31
278.652	98.31
278.884	91.31
279.115	83.31
279.347	93.31
279.579	101.31
279.81	86.31
280.042	84.31
280.273	95.31
280.505	83.31
280.736	91.31
280.968	89.31
281.199	76.31
281.431	84.31
281.662	85.31
281.894	89.31
282.125	112.31
282.356	106.31
282.588	114.31
282.819	113.31
283.051	88.31
283.282	87.31
283.513	92.31
283.745	98.31
283.976	81.31
284.207	90.31
284.439	92.31
284.67	93.31
284.901	99.31
285.132	80.31
285.364	93.31
285.595	91.31
285.826	85.31
286.057	96.31
286.288	87.31
286.52	93.31
286.751	82.31
286.982	88.31
287.213	84.31
287.444	80.31
287.675	77.31
287.906	94.31
288.138	85.31
288.369	88.31
288.6	84.31
288.831	91.31
289.062	93.31
289.293	93.31
289.524	88.31
289.755	88.31
289.986	96.31
290.217	68.31
290.448	87.31
290.679	87.31
290.91	102.31
291.141	95.31
291.371	100.31
291.602	88.31
291.833	96.31
292.064	86.31
292.295	85.31
292.526	73.31
292.757	88.31
292.987	72.31
293.218	83.31
293.449	93.31
293.68	80.31
293.91	86.31
294.141	99.31
294.372	98.31
294.603	81.31
294.833	91.31
295.064	90.31
295.295	94.31
295.525	87.31
295.756	107.31
295.987	109.31
296.217	121.31
296.448	98.31
296.679	98.31
296.909	93.31
297.14	76.31
297.37	85.31
297.601	86.31
297.831	92.31
298.062	83.31
298.292	98.31
298.523	98.31
298.753	95.31
298.984	82.31
299.214	98.31
299.445	93.31
299.675	111.31
299.905	90.31
300.136	98.31
300.366	93.31
300.597	100.31
300.827	86.31
301.057	87.31
301.288	94.31
301.518	104.31
301.748	95.31
301.979	96.31
302.209	98.31
302.439	96.31
302.669	97.31
302.9	80.31
303.13	106.31
303.36	92.31
303.59	108.31
303.82	108.31
304.051	90.31
304.281	84.31
304.511	81.31
304.741	96.31
304.971	97.31
305.201	99.31
305.431	75.31
305.661	90.31
305.891	108.31
306.121	92.31
306.352	98.31
306.582	100.31
306.812	91.31
307.042	92.31
307.272	83.31
307.502	83.31
307.731	84.31
307.961	101.31
308.191	107.31
308.421	101.31
308.651	88.31
308.881	103.31
309.111	104.31
309.341	97.31
309.571	107.31
309.8	97.31
310.03	87.31
310.26	104.31
310.49	97.31
310.72	97.31
310.949	100.31
311.179	103.31
311.409	96.31
311.639	98.31
311.868	104.31
312.098	98.31
312.328	87.31
312.557	98.31
312.787	106.31
313.017	111.31
313.246	98.31
313.476	90.31
313.706	94.31
313.935	93.31
314.165	94.31
314.394	85.31
314.624	97.31
314.853	101.31
315.083	100.31
315.312	94.31
315.542	111.31
315.771	95.31
316.001	94.31
316.23	88.31
316.46	94.31
316.689	85.31
316.919	94.31
317.148	88.31
317.377	95.31
317.607	104.31
317.836	103.31
318.065	96.31
318.295	100.31
318.524	88.31
318.753	89.31
318.983	90.31
319.212	97.31
319.441	110.31
319.67	109.31
319.9	95.31
320.129	99.31
320.358	84.31
320.587	93.31
320.816	90.31
321.046	106.31
321.275	97.31
321.504	97.31
321.733	98.31
321.962	88.31
322.191	94.31
322.42	117.31
322.649	97.31
322.878	106.31
323.108	111.31
323.337	120.31
323.566	134.31
323.795	154.31
324.024	209.31
324.253	368.31
324.482	755.31
324.71	1522.31
324.939	1988.31
325.168	745.31
325.397	222.31
325.626	139.31
325.855	130.31
326.084	114.31
326.313	123.31
326.542	149.31
326.77	218.31
326.999	422.31
327.228	877.31
327.457	1577.31
327.686	1271.31
327.914	340.31
328.143	177.31
328.372	140.31
328.6	121.31
328.829	103.31
329.058	120.31
329.287	108.31
329.515	100.31
329.744	104.31
329.972	107.31
330.201	107.31
330.43	107.31
330.658	107.31
330.887	122.31
331.115	114.31
331.344	105.31
331.572	101.31
331.801	102.31
332.03	107.31
332.258	105.31
332.486	101.31
332.715	87.31
332.943	90.31
333.172	107.31
333.4	103.31
333.629	103.31
333.857	113.31
334.085	107.31
334.314	94.31
334.542	83.31
334.771	94.31
334.999	101.31
335.227	85.31
335.455	92.31
335.684	94.31
335.912	98.31
336.14	110.31
336.369	104.31
336.597	96.31
336.825	100.31
337.053	103.31
337.281	85.31
337.51	89.31
337.738	113.31
337.966	116.31
338.194	96.31
338.422	82.31
338.65	82.31
338.878	86.31
339.106	99.31
339.334	99.31
339.562	77.31
339.79	81.31
340.018	94.31
340.246	96.31
340.474	79.31
340.702	86.31
340.93	86.31
341.158	96.31
341.386	86.31
341.614	94.31
341.842	92.31
342.07	79.31
342.298	85.31
342.526	89.31
342.754	97.31
342.981	96.31
343.209	90.31
343.437	112.31
343.665	95.31
343.893	105.31
344.12	104.31
344.348	95.31
344.576	99.31
344.804	97.31
345.031	98.31
345.259	87.31
345.487	102.31
345.714	92.31
345.942	99.31
346.17	102.31
346.397	87.31
346.625	97.31
346.853	97.31
347.08	78.31
347.308	88.31
347.535	91.31
347.763	103.31
347.99	93.31
348.218	94.31
348.445	96.31
348.673	103.31
348.9	90.31
349.128	103.31
349.355	102.31
349.583	101.31
349.81	106.31
350.037	93.31
350.265	100.31
350.492	99.31
350.72	105.31
350.947	102.31
351.174	109.31
351.402	118.31
351.629	95.31
351.856	96.31
352.083	106.31
352.311	128.31
352.538	108.31
352.765	105.31
352.992	103.31
353.22	117.31
353.447	100.31
353.674	104.31
353.901	111.31
354.128	97.31
354.355	110.31
354.583	104.31
354.81	94.31
355.037	106.31
355.264	94.31
355.491	107.31
355.718	86.31
355.945	105.31
356.172	94.31
356.399	95.31
356.626	84.31
356.853	103.31
357.08	84.31
357.307	91.31
357.534	115.31
357.761	88.31
357.988	93.31
358.215	84.31
358.441	87.31
358.668	84.31
358.895	102.31
359.122	95.31
359.349	105.31
359.576	90.31
359.802	98.31
360.029	100.31
360.256	104.31
360.483	81.31
360.709	85.31
360.936	103.31
361.163	100.31
361.39	108.31
361.616	94.31
361.843	106.31
362.07	78.31
362.296	105.31
362.523	89.31
362.749	100.31
362.976	86.31
363.203	93.31
363.429	88.31
363.656	90.31
363.882	93.31
364.109	102.31
364.335	91.31
364.562	92.31
364.788	87.31
365.015	97.31
365.241	88.31
365.468	101.31
365.694	107.31
365.92	95.31
366.147	87.31
366.373	100.31
366.599	80.31
366.826	84.31
367.052	100.31
367.278	97.31
367.505	84.31
367.731	81.31
367.957	95.31
368.184	102.31
368.41	106.31
368.636	111.31
368.862	116.31
369.089	113.31
369.315	96.31
369.541	102.31
369.767	98.31
369.993	86.31
370.219	97.31
370.445	85.31
370.672	84.31
370.898	89.31
371.124	90.31
371.35	97.31
371.576	89.31
371.802	86.31
372.028	78.31
372.254	79.31
372.48	86.31
372.706	80.31
372.932	86.31
373.158	91.31
373.384	72.31
373.61	91.31
373.835	100.31
374.061	83.31
374.287	92.31
374.513	101.31
374.739	80.31
374.965	90.31
375.191	89.31
375.416	85.31
375.642	90.31
375.868	88.31
376.094	108.31
376.319	98.31
376.545	99.31
376.771	100.31
376.997	94.31
377.222	81.31
377.448	95.31
377.674	89.31
377.899	83.31
378.125	87.31
378.35	82.31
378.576	92.31
378.802	92.31
379.027	98.31
379.253	97.31
379.478	80.31
379.704	91.31
379.929	109.31
380.155	102.31
380.38	106.31
380.606	87.31
380.831	108.31
381.057	101.31
381.282	99.31
381.507	95.31
381.733	92.31
381.958	96.31
382.184	105.31
382.409	100.31
382.634	101.31
382.86	95.31
383.085	94.31
383.31	100.31
383.535	100.31
383.761	89.31
383.986	96.31
384.211	105.31
384.436	109.31
384.662	101.31
384.887	114.31
385.112	103.31
385.337	110.31
385.562	114.31
385.787	119.31
386.013	116.31
386.238	121.31
386.463	113.31
386.688	108.31
386.913	100.31
387.138	119.31
387.363	93.31
387.588	104.31
387.813	113.31
388.038	113.31
388.263	103.31
388.488	104.31
388.713	108.31
388.938	104.31
389.163	99.31
389.387	93.31
389.612	92.31
389.837	86.31
390.062	94.31
390.287	91.31
390.512	99.31
390.736	90.31
390.961	91.31
391.186	90.31
391.411	86.31
391.636	90.31
391.86	101.31
392.085	106.31
392.31	101.31
392.534	89.31
392.759	93.31
392.984	93.31
393.208	93.31
393.433	99.31
393.658	90.31
393.882	91.31
394.107	84.31
394.331	75.31
394.556	100.31
394.78	91.31
395.005	97.31
395.229	101.31
395.454	90.31
395.678	84.31
395.903	100.31
396.127	101.31
396.352	95.31
396.576	96.31
396.801	86.31
397.025	87.31
397.249	88.31
397.474	98.31
397.698	90.31
397.922	90.31
398.147	93.31
398.371	92.31
398.595	89.31
398.82	87.31
399.044	78.31
399.268	82.31
399.492	92.31
399.717	103.31
399.941	83.31
400.165	102.31
400.389	96.31
400.613	109.31
400.837	100.31
401.062	85.31
401.286	98.31
401.51	86.31
401.734	102.31
401.958	92.31
402.182	113.31
402.406	154.31
402.63	114.31
402.854	94.31
403.078	88.31
403.302	68.31
403.526	96.31
403.75	77.31
403.974	82.31
404.198	82.31
404.422	96.31
404.645	86.31
404.869	95.31
405.093	86.31
405.317	113.31
405.541	104.31
405.765	101.31
405.988	122.31
406.212	153.31
406.436	194.31
406.66	131.31
406.883	122.31
407.107	94.31
407.331	101.31
407.555	96.31
407.778	103.31
408.002	87.31
408.226	97.31
408.449	74.31
408.673	100.31
408.896	94.31
409.12	101.31
409.344	94.31
409.567	90.31
409.791	93.31
410.014	90.31
410.238	97.31
410.461	92.31
410.685	92.31
410.908	89.31
411.132	90.31
411.355	92.31
411.578	88.31
411.802	88.31
412.025	92.31
412.249	101.31
412.472	95.31
412.695	72.31
412.919	82.31
413.142	88.31
413.365	92.31
413.589	75.31
413.812	84.31
414.035	89.31
414.258	79.31
414.482	85.31
414.705	92.31
414.928	94.31
415.151	100.31
415.374	87.31
415.597	83.31
415.821	96.31
416.044	96.31
416.267	95.31
416.49	88.31
416.713	80.31
416.936	88.31
417.159	92.31
417.382	82.31
417.605	81.31
417.828	98.31
418.051	102.31
418.274	85.31
418.497	92.31
418.72	84.31
418.943	85.31
419.166	98.31
419.389	97.31
419.611	86.31
419.834	97.31
420.057	94.31
420.28	79.31
420.503	81.31
420.726	87.31
420.948	90.31
421.171	110.31
421.394	97.31
421.617	86.31
421.839	100.31
422.062	110.31
422.285	100.31
422.507	96.31
422.73	115.31
422.953	101.31
423.175	87.31
423.398	96.31
423.621	104.31
423.843	100.31
424.066	81.31
424.288	89.31
424.511	89.31
424.733	107.31
424.956	113.31
425.178	104.31
425.401	104.31
425.623	94.31
425.846	99.31
426.068	107.31
426.291	94.31
426.513	91.31
426.735	97.31
426.958	102.31
427.18	103.31
427.402	134.31
427.625	154.31
427.847	121.31
428.069	96.31
428.292	81.31
428.514	87.31
428.736	98.31
428.958	91.31
429.181	78.31
429.403	103.31
429.625	83.31
429.847	81.31
430.069	108.31
430.292	104.31
430.514	90.31
430.736	88.31
430.958	78.31
431.18	84.31
431.402	92.31
431.624	80.31
431.846	86.31
432.068	88.31
432.29	93.31
432.512	92.31
432.734	99.31
432.956	94.31
433.178	104.31
433.4	104.31
433.622	82.31
433.844	96.31
434.066	105.31
434.287	92.31
434.509	98.31
434.731	86.31
434.953	104.31
435.175	76.31
435.397	92.31
435.618	98.31
435.84	99.31
436.062	112.31
436.284	115.31
436.505	105.31
436.727	106.31
436.949	97.31
437.17	96.31
437.392	90.31
437.614	97.31
437.835	92.31
438.057	102.31
438.278	110.31
438.5	111.31
438.721	124.31
438.943	107.31
439.165	94.31
439.386	88.31
439.608	96.31
439.829	82.31
440.05	98.31
440.272	141.31
440.493	95.31
440.715	90.31
440.936	96.31
441.158	94.31
441.379	85.31
441.6	89.31
441.822	101.31
442.043	95.31
442.264	103.31
442.486	103.31
442.707	87.31
442.928	104.31
443.149	121.31
443.371	111.31
443.592	108.31
443.813	107.31
444.034	96.31
444.255	94.31
444.476	95.31
444.698	85.31
444.919	84.31
445.14	122.31
445.361	123.31
445.582	94.31
445.803	131.31
446.024	130.31
446.245	140.31
446.466	124.31
446.687	99.31
446.908	102.31
447.129	113.31
447.35	95.31
447.571	105.31
447.792	94.31
448.013	91.31
448.234	113.31
448.455	106.31
448.675	110.31
448.896	107.31
449.117	96.31
449.338	107.31
449.559	116.31
449.779	118.31
450	94.31
450.221	86.31
450.442	95.31
450.662	104.31
450.883	114.31
451.104	107.31
451.324	91.31
451.545	97.31
451.766	86.31
451.986	82.31
452.207	88.31
452.428	102.31
452.648	90.31
452.869	89.31
453.089	101.31
453.31	101.31
453.53	105.31
453.751	98.31
453.971	96.31
454.192	100.31
454.412	94.31
454.633	85.31
454.853	79.31
455.073	85.31
455.294	95.31
455.514	95.31
455.734	100.31
455.955	100.31
456.175	87.31
456.395	85.31
456.616	82.31
456.836	81.31
457.056	86.31
457.276	76.31
457.497	96.31
457.717	109.31
457.937	84.31
458.157	99.31
458.377	73.31
458.598	99.31
458.818	127.31
459.038	149.31
459.258	109.31
459.478	98.31
459.698	93.31
459.918	96.31
460.138	74.31
460.358	76.31
460.578	90.31
460.798	75.31
461.018	92.31
461.238	99.31
461.458	81.31
461.678	69.31
461.898	86.31
462.118	87.31
462.338	80.31
462.558	78.31
462.777	89.31
462.997	80.31
463.217	81.31
463.437	87.31
463.657	90.31
463.876	100.31
464.096	94.31
464.316	90.31
464.536	90.31
464.755	100.31
464.975	95.31
465.195	149.31
465.414	167.31
465.634	92.31
465.854	92.31
466.073	100.31
466.293	88.31
466.512	84.31
466.732	96.31
466.951	88.31
467.171	96.31
467.391	85.31
467.61	101.31
467.829	94.31
468.049	85.31
468.268	93.31
468.488	98.31
468.707	103.31
468.927	95.31
469.146	94.31
469.365	103.31
469.585	105.31
469.804	102.31
470.023	100.31
470.243	93.31
470.462	94.31
470.681	99.31
470.901	80.31
471.12	89.31
471.339	96.31
471.558	92.31
471.777	75.31
471.997	87.31
472.216	91.31
472.435	85.31
472.654	85.31
472.873	97.31
473.092	89.31
473.311	86.31
473.53	89.31
473.749	88.31
473.968	106.31
474.187	90.31
474.406	98.31
474.625	88.31
474.844	97.31
475.063	92.31
475.282	83.31
475.501	98.31
475.72	89.31
475.939	82.31
476.158	80.31
476.377	88.31
476.596	88.31
476.814	93.31
477.033	92.31
477.252	79.31
477.471	90.31
477.69	96.31
477.908	84.31
478.127	86.31
478.346	93.31
478.564	87.31
478.783	99.31
479.002	104.31
479.22	93.31
479.439	90.31
479.658	96.31
479.876	100.31
480.095	97.31
480.313	93.31
480.532	93.31
480.751	93.31
480.969	87.31
481.188	86.31
481.406	87.31
481.624	86.31
481.843	82.31
482.061	73.31
482.28	84.31
482.498	96.31
482.717	94.31
482.935	82.31
483.153	81.31
483.372	94.31
483.59	97.31
483.808	85.31
484.027	86.31
484.245	92.31
484.463	88.31
484.681	84.31
484.9	93.31
485.118	91.31
485.336	94.31
485.554	115.31
485.772	97.31
485.99	102.31
486.209	106.31
486.427	101.31
486.645	103.31
486.863	105.31
487.081	96.31
487.299	100.31
487.517	100.31
487.735	95.31
487.953	101.31
488.171	104.31
488.389	82.31
488.607	114.31
488.825	101.31
489.043	92.31
489.261	95.31
489.479	92.31
489.696	100.31
489.914	95.31
490.132	86.31
490.35	80.31
490.568	98.31
490.786	90.31
491.003	85.31
491.221	86.31
491.439	111.31
491.657	89.31
491.874	93.31
492.092	92.31
492.31	85.31
492.527	97.31
492.745	88.31
492.963	92.31
493.18	76.31
493.398	94.31
493.615	106.31
493.833	94.31
494.05	94.31
494.268	104.31
494.485	88.31
494.703	96.31
494.92	96.31
495.138	101.31
495.355	96.31
495.573	85.31
495.79	88.31
496.008	117.31
496.225	92.31
496.442	89.31
496.66	95.31
496.877	98.31
497.094	99.31
497.312	87.31
497.529	89.31
497.746	84.31
497.963	85.31
498.181	90.31
498.398	101.31
498.615	96.31
498.832	98.31
499.049	85.31
499.267	98.31
499.484	94.31
499.701	93.31
499.918	97.31
500.135	101.31
500.352	92.31
500.569	93.31
500.786	107.31
501.003	77.31
501.22	87.31
501.437	98.31
501.654	100.31
501.871	104.31
502.088	99.31
502.305	101.31
502.522	89.31
502.739	100.31
502.956	100.31
503.172	88.31
503.389	98.31
503.606	103.31
503.823	91.31
504.04	88.31
504.256	97.31
504.473	83.31
504.69	102.31
504.907	113.31
505.123	90.31
505.34	103.31
505.557	100.31
505.773	92.31
505.99	93.31
506.207	87.31
506.423	87.31
506.64	86.31
506.856	104.31
507.073	98.31
507.289	93.31
507.506	98.31
507.722	97.31
507.939	111.31
508.155	89.31
508.372	90.31
508.588	99.31
508.805	94.31
509.021	94.31
509.238	107.31
509.454	109.31
509.67	99.31
509.887	112.31
510.103	128.31
510.319	195.31
510.536	678.31
510.752	1946.31
510.968	560.31
511.184	145.31
511.401	105.31
511.617	106.31
511.833	89.31
512.049	104.31
512.265	110.31
512.481	97.31
512.698	95.31
512.914	79.31
513.13	101.31
513.346	96.31
513.562	88.31
513.778	95.31
513.994	93.31
514.21	95.31
514.426	117.31
514.642	127.31
514.858	123.31
