Data from Uncirc_2006_H10_HRD10591_00085.txt Node
Date: Wed Jan 03 10:25:12 EST 2024
User: Yrep
Spectrometer: HR+D1059
Trigger mode: 1
Integration Time (sec): 1.000000E-1
Scans to average: 1
Electric dark correction enabled: true
Nonlinearity correction enabled: false
Boxcar width: 0
XAxis mode: Wavelengths
Number of Pixels in Spectrum: 2048
>>>>>Begin Spectral Data<<<<<
223.165	-16.06
223.4	-16.06
223.635	-16.06
223.869	-22.06
224.104	-25.06
224.338	-14.06
224.573	-14.06
224.808	-5.06
225.042	-2.06
225.277	-9.06
225.511	-0.06
225.746	9.94
225.98	3.94
226.215	13.94
226.449	15.94
226.683	23.94
226.918	19.94
227.152	19.94
227.387	24.94
227.621	30.94
227.856	41.94
228.09	37.94
228.324	32.94
228.559	50.94
228.793	44.94
229.027	54.94
229.262	46.94
229.496	64.94
229.73	74.94
229.964	82.94
230.199	69.94
230.433	62.94
230.667	68.94
230.901	72.94
231.136	83.94
231.37	81.94
231.604	75.94
231.838	89.94
232.072	72.94
232.306	75.94
232.541	55.94
232.775	74.94
233.009	73.94
233.243	81.94
233.477	98.94
233.711	71.94
233.945	71.94
234.179	74.94
234.413	73.94
234.647	73.94
234.881	67.94
235.115	80.94
235.349	64.94
235.583	72.94
235.817	64.94
236.051	83.94
236.285	72.94
236.519	60.94
236.753	71.94
236.987	69.94
237.221	63.94
237.455	79.94
237.689	74.94
237.922	63.94
238.156	70.94
238.39	68.94
238.624	61.94
238.858	80.94
239.091	78.94
239.325	94.94
239.559	72.94
239.793	74.94
240.027	66.94
240.26	48.94
240.494	68.94
240.728	73.94
240.961	83.94
241.195	71.94
241.429	77.94
241.662	72.94
241.896	85.94
242.13	80.94
242.363	73.94
242.597	73.94
242.83	70.94
243.064	71.94
243.298	84.94
243.531	78.94
243.765	73.94
243.998	91.94
244.232	86.94
244.465	74.94
244.699	66.94
244.932	69.94
245.166	79.94
245.399	73.94
245.633	85.94
245.866	62.94
246.099	58.94
246.333	77.94
246.566	65.94
246.8	74.94
247.033	73.94
247.266	60.94
247.5	57.94
247.733	72.94
247.966	72.94
248.2	66.94
248.433	69.94
248.666	80.94
248.899	85.94
249.133	78.94
249.366	74.94
249.599	90.94
249.832	72.94
250.066	86.94
250.299	65.94
250.532	71.94
250.765	69.94
250.998	70.94
251.231	74.94
251.465	72.94
251.698	64.94
251.931	78.94
252.164	74.94
252.397	65.94
252.63	79.94
252.863	86.94
253.096	51.94
253.329	80.94
253.562	82.94
253.795	83.94
254.028	68.94
254.261	69.94
254.494	78.94
254.727	67.94
254.96	72.94
255.193	92.94
255.426	77.94
255.659	62.94
255.892	70.94
256.124	73.94
256.357	73.94
256.59	88.94
256.823	76.94
257.056	79.94
257.289	73.94
257.521	73.94
257.754	65.94
257.987	86.94
258.22	71.94
258.452	78.94
258.685	72.94
258.918	72.94
259.151	87.94
259.383	73.94
259.616	69.94
259.849	77.94
260.081	76.94
260.314	66.94
260.547	78.94
260.779	86.94
261.012	84.94
261.244	65.94
261.477	87.94
261.71	84.94
261.942	99.94
262.175	100.94
262.407	83.94
262.64	80.94
262.872	73.94
263.105	78.94
263.337	79.94
263.57	85.94
263.802	88.94
264.035	69.94
264.267	87.94
264.499	70.94
264.732	67.94
264.964	81.94
265.197	74.94
265.429	63.94
265.661	76.94
265.894	73.94
266.126	71.94
266.358	79.94
266.591	79.94
266.823	65.94
267.055	81.94
267.287	86.94
267.52	73.94
267.752	96.94
267.984	73.94
268.216	84.94
268.448	73.94
268.681	83.94
268.913	78.94
269.145	81.94
269.377	85.94
269.609	76.94
269.841	73.94
270.073	82.94
270.306	73.94
270.538	87.94
270.77	80.94
271.002	71.94
271.234	68.94
271.466	85.94
271.698	79.94
271.93	79.94
272.162	88.94
272.394	74.94
272.626	88.94
272.858	91.94
273.09	63.94
273.322	97.94
273.553	95.94
273.785	73.94
274.017	75.94
274.249	81.94
274.481	61.94
274.713	73.94
274.945	90.94
275.176	71.94
275.408	78.94
275.64	86.94
275.872	80.94
276.104	90.94
276.335	86.94
276.567	93.94
276.799	106.94
277.031	108.94
277.262	83.94
277.494	89.94
277.726	77.94
277.957	88.94
278.189	69.94
278.421	87.94
278.652	85.94
278.884	87.94
279.115	91.94
279.347	73.94
279.579	90.94
279.81	93.94
280.042	92.94
280.273	71.94
280.505	73.94
280.736	82.94
280.968	77.94
281.199	79.94
281.431	74.94
281.662	78.94
281.894	79.94
282.125	92.94
282.356	117.94
282.588	133.94
282.819	109.94
283.051	90.94
283.282	91.94
283.513	97.94
283.745	65.94
283.976	78.94
284.207	75.94
284.439	76.94
284.67	79.94
284.901	90.94
285.132	77.94
285.364	75.94
285.595	81.94
285.826	66.94
286.057	77.94
286.288	79.94
286.52	82.94
286.751	87.94
286.982	79.94
287.213	89.94
287.444	83.94
287.675	87.94
287.906	82.94
288.138	66.94
288.369	89.94
288.6	87.94
288.831	77.94
289.062	91.94
289.293	67.94
289.524	90.94
289.755	82.94
289.986	68.94
290.217	83.94
290.448	82.94
290.679	65.94
290.91	79.94
291.141	83.94
291.371	83.94
291.602	84.94
291.833	85.94
292.064	82.94
292.295	77.94
292.526	80.94
292.757	90.94
292.987	87.94
293.218	78.94
293.449	80.94
293.68	91.94
293.91	77.94
294.141	95.94
294.372	76.94
294.603	107.94
294.833	74.94
295.064	80.94
295.295	78.94
295.525	87.94
295.756	92.94
295.987	106.94
296.217	131.94
296.448	111.94
296.679	102.94
296.909	80.94
297.14	82.94
297.37	79.94
297.601	90.94
297.831	88.94
298.062	73.94
298.292	75.94
298.523	78.94
298.753	74.94
298.984	86.94
299.214	82.94
299.445	82.94
299.675	83.94
299.905	87.94
300.136	75.94
300.366	88.94
300.597	82.94
300.827	75.94
301.057	85.94
301.288	91.94
301.518	101.94
301.748	80.94
301.979	103.94
302.209	70.94
302.439	95.94
302.669	91.94
302.9	77.94
303.13	86.94
303.36	85.94
303.59	94.94
303.82	91.94
304.051	94.94
304.281	78.94
304.511	93.94
304.741	88.94
304.971	95.94
305.201	95.94
305.431	90.94
305.661	99.94
305.891	78.94
306.121	105.94
306.352	79.94
306.582	107.94
306.812	91.94
307.042	89.94
307.272	77.94
307.502	87.94
307.731	81.94
307.961	82.94
308.191	74.94
308.421	80.94
308.651	89.94
308.881	89.94
309.111	87.94
309.341	84.94
309.571	86.94
309.8	102.94
310.03	74.94
310.26	91.94
310.49	96.94
310.72	84.94
310.949	93.94
311.179	95.94
311.409	87.94
311.639	92.94
311.868	75.94
312.098	103.94
312.328	103.94
312.557	95.94
312.787	94.94
313.017	102.94
313.246	96.94
313.476	83.94
313.706	91.94
313.935	78.94
314.165	94.94
314.394	83.94
314.624	83.94
314.853	88.94
315.083	86.94
315.312	89.94
315.542	102.94
315.771	84.94
316.001	91.94
316.23	99.94
316.46	85.94
316.689	82.94
316.919	89.94
317.148	90.94
317.377	88.94
317.607	88.94
317.836	99.94
318.065	96.94
318.295	75.94
318.524	84.94
318.753	96.94
318.983	80.94
319.212	81.94
319.441	105.94
319.67	101.94
319.9	94.94
320.129	88.94
320.358	84.94
320.587	99.94
320.816	90.94
321.046	95.94
321.275	96.94
321.504	88.94
321.733	82.94
321.962	96.94
322.191	102.94
322.42	97.94
322.649	106.94
322.878	116.94
323.108	104.94
323.337	124.94
323.566	118.94
323.795	132.94
324.024	184.94
324.253	389.94
324.482	823.94
324.71	1657.94
324.939	2190.94
325.168	797.94
325.397	239.94
325.626	146.94
325.855	135.94
326.084	134.94
326.313	143.94
326.542	163.94
326.77	233.94
326.999	464.94
327.228	960.94
327.457	1691.94
327.686	1360.94
327.914	353.94
328.143	176.94
328.372	138.94
328.6	113.94
328.829	119.94
329.058	122.94
329.287	117.94
329.515	111.94
329.744	93.94
329.972	93.94
330.201	86.94
330.43	96.94
330.658	104.94
330.887	116.94
331.115	117.94
331.344	104.94
331.572	86.94
331.801	89.94
332.03	101.94
332.258	98.94
332.486	85.94
332.715	82.94
332.943	95.94
333.172	89.94
333.4	79.94
333.629	87.94
333.857	93.94
334.085	92.94
334.314	92.94
334.542	96.94
334.771	91.94
334.999	93.94
335.227	89.94
335.455	88.94
335.684	87.94
335.912	81.94
336.14	84.94
336.369	90.94
336.597	92.94
336.825	91.94
337.053	97.94
337.281	83.94
337.51	86.94
337.738	87.94
337.966	82.94
338.194	93.94
338.422	95.94
338.65	87.94
338.878	82.94
339.106	77.94
339.334	81.94
339.562	105.94
339.79	85.94
340.018	87.94
340.246	82.94
340.474	89.94
340.702	78.94
340.93	83.94
341.158	93.94
341.386	92.94
341.614	82.94
341.842	89.94
342.07	88.94
342.298	93.94
342.526	84.94
342.754	89.94
342.981	82.94
343.209	84.94
343.437	83.94
343.665	80.94
343.893	95.94
344.12	78.94
344.348	87.94
344.576	84.94
344.804	100.94
345.031	97.94
345.259	98.94
345.487	88.94
345.714	78.94
345.942	102.94
346.17	91.94
346.397	79.94
346.625	93.94
346.853	87.94
347.08	90.94
347.308	93.94
347.535	101.94
347.763	88.94
347.99	87.94
348.218	96.94
348.445	95.94
348.673	103.94
348.9	90.94
349.128	92.94
349.355	85.94
349.583	93.94
349.81	91.94
350.037	94.94
350.265	88.94
350.492	99.94
350.72	93.94
350.947	104.94
351.174	101.94
351.402	109.94
351.629	100.94
351.856	94.94
352.083	103.94
352.311	88.94
352.538	103.94
352.765	104.94
352.992	110.94
353.22	110.94
353.447	102.94
353.674	100.94
353.901	104.94
354.128	93.94
354.355	99.94
354.583	103.94
354.81	105.94
355.037	104.94
355.264	94.94
355.491	97.94
355.718	75.94
355.945	101.94
356.172	80.94
356.399	89.94
356.626	96.94
356.853	78.94
357.08	83.94
357.307	89.94
357.534	88.94
357.761	92.94
357.988	89.94
358.215	81.94
358.441	89.94
358.668	100.94
358.895	73.94
359.122	89.94
359.349	89.94
359.576	80.94
359.802	90.94
360.029	92.94
360.256	108.94
360.483	91.94
360.709	85.94
360.936	94.94
361.163	92.94
361.39	89.94
361.616	69.94
361.843	86.94
362.07	73.94
362.296	87.94
362.523	89.94
362.749	95.94
362.976	81.94
363.203	79.94
363.429	90.94
363.656	94.94
363.882	99.94
364.109	96.94
364.335	85.94
364.562	87.94
364.788	78.94
365.015	101.94
365.241	94.94
365.468	97.94
365.694	91.94
365.92	82.94
366.147	80.94
366.373	78.94
366.599	71.94
366.826	111.94
367.052	100.94
367.278	80.94
367.505	84.94
367.731	82.94
367.957	83.94
368.184	101.94
368.41	91.94
368.636	99.94
368.862	105.94
369.089	99.94
369.315	90.94
369.541	79.94
369.767	94.94
369.993	92.94
370.219	79.94
370.445	80.94
370.672	74.94
370.898	74.94
371.124	66.94
371.35	81.94
371.576	85.94
371.802	96.94
372.028	75.94
372.254	90.94
372.48	77.94
372.706	91.94
372.932	82.94
373.158	91.94
373.384	82.94
373.61	91.94
373.835	90.94
374.061	82.94
374.287	90.94
374.513	86.94
374.739	94.94
374.965	81.94
375.191	90.94
375.416	86.94
375.642	91.94
375.868	92.94
376.094	85.94
376.319	94.94
376.545	91.94
376.771	64.94
376.997	75.94
377.222	82.94
377.448	68.94
377.674	75.94
377.899	85.94
378.125	72.94
378.35	99.94
378.576	85.94
378.802	85.94
379.027	88.94
379.253	76.94
379.478	82.94
379.704	79.94
379.929	105.94
380.155	83.94
380.38	80.94
380.606	95.94
380.831	94.94
381.057	101.94
381.282	92.94
381.507	93.94
381.733	90.94
381.958	92.94
382.184	90.94
382.409	109.94
382.634	87.94
382.86	103.94
383.085	104.94
383.31	96.94
383.535	90.94
383.761	97.94
383.986	93.94
384.211	94.94
384.436	105.94
384.662	95.94
384.887	96.94
385.112	86.94
385.337	91.94
385.562	109.94
385.787	99.94
386.013	109.94
386.238	97.94
386.463	106.94
386.688	105.94
386.913	93.94
387.138	87.94
387.363	90.94
387.588	96.94
387.813	81.94
388.038	88.94
388.263	112.94
388.488	104.94
388.713	99.94
388.938	117.94
389.163	95.94
389.387	96.94
389.612	95.94
389.837	85.94
390.062	79.94
390.287	72.94
390.512	94.94
390.736	81.94
390.961	90.94
391.186	88.94
391.411	96.94
391.636	78.94
391.86	96.94
392.085	90.94
392.31	76.94
392.534	93.94
392.759	83.94
392.984	74.94
393.208	75.94
393.433	83.94
393.658	82.94
393.882	74.94
394.107	82.94
394.331	79.94
394.556	69.94
394.78	91.94
395.005	81.94
395.229	72.94
395.454	84.94
395.678	98.94
395.903	89.94
396.127	83.94
396.352	78.94
396.576	86.94
396.801	86.94
397.025	77.94
397.249	101.94
397.474	87.94
397.698	77.94
397.922	90.94
398.147	78.94
398.371	81.94
398.595	82.94
398.82	67.94
399.044	79.94
399.268	82.94
399.492	80.94
399.717	68.94
399.941	82.94
400.165	85.94
400.389	84.94
400.613	80.94
400.837	83.94
401.062	76.94
401.286	88.94
401.51	83.94
401.734	90.94
401.958	101.94
402.182	134.94
402.406	139.94
402.63	97.94
402.854	85.94
403.078	93.94
403.302	86.94
403.526	89.94
403.75	89.94
403.974	91.94
404.198	95.94
404.422	65.94
404.645	78.94
404.869	72.94
405.093	89.94
405.317	89.94
405.541	76.94
405.765	83.94
405.988	125.94
406.212	166.94
406.436	208.94
406.66	134.94
406.883	100.94
407.107	93.94
407.331	94.94
407.555	88.94
407.778	87.94
408.002	77.94
408.226	94.94
408.449	80.94
408.673	81.94
408.896	93.94
409.12	86.94
409.344	86.94
409.567	69.94
409.791	79.94
410.014	95.94
410.238	72.94
410.461	82.94
410.685	103.94
410.908	92.94
411.132	96.94
411.355	96.94
411.578	86.94
411.802	83.94
412.025	82.94
412.249	93.94
412.472	74.94
412.695	91.94
412.919	80.94
413.142	72.94
413.365	74.94
413.589	86.94
413.812	83.94
414.035	73.94
414.258	97.94
414.482	97.94
414.705	95.94
414.928	98.94
415.151	102.94
415.374	87.94
415.597	83.94
415.821	84.94
416.044	82.94
416.267	85.94
416.49	86.94
416.713	72.94
416.936	90.94
417.159	92.94
417.382	83.94
417.605	103.94
417.828	79.94
418.051	92.94
418.274	78.94
418.497	88.94
418.72	90.94
418.943	89.94
419.166	86.94
419.389	77.94
419.611	73.94
419.834	84.94
420.057	91.94
420.28	81.94
420.503	83.94
420.726	89.94
420.948	81.94
421.171	80.94
421.394	86.94
421.617	99.94
421.839	96.94
422.062	88.94
422.285	79.94
422.507	97.94
422.73	106.94
422.953	95.94
423.175	90.94
423.398	93.94
423.621	78.94
423.843	77.94
424.066	86.94
424.288	79.94
424.511	89.94
424.733	118.94
424.956	94.94
425.178	100.94
425.401	110.94
425.623	87.94
425.846	76.94
426.068	99.94
426.291	96.94
426.513	98.94
426.735	76.94
426.958	108.94
427.18	87.94
427.402	120.94
427.625	142.94
427.847	118.94
428.069	95.94
428.292	94.94
428.514	83.94
428.736	92.94
428.958	80.94
429.181	89.94
429.403	81.94
429.625	73.94
429.847	89.94
430.069	82.94
430.292	87.94
430.514	93.94
430.736	81.94
430.958	91.94
431.18	76.94
431.402	86.94
431.624	77.94
431.846	89.94
432.068	83.94
432.29	79.94
432.512	94.94
432.734	73.94
432.956	87.94
433.178	99.94
433.4	76.94
433.622	92.94
433.844	96.94
434.066	92.94
434.287	76.94
434.509	74.94
434.731	77.94
434.953	87.94
435.175	94.94
435.397	96.94
435.618	98.94
435.84	95.94
436.062	110.94
436.284	104.94
436.505	101.94
436.727	95.94
436.949	89.94
437.17	86.94
437.392	101.94
437.614	91.94
437.835	90.94
438.057	106.94
438.278	89.94
438.5	87.94
438.721	129.94
438.943	107.94
439.165	89.94
439.386	80.94
439.608	89.94
439.829	93.94
440.05	114.94
440.272	134.94
440.493	105.94
440.715	91.94
440.936	89.94
441.158	82.94
441.379	87.94
441.6	88.94
441.822	88.94
442.043	82.94
442.264	86.94
442.486	93.94
442.707	83.94
442.928	106.94
443.149	124.94
443.371	111.94
443.592	103.94
443.813	118.94
444.034	109.94
444.255	90.94
444.476	89.94
444.698	92.94
444.919	89.94
445.14	129.94
445.361	120.94
445.582	106.94
445.803	131.94
446.024	121.94
446.245	134.94
446.466	98.94
446.687	70.94
446.908	89.94
447.129	87.94
447.35	90.94
447.571	74.94
447.792	78.94
448.013	88.94
448.234	102.94
448.455	109.94
448.675	99.94
448.896	122.94
449.117	92.94
449.338	90.94
449.559	113.94
449.779	111.94
450	89.94
450.221	77.94
450.442	88.94
450.662	94.94
450.883	97.94
451.104	85.94
451.324	87.94
451.545	99.94
451.766	113.94
451.986	85.94
452.207	78.94
452.428	103.94
452.648	85.94
452.869	106.94
453.089	109.94
453.31	103.94
453.53	79.94
453.751	78.94
453.971	104.94
454.192	94.94
454.412	97.94
454.633	83.94
454.853	89.94
455.073	100.94
455.294	97.94
455.514	89.94
455.734	87.94
455.955	80.94
456.175	83.94
456.395	74.94
456.616	84.94
456.836	89.94
457.056	82.94
457.276	78.94
457.497	65.94
457.717	76.94
457.937	110.94
458.157	81.94
458.377	84.94
458.598	92.94
458.818	136.94
459.038	153.94
459.258	115.94
459.478	89.94
459.698	84.94
459.918	81.94
460.138	87.94
460.358	80.94
460.578	89.94
460.798	80.94
461.018	85.94
461.238	92.94
461.458	76.94
461.678	80.94
461.898	93.94
462.118	68.94
462.338	76.94
462.558	80.94
462.777	81.94
462.997	72.94
463.217	79.94
463.437	85.94
463.657	82.94
463.876	83.94
464.096	76.94
464.316	88.94
464.536	94.94
464.755	96.94
464.975	96.94
465.195	149.94
465.414	142.94
465.634	90.94
465.854	84.94
466.073	82.94
466.293	79.94
466.512	73.94
466.732	85.94
466.951	80.94
467.171	89.94
467.391	77.94
467.61	91.94
467.829	85.94
468.049	89.94
468.268	70.94
468.488	89.94
468.707	57.94
468.927	65.94
469.146	82.94
469.365	75.94
469.585	67.94
469.804	97.94
470.023	99.94
470.243	95.94
470.462	98.94
470.681	100.94
470.901	86.94
471.12	82.94
471.339	78.94
471.558	75.94
471.777	89.94
471.997	79.94
472.216	89.94
472.435	88.94
472.654	74.94
472.873	95.94
473.092	78.94
473.311	88.94
473.53	88.94
473.749	90.94
473.968	82.94
474.187	92.94
474.406	89.94
474.625	78.94
474.844	81.94
475.063	80.94
475.282	87.94
475.501	81.94
475.72	98.94
475.939	105.94
476.158	83.94
476.377	73.94
476.596	92.94
476.814	85.94
477.033	71.94
477.252	92.94
477.471	65.94
477.69	87.94
477.908	83.94
478.127	89.94
478.346	86.94
478.564	85.94
478.783	100.94
479.002	79.94
479.22	77.94
479.439	101.94
479.658	99.94
479.876	87.94
480.095	98.94
480.313	81.94
480.532	94.94
480.751	93.94
480.969	100.94
481.188	89.94
481.406	87.94
481.624	83.94
481.843	73.94
482.061	65.94
482.28	89.94
482.498	77.94
482.717	86.94
482.935	85.94
483.153	80.94
483.372	77.94
483.59	90.94
483.808	83.94
484.027	77.94
484.245	100.94
484.463	87.94
484.681	106.94
484.9	90.94
485.118	97.94
485.336	101.94
485.554	105.94
485.772	86.94
485.99	98.94
486.209	99.94
486.427	91.94
486.645	97.94
486.863	103.94
487.081	98.94
487.299	90.94
487.517	79.94
487.735	87.94
487.953	84.94
488.171	79.94
488.389	69.94
488.607	82.94
488.825	87.94
489.043	87.94
489.261	82.94
489.479	83.94
489.696	91.94
489.914	86.94
490.132	87.94
490.35	81.94
490.568	90.94
490.786	80.94
491.003	82.94
491.221	91.94
491.439	83.94
491.657	81.94
491.874	86.94
492.092	80.94
492.31	70.94
492.527	78.94
492.745	90.94
492.963	81.94
493.18	85.94
493.398	86.94
493.615	97.94
493.833	96.94
494.05	92.94
494.268	85.94
494.485	84.94
494.703	89.94
494.92	86.94
495.138	79.94
495.355	80.94
495.573	94.94
495.79	76.94
496.008	75.94
496.225	86.94
496.442	75.94
496.66	95.94
496.877	80.94
497.094	79.94
497.312	89.94
497.529	87.94
497.746	93.94
497.963	87.94
498.181	86.94
498.398	88.94
498.615	97.94
498.832	98.94
499.049	79.94
499.267	84.94
499.484	74.94
499.701	85.94
499.918	97.94
500.135	69.94
500.352	86.94
500.569	76.94
500.786	96.94
501.003	89.94
501.22	87.94
501.437	73.94
501.654	76.94
501.871	111.94
502.088	91.94
502.305	89.94
502.522	88.94
502.739	103.94
502.956	89.94
503.172	83.94
503.389	96.94
503.606	101.94
503.823	86.94
504.04	91.94
504.256	88.94
504.473	87.94
504.69	83.94
504.907	92.94
505.123	79.94
505.34	87.94
505.557	80.94
505.773	88.94
505.99	87.94
506.207	102.94
506.423	89.94
506.64	95.94
506.856	73.94
507.073	83.94
507.289	99.94
507.506	87.94
507.722	102.94
507.939	93.94
508.155	93.94
508.372	90.94
508.588	99.94
508.805	94.94
509.021	95.94
509.238	82.94
509.454	95.94
509.67	103.94
509.887	107.94
510.103	115.94
510.319	209.94
510.536	736.94
510.752	2300.94
510.968	625.94
511.184	145.94
511.401	98.94
511.617	96.94
511.833	82.94
512.049	78.94
512.265	80.94
512.481	87.94
512.698	88.94
512.914	79.94
513.13	101.94
513.346	76.94
513.562	83.94
513.778	92.94
513.994	106.94
514.21	95.94
514.426	104.94
514.642	125.94
514.858	104.94
515.074	162.94
515.29	419.94
515.506	1392.94
515.721	536.94
515.937	153.94
516.153	99.94
516.369	104.94
516.585	89.94
516.801	94.94
517.016	85.94
517.232	94.94
