Data from Uncirc_2006_H10_HRD10591_00015.txt Node
Date: Wed Jan 03 10:24:58 EST 2024
User: Yrep
Spectrometer: HR+D1059
Trigger mode: 1
Integration Time (sec): 1.000000E-1
Scans to average: 1
Electric dark correction enabled: true
Nonlinearity correction enabled: false
Boxcar width: 0
XAxis mode: Wavelengths
Number of Pixels in Spectrum: 2048
>>>>>Begin Spectral Data<<<<<
223.165	-8.19
223.4	-8.19
223.635	-8.19
223.869	-22.19
224.104	-30.19
224.338	-6.19
224.573	-9.19
224.808	-19.19
225.042	-12.19
225.277	3.81
225.511	-15.19
225.746	1.81
225.98	5.81
226.215	10.81
226.449	27.81
226.683	19.81
226.918	28.81
227.152	23.81
227.387	44.81
227.621	39.81
227.856	37.81
228.09	46.81
228.324	40.81
228.559	58.81
228.793	60.81
229.027	61.81
229.262	66.81
229.496	67.81
229.73	72.81
229.964	87.81
230.199	80.81
230.433	79.81
230.667	86.81
230.901	70.81
231.136	84.81
231.37	87.81
231.604	70.81
231.838	77.81
232.072	73.81
232.306	79.81
232.541	89.81
232.775	74.81
233.009	81.81
233.243	66.81
233.477	72.81
233.711	72.81
233.945	87.81
234.179	74.81
234.413	73.81
234.647	74.81
234.881	86.81
235.115	82.81
235.349	87.81
235.583	87.81
235.817	59.81
236.051	88.81
236.285	74.81
236.519	82.81
236.753	81.81
236.987	71.81
237.221	94.81
237.455	73.81
237.689	70.81
237.922	82.81
238.156	74.81
238.39	82.81
238.624	78.81
238.858	60.81
239.091	69.81
239.325	84.81
239.559	84.81
239.793	74.81
240.027	81.81
240.26	70.81
240.494	86.81
240.728	66.81
240.961	75.81
241.195	91.81
241.429	84.81
241.662	66.81
241.896	83.81
242.13	68.81
242.363	79.81
242.597	70.81
242.83	75.81
243.064	76.81
243.298	71.81
243.531	76.81
243.765	79.81
243.998	74.81
244.232	78.81
244.465	91.81
244.699	82.81
244.932	80.81
245.166	78.81
245.399	79.81
245.633	84.81
245.866	77.81
246.099	84.81
246.333	90.81
246.566	80.81
246.8	89.81
247.033	78.81
247.266	74.81
247.5	74.81
247.733	80.81
247.966	85.81
248.2	80.81
248.433	91.81
248.666	87.81
248.899	84.81
249.133	93.81
249.366	98.81
249.599	98.81
249.832	92.81
250.066	85.81
250.299	92.81
250.532	83.81
250.765	85.81
250.998	71.81
251.231	89.81
251.465	82.81
251.698	87.81
251.931	82.81
252.164	92.81
252.397	83.81
252.63	77.81
252.863	79.81
253.096	87.81
253.329	96.81
253.562	92.81
253.795	85.81
254.028	82.81
254.261	80.81
254.494	86.81
254.727	84.81
254.96	78.81
255.193	64.81
255.426	78.81
255.659	83.81
255.892	93.81
256.124	59.81
256.357	74.81
256.59	96.81
256.823	92.81
257.056	85.81
257.289	78.81
257.521	77.81
257.754	82.81
257.987	78.81
258.22	80.81
258.452	85.81
258.685	73.81
258.918	94.81
259.151	78.81
259.383	87.81
259.616	83.81
259.849	90.81
260.081	85.81
260.314	92.81
260.547	98.81
260.779	93.81
261.012	84.81
261.244	82.81
261.477	86.81
261.71	74.81
261.942	87.81
262.175	85.81
262.407	83.81
262.64	76.81
262.872	78.81
263.105	87.81
263.337	82.81
263.57	87.81
263.802	73.81
264.035	86.81
264.267	90.81
264.499	100.81
264.732	93.81
264.964	101.81
265.197	88.81
265.429	86.81
265.661	88.81
265.894	78.81
266.126	88.81
266.358	89.81
266.591	84.81
266.823	92.81
267.055	81.81
267.287	75.81
267.52	84.81
267.752	87.81
267.984	83.81
268.216	88.81
268.448	71.81
268.681	63.81
268.913	107.81
269.145	84.81
269.377	86.81
269.609	80.81
269.841	95.81
270.073	89.81
270.306	86.81
270.538	87.81
270.77	85.81
271.002	85.81
271.234	74.81
271.466	80.81
271.698	84.81
271.93	87.81
272.162	85.81
272.394	87.81
272.626	82.81
272.858	81.81
273.09	80.81
273.322	98.81
273.553	78.81
273.785	85.81
274.017	77.81
274.249	72.81
274.481	87.81
274.713	85.81
274.945	83.81
275.176	76.81
275.408	93.81
275.64	83.81
275.872	88.81
276.104	83.81
276.335	92.81
276.567	93.81
276.799	103.81
277.031	102.81
277.262	84.81
277.494	90.81
277.726	82.81
277.957	80.81
278.189	90.81
278.421	89.81
278.652	78.81
278.884	81.81
279.115	82.81
279.347	90.81
279.579	85.81
279.81	79.81
280.042	92.81
280.273	111.81
280.505	77.81
280.736	87.81
280.968	85.81
281.199	88.81
281.431	94.81
281.662	91.81
281.894	94.81
282.125	93.81
282.356	110.81
282.588	151.81
282.819	108.81
283.051	92.81
283.282	85.81
283.513	91.81
283.745	82.81
283.976	88.81
284.207	84.81
284.439	88.81
284.67	85.81
284.901	81.81
285.132	94.81
285.364	87.81
285.595	96.81
285.826	87.81
286.057	87.81
286.288	86.81
286.52	94.81
286.751	83.81
286.982	77.81
287.213	99.81
287.444	80.81
287.675	90.81
287.906	92.81
288.138	91.81
288.369	78.81
288.6	97.81
288.831	79.81
289.062	98.81
289.293	87.81
289.524	80.81
289.755	87.81
289.986	86.81
290.217	86.81
290.448	95.81
290.679	94.81
290.91	94.81
291.141	103.81
291.371	96.81
291.602	100.81
291.833	83.81
292.064	75.81
292.295	90.81
292.526	88.81
292.757	109.81
292.987	84.81
293.218	98.81
293.449	85.81
293.68	92.81
293.91	92.81
294.141	85.81
294.372	90.81
294.603	86.81
294.833	84.81
295.064	83.81
295.295	91.81
295.525	94.81
295.756	107.81
295.987	109.81
296.217	113.81
296.448	108.81
296.679	78.81
296.909	83.81
297.14	96.81
297.37	93.81
297.601	88.81
297.831	84.81
298.062	96.81
298.292	87.81
298.523	83.81
298.753	93.81
298.984	82.81
299.214	86.81
299.445	86.81
299.675	98.81
299.905	101.81
300.136	88.81
300.366	90.81
300.597	84.81
300.827	93.81
301.057	96.81
301.288	101.81
301.518	94.81
301.748	99.81
301.979	94.81
302.209	92.81
302.439	78.81
302.669	79.81
302.9	78.81
303.13	97.81
303.36	80.81
303.59	107.81
303.82	111.81
304.051	100.81
304.281	104.81
304.511	83.81
304.741	79.81
304.971	92.81
305.201	102.81
305.431	94.81
305.661	95.81
305.891	96.81
306.121	72.81
306.352	103.81
306.582	115.81
306.812	106.81
307.042	92.81
307.272	88.81
307.502	96.81
307.731	95.81
307.961	90.81
308.191	87.81
308.421	94.81
308.651	93.81
308.881	99.81
309.111	94.81
309.341	94.81
309.571	113.81
309.8	97.81
310.03	104.81
310.26	90.81
310.49	92.81
310.72	96.81
310.949	88.81
311.179	98.81
311.409	83.81
311.639	90.81
311.868	107.81
312.098	92.81
312.328	107.81
312.557	96.81
312.787	111.81
313.017	89.81
313.246	91.81
313.476	93.81
313.706	107.81
313.935	97.81
314.165	101.81
314.394	87.81
314.624	98.81
314.853	96.81
315.083	91.81
315.312	88.81
315.542	97.81
315.771	86.81
316.001	87.81
316.23	74.81
316.46	83.81
316.689	96.81
316.919	90.81
317.148	116.81
317.377	95.81
317.607	98.81
317.836	87.81
318.065	78.81
318.295	96.81
318.524	100.81
318.753	90.81
318.983	96.81
319.212	104.81
319.441	113.81
319.67	107.81
319.9	102.81
320.129	82.81
320.358	106.81
320.587	93.81
320.816	100.81
321.046	106.81
321.275	109.81
321.504	97.81
321.733	108.81
321.962	91.81
322.191	109.81
322.42	96.81
322.649	94.81
322.878	110.81
323.108	128.81
323.337	120.81
323.566	123.81
323.795	154.81
324.024	202.81
324.253	366.81
324.482	807.81
324.71	1630.81
324.939	2171.81
325.168	796.81
325.397	247.81
325.626	150.81
325.855	118.81
326.084	140.81
326.313	131.81
326.542	135.81
326.77	226.81
326.999	435.81
327.228	928.81
327.457	1618.81
327.686	1294.81
327.914	342.81
328.143	191.81
328.372	141.81
328.6	102.81
328.829	118.81
329.058	129.81
329.287	126.81
329.515	99.81
329.744	87.81
329.972	93.81
330.201	85.81
330.43	106.81
330.658	125.81
330.887	127.81
331.115	119.81
331.344	85.81
331.572	102.81
331.801	88.81
332.03	83.81
332.258	95.81
332.486	85.81
332.715	93.81
332.943	92.81
333.172	102.81
333.4	89.81
333.629	95.81
333.857	101.81
334.085	98.81
334.314	83.81
334.542	101.81
334.771	91.81
334.999	96.81
335.227	99.81
335.455	108.81
335.684	96.81
335.912	105.81
336.14	101.81
336.369	99.81
336.597	92.81
336.825	101.81
337.053	95.81
337.281	97.81
337.51	93.81
337.738	93.81
337.966	94.81
338.194	96.81
338.422	106.81
338.65	94.81
338.878	90.81
339.106	85.81
339.334	81.81
339.562	83.81
339.79	73.81
340.018	90.81
340.246	86.81
340.474	108.81
340.702	92.81
340.93	88.81
341.158	85.81
341.386	95.81
341.614	92.81
341.842	87.81
342.07	98.81
342.298	94.81
342.526	89.81
342.754	77.81
342.981	96.81
343.209	93.81
343.437	103.81
343.665	93.81
343.893	101.81
344.12	101.81
344.348	95.81
344.576	101.81
344.804	79.81
345.031	96.81
345.259	88.81
345.487	87.81
345.714	96.81
345.942	99.81
346.17	86.81
346.397	100.81
346.625	105.81
346.853	92.81
347.08	85.81
347.308	111.81
347.535	107.81
347.763	109.81
347.99	92.81
348.218	98.81
348.445	104.81
348.673	93.81
348.9	105.81
349.128	108.81
349.355	96.81
349.583	80.81
349.81	90.81
350.037	97.81
350.265	110.81
350.492	82.81
350.72	98.81
350.947	102.81
351.174	106.81
351.402	106.81
351.629	112.81
351.856	123.81
352.083	100.81
352.311	96.81
352.538	112.81
352.765	102.81
352.992	114.81
353.22	114.81
353.447	103.81
353.674	103.81
353.901	101.81
354.128	93.81
354.355	98.81
354.583	113.81
354.81	105.81
355.037	103.81
355.264	98.81
355.491	99.81
355.718	86.81
355.945	93.81
356.172	97.81
356.399	101.81
356.626	103.81
356.853	92.81
357.08	104.81
357.307	99.81
357.534	101.81
357.761	99.81
357.988	105.81
358.215	112.81
358.441	101.81
358.668	92.81
358.895	96.81
359.122	95.81
359.349	88.81
359.576	103.81
359.802	90.81
360.029	113.81
360.256	112.81
360.483	109.81
360.709	88.81
360.936	90.81
361.163	91.81
361.39	91.81
361.616	113.81
361.843	104.81
362.07	87.81
362.296	97.81
362.523	78.81
362.749	96.81
362.976	78.81
363.203	81.81
363.429	89.81
363.656	96.81
363.882	86.81
364.109	80.81
364.335	88.81
364.562	92.81
364.788	101.81
365.015	78.81
365.241	102.81
365.468	117.81
365.694	99.81
365.92	98.81
366.147	76.81
366.373	76.81
366.599	85.81
366.826	91.81
367.052	95.81
367.278	93.81
367.505	87.81
367.731	95.81
367.957	90.81
368.184	83.81
368.41	74.81
368.636	120.81
368.862	112.81
369.089	100.81
369.315	92.81
369.541	78.81
369.767	92.81
369.993	87.81
370.219	82.81
370.445	98.81
370.672	92.81
370.898	91.81
371.124	91.81
371.35	99.81
371.576	100.81
371.802	72.81
372.028	94.81
372.254	88.81
372.48	102.81
372.706	79.81
372.932	90.81
373.158	75.81
373.384	87.81
373.61	92.81
373.835	96.81
374.061	97.81
374.287	106.81
374.513	95.81
374.739	100.81
374.965	73.81
375.191	90.81
375.416	79.81
375.642	92.81
375.868	98.81
376.094	98.81
376.319	90.81
376.545	84.81
376.771	87.81
376.997	96.81
377.222	90.81
377.448	81.81
377.674	108.81
377.899	95.81
378.125	82.81
378.35	108.81
378.576	97.81
378.802	97.81
379.027	112.81
379.253	103.81
379.478	85.81
379.704	100.81
379.929	90.81
380.155	88.81
380.38	107.81
380.606	93.81
380.831	102.81
381.057	111.81
381.282	86.81
381.507	93.81
381.733	103.81
381.958	102.81
382.184	91.81
382.409	100.81
382.634	101.81
382.86	84.81
383.085	93.81
383.31	96.81
383.535	100.81
383.761	111.81
383.986	106.81
384.211	98.81
384.436	88.81
384.662	106.81
384.887	114.81
385.112	101.81
385.337	109.81
385.562	99.81
385.787	107.81
386.013	102.81
386.238	120.81
386.463	97.81
386.688	115.81
386.913	111.81
387.138	122.81
387.363	99.81
387.588	107.81
387.813	116.81
388.038	110.81
388.263	119.81
388.488	110.81
388.713	96.81
388.938	108.81
389.163	92.81
389.387	91.81
389.612	91.81
389.837	92.81
390.062	106.81
390.287	88.81
390.512	91.81
390.736	93.81
390.961	84.81
391.186	96.81
391.411	85.81
391.636	89.81
391.86	96.81
392.085	89.81
392.31	83.81
392.534	75.81
392.759	80.81
392.984	89.81
393.208	94.81
393.433	90.81
393.658	99.81
393.882	82.81
394.107	85.81
394.331	86.81
394.556	83.81
394.78	67.81
395.005	79.81
395.229	79.81
395.454	95.81
395.678	78.81
395.903	87.81
396.127	90.81
396.352	78.81
396.576	84.81
396.801	99.81
397.025	79.81
397.249	86.81
397.474	101.81
397.698	90.81
397.922	87.81
398.147	82.81
398.371	86.81
398.595	90.81
398.82	91.81
399.044	84.81
399.268	97.81
399.492	91.81
399.717	89.81
399.941	97.81
400.165	80.81
400.389	89.81
400.613	79.81
400.837	86.81
401.062	89.81
401.286	96.81
401.51	83.81
401.734	90.81
401.958	102.81
402.182	122.81
402.406	162.81
402.63	120.81
402.854	101.81
403.078	89.81
403.302	95.81
403.526	85.81
403.75	84.81
403.974	96.81
404.198	90.81
404.422	103.81
404.645	93.81
404.869	103.81
405.093	106.81
405.317	92.81
405.541	107.81
405.765	100.81
405.988	107.81
406.212	164.81
406.436	211.81
406.66	133.81
406.883	103.81
407.107	92.81
407.331	93.81
407.555	96.81
407.778	92.81
408.002	100.81
408.226	96.81
408.449	90.81
408.673	84.81
408.896	101.81
409.12	77.81
409.344	86.81
409.567	93.81
409.791	83.81
410.014	97.81
410.238	100.81
410.461	85.81
410.685	103.81
410.908	85.81
411.132	104.81
411.355	102.81
411.578	99.81
411.802	97.81
412.025	84.81
412.249	82.81
412.472	88.81
412.695	86.81
412.919	85.81
413.142	76.81
413.365	100.81
413.589	89.81
413.812	91.81
414.035	91.81
414.258	86.81
414.482	76.81
414.705	86.81
414.928	98.81
415.151	94.81
415.374	91.81
415.597	78.81
415.821	79.81
416.044	78.81
416.267	86.81
416.49	81.81
416.713	89.81
416.936	84.81
417.159	87.81
417.382	93.81
417.605	90.81
417.828	96.81
418.051	83.81
418.274	74.81
418.497	89.81
418.72	78.81
418.943	77.81
419.166	91.81
419.389	92.81
419.611	94.81
419.834	92.81
420.057	81.81
420.28	77.81
420.503	81.81
420.726	89.81
420.948	86.81
421.171	91.81
421.394	84.81
421.617	90.81
421.839	89.81
422.062	92.81
422.285	95.81
422.507	87.81
422.73	88.81
422.953	106.81
423.175	90.81
423.398	78.81
423.621	95.81
423.843	77.81
424.066	100.81
424.288	84.81
424.511	77.81
424.733	95.81
424.956	101.81
425.178	99.81
425.401	83.81
425.623	97.81
425.846	83.81
426.068	94.81
426.291	84.81
426.513	88.81
426.735	93.81
426.958	96.81
427.18	106.81
427.402	121.81
427.625	140.81
427.847	109.81
428.069	100.81
428.292	95.81
428.514	98.81
428.736	94.81
428.958	78.81
429.181	81.81
429.403	83.81
429.625	92.81
429.847	99.81
430.069	105.81
430.292	88.81
430.514	88.81
430.736	85.81
430.958	77.81
431.18	79.81
431.402	84.81
431.624	76.81
431.846	93.81
432.068	73.81
432.29	81.81
432.512	95.81
432.734	89.81
432.956	83.81
433.178	86.81
433.4	89.81
433.622	90.81
433.844	91.81
434.066	83.81
434.287	88.81
434.509	93.81
434.731	96.81
434.953	73.81
435.175	91.81
435.397	93.81
435.618	98.81
435.84	113.81
436.062	120.81
436.284	92.81
436.505	86.81
436.727	94.81
436.949	97.81
437.17	75.81
437.392	82.81
437.614	101.81
437.835	101.81
438.057	125.81
438.278	107.81
438.5	105.81
438.721	114.81
438.943	101.81
439.165	80.81
439.386	87.81
439.608	107.81
439.829	105.81
440.05	110.81
440.272	143.81
440.493	103.81
440.715	86.81
440.936	100.81
441.158	84.81
441.379	77.81
441.6	87.81
441.822	93.81
442.043	83.81
442.264	88.81
442.486	98.81
442.707	93.81
442.928	101.81
443.149	124.81
443.371	114.81
443.592	100.81
443.813	106.81
444.034	113.81
444.255	96.81
444.476	88.81
444.698	90.81
444.919	88.81
445.14	111.81
445.361	122.81
445.582	111.81
445.803	114.81
446.024	122.81
446.245	127.81
446.466	103.81
446.687	84.81
446.908	83.81
447.129	81.81
447.35	79.81
447.571	86.81
447.792	83.81
448.013	86.81
448.234	103.81
448.455	95.81
448.675	109.81
448.896	118.81
449.117	90.81
449.338	95.81
449.559	118.81
449.779	119.81
450	92.81
450.221	94.81
450.442	82.81
450.662	86.81
450.883	94.81
451.104	95.81
451.324	93.81
451.545	93.81
451.766	84.81
451.986	96.81
452.207	93.81
452.428	87.81
452.648	91.81
452.869	111.81
453.089	100.81
453.31	102.81
453.53	100.81
453.751	100.81
453.971	115.81
454.192	98.81
454.412	92.81
454.633	86.81
454.853	95.81
455.073	91.81
455.294	87.81
455.514	94.81
455.734	91.81
455.955	82.81
456.175	84.81
456.395	91.81
456.616	79.81
456.836	83.81
457.056	97.81
457.276	99.81
457.497	74.81
457.717	75.81
457.937	79.81
458.157	93.81
458.377	91.81
458.598	119.81
458.818	152.81
459.038	160.81
459.258	117.81
459.478	81.81
459.698	81.81
459.918	80.81
460.138	93.81
460.358	91.81
460.578	92.81
460.798	92.81
461.018	99.81
461.238	74.81
461.458	91.81
461.678	91.81
461.898	82.81
462.118	94.81
462.338	96.81
462.558	93.81
462.777	85.81
462.997	97.81
463.217	94.81
463.437	70.81
463.657	93.81
463.876	83.81
464.096	87.81
464.316	90.81
464.536	103.81
464.755	93.81
464.975	116.81
465.195	142.81
465.414	135.81
465.634	85.81
465.854	92.81
466.073	81.81
466.293	86.81
466.512	96.81
466.732	92.81
466.951	84.81
467.171	82.81
467.391	71.81
467.61	92.81
467.829	101.81
468.049	89.81
468.268	90.81
468.488	91.81
468.707	81.81
468.927	85.81
469.146	70.81
469.365	74.81
469.585	96.81
469.804	90.81
470.023	107.81
470.243	97.81
470.462	90.81
470.681	103.81
470.901	74.81
471.12	92.81
471.339	83.81
471.558	82.81
471.777	79.81
471.997	97.81
472.216	81.81
472.435	78.81
472.654	83.81
472.873	91.81
473.092	89.81
473.311	89.81
473.53	70.81
473.749	101.81
473.968	99.81
474.187	89.81
474.406	84.81
474.625	92.81
474.844	90.81
475.063	107.81
475.282	68.81
475.501	95.81
475.72	90.81
475.939	92.81
476.158	81.81
476.377	97.81
476.596	79.81
476.814	83.81
477.033	96.81
477.252	83.81
477.471	88.81
477.69	82.81
477.908	90.81
478.127	91.81
478.346	88.81
478.564	93.81
478.783	92.81
479.002	97.81
479.22	104.81
479.439	95.81
479.658	92.81
479.876	102.81
480.095	83.81
480.313	87.81
480.532	99.81
480.751	88.81
480.969	91.81
481.188	100.81
481.406	85.81
481.624	78.81
481.843	90.81
482.061	93.81
482.28	79.81
482.498	87.81
482.717	82.81
482.935	87.81
483.153	85.81
483.372	103.81
483.59	98.81
483.808	104.81
484.027	93.81
484.245	93.81
484.463	102.81
484.681	95.81
484.9	93.81
485.118	99.81
485.336	84.81
485.554	90.81
485.772	83.81
485.99	99.81
486.209	96.81
486.427	115.81
486.645	103.81
486.863	108.81
487.081	103.81
487.299	108.81
487.517	88.81
487.735	90.81
487.953	85.81
488.171	86.81
488.389	96.81
488.607	92.81
488.825	93.81
489.043	86.81
489.261	92.81
489.479	89.81
489.696	90.81
489.914	92.81
490.132	76.81
490.35	87.81
490.568	91.81
490.786	101.81
491.003	96.81
491.221	87.81
491.439	94.81
491.657	97.81
491.874	102.81
492.092	94.81
492.31	80.81
492.527	97.81
492.745	77.81
492.963	90.81
493.18	84.81
493.398	95.81
493.615	90.81
493.833	98.81
494.05	87.81
494.268	85.81
494.485	98.81
494.703	94.81
494.92	89.81
495.138	86.81
495.355	85.81
495.573	82.81
495.79	95.81
496.008	81.81
496.225	95.81
496.442	91.81
496.66	83.81
496.877	104.81
497.094	95.81
497.312	97.81
497.529	76.81
497.746	94.81
497.963	98.81
498.181	79.81
498.398	89.81
498.615	94.81
498.832	104.81
499.049	87.81
499.267	97.81
499.484	79.81
499.701	91.81
499.918	93.81
500.135	85.81
500.352	84.81
500.569	92.81
500.786	80.81
501.003	83.81
501.22	98.81
501.437	96.81
501.654	104.81
501.871	95.81
502.088	83.81
502.305	87.81
502.522	83.81
502.739	85.81
502.956	82.81
503.172	82.81
503.389	94.81
503.606	90.81
503.823	116.81
504.04	98.81
504.256	89.81
504.473	82.81
504.69	88.81
504.907	79.81
505.123	99.81
505.34	96.81
505.557	94.81
505.773	99.81
505.99	82.81
506.207	83.81
506.423	79.81
506.64	95.81
506.856	103.81
507.073	95.81
507.289	94.81
507.506	99.81
507.722	121.81
507.939	114.81
508.155	100.81
508.372	104.81
508.588	101.81
508.805	72.81
509.021	110.81
509.238	116.81
509.454	95.81
509.67	102.81
509.887	106.81
510.103	134.81
510.319	205.81
510.536	731.81
510.752	2291.81
510.968	646.81
511.184	163.81
511.401	117.81
511.617	104.81
511.833	92.81
512.049	85.81
512.265	76.81
512.481	97.81
512.698	85.81
512.914	93.81
513.13	85.81
513.346	106.81
513.562	108.81
513.778	101.81
513.994	88.81
514.21	92.81
514.426	112.81
514.642	134.81
514.858	126.81
515.074	166.81
515.29	401.81
515.506	1391.81
515.721	511.81
