Data from Uncirc_2006_H10_HRD10591_00002.txt Node
Date: Wed Jan 03 10:24:55 EST 2024
User: Yrep
Spectrometer: HR+D1059
Trigger mode: 1
Integration Time (sec): 1.000000E-1
Scans to average: 1
Electric dark correction enabled: true
Nonlinearity correction enabled: false
Boxcar width: 0
XAxis mode: Wavelengths
Number of Pixels in Spectrum: 2048
>>>>>Begin Spectral Data<<<<<
223.165	-11.69
223.4	-11.69
223.635	-11.69
223.869	-28.69
224.104	-32.69
224.338	-12.69
224.573	-18.69
224.808	-11.69
225.042	0.31
225.277	-2.69
225.511	4.31
225.746	10.31
225.98	12.31
226.215	24.31
226.449	10.31
226.683	22.31
226.918	16.31
227.152	18.31
227.387	10.31
227.621	42.31
227.856	42.31
228.09	43.31
228.324	38.31
228.559	62.31
228.793	48.31
229.027	68.31
229.262	70.31
229.496	77.31
229.73	76.31
229.964	79.31
230.199	67.31
230.433	77.31
230.667	88.31
230.901	85.31
231.136	78.31
231.37	88.31
231.604	87.31
231.838	94.31
232.072	81.31
232.306	83.31
232.541	79.31
232.775	96.31
233.009	91.31
233.243	88.31
233.477	88.31
233.711	79.31
233.945	84.31
234.179	69.31
234.413	75.31
234.647	79.31
234.881	103.31
235.115	83.31
235.349	79.31
235.583	84.31
235.817	77.31
236.051	71.31
236.285	75.31
236.519	88.31
236.753	73.31
236.987	80.31
237.221	77.31
237.455	92.31
237.689	75.31
237.922	73.31
238.156	91.31
238.39	79.31
238.624	79.31
238.858	71.31
239.091	65.31
239.325	77.31
239.559	74.31
239.793	81.31
240.027	76.31
240.26	77.31
240.494	74.31
240.728	77.31
240.961	74.31
241.195	80.31
241.429	86.31
241.662	84.31
241.896	72.31
242.13	82.31
242.363	78.31
242.597	74.31
242.83	66.31
243.064	77.31
243.298	83.31
243.531	73.31
243.765	91.31
243.998	88.31
244.232	81.31
244.465	66.31
244.699	75.31
244.932	60.31
245.166	76.31
245.399	86.31
245.633	80.31
245.866	64.31
246.099	86.31
246.333	83.31
246.566	99.31
246.8	85.31
247.033	78.31
247.266	90.31
247.5	91.31
247.733	86.31
247.966	85.31
248.2	94.31
248.433	78.31
248.666	71.31
248.899	77.31
249.133	80.31
249.366	88.31
249.599	83.31
249.832	83.31
250.066	92.31
250.299	79.31
250.532	87.31
250.765	75.31
250.998	69.31
251.231	98.31
251.465	79.31
251.698	80.31
251.931	81.31
252.164	72.31
252.397	70.31
252.63	71.31
252.863	89.31
253.096	81.31
253.329	82.31
253.562	82.31
253.795	92.31
254.028	89.31
254.261	86.31
254.494	84.31
254.727	77.31
254.96	86.31
255.193	72.31
255.426	82.31
255.659	91.31
255.892	84.31
256.124	77.31
256.357	90.31
256.59	76.31
256.823	86.31
257.056	88.31
257.289	76.31
257.521	84.31
257.754	81.31
257.987	91.31
258.22	96.31
258.452	77.31
258.685	78.31
258.918	82.31
259.151	91.31
259.383	77.31
259.616	89.31
259.849	77.31
260.081	82.31
260.314	87.31
260.547	68.31
260.779	91.31
261.012	96.31
261.244	80.31
261.477	84.31
261.71	98.31
261.942	117.31
262.175	120.31
262.407	96.31
262.64	79.31
262.872	76.31
263.105	89.31
263.337	68.31
263.57	82.31
263.802	92.31
264.035	87.31
264.267	83.31
264.499	81.31
264.732	77.31
264.964	79.31
265.197	85.31
265.429	84.31
265.661	75.31
265.894	78.31
266.126	83.31
266.358	87.31
266.591	87.31
266.823	90.31
267.055	93.31
267.287	81.31
267.52	95.31
267.752	76.31
267.984	97.31
268.216	84.31
268.448	86.31
268.681	79.31
268.913	77.31
269.145	80.31
269.377	77.31
269.609	84.31
269.841	78.31
270.073	92.31
270.306	87.31
270.538	82.31
270.77	90.31
271.002	91.31
271.234	98.31
271.466	84.31
271.698	84.31
271.93	82.31
272.162	103.31
272.394	86.31
272.626	92.31
272.858	86.31
273.09	78.31
273.322	74.31
273.553	84.31
273.785	92.31
274.017	89.31
274.249	78.31
274.481	83.31
274.713	77.31
274.945	76.31
275.176	86.31
275.408	78.31
275.64	94.31
275.872	83.31
276.104	89.31
276.335	91.31
276.567	100.31
276.799	107.31
277.031	87.31
277.262	81.31
277.494	79.31
277.726	87.31
277.957	80.31
278.189	86.31
278.421	107.31
278.652	85.31
278.884	78.31
279.115	72.31
279.347	84.31
279.579	94.31
279.81	84.31
280.042	92.31
280.273	82.31
280.505	82.31
280.736	83.31
280.968	92.31
281.199	82.31
281.431	81.31
281.662	92.31
281.894	96.31
282.125	94.31
282.356	97.31
282.588	117.31
282.819	105.31
283.051	85.31
283.282	76.31
283.513	93.31
283.745	78.31
283.976	87.31
284.207	78.31
284.439	91.31
284.67	87.31
284.901	92.31
285.132	83.31
285.364	70.31
285.595	93.31
285.826	94.31
286.057	78.31
286.288	92.31
286.52	88.31
286.751	67.31
286.982	75.31
287.213	91.31
287.444	87.31
287.675	84.31
287.906	95.31
288.138	104.31
288.369	95.31
288.6	80.31
288.831	75.31
289.062	84.31
289.293	76.31
289.524	90.31
289.755	103.31
289.986	68.31
290.217	77.31
290.448	76.31
290.679	88.31
290.91	89.31
291.141	78.31
291.371	90.31
291.602	87.31
291.833	82.31
292.064	80.31
292.295	94.31
292.526	74.31
292.757	75.31
292.987	94.31
293.218	80.31
293.449	89.31
293.68	89.31
293.91	86.31
294.141	99.31
294.372	76.31
294.603	86.31
294.833	94.31
295.064	100.31
295.295	82.31
295.525	95.31
295.756	78.31
295.987	125.31
296.217	124.31
296.448	119.31
296.679	114.31
296.909	90.31
297.14	97.31
297.37	86.31
297.601	99.31
297.831	86.31
298.062	106.31
298.292	84.31
298.523	79.31
298.753	75.31
298.984	98.31
299.214	94.31
299.445	96.31
299.675	82.31
299.905	85.31
300.136	94.31
300.366	96.31
300.597	85.31
300.827	96.31
301.057	86.31
301.288	99.31
301.518	96.31
301.748	100.31
301.979	99.31
302.209	94.31
302.439	94.31
302.669	97.31
302.9	85.31
303.13	92.31
303.36	89.31
303.59	97.31
303.82	96.31
304.051	96.31
304.281	99.31
304.511	83.31
304.741	75.31
304.971	70.31
305.201	88.31
305.431	91.31
305.661	87.31
305.891	111.31
306.121	85.31
306.352	99.31
306.582	103.31
306.812	95.31
307.042	95.31
307.272	95.31
307.502	94.31
307.731	87.31
307.961	95.31
308.191	106.31
308.421	92.31
308.651	84.31
308.881	77.31
309.111	92.31
309.341	96.31
309.571	110.31
309.8	78.31
310.03	94.31
310.26	87.31
310.49	101.31
310.72	85.31
310.949	85.31
311.179	107.31
311.409	99.31
311.639	84.31
311.868	93.31
312.098	103.31
312.328	107.31
312.557	102.31
312.787	96.31
313.017	89.31
313.246	85.31
313.476	93.31
313.706	101.31
313.935	92.31
314.165	90.31
314.394	95.31
314.624	90.31
314.853	87.31
315.083	84.31
315.312	88.31
315.542	110.31
315.771	95.31
316.001	89.31
316.23	88.31
316.46	91.31
316.689	92.31
316.919	88.31
317.148	93.31
317.377	94.31
317.607	88.31
317.836	106.31
318.065	78.31
318.295	104.31
318.524	86.31
318.753	85.31
318.983	86.31
319.212	97.31
319.441	91.31
319.67	103.31
319.9	94.31
320.129	96.31
320.358	93.31
320.587	90.31
320.816	109.31
321.046	98.31
321.275	89.31
321.504	85.31
321.733	91.31
321.962	98.31
322.191	96.31
322.42	95.31
322.649	98.31
322.878	100.31
323.108	117.31
323.337	116.31
323.566	122.31
323.795	144.31
324.024	200.31
324.253	371.31
324.482	758.31
324.71	1580.31
324.939	2051.31
325.168	741.31
325.397	223.31
325.626	149.31
325.855	132.31
326.084	119.31
326.313	132.31
326.542	148.31
326.77	208.31
326.999	460.31
327.228	874.31
327.457	1612.31
327.686	1255.31
327.914	332.31
328.143	156.31
328.372	132.31
328.6	122.31
328.829	109.31
329.058	103.31
329.287	107.31
329.515	102.31
329.744	87.31
329.972	83.31
330.201	94.31
330.43	94.31
330.658	109.31
330.887	139.31
331.115	116.31
331.344	98.31
331.572	118.31
331.801	110.31
332.03	105.31
332.258	87.31
332.486	91.31
332.715	100.31
332.943	92.31
333.172	92.31
333.4	104.31
333.629	100.31
333.857	120.31
334.085	88.31
334.314	99.31
334.542	105.31
334.771	82.31
334.999	85.31
335.227	83.31
335.455	101.31
335.684	101.31
335.912	100.31
336.14	111.31
336.369	90.31
336.597	91.31
336.825	80.31
337.053	84.31
337.281	103.31
337.51	91.31
337.738	102.31
337.966	90.31
338.194	89.31
338.422	99.31
338.65	98.31
338.878	91.31
339.106	96.31
339.334	100.31
339.562	89.31
339.79	96.31
340.018	100.31
340.246	83.31
340.474	95.31
340.702	85.31
340.93	89.31
341.158	102.31
341.386	102.31
341.614	100.31
341.842	82.31
342.07	94.31
342.298	88.31
342.526	86.31
342.754	94.31
342.981	87.31
343.209	93.31
343.437	108.31
343.665	94.31
343.893	84.31
344.12	93.31
344.348	92.31
344.576	92.31
344.804	91.31
345.031	101.31
345.259	110.31
345.487	94.31
345.714	103.31
345.942	95.31
346.17	85.31
346.397	93.31
346.625	84.31
346.853	90.31
347.08	94.31
347.308	106.31
347.535	99.31
347.763	94.31
347.99	93.31
348.218	87.31
348.445	97.31
348.673	100.31
348.9	103.31
349.128	92.31
349.355	92.31
349.583	93.31
349.81	116.31
350.037	97.31
350.265	90.31
350.492	82.31
350.72	88.31
350.947	98.31
351.174	106.31
351.402	109.31
351.629	102.31
351.856	94.31
352.083	88.31
352.311	97.31
352.538	108.31
352.765	86.31
352.992	101.31
353.22	115.31
353.447	112.31
353.674	108.31
353.901	93.31
354.128	87.31
354.355	96.31
354.583	99.31
354.81	103.31
355.037	95.31
355.264	91.31
355.491	86.31
355.718	100.31
355.945	95.31
356.172	102.31
356.399	106.31
356.626	105.31
356.853	95.31
357.08	103.31
357.307	88.31
357.534	97.31
357.761	88.31
357.988	93.31
358.215	117.31
358.441	95.31
358.668	102.31
358.895	90.31
359.122	86.31
359.349	113.31
359.576	90.31
359.802	107.31
360.029	103.31
360.256	104.31
360.483	92.31
360.709	92.31
360.936	94.31
361.163	87.31
361.39	97.31
361.616	91.31
361.843	88.31
362.07	94.31
362.296	82.31
362.523	84.31
362.749	88.31
362.976	102.31
363.203	100.31
363.429	89.31
363.656	94.31
363.882	94.31
364.109	92.31
364.335	77.31
364.562	87.31
364.788	84.31
365.015	96.31
365.241	102.31
365.468	93.31
365.694	99.31
365.92	74.31
366.147	82.31
366.373	77.31
366.599	101.31
366.826	98.31
367.052	85.31
367.278	101.31
367.505	95.31
367.731	96.31
367.957	94.31
368.184	87.31
368.41	95.31
368.636	97.31
368.862	100.31
369.089	107.31
369.315	84.31
369.541	84.31
369.767	99.31
369.993	85.31
370.219	83.31
370.445	92.31
370.672	83.31
370.898	84.31
371.124	93.31
371.35	90.31
371.576	83.31
371.802	69.31
372.028	81.31
372.254	106.31
372.48	86.31
372.706	84.31
372.932	88.31
373.158	99.31
373.384	107.31
373.61	67.31
373.835	99.31
374.061	85.31
374.287	94.31
374.513	94.31
374.739	100.31
374.965	101.31
375.191	85.31
375.416	106.31
375.642	72.31
375.868	78.31
376.094	79.31
376.319	70.31
376.545	89.31
376.771	90.31
376.997	102.31
377.222	87.31
377.448	103.31
377.674	91.31
377.899	111.31
378.125	81.31
378.35	73.31
378.576	95.31
378.802	108.31
379.027	87.31
379.253	94.31
379.478	107.31
379.704	95.31
379.929	111.31
380.155	103.31
380.38	94.31
380.606	100.31
380.831	103.31
381.057	111.31
381.282	91.31
381.507	102.31
381.733	101.31
381.958	102.31
382.184	115.31
382.409	92.31
382.634	106.31
382.86	100.31
383.085	101.31
383.31	109.31
383.535	117.31
383.761	101.31
383.986	117.31
384.211	109.31
384.436	112.31
384.662	103.31
384.887	124.31
385.112	117.31
385.337	124.31
385.562	115.31
385.787	128.31
386.013	125.31
386.238	117.31
386.463	126.31
386.688	129.31
386.913	122.31
387.138	115.31
387.363	117.31
387.588	110.31
387.813	112.31
388.038	113.31
388.263	135.31
388.488	129.31
388.713	91.31
388.938	87.31
389.163	91.31
389.387	91.31
389.612	106.31
389.837	92.31
390.062	102.31
390.287	92.31
390.512	90.31
390.736	96.31
390.961	103.31
391.186	99.31
391.411	85.31
391.636	105.31
391.86	91.31
392.085	97.31
392.31	92.31
392.534	98.31
392.759	94.31
392.984	92.31
393.208	92.31
393.433	96.31
393.658	85.31
393.882	106.31
394.107	95.31
394.331	99.31
394.556	93.31
394.78	91.31
395.005	89.31
395.229	93.31
395.454	86.31
395.678	87.31
395.903	90.31
396.127	83.31
396.352	98.31
396.576	98.31
396.801	84.31
397.025	85.31
397.249	76.31
397.474	92.31
397.698	93.31
397.922	79.31
398.147	83.31
398.371	95.31
398.595	92.31
398.82	90.31
399.044	76.31
399.268	78.31
399.492	85.31
399.717	98.31
399.941	98.31
400.165	99.31
400.389	96.31
400.613	77.31
400.837	91.31
401.062	92.31
401.286	99.31
401.51	91.31
401.734	99.31
401.958	91.31
402.182	128.31
402.406	148.31
402.63	120.31
402.854	104.31
403.078	94.31
403.302	88.31
403.526	83.31
403.75	83.31
403.974	69.31
404.198	95.31
404.422	84.31
404.645	81.31
404.869	93.31
405.093	101.31
405.317	101.31
405.541	93.31
405.765	95.31
405.988	110.31
406.212	142.31
406.436	177.31
406.66	140.31
406.883	107.31
407.107	70.31
407.331	100.31
407.555	95.31
407.778	95.31
408.002	82.31
408.226	111.31
408.449	95.31
408.673	75.31
408.896	91.31
409.12	102.31
409.344	87.31
409.567	88.31
409.791	102.31
410.014	103.31
410.238	95.31
410.461	99.31
410.685	100.31
410.908	113.31
411.132	103.31
411.355	95.31
411.578	99.31
411.802	82.31
412.025	96.31
412.249	96.31
412.472	86.31
412.695	86.31
412.919	90.31
413.142	81.31
413.365	82.31
413.589	86.31
413.812	77.31
414.035	85.31
414.258	103.31
414.482	106.31
414.705	85.31
414.928	106.31
415.151	101.31
415.374	95.31
415.597	81.31
415.821	90.31
416.044	80.31
416.267	90.31
416.49	91.31
416.713	105.31
416.936	101.31
417.159	96.31
417.382	85.31
417.605	88.31
417.828	94.31
418.051	92.31
418.274	80.31
418.497	88.31
418.72	79.31
418.943	99.31
419.166	88.31
419.389	98.31
419.611	87.31
419.834	95.31
420.057	101.31
420.28	87.31
420.503	79.31
420.726	83.31
420.948	87.31
421.171	91.31
421.394	107.31
421.617	84.31
421.839	83.31
422.062	80.31
422.285	91.31
422.507	103.31
422.73	93.31
422.953	92.31
423.175	102.31
423.398	89.31
423.621	102.31
423.843	102.31
424.066	91.31
424.288	79.31
424.511	96.31
424.733	104.31
424.956	103.31
425.178	99.31
425.401	111.31
425.623	101.31
425.846	105.31
426.068	97.31
426.291	96.31
426.513	87.31
426.735	108.31
426.958	89.31
427.18	97.31
427.402	122.31
427.625	131.31
427.847	107.31
428.069	102.31
428.292	81.31
428.514	97.31
428.736	90.31
428.958	95.31
429.181	83.31
429.403	90.31
429.625	90.31
429.847	83.31
430.069	82.31
430.292	76.31
430.514	86.31
430.736	79.31
430.958	92.31
431.18	86.31
431.402	84.31
431.624	90.31
431.846	94.31
432.068	85.31
432.29	97.31
432.512	84.31
432.734	80.31
432.956	79.31
433.178	99.31
433.4	95.31
433.622	85.31
433.844	93.31
434.066	107.31
434.287	93.31
434.509	80.31
434.731	80.31
434.953	92.31
435.175	93.31
435.397	94.31
435.618	99.31
435.84	109.31
436.062	119.31
436.284	107.31
436.505	98.31
436.727	104.31
436.949	103.31
437.17	88.31
437.392	87.31
437.614	92.31
437.835	103.31
438.057	99.31
438.278	110.31
438.5	103.31
438.721	135.31
438.943	115.31
439.165	98.31
439.386	81.31
439.608	95.31
439.829	110.31
440.05	106.31
440.272	133.31
440.493	99.31
440.715	74.31
440.936	79.31
441.158	89.31
441.379	87.31
441.6	80.31
441.822	86.31
442.043	91.31
442.264	92.31
442.486	97.31
442.707	94.31
442.928	101.31
443.149	115.31
443.371	117.31
443.592	111.31
443.813	88.31
444.034	103.31
444.255	91.31
444.476	67.31
444.698	72.31
444.919	79.31
445.14	112.31
445.361	117.31
445.582	99.31
445.803	128.31
446.024	124.31
446.245	119.31
446.466	103.31
446.687	85.31
446.908	99.31
447.129	98.31
447.35	85.31
447.571	108.31
447.792	96.31
448.013	88.31
448.234	114.31
448.455	105.31
448.675	102.31
448.896	103.31
449.117	99.31
449.338	117.31
449.559	124.31
449.779	128.31
450	106.31
450.221	86.31
450.442	91.31
450.662	77.31
450.883	93.31
451.104	93.31
451.324	93.31
451.545	101.31
451.766	88.31
451.986	92.31
452.207	99.31
452.428	90.31
452.648	81.31
452.869	110.31
453.089	103.31
453.31	119.31
453.53	103.31
453.751	95.31
453.971	107.31
454.192	99.31
454.412	83.31
454.633	94.31
454.853	101.31
455.073	87.31
455.294	97.31
455.514	89.31
455.734	79.31
455.955	80.31
456.175	90.31
456.395	82.31
456.616	85.31
456.836	92.31
457.056	88.31
457.276	97.31
457.497	80.31
457.717	98.31
457.937	81.31
458.157	89.31
458.377	99.31
458.598	104.31
458.818	151.31
459.038	148.31
459.258	107.31
459.478	95.31
459.698	94.31
459.918	86.31
460.138	70.31
460.358	83.31
460.578	101.31
460.798	92.31
461.018	98.31
461.238	83.31
461.458	87.31
461.678	92.31
461.898	91.31
462.118	102.31
462.338	85.31
462.558	86.31
462.777	89.31
462.997	75.31
463.217	76.31
463.437	81.31
463.657	83.31
463.876	92.31
464.096	88.31
464.316	105.31
464.536	92.31
464.755	85.31
464.975	91.31
465.195	147.31
465.414	146.31
465.634	90.31
465.854	79.31
466.073	75.31
466.293	77.31
466.512	94.31
466.732	82.31
466.951	83.31
467.171	87.31
467.391	111.31
467.61	95.31
467.829	89.31
468.049	92.31
468.268	90.31
468.488	87.31
468.707	96.31
468.927	84.31
469.146	81.31
469.365	76.31
469.585	83.31
469.804	94.31
470.023	96.31
470.243	83.31
470.462	106.31
470.681	99.31
470.901	86.31
471.12	83.31
471.339	94.31
471.558	76.31
471.777	88.31
471.997	103.31
472.216	86.31
472.435	87.31
472.654	86.31
472.873	87.31
473.092	75.31
473.311	82.31
473.53	78.31
473.749	83.31
473.968	100.31
474.187	87.31
474.406	84.31
474.625	86.31
474.844	82.31
475.063	85.31
475.282	82.31
475.501	84.31
475.72	79.31
475.939	96.31
476.158	93.31
476.377	85.31
476.596	80.31
476.814	101.31
477.033	84.31
477.252	82.31
477.471	87.31
477.69	88.31
477.908	89.31
478.127	93.31
478.346	97.31
478.564	83.31
478.783	94.31
479.002	101.31
479.22	81.31
479.439	82.31
479.658	101.31
479.876	92.31
480.095	83.31
480.313	93.31
480.532	76.31
480.751	98.31
480.969	91.31
481.188	85.31
481.406	105.31
481.624	88.31
481.843	95.31
482.061	86.31
482.28	92.31
482.498	95.31
482.717	98.31
482.935	102.31
483.153	105.31
483.372	84.31
483.59	89.31
483.808	94.31
484.027	110.31
484.245	112.31
484.463	90.31
484.681	97.31
484.9	84.31
485.118	95.31
485.336	92.31
485.554	94.31
485.772	88.31
485.99	101.31
486.209	112.31
486.427	108.31
486.645	106.31
486.863	116.31
487.081	93.31
487.299	97.31
487.517	83.31
487.735	94.31
487.953	99.31
488.171	103.31
488.389	103.31
488.607	96.31
488.825	93.31
489.043	79.31
489.261	87.31
489.479	79.31
489.696	84.31
489.914	84.31
490.132	98.31
490.35	96.31
490.568	94.31
490.786	90.31
491.003	81.31
491.221	85.31
491.439	89.31
491.657	90.31
491.874	105.31
492.092	88.31
492.31	71.31
492.527	79.31
492.745	109.31
492.963	92.31
493.18	79.31
493.398	91.31
493.615	88.31
493.833	92.31
494.05	87.31
494.268	106.31
494.485	96.31
494.703	87.31
494.92	89.31
495.138	98.31
495.355	93.31
495.573	98.31
495.79	108.31
496.008	89.31
496.225	90.31
496.442	81.31
496.66	86.31
496.877	72.31
497.094	92.31
497.312	91.31
497.529	104.31
497.746	84.31
497.963	92.31
498.181	94.31
498.398	86.31
498.615	98.31
498.832	97.31
499.049	88.31
499.267	77.31
499.484	96.31
499.701	85.31
499.918	98.31
500.135	99.31
500.352	102.31
500.569	92.31
500.786	103.31
501.003	101.31
501.22	80.31
501.437	105.31
501.654	101.31
501.871	102.31
502.088	80.31
502.305	85.31
502.522	94.31
502.739	93.31
502.956	93.31
503.172	88.31
503.389	99.31
503.606	98.31
503.823	91.31
504.04	91.31
504.256	104.31
504.473	96.31
504.69	76.31
504.907	98.31
505.123	76.31
505.34	93.31
505.557	94.31
505.773	85.31
505.99	79.31
506.207	88.31
506.423	92.31
506.64	101.31
506.856	91.31
507.073	93.31
507.289	85.31
507.506	106.31
507.722	103.31
507.939	107.31
508.155	83.31
508.372	95.31
508.588	90.31
508.805	95.31
509.021	101.31
509.238	98.31
509.454	92.31
509.67	106.31
509.887	101.31
510.103	127.31
510.319	214.31
510.536	700.31
510.752	2062.31
510.968	572.31
511.184	150.31
511.401	98.31
511.617	87.31
511.833	82.31
512.049	89.31
512.265	94.31
512.481	89.31
512.698	95.31
512.914	101.31
513.13	86.31
513.346	85.31
513.562	95.31
513.778	90.31
513.994	98.31
514.21	113.31
514.426	112.31
514.642	124.31
514.858	134.31
515.074	144.31
515.29	395.31
515.506	1302.31
