Data from Uncirc_2006_H10_HRD10591_00005.txt Node
Date: Wed Jan 03 10:24:56 EST 2024
User: Yrep
Spectrometer: HR+D1059
Trigger mode: 1
Integration Time (sec): 1.000000E-1
Scans to average: 1
Electric dark correction enabled: true
Nonlinearity correction enabled: false
Boxcar width: 0
XAxis mode: Wavelengths
Number of Pixels in Spectrum: 2048
>>>>>Begin Spectral Data<<<<<
223.165	-21.75
223.4	-21.75
223.635	-21.75
223.869	-20.75
224.104	-11.75
224.338	-14.75
224.573	-21.75
224.808	-28.75
225.042	-12.75
225.277	-10.75
225.511	2.25
225.746	6.25
225.98	15.25
226.215	17.25
226.449	22.25
226.683	16.25
226.918	35.25
227.152	28.25
227.387	36.25
227.621	39.25
227.856	32.25
228.09	53.25
228.324	50.25
228.559	51.25
228.793	60.25
229.027	48.25
229.262	66.25
229.496	66.25
229.73	80.25
229.964	81.25
230.199	77.25
230.433	78.25
230.667	66.25
230.901	73.25
231.136	74.25
231.37	68.25
231.604	81.25
231.838	74.25
232.072	88.25
232.306	79.25
232.541	82.25
232.775	86.25
233.009	81.25
233.243	73.25
233.477	74.25
233.711	85.25
233.945	83.25
234.179	85.25
234.413	70.25
234.647	82.25
234.881	87.25
235.115	78.25
235.349	85.25
235.583	80.25
235.817	70.25
236.051	94.25
236.285	82.25
236.519	87.25
236.753	74.25
236.987	64.25
237.221	73.25
237.455	87.25
237.689	69.25
237.922	79.25
238.156	90.25
238.39	78.25
238.624	66.25
238.858	92.25
239.091	83.25
239.325	81.25
239.559	81.25
239.793	91.25
240.027	62.25
240.26	75.25
240.494	72.25
240.728	84.25
240.961	81.25
241.195	70.25
241.429	78.25
241.662	69.25
241.896	80.25
242.13	74.25
242.363	78.25
242.597	84.25
242.83	84.25
243.064	73.25
243.298	86.25
243.531	62.25
243.765	95.25
243.998	63.25
244.232	88.25
244.465	77.25
244.699	82.25
244.932	71.25
245.166	79.25
245.399	87.25
245.633	79.25
245.866	88.25
246.099	84.25
246.333	86.25
246.566	84.25
246.8	81.25
247.033	74.25
247.266	71.25
247.5	95.25
247.733	83.25
247.966	79.25
248.2	75.25
248.433	83.25
248.666	74.25
248.899	86.25
249.133	92.25
249.366	93.25
249.599	86.25
249.832	92.25
250.066	76.25
250.299	85.25
250.532	93.25
250.765	88.25
250.998	89.25
251.231	85.25
251.465	80.25
251.698	79.25
251.931	84.25
252.164	79.25
252.397	90.25
252.63	78.25
252.863	80.25
253.096	74.25
253.329	82.25
253.562	59.25
253.795	78.25
254.028	87.25
254.261	67.25
254.494	85.25
254.727	71.25
254.96	88.25
255.193	75.25
255.426	80.25
255.659	88.25
255.892	75.25
256.124	85.25
256.357	90.25
256.59	86.25
256.823	88.25
257.056	87.25
257.289	78.25
257.521	83.25
257.754	80.25
257.987	72.25
258.22	76.25
258.452	82.25
258.685	83.25
258.918	78.25
259.151	86.25
259.383	85.25
259.616	94.25
259.849	69.25
260.081	82.25
260.314	82.25
260.547	101.25
260.779	83.25
261.012	96.25
261.244	83.25
261.477	86.25
261.71	96.25
261.942	101.25
262.175	112.25
262.407	80.25
262.64	64.25
262.872	78.25
263.105	84.25
263.337	93.25
263.57	82.25
263.802	99.25
264.035	78.25
264.267	72.25
264.499	90.25
264.732	82.25
264.964	91.25
265.197	79.25
265.429	99.25
265.661	80.25
265.894	76.25
266.126	92.25
266.358	80.25
266.591	76.25
266.823	94.25
267.055	75.25
267.287	81.25
267.52	85.25
267.752	99.25
267.984	102.25
268.216	89.25
268.448	85.25
268.681	81.25
268.913	91.25
269.145	83.25
269.377	79.25
269.609	86.25
269.841	93.25
270.073	88.25
270.306	92.25
270.538	97.25
270.77	90.25
271.002	77.25
271.234	72.25
271.466	97.25
271.698	94.25
271.93	76.25
272.162	88.25
272.394	79.25
272.626	70.25
272.858	78.25
273.09	77.25
273.322	80.25
273.553	72.25
273.785	91.25
274.017	78.25
274.249	78.25
274.481	90.25
274.713	102.25
274.945	83.25
275.176	86.25
275.408	96.25
275.64	83.25
275.872	77.25
276.104	82.25
276.335	71.25
276.567	89.25
276.799	106.25
277.031	96.25
277.262	72.25
277.494	94.25
277.726	85.25
277.957	84.25
278.189	79.25
278.421	82.25
278.652	101.25
278.884	94.25
279.115	85.25
279.347	88.25
279.579	87.25
279.81	79.25
280.042	99.25
280.273	84.25
280.505	98.25
280.736	91.25
280.968	92.25
281.199	98.25
281.431	91.25
281.662	92.25
281.894	88.25
282.125	77.25
282.356	118.25
282.588	120.25
282.819	103.25
283.051	91.25
283.282	76.25
283.513	87.25
283.745	92.25
283.976	76.25
284.207	86.25
284.439	89.25
284.67	98.25
284.901	80.25
285.132	95.25
285.364	89.25
285.595	90.25
285.826	86.25
286.057	101.25
286.288	92.25
286.52	87.25
286.751	94.25
286.982	94.25
287.213	89.25
287.444	92.25
287.675	89.25
287.906	94.25
288.138	92.25
288.369	88.25
288.6	81.25
288.831	102.25
289.062	88.25
289.293	86.25
289.524	85.25
289.755	96.25
289.986	91.25
290.217	86.25
290.448	92.25
290.679	85.25
290.91	87.25
291.141	82.25
291.371	91.25
291.602	86.25
291.833	72.25
292.064	84.25
292.295	86.25
292.526	95.25
292.757	100.25
292.987	77.25
293.218	90.25
293.449	89.25
293.68	88.25
293.91	84.25
294.141	93.25
294.372	83.25
294.603	88.25
294.833	79.25
295.064	88.25
295.295	91.25
295.525	77.25
295.756	96.25
295.987	110.25
296.217	142.25
296.448	119.25
296.679	101.25
296.909	94.25
297.14	94.25
297.37	86.25
297.601	80.25
297.831	91.25
298.062	98.25
298.292	89.25
298.523	93.25
298.753	95.25
298.984	79.25
299.214	83.25
299.445	94.25
299.675	85.25
299.905	79.25
300.136	90.25
300.366	90.25
300.597	85.25
300.827	102.25
301.057	106.25
301.288	96.25
301.518	96.25
301.748	81.25
301.979	89.25
302.209	81.25
302.439	84.25
302.669	94.25
302.9	98.25
303.13	92.25
303.36	93.25
303.59	105.25
303.82	88.25
304.051	90.25
304.281	84.25
304.511	75.25
304.741	90.25
304.971	77.25
305.201	101.25
305.431	87.25
305.661	100.25
305.891	84.25
306.121	94.25
306.352	99.25
306.582	100.25
306.812	79.25
307.042	81.25
307.272	84.25
307.502	90.25
307.731	105.25
307.961	84.25
308.191	85.25
308.421	87.25
308.651	96.25
308.881	80.25
309.111	96.25
309.341	92.25
309.571	103.25
309.8	94.25
310.03	88.25
310.26	91.25
310.49	86.25
310.72	105.25
310.949	95.25
311.179	99.25
311.409	104.25
311.639	103.25
311.868	101.25
312.098	107.25
312.328	86.25
312.557	101.25
312.787	102.25
313.017	101.25
313.246	100.25
313.476	96.25
313.706	83.25
313.935	101.25
314.165	87.25
314.394	104.25
314.624	86.25
314.853	94.25
315.083	87.25
315.312	84.25
315.542	108.25
315.771	97.25
316.001	88.25
316.23	94.25
316.46	91.25
316.689	92.25
316.919	87.25
317.148	99.25
317.377	92.25
317.607	88.25
317.836	101.25
318.065	86.25
318.295	96.25
318.524	106.25
318.753	93.25
318.983	87.25
319.212	93.25
319.441	110.25
319.67	96.25
319.9	96.25
320.129	92.25
320.358	84.25
320.587	108.25
320.816	106.25
321.046	101.25
321.275	95.25
321.504	93.25
321.733	89.25
321.962	102.25
322.191	107.25
322.42	108.25
322.649	120.25
322.878	106.25
323.108	111.25
323.337	103.25
323.566	125.25
323.795	134.25
324.024	199.25
324.253	365.25
324.482	812.25
324.71	1647.25
324.939	2182.25
325.168	784.25
325.397	258.25
325.626	162.25
325.855	137.25
326.084	116.25
326.313	139.25
326.542	147.25
326.77	223.25
326.999	462.25
327.228	949.25
327.457	1715.25
327.686	1356.25
327.914	342.25
328.143	157.25
328.372	138.25
328.6	115.25
328.829	110.25
329.058	137.25
329.287	130.25
329.515	111.25
329.744	94.25
329.972	95.25
330.201	84.25
330.43	98.25
330.658	124.25
330.887	128.25
331.115	107.25
331.344	77.25
331.572	103.25
331.801	99.25
332.03	103.25
332.258	95.25
332.486	95.25
332.715	85.25
332.943	76.25
333.172	93.25
333.4	81.25
333.629	109.25
333.857	109.25
334.085	99.25
334.314	89.25
334.542	102.25
334.771	106.25
334.999	98.25
335.227	82.25
335.455	98.25
335.684	90.25
335.912	113.25
336.14	93.25
336.369	106.25
336.597	94.25
336.825	93.25
337.053	82.25
337.281	96.25
337.51	94.25
337.738	97.25
337.966	98.25
338.194	90.25
338.422	102.25
338.65	100.25
338.878	87.25
339.106	85.25
339.334	80.25
339.562	89.25
339.79	99.25
340.018	88.25
340.246	88.25
340.474	88.25
340.702	101.25
340.93	96.25
341.158	86.25
341.386	83.25
341.614	91.25
341.842	92.25
342.07	99.25
342.298	84.25
342.526	78.25
342.754	93.25
342.981	88.25
343.209	92.25
343.437	105.25
343.665	91.25
343.893	87.25
344.12	91.25
344.348	99.25
344.576	99.25
344.804	102.25
345.031	84.25
345.259	88.25
345.487	88.25
345.714	115.25
345.942	88.25
346.17	83.25
346.397	98.25
346.625	84.25
346.853	87.25
347.08	83.25
347.308	102.25
347.535	99.25
347.763	109.25
347.99	106.25
348.218	92.25
348.445	99.25
348.673	91.25
348.9	77.25
349.128	92.25
349.355	99.25
349.583	105.25
349.81	100.25
350.037	100.25
350.265	98.25
350.492	89.25
350.72	94.25
350.947	102.25
351.174	104.25
351.402	96.25
351.629	111.25
351.856	106.25
352.083	95.25
352.311	112.25
352.538	125.25
352.765	99.25
352.992	116.25
353.22	109.25
353.447	111.25
353.674	104.25
353.901	90.25
354.128	95.25
354.355	93.25
354.583	102.25
354.81	102.25
355.037	93.25
355.264	100.25
355.491	96.25
355.718	93.25
355.945	96.25
356.172	82.25
356.399	98.25
356.626	94.25
356.853	97.25
357.08	100.25
357.307	93.25
357.534	110.25
357.761	110.25
357.988	106.25
358.215	107.25
358.441	79.25
358.668	96.25
358.895	91.25
359.122	99.25
359.349	77.25
359.576	87.25
359.802	95.25
360.029	106.25
360.256	99.25
360.483	80.25
360.709	75.25
360.936	92.25
361.163	85.25
361.39	102.25
361.616	93.25
361.843	93.25
362.07	89.25
362.296	107.25
362.523	93.25
362.749	90.25
362.976	99.25
363.203	94.25
363.429	93.25
363.656	95.25
363.882	96.25
364.109	98.25
364.335	92.25
364.562	93.25
364.788	86.25
365.015	92.25
365.241	93.25
365.468	103.25
365.694	107.25
365.92	93.25
366.147	103.25
366.373	86.25
366.599	91.25
366.826	82.25
367.052	78.25
367.278	99.25
367.505	91.25
367.731	84.25
367.957	90.25
368.184	86.25
368.41	103.25
368.636	103.25
368.862	109.25
369.089	96.25
369.315	95.25
369.541	87.25
369.767	94.25
369.993	88.25
370.219	94.25
370.445	89.25
370.672	92.25
370.898	96.25
371.124	87.25
371.35	88.25
371.576	84.25
371.802	84.25
372.028	91.25
372.254	88.25
372.48	106.25
372.706	92.25
372.932	79.25
373.158	85.25
373.384	103.25
373.61	108.25
373.835	82.25
374.061	94.25
374.287	100.25
374.513	97.25
374.739	95.25
374.965	93.25
375.191	92.25
375.416	94.25
375.642	93.25
375.868	87.25
376.094	94.25
376.319	103.25
376.545	93.25
376.771	91.25
376.997	96.25
377.222	104.25
377.448	95.25
377.674	109.25
377.899	98.25
378.125	90.25
378.35	103.25
378.576	92.25
378.802	98.25
379.027	93.25
379.253	105.25
379.478	109.25
379.704	104.25
379.929	107.25
380.155	99.25
380.38	112.25
380.606	85.25
380.831	97.25
381.057	99.25
381.282	114.25
381.507	103.25
381.733	114.25
381.958	111.25
382.184	89.25
382.409	112.25
382.634	102.25
382.86	98.25
383.085	111.25
383.31	122.25
383.535	126.25
383.761	98.25
383.986	97.25
384.211	105.25
384.436	119.25
384.662	106.25
384.887	110.25
385.112	115.25
385.337	119.25
385.562	120.25
385.787	118.25
386.013	114.25
386.238	133.25
386.463	111.25
386.688	120.25
386.913	123.25
387.138	116.25
387.363	110.25
387.588	95.25
387.813	119.25
388.038	118.25
388.263	115.25
388.488	134.25
388.713	107.25
388.938	103.25
389.163	96.25
389.387	96.25
389.612	91.25
389.837	96.25
390.062	105.25
390.287	106.25
390.512	94.25
390.736	103.25
390.961	84.25
391.186	84.25
391.411	100.25
391.636	96.25
391.86	89.25
392.085	83.25
392.31	94.25
392.534	77.25
392.759	98.25
392.984	97.25
393.208	107.25
393.433	96.25
393.658	106.25
393.882	75.25
394.107	84.25
394.331	91.25
394.556	81.25
394.78	94.25
395.005	102.25
395.229	79.25
395.454	95.25
395.678	96.25
395.903	97.25
396.127	89.25
396.352	83.25
396.576	91.25
396.801	93.25
397.025	94.25
397.249	92.25
397.474	84.25
397.698	91.25
397.922	85.25
398.147	87.25
398.371	94.25
398.595	90.25
398.82	91.25
399.044	76.25
399.268	83.25
399.492	92.25
399.717	79.25
399.941	95.25
400.165	94.25
400.389	89.25
400.613	80.25
400.837	86.25
401.062	101.25
401.286	98.25
401.51	88.25
401.734	95.25
401.958	91.25
402.182	120.25
402.406	142.25
402.63	117.25
402.854	89.25
403.078	97.25
403.302	79.25
403.526	103.25
403.75	93.25
403.974	90.25
404.198	86.25
404.422	101.25
404.645	96.25
404.869	94.25
405.093	89.25
405.317	88.25
405.541	99.25
405.765	99.25
405.988	101.25
406.212	158.25
406.436	210.25
406.66	136.25
406.883	102.25
407.107	92.25
407.331	104.25
407.555	107.25
407.778	108.25
408.002	93.25
408.226	91.25
408.449	92.25
408.673	99.25
408.896	96.25
409.12	101.25
409.344	95.25
409.567	85.25
409.791	96.25
410.014	110.25
410.238	90.25
410.461	85.25
410.685	89.25
410.908	99.25
411.132	100.25
411.355	117.25
411.578	91.25
411.802	95.25
412.025	86.25
412.249	90.25
412.472	105.25
412.695	83.25
412.919	94.25
413.142	90.25
413.365	100.25
413.589	82.25
413.812	92.25
414.035	92.25
414.258	98.25
414.482	90.25
414.705	87.25
414.928	91.25
415.151	111.25
415.374	90.25
415.597	104.25
415.821	92.25
416.044	83.25
416.267	92.25
416.49	76.25
416.713	83.25
416.936	87.25
417.159	77.25
417.382	79.25
417.605	96.25
417.828	96.25
418.051	98.25
418.274	96.25
418.497	88.25
418.72	95.25
418.943	98.25
419.166	86.25
419.389	90.25
419.611	99.25
419.834	85.25
420.057	93.25
420.28	91.25
420.503	92.25
420.726	83.25
420.948	90.25
421.171	80.25
421.394	99.25
421.617	92.25
421.839	94.25
422.062	89.25
422.285	87.25
422.507	101.25
422.73	101.25
422.953	98.25
423.175	84.25
423.398	94.25
423.621	87.25
423.843	82.25
424.066	77.25
424.288	91.25
424.511	91.25
424.733	95.25
424.956	111.25
425.178	103.25
425.401	109.25
425.623	105.25
425.846	95.25
426.068	98.25
426.291	87.25
426.513	99.25
426.735	71.25
426.958	102.25
427.18	118.25
427.402	126.25
427.625	158.25
427.847	130.25
428.069	91.25
428.292	97.25
428.514	83.25
428.736	88.25
428.958	82.25
429.181	82.25
429.403	77.25
429.625	86.25
429.847	77.25
430.069	105.25
430.292	84.25
430.514	99.25
430.736	91.25
430.958	87.25
431.18	75.25
431.402	85.25
431.624	89.25
431.846	90.25
432.068	82.25
432.29	84.25
432.512	97.25
432.734	80.25
432.956	92.25
433.178	109.25
433.4	105.25
433.622	96.25
433.844	101.25
434.066	86.25
434.287	86.25
434.509	84.25
434.731	88.25
434.953	97.25
435.175	106.25
435.397	100.25
435.618	95.25
435.84	97.25
436.062	106.25
436.284	118.25
436.505	114.25
436.727	102.25
436.949	97.25
437.17	93.25
437.392	102.25
437.614	101.25
437.835	107.25
438.057	125.25
438.278	104.25
438.5	84.25
438.721	118.25
438.943	94.25
439.165	99.25
439.386	100.25
439.608	95.25
439.829	102.25
440.05	129.25
440.272	131.25
440.493	104.25
440.715	86.25
440.936	74.25
441.158	68.25
441.379	90.25
441.6	94.25
441.822	76.25
442.043	94.25
442.264	91.25
442.486	91.25
442.707	82.25
442.928	99.25
443.149	134.25
443.371	123.25
443.592	101.25
443.813	107.25
444.034	98.25
444.255	92.25
444.476	94.25
444.698	93.25
444.919	99.25
445.14	139.25
445.361	124.25
445.582	106.25
445.803	131.25
446.024	140.25
446.245	153.25
446.466	110.25
446.687	80.25
446.908	84.25
447.129	83.25
447.35	104.25
447.571	98.25
447.792	87.25
448.013	104.25
448.234	103.25
448.455	99.25
448.675	103.25
448.896	116.25
449.117	94.25
449.338	104.25
449.559	128.25
449.779	141.25
450	103.25
450.221	89.25
450.442	92.25
450.662	100.25
450.883	98.25
451.104	107.25
451.324	97.25
451.545	88.25
451.766	89.25
451.986	83.25
452.207	107.25
452.428	87.25
452.648	91.25
452.869	99.25
453.089	95.25
453.31	123.25
453.53	98.25
453.751	87.25
453.971	95.25
454.192	96.25
454.412	86.25
454.633	85.25
454.853	90.25
455.073	94.25
455.294	92.25
455.514	86.25
455.734	87.25
455.955	88.25
456.175	79.25
456.395	78.25
456.616	85.25
456.836	103.25
457.056	88.25
457.276	89.25
457.497	92.25
457.717	82.25
457.937	96.25
458.157	87.25
458.377	87.25
458.598	109.25
458.818	140.25
459.038	136.25
459.258	106.25
459.478	97.25
459.698	95.25
459.918	86.25
460.138	84.25
460.358	92.25
460.578	85.25
460.798	102.25
461.018	94.25
461.238	92.25
461.458	86.25
461.678	78.25
461.898	91.25
462.118	92.25
462.338	92.25
462.558	92.25
462.777	78.25
462.997	93.25
463.217	80.25
463.437	96.25
463.657	79.25
463.876	88.25
464.096	88.25
464.316	97.25
464.536	95.25
464.755	96.25
464.975	107.25
465.195	142.25
465.414	148.25
465.634	100.25
465.854	85.25
466.073	93.25
466.293	99.25
466.512	88.25
466.732	80.25
466.951	87.25
467.171	93.25
467.391	82.25
467.61	111.25
467.829	92.25
468.049	95.25
468.268	84.25
468.488	88.25
468.707	81.25
468.927	82.25
469.146	80.25
469.365	91.25
469.585	85.25
469.804	111.25
470.023	88.25
470.243	80.25
470.462	118.25
470.681	100.25
470.901	96.25
471.12	95.25
471.339	83.25
471.558	84.25
471.777	90.25
471.997	90.25
472.216	84.25
472.435	87.25
472.654	92.25
472.873	80.25
473.092	85.25
473.311	87.25
473.53	79.25
473.749	100.25
473.968	84.25
474.187	94.25
474.406	101.25
474.625	98.25
474.844	89.25
475.063	88.25
475.282	90.25
475.501	83.25
475.72	78.25
475.939	98.25
476.158	96.25
476.377	79.25
476.596	92.25
476.814	94.25
477.033	99.25
477.252	96.25
477.471	99.25
477.69	87.25
477.908	93.25
478.127	92.25
478.346	86.25
478.564	87.25
478.783	93.25
479.002	86.25
479.22	96.25
479.439	90.25
479.658	95.25
479.876	97.25
480.095	90.25
480.313	83.25
480.532	80.25
480.751	107.25
480.969	92.25
481.188	86.25
481.406	87.25
481.624	97.25
481.843	103.25
482.061	81.25
482.28	89.25
482.498	86.25
482.717	102.25
482.935	103.25
483.153	106.25
483.372	92.25
483.59	88.25
483.808	90.25
484.027	91.25
484.245	78.25
484.463	82.25
484.681	97.25
484.9	88.25
485.118	110.25
485.336	82.25
485.554	98.25
485.772	102.25
485.99	87.25
486.209	109.25
486.427	111.25
486.645	104.25
486.863	107.25
487.081	107.25
487.299	85.25
487.517	97.25
487.735	94.25
487.953	94.25
488.171	94.25
488.389	84.25
488.607	100.25
488.825	99.25
489.043	101.25
489.261	91.25
489.479	92.25
489.696	93.25
489.914	80.25
490.132	96.25
490.35	96.25
490.568	84.25
490.786	105.25
491.003	105.25
491.221	90.25
491.439	93.25
491.657	89.25
491.874	93.25
492.092	92.25
492.31	84.25
492.527	83.25
492.745	90.25
492.963	87.25
493.18	99.25
493.398	86.25
493.615	90.25
493.833	92.25
494.05	80.25
494.268	103.25
494.485	104.25
494.703	80.25
494.92	106.25
495.138	99.25
495.355	98.25
495.573	98.25
495.79	92.25
496.008	100.25
496.225	92.25
496.442	95.25
496.66	92.25
496.877	89.25
497.094	98.25
497.312	86.25
497.529	85.25
497.746	105.25
497.963	100.25
498.181	101.25
498.398	113.25
498.615	96.25
498.832	94.25
499.049	86.25
499.267	106.25
499.484	97.25
499.701	100.25
499.918	107.25
500.135	101.25
500.352	90.25
500.569	85.25
500.786	76.25
501.003	106.25
501.22	98.25
501.437	100.25
501.654	86.25
501.871	104.25
502.088	95.25
502.305	80.25
502.522	80.25
502.739	85.25
502.956	99.25
503.172	107.25
503.389	111.25
503.606	95.25
503.823	94.25
504.04	83.25
504.256	87.25
504.473	92.25
504.69	92.25
504.907	100.25
505.123	96.25
505.34	82.25
505.557	96.25
505.773	95.25
505.99	83.25
506.207	88.25
506.423	84.25
506.64	85.25
506.856	91.25
507.073	100.25
507.289	93.25
507.506	99.25
507.722	109.25
507.939	117.25
508.155	111.25
508.372	100.25
508.588	94.25
508.805	101.25
509.021	96.25
509.238	110.25
509.454	94.25
509.67	112.25
509.887	100.25
510.103	118.25
510.319	200.25
510.536	705.25
510.752	2124.25
510.968	612.25
511.184	158.25
511.401	111.25
511.617	97.25
511.833	104.25
512.049	103.25
512.265	101.25
512.481	84.25
512.698	100.25
512.914	84.25
513.13	82.25
513.346	91.25
513.562	106.25
513.778	106.25
513.994	89.25
514.21	102.25
514.426	142.25
514.642	121.25
514.858	124.25
515.074	170.25
515.29	402.25
