Data from Uncirc_2006_H10_HRD10591_00064.txt Node
Date: Wed Jan 03 10:25:07 EST 2024
User: Yrep
Spectrometer: HR+D1059
Trigger mode: 1
Integration Time (sec): 1.000000E-1
Scans to average: 1
Electric dark correction enabled: true
Nonlinearity correction enabled: false
Boxcar width: 0
XAxis mode: Wavelengths
Number of Pixels in Spectrum: 2048
>>>>>Begin Spectral Data<<<<<
223.165	-14.75
223.4	-14.75
223.635	-14.75
223.869	-30.75
224.104	-17.75
224.338	-24.75
224.573	-9.75
224.808	-7.75
225.042	-21.75
225.277	-1.75
225.511	14.25
225.746	9.25
225.98	10.25
226.215	18.25
226.449	-9.75
226.683	28.25
226.918	22.25
227.152	36.25
227.387	36.25
227.621	47.25
227.856	42.25
228.09	35.25
228.324	61.25
228.559	71.25
228.793	56.25
229.027	68.25
229.262	63.25
229.496	80.25
229.73	97.25
229.964	78.25
230.199	75.25
230.433	69.25
230.667	84.25
230.901	81.25
231.136	78.25
231.37	80.25
231.604	72.25
231.838	82.25
232.072	67.25
232.306	75.25
232.541	72.25
232.775	80.25
233.009	85.25
233.243	85.25
233.477	88.25
233.711	92.25
233.945	75.25
234.179	76.25
234.413	77.25
234.647	75.25
234.881	78.25
235.115	85.25
235.349	88.25
235.583	86.25
235.817	84.25
236.051	86.25
236.285	77.25
236.519	69.25
236.753	76.25
236.987	86.25
237.221	77.25
237.455	88.25
237.689	76.25
237.922	67.25
238.156	74.25
238.39	82.25
238.624	69.25
238.858	84.25
239.091	81.25
239.325	82.25
239.559	82.25
239.793	78.25
240.027	94.25
240.26	82.25
240.494	84.25
240.728	70.25
240.961	59.25
241.195	79.25
241.429	68.25
241.662	78.25
241.896	84.25
242.13	63.25
242.363	69.25
242.597	76.25
242.83	76.25
243.064	80.25
243.298	70.25
243.531	82.25
243.765	72.25
243.998	77.25
244.232	72.25
244.465	84.25
244.699	77.25
244.932	88.25
245.166	85.25
245.399	86.25
245.633	86.25
245.866	72.25
246.099	87.25
246.333	70.25
246.566	79.25
246.8	86.25
247.033	76.25
247.266	74.25
247.5	76.25
247.733	80.25
247.966	77.25
248.2	87.25
248.433	87.25
248.666	82.25
248.899	74.25
249.133	83.25
249.366	92.25
249.599	95.25
249.832	73.25
250.066	92.25
250.299	84.25
250.532	71.25
250.765	72.25
250.998	70.25
251.231	77.25
251.465	86.25
251.698	81.25
251.931	83.25
252.164	81.25
252.397	76.25
252.63	80.25
252.863	84.25
253.096	64.25
253.329	77.25
253.562	81.25
253.795	74.25
254.028	66.25
254.261	87.25
254.494	88.25
254.727	87.25
254.96	76.25
255.193	76.25
255.426	84.25
255.659	69.25
255.892	70.25
256.124	76.25
256.357	87.25
256.59	87.25
256.823	72.25
257.056	70.25
257.289	87.25
257.521	90.25
257.754	84.25
257.987	61.25
258.22	77.25
258.452	70.25
258.685	81.25
258.918	80.25
259.151	85.25
259.383	91.25
259.616	80.25
259.849	82.25
260.081	87.25
260.314	77.25
260.547	84.25
260.779	78.25
261.012	84.25
261.244	74.25
261.477	85.25
261.71	88.25
261.942	109.25
262.175	114.25
262.407	78.25
262.64	81.25
262.872	83.25
263.105	76.25
263.337	92.25
263.57	83.25
263.802	87.25
264.035	80.25
264.267	87.25
264.499	88.25
264.732	80.25
264.964	75.25
265.197	94.25
265.429	71.25
265.661	96.25
265.894	81.25
266.126	91.25
266.358	85.25
266.591	81.25
266.823	87.25
267.055	79.25
267.287	87.25
267.52	87.25
267.752	75.25
267.984	93.25
268.216	74.25
268.448	78.25
268.681	90.25
268.913	88.25
269.145	69.25
269.377	92.25
269.609	88.25
269.841	100.25
270.073	83.25
270.306	92.25
270.538	83.25
270.77	86.25
271.002	82.25
271.234	93.25
271.466	80.25
271.698	89.25
271.93	93.25
272.162	86.25
272.394	78.25
272.626	82.25
272.858	77.25
273.09	101.25
273.322	80.25
273.553	93.25
273.785	90.25
274.017	88.25
274.249	84.25
274.481	92.25
274.713	85.25
274.945	81.25
275.176	79.25
275.408	93.25
275.64	90.25
275.872	92.25
276.104	97.25
276.335	85.25
276.567	102.25
276.799	108.25
277.031	95.25
277.262	85.25
277.494	85.25
277.726	87.25
277.957	88.25
278.189	81.25
278.421	96.25
278.652	84.25
278.884	85.25
279.115	81.25
279.347	84.25
279.579	74.25
279.81	91.25
280.042	94.25
280.273	93.25
280.505	84.25
280.736	80.25
280.968	93.25
281.199	93.25
281.431	84.25
281.662	86.25
281.894	88.25
282.125	90.25
282.356	107.25
282.588	134.25
282.819	108.25
283.051	98.25
283.282	70.25
283.513	106.25
283.745	108.25
283.976	99.25
284.207	87.25
284.439	97.25
284.67	95.25
284.901	95.25
285.132	66.25
285.364	83.25
285.595	90.25
285.826	82.25
286.057	82.25
286.288	97.25
286.52	100.25
286.751	90.25
286.982	84.25
287.213	78.25
287.444	91.25
287.675	82.25
287.906	95.25
288.138	83.25
288.369	78.25
288.6	88.25
288.831	101.25
289.062	87.25
289.293	88.25
289.524	92.25
289.755	82.25
289.986	86.25
290.217	85.25
290.448	91.25
290.679	90.25
290.91	101.25
291.141	79.25
291.371	100.25
291.602	102.25
291.833	87.25
292.064	74.25
292.295	96.25
292.526	84.25
292.757	88.25
292.987	99.25
293.218	91.25
293.449	75.25
293.68	88.25
293.91	88.25
294.141	80.25
294.372	87.25
294.603	71.25
294.833	91.25
295.064	80.25
295.295	84.25
295.525	78.25
295.756	86.25
295.987	110.25
296.217	139.25
296.448	117.25
296.679	94.25
296.909	88.25
297.14	82.25
297.37	91.25
297.601	83.25
297.831	86.25
298.062	93.25
298.292	91.25
298.523	93.25
298.753	93.25
298.984	82.25
299.214	83.25
299.445	100.25
299.675	94.25
299.905	71.25
300.136	94.25
300.366	83.25
300.597	82.25
300.827	84.25
301.057	112.25
301.288	110.25
301.518	97.25
301.748	106.25
301.979	91.25
302.209	85.25
302.439	90.25
302.669	87.25
302.9	95.25
303.13	95.25
303.36	101.25
303.59	84.25
303.82	88.25
304.051	99.25
304.281	91.25
304.511	91.25
304.741	88.25
304.971	91.25
305.201	107.25
305.431	88.25
305.661	88.25
305.891	87.25
306.121	103.25
306.352	97.25
306.582	115.25
306.812	105.25
307.042	77.25
307.272	95.25
307.502	78.25
307.731	91.25
307.961	95.25
308.191	90.25
308.421	85.25
308.651	93.25
308.881	84.25
309.111	86.25
309.341	109.25
309.571	99.25
309.8	87.25
310.03	106.25
310.26	106.25
310.49	95.25
310.72	85.25
310.949	88.25
311.179	86.25
311.409	108.25
311.639	92.25
311.868	99.25
312.098	103.25
312.328	96.25
312.557	97.25
312.787	97.25
313.017	92.25
313.246	90.25
313.476	96.25
313.706	94.25
313.935	107.25
314.165	111.25
314.394	103.25
314.624	90.25
314.853	96.25
315.083	93.25
315.312	105.25
315.542	90.25
315.771	99.25
316.001	90.25
316.23	87.25
316.46	96.25
316.689	89.25
316.919	95.25
317.148	92.25
317.377	94.25
317.607	97.25
317.836	95.25
318.065	95.25
318.295	109.25
318.524	90.25
318.753	96.25
318.983	98.25
319.212	92.25
319.441	103.25
319.67	96.25
319.9	88.25
320.129	99.25
320.358	87.25
320.587	101.25
320.816	100.25
321.046	100.25
321.275	94.25
321.504	90.25
321.733	91.25
321.962	98.25
322.191	100.25
322.42	100.25
322.649	110.25
322.878	106.25
323.108	102.25
323.337	110.25
323.566	129.25
323.795	137.25
324.024	201.25
324.253	356.25
324.482	734.25
324.71	1482.25
324.939	1915.25
325.168	741.25
325.397	222.25
325.626	146.25
325.855	127.25
326.084	123.25
326.313	127.25
326.542	152.25
326.77	211.25
326.999	424.25
327.228	875.25
327.457	1540.25
327.686	1214.25
327.914	324.25
328.143	165.25
328.372	134.25
328.6	119.25
328.829	110.25
329.058	115.25
329.287	105.25
329.515	101.25
329.744	99.25
329.972	103.25
330.201	95.25
330.43	107.25
330.658	86.25
330.887	115.25
331.115	131.25
331.344	94.25
331.572	94.25
331.801	102.25
332.03	98.25
332.258	80.25
332.486	98.25
332.715	88.25
332.943	93.25
333.172	87.25
333.4	91.25
333.629	109.25
333.857	112.25
334.085	109.25
334.314	88.25
334.542	71.25
334.771	91.25
334.999	88.25
335.227	92.25
335.455	89.25
335.684	96.25
335.912	94.25
336.14	98.25
336.369	110.25
336.597	97.25
336.825	76.25
337.053	96.25
337.281	101.25
337.51	108.25
337.738	95.25
337.966	109.25
338.194	97.25
338.422	81.25
338.65	90.25
338.878	100.25
339.106	99.25
339.334	99.25
339.562	98.25
339.79	86.25
340.018	87.25
340.246	100.25
340.474	102.25
340.702	99.25
340.93	104.25
341.158	85.25
341.386	94.25
341.614	88.25
341.842	92.25
342.07	84.25
342.298	99.25
342.526	97.25
342.754	92.25
342.981	90.25
343.209	91.25
343.437	90.25
343.665	94.25
343.893	98.25
344.12	89.25
344.348	95.25
344.576	73.25
344.804	97.25
345.031	91.25
345.259	102.25
345.487	91.25
345.714	71.25
345.942	98.25
346.17	104.25
346.397	87.25
346.625	96.25
346.853	97.25
347.08	88.25
347.308	101.25
347.535	93.25
347.763	91.25
347.99	106.25
348.218	102.25
348.445	90.25
348.673	107.25
348.9	92.25
349.128	101.25
349.355	95.25
349.583	79.25
349.81	91.25
350.037	87.25
350.265	99.25
350.492	86.25
350.72	106.25
350.947	112.25
351.174	115.25
351.402	97.25
351.629	87.25
351.856	100.25
352.083	95.25
352.311	99.25
352.538	98.25
352.765	100.25
352.992	101.25
353.22	108.25
353.447	116.25
353.674	96.25
353.901	99.25
354.128	90.25
354.355	91.25
354.583	100.25
354.81	112.25
355.037	108.25
355.264	85.25
355.491	98.25
355.718	87.25
355.945	91.25
356.172	98.25
356.399	90.25
356.626	91.25
356.853	105.25
357.08	73.25
357.307	91.25
357.534	94.25
357.761	98.25
357.988	85.25
358.215	85.25
358.441	90.25
358.668	86.25
358.895	94.25
359.122	94.25
359.349	90.25
359.576	88.25
359.802	107.25
360.029	100.25
360.256	106.25
360.483	98.25
360.709	92.25
360.936	104.25
361.163	87.25
361.39	88.25
361.616	88.25
361.843	84.25
362.07	86.25
362.296	100.25
362.523	92.25
362.749	96.25
362.976	91.25
363.203	78.25
363.429	101.25
363.656	95.25
363.882	82.25
364.109	91.25
364.335	86.25
364.562	111.25
364.788	94.25
365.015	99.25
365.241	88.25
365.468	111.25
365.694	99.25
365.92	85.25
366.147	80.25
366.373	90.25
366.599	82.25
366.826	83.25
367.052	88.25
367.278	88.25
367.505	80.25
367.731	90.25
367.957	80.25
368.184	94.25
368.41	113.25
368.636	104.25
368.862	119.25
369.089	107.25
369.315	92.25
369.541	98.25
369.767	97.25
369.993	103.25
370.219	87.25
370.445	80.25
370.672	87.25
370.898	87.25
371.124	78.25
371.35	104.25
371.576	91.25
371.802	74.25
372.028	88.25
372.254	98.25
372.48	74.25
372.706	94.25
372.932	86.25
373.158	88.25
373.384	84.25
373.61	75.25
373.835	92.25
374.061	82.25
374.287	86.25
374.513	90.25
374.739	98.25
374.965	87.25
375.191	79.25
375.416	94.25
375.642	86.25
375.868	92.25
376.094	82.25
376.319	104.25
376.545	101.25
376.771	100.25
376.997	90.25
377.222	103.25
377.448	98.25
377.674	100.25
377.899	96.25
378.125	95.25
378.35	95.25
378.576	88.25
378.802	97.25
379.027	101.25
379.253	95.25
379.478	93.25
379.704	95.25
379.929	96.25
380.155	94.25
380.38	98.25
380.606	95.25
380.831	107.25
381.057	110.25
381.282	94.25
381.507	95.25
381.733	92.25
381.958	95.25
382.184	99.25
382.409	104.25
382.634	91.25
382.86	94.25
383.085	96.25
383.31	98.25
383.535	90.25
383.761	95.25
383.986	100.25
384.211	98.25
384.436	100.25
384.662	99.25
384.887	111.25
385.112	111.25
385.337	103.25
385.562	104.25
385.787	98.25
386.013	111.25
386.238	116.25
386.463	96.25
386.688	118.25
386.913	113.25
387.138	75.25
387.363	105.25
387.588	96.25
387.813	104.25
388.038	106.25
388.263	107.25
388.488	110.25
388.713	101.25
388.938	110.25
389.163	105.25
389.387	100.25
389.612	96.25
389.837	87.25
390.062	85.25
390.287	93.25
390.512	99.25
390.736	100.25
390.961	98.25
391.186	96.25
391.411	95.25
391.636	99.25
391.86	75.25
392.085	81.25
392.31	79.25
392.534	84.25
392.759	73.25
392.984	86.25
393.208	75.25
393.433	88.25
393.658	100.25
393.882	82.25
394.107	93.25
394.331	91.25
394.556	91.25
394.78	95.25
395.005	92.25
395.229	75.25
395.454	86.25
395.678	97.25
395.903	79.25
396.127	92.25
396.352	87.25
396.576	84.25
396.801	75.25
397.025	89.25
397.249	92.25
397.474	92.25
397.698	90.25
397.922	87.25
398.147	82.25
398.371	82.25
398.595	80.25
398.82	67.25
399.044	72.25
399.268	88.25
399.492	77.25
399.717	84.25
399.941	102.25
400.165	83.25
400.389	91.25
400.613	90.25
400.837	86.25
401.062	88.25
401.286	84.25
401.51	83.25
401.734	81.25
401.958	88.25
402.182	125.25
402.406	138.25
402.63	98.25
402.854	99.25
403.078	90.25
403.302	104.25
403.526	98.25
403.75	88.25
403.974	90.25
404.198	82.25
404.422	103.25
404.645	103.25
404.869	92.25
405.093	83.25
405.317	87.25
405.541	97.25
405.765	91.25
405.988	125.25
406.212	160.25
406.436	195.25
406.66	124.25
406.883	98.25
407.107	89.25
407.331	93.25
407.555	91.25
407.778	88.25
408.002	94.25
408.226	85.25
408.449	84.25
408.673	86.25
408.896	90.25
409.12	91.25
409.344	92.25
409.567	100.25
409.791	98.25
410.014	93.25
410.238	93.25
410.461	94.25
410.685	99.25
410.908	93.25
411.132	101.25
411.355	95.25
411.578	83.25
411.802	80.25
412.025	106.25
412.249	109.25
412.472	88.25
412.695	103.25
412.919	87.25
413.142	100.25
413.365	98.25
413.589	92.25
413.812	95.25
414.035	86.25
414.258	99.25
414.482	84.25
414.705	79.25
414.928	87.25
415.151	99.25
415.374	91.25
415.597	93.25
415.821	108.25
416.044	84.25
416.267	83.25
416.49	94.25
416.713	91.25
416.936	83.25
417.159	75.25
417.382	86.25
417.605	97.25
417.828	92.25
418.051	88.25
418.274	81.25
418.497	73.25
418.72	86.25
418.943	85.25
419.166	80.25
419.389	94.25
419.611	93.25
419.834	92.25
420.057	72.25
420.28	85.25
420.503	76.25
420.726	88.25
420.948	92.25
421.171	86.25
421.394	105.25
421.617	91.25
421.839	79.25
422.062	84.25
422.285	106.25
422.507	95.25
422.73	92.25
422.953	96.25
423.175	97.25
423.398	103.25
423.621	101.25
423.843	107.25
424.066	92.25
424.288	84.25
424.511	95.25
424.733	98.25
424.956	106.25
425.178	92.25
425.401	79.25
425.623	103.25
425.846	106.25
426.068	93.25
426.291	110.25
426.513	97.25
426.735	95.25
426.958	92.25
427.18	119.25
427.402	131.25
427.625	162.25
427.847	121.25
428.069	94.25
428.292	98.25
428.514	91.25
428.736	90.25
428.958	85.25
429.181	85.25
429.403	87.25
429.625	83.25
429.847	86.25
430.069	90.25
430.292	98.25
430.514	79.25
430.736	94.25
430.958	96.25
431.18	90.25
431.402	93.25
431.624	84.25
431.846	71.25
432.068	86.25
432.29	87.25
432.512	93.25
432.734	96.25
432.956	105.25
433.178	92.25
433.4	78.25
433.622	84.25
433.844	80.25
434.066	88.25
434.287	94.25
434.509	86.25
434.731	85.25
434.953	83.25
435.175	91.25
435.397	90.25
435.618	90.25
435.84	107.25
436.062	109.25
436.284	111.25
436.505	83.25
436.727	95.25
436.949	105.25
437.17	93.25
437.392	105.25
437.614	95.25
437.835	113.25
438.057	124.25
438.278	98.25
438.5	109.25
438.721	111.25
438.943	109.25
439.165	70.25
439.386	86.25
439.608	84.25
439.829	89.25
440.05	106.25
440.272	135.25
440.493	98.25
440.715	85.25
440.936	82.25
441.158	76.25
441.379	94.25
441.6	87.25
441.822	98.25
442.043	88.25
442.264	106.25
442.486	108.25
442.707	88.25
442.928	105.25
443.149	115.25
443.371	107.25
443.592	108.25
443.813	94.25
444.034	108.25
444.255	98.25
444.476	88.25
444.698	85.25
444.919	93.25
445.14	128.25
445.361	116.25
445.582	112.25
445.803	129.25
446.024	116.25
446.245	130.25
446.466	119.25
446.687	99.25
446.908	101.25
447.129	88.25
447.35	82.25
447.571	82.25
447.792	93.25
448.013	94.25
448.234	112.25
448.455	117.25
448.675	114.25
448.896	114.25
449.117	110.25
449.338	98.25
449.559	114.25
449.779	126.25
450	94.25
450.221	91.25
450.442	82.25
450.662	96.25
450.883	92.25
451.104	109.25
451.324	95.25
451.545	93.25
451.766	92.25
451.986	86.25
452.207	95.25
452.428	87.25
452.648	102.25
452.869	103.25
453.089	106.25
453.31	112.25
453.53	94.25
453.751	103.25
453.971	100.25
454.192	110.25
454.412	92.25
454.633	78.25
454.853	92.25
455.073	89.25
455.294	85.25
455.514	92.25
455.734	74.25
455.955	98.25
456.175	87.25
456.395	92.25
456.616	82.25
456.836	76.25
457.056	101.25
457.276	85.25
457.497	94.25
457.717	86.25
457.937	89.25
458.157	96.25
458.377	92.25
458.598	101.25
458.818	138.25
459.038	146.25
459.258	112.25
459.478	99.25
459.698	75.25
459.918	72.25
460.138	79.25
460.358	72.25
460.578	86.25
460.798	90.25
461.018	89.25
461.238	70.25
461.458	78.25
461.678	103.25
461.898	104.25
462.118	84.25
462.338	82.25
462.558	78.25
462.777	93.25
462.997	97.25
463.217	79.25
463.437	90.25
463.657	75.25
463.876	74.25
464.096	89.25
464.316	103.25
464.536	96.25
464.755	98.25
464.975	107.25
465.195	150.25
465.414	140.25
465.634	84.25
465.854	87.25
466.073	96.25
466.293	94.25
466.512	92.25
466.732	89.25
466.951	89.25
467.171	90.25
467.391	108.25
467.61	102.25
467.829	102.25
468.049	85.25
468.268	92.25
468.488	105.25
468.707	83.25
468.927	92.25
469.146	98.25
469.365	100.25
469.585	90.25
469.804	94.25
470.023	109.25
470.243	85.25
470.462	91.25
470.681	101.25
470.901	83.25
471.12	79.25
471.339	95.25
471.558	77.25
471.777	81.25
471.997	97.25
472.216	73.25
472.435	83.25
472.654	83.25
472.873	95.25
473.092	95.25
473.311	88.25
473.53	84.25
473.749	92.25
473.968	92.25
474.187	101.25
474.406	93.25
474.625	101.25
474.844	106.25
475.063	90.25
475.282	75.25
475.501	89.25
475.72	74.25
475.939	81.25
476.158	84.25
476.377	87.25
476.596	95.25
476.814	86.25
477.033	89.25
477.252	79.25
477.471	102.25
477.69	90.25
477.908	90.25
478.127	92.25
478.346	79.25
478.564	95.25
478.783	109.25
479.002	89.25
479.22	92.25
479.439	95.25
479.658	79.25
479.876	93.25
480.095	81.25
480.313	95.25
480.532	90.25
480.751	90.25
480.969	85.25
481.188	88.25
481.406	95.25
481.624	83.25
481.843	75.25
482.061	98.25
482.28	72.25
482.498	80.25
482.717	84.25
482.935	89.25
483.153	82.25
483.372	100.25
483.59	85.25
483.808	90.25
484.027	93.25
484.245	87.25
484.463	92.25
484.681	98.25
484.9	75.25
485.118	91.25
485.336	95.25
485.554	91.25
485.772	91.25
485.99	108.25
486.209	99.25
486.427	107.25
486.645	95.25
486.863	106.25
487.081	77.25
487.299	91.25
487.517	98.25
487.735	78.25
487.953	95.25
488.171	96.25
488.389	93.25
488.607	86.25
488.825	87.25
489.043	90.25
489.261	87.25
489.479	82.25
489.696	97.25
489.914	93.25
490.132	86.25
490.35	91.25
490.568	92.25
490.786	88.25
491.003	85.25
491.221	93.25
491.439	105.25
491.657	97.25
491.874	101.25
492.092	91.25
492.31	106.25
492.527	86.25
492.745	89.25
492.963	93.25
493.18	85.25
493.398	87.25
493.615	104.25
493.833	86.25
494.05	92.25
494.268	84.25
494.485	95.25
494.703	80.25
494.92	82.25
495.138	98.25
495.355	93.25
495.573	88.25
495.79	105.25
496.008	95.25
496.225	92.25
496.442	98.25
496.66	98.25
496.877	87.25
497.094	102.25
497.312	106.25
497.529	88.25
497.746	81.25
497.963	106.25
498.181	90.25
498.398	95.25
498.615	106.25
498.832	108.25
499.049	99.25
499.267	86.25
499.484	93.25
499.701	92.25
499.918	94.25
500.135	79.25
500.352	77.25
500.569	88.25
500.786	92.25
501.003	83.25
501.22	94.25
501.437	98.25
501.654	116.25
501.871	109.25
502.088	100.25
502.305	98.25
502.522	90.25
502.739	92.25
502.956	98.25
503.172	92.25
503.389	96.25
503.606	98.25
503.823	99.25
504.04	85.25
504.256	83.25
504.473	88.25
504.69	87.25
504.907	81.25
505.123	95.25
505.34	96.25
505.557	93.25
505.773	98.25
505.99	106.25
506.207	76.25
506.423	90.25
506.64	100.25
506.856	75.25
507.073	93.25
507.289	109.25
507.506	82.25
507.722	101.25
507.939	101.25
508.155	90.25
508.372	102.25
508.588	103.25
508.805	102.25
509.021	83.25
509.238	98.25
509.454	87.25
509.67	93.25
509.887	103.25
510.103	118.25
510.319	212.25
510.536	709.25
510.752	2151.25
510.968	627.25
511.184	157.25
511.401	109.25
511.617	79.25
511.833	98.25
512.049	88.25
512.265	95.25
512.481	93.25
512.698	96.25
512.914	99.25
513.13	96.25
513.346	93.25
513.562	89.25
513.778	107.25
513.994	97.25
514.21	92.25
514.426	111.25
514.642	124.25
514.858	121.25
515.074	158.25
515.29	393.25
515.506	1243.25
515.721	490.25
515.937	136.25
