Data from Uncirc_2006_H10_HRD10591_00027.txt Node
Date: Wed Jan 03 10:25:00 EST 2024
User: Yrep
Spectrometer: HR+D1059
Trigger mode: 1
Integration Time (sec): 1.000000E-1
Scans to average: 1
Electric dark correction enabled: true
Nonlinearity correction enabled: false
Boxcar width: 0
XAxis mode: Wavelengths
Number of Pixels in Spectrum: 2048
>>>>>Begin Spectral Data<<<<<
223.165	-18.62
223.4	-18.62
223.635	-18.62
223.869	-7.62
224.104	-28.62
224.338	-16.62
224.573	-26.62
224.808	-11.62
225.042	-13.62
225.277	-3.62
225.511	7.38
225.746	-10.62
225.98	5.38
226.215	15.38
226.449	16.38
226.683	23.38
226.918	34.38
227.152	35.38
227.387	37.38
227.621	39.38
227.856	41.38
228.09	45.38
228.324	38.38
228.559	48.38
228.793	46.38
229.027	56.38
229.262	69.38
229.496	79.38
229.73	78.38
229.964	62.38
230.199	80.38
230.433	63.38
230.667	73.38
230.901	74.38
231.136	74.38
231.37	83.38
231.604	71.38
231.838	77.38
232.072	76.38
232.306	59.38
232.541	75.38
232.775	76.38
233.009	87.38
233.243	83.38
233.477	75.38
233.711	80.38
233.945	78.38
234.179	83.38
234.413	77.38
234.647	81.38
234.881	95.38
235.115	72.38
235.349	73.38
235.583	66.38
235.817	90.38
236.051	72.38
236.285	61.38
236.519	74.38
236.753	66.38
236.987	74.38
237.221	82.38
237.455	63.38
237.689	87.38
237.922	65.38
238.156	74.38
238.39	61.38
238.624	59.38
238.858	75.38
239.091	70.38
239.325	74.38
239.559	75.38
239.793	74.38
240.027	78.38
240.26	74.38
240.494	73.38
240.728	71.38
240.961	80.38
241.195	88.38
241.429	82.38
241.662	85.38
241.896	69.38
242.13	75.38
242.363	80.38
242.597	55.38
242.83	69.38
243.064	69.38
243.298	79.38
243.531	79.38
243.765	77.38
243.998	80.38
244.232	79.38
244.465	93.38
244.699	86.38
244.932	80.38
245.166	79.38
245.399	70.38
245.633	62.38
245.866	81.38
246.099	81.38
246.333	86.38
246.566	80.38
246.8	76.38
247.033	67.38
247.266	81.38
247.5	67.38
247.733	79.38
247.966	63.38
248.2	94.38
248.433	71.38
248.666	64.38
248.899	59.38
249.133	89.38
249.366	93.38
249.599	75.38
249.832	88.38
250.066	90.38
250.299	81.38
250.532	76.38
250.765	61.38
250.998	70.38
251.231	81.38
251.465	78.38
251.698	79.38
251.931	82.38
252.164	77.38
252.397	81.38
252.63	71.38
252.863	74.38
253.096	66.38
253.329	85.38
253.562	72.38
253.795	72.38
254.028	86.38
254.261	74.38
254.494	93.38
254.727	85.38
254.96	74.38
255.193	75.38
255.426	81.38
255.659	66.38
255.892	73.38
256.124	61.38
256.357	95.38
256.59	79.38
256.823	75.38
257.056	78.38
257.289	86.38
257.521	80.38
257.754	66.38
257.987	76.38
258.22	72.38
258.452	78.38
258.685	95.38
258.918	86.38
259.151	67.38
259.383	93.38
259.616	85.38
259.849	74.38
260.081	78.38
260.314	76.38
260.547	60.38
260.779	68.38
261.012	56.38
261.244	86.38
261.477	95.38
261.71	86.38
261.942	101.38
262.175	93.38
262.407	72.38
262.64	86.38
262.872	83.38
263.105	73.38
263.337	77.38
263.57	79.38
263.802	79.38
264.035	83.38
264.267	88.38
264.499	79.38
264.732	83.38
264.964	72.38
265.197	80.38
265.429	84.38
265.661	91.38
265.894	83.38
266.126	81.38
266.358	75.38
266.591	75.38
266.823	81.38
267.055	85.38
267.287	69.38
267.52	90.38
267.752	81.38
267.984	79.38
268.216	86.38
268.448	79.38
268.681	86.38
268.913	75.38
269.145	92.38
269.377	66.38
269.609	75.38
269.841	86.38
270.073	80.38
270.306	78.38
270.538	59.38
270.77	73.38
271.002	78.38
271.234	96.38
271.466	78.38
271.698	80.38
271.93	82.38
272.162	78.38
272.394	89.38
272.626	83.38
272.858	70.38
273.09	70.38
273.322	81.38
273.553	79.38
273.785	71.38
274.017	75.38
274.249	87.38
274.481	73.38
274.713	77.38
274.945	93.38
275.176	75.38
275.408	79.38
275.64	90.38
275.872	90.38
276.104	78.38
276.335	93.38
276.567	95.38
276.799	89.38
277.031	94.38
277.262	89.38
277.494	57.38
277.726	74.38
277.957	89.38
278.189	76.38
278.421	91.38
278.652	84.38
278.884	82.38
279.115	82.38
279.347	81.38
279.579	82.38
279.81	87.38
280.042	90.38
280.273	59.38
280.505	78.38
280.736	85.38
280.968	73.38
281.199	77.38
281.431	78.38
281.662	78.38
281.894	101.38
282.125	91.38
282.356	105.38
282.588	126.38
282.819	99.38
283.051	76.38
283.282	77.38
283.513	86.38
283.745	78.38
283.976	80.38
284.207	80.38
284.439	88.38
284.67	81.38
284.901	80.38
285.132	75.38
285.364	80.38
285.595	88.38
285.826	82.38
286.057	80.38
286.288	93.38
286.52	74.38
286.751	90.38
286.982	90.38
287.213	78.38
287.444	92.38
287.675	95.38
287.906	91.38
288.138	83.38
288.369	89.38
288.6	92.38
288.831	81.38
289.062	85.38
289.293	81.38
289.524	90.38
289.755	94.38
289.986	104.38
290.217	77.38
290.448	93.38
290.679	93.38
290.91	88.38
291.141	84.38
291.371	86.38
291.602	93.38
291.833	82.38
292.064	91.38
292.295	80.38
292.526	84.38
292.757	83.38
292.987	90.38
293.218	97.38
293.449	83.38
293.68	79.38
293.91	95.38
294.141	89.38
294.372	87.38
294.603	85.38
294.833	79.38
295.064	90.38
295.295	76.38
295.525	95.38
295.756	97.38
295.987	86.38
296.217	115.38
296.448	102.38
296.679	91.38
296.909	81.38
297.14	64.38
297.37	77.38
297.601	78.38
297.831	83.38
298.062	92.38
298.292	82.38
298.523	89.38
298.753	79.38
298.984	81.38
299.214	78.38
299.445	77.38
299.675	87.38
299.905	80.38
300.136	94.38
300.366	82.38
300.597	67.38
300.827	77.38
301.057	89.38
301.288	84.38
301.518	85.38
301.748	86.38
301.979	85.38
302.209	74.38
302.439	80.38
302.669	78.38
302.9	77.38
303.13	85.38
303.36	82.38
303.59	107.38
303.82	86.38
304.051	93.38
304.281	85.38
304.511	79.38
304.741	88.38
304.971	82.38
305.201	98.38
305.431	83.38
305.661	88.38
305.891	84.38
306.121	107.38
306.352	99.38
306.582	107.38
306.812	97.38
307.042	71.38
307.272	81.38
307.502	87.38
307.731	81.38
307.961	93.38
308.191	91.38
308.421	87.38
308.651	88.38
308.881	89.38
309.111	87.38
309.341	89.38
309.571	100.38
309.8	84.38
310.03	111.38
310.26	93.38
310.49	81.38
310.72	87.38
310.949	82.38
311.179	81.38
311.409	64.38
311.639	78.38
311.868	81.38
312.098	103.38
312.328	102.38
312.557	90.38
312.787	98.38
313.017	95.38
313.246	97.38
313.476	88.38
313.706	82.38
313.935	82.38
314.165	98.38
314.394	96.38
314.624	86.38
314.853	97.38
315.083	88.38
315.312	86.38
315.542	87.38
315.771	111.38
316.001	93.38
316.23	83.38
316.46	85.38
316.689	92.38
316.919	76.38
317.148	83.38
317.377	81.38
317.607	99.38
317.836	89.38
318.065	92.38
318.295	72.38
318.524	89.38
318.753	85.38
318.983	82.38
319.212	92.38
319.441	101.38
319.67	103.38
319.9	77.38
320.129	85.38
320.358	89.38
320.587	93.38
320.816	95.38
321.046	83.38
321.275	97.38
321.504	82.38
321.733	85.38
321.962	72.38
322.191	91.38
322.42	97.38
322.649	91.38
322.878	98.38
323.108	99.38
323.337	113.38
323.566	111.38
323.795	144.38
324.024	183.38
324.253	363.38
324.482	759.38
324.71	1568.38
324.939	2049.38
325.168	734.38
325.397	221.38
325.626	139.38
325.855	119.38
326.084	126.38
326.313	132.38
326.542	141.38
326.77	207.38
326.999	438.38
327.228	904.38
327.457	1597.38
327.686	1250.38
327.914	338.38
328.143	170.38
328.372	126.38
328.6	108.38
328.829	95.38
329.058	119.38
329.287	113.38
329.515	97.38
329.744	86.38
329.972	89.38
330.201	89.38
330.43	104.38
330.658	91.38
330.887	101.38
331.115	107.38
331.344	109.38
331.572	96.38
331.801	93.38
332.03	96.38
332.258	93.38
332.486	92.38
332.715	75.38
332.943	81.38
333.172	93.38
333.4	81.38
333.629	90.38
333.857	104.38
334.085	109.38
334.314	86.38
334.542	84.38
334.771	80.38
334.999	78.38
335.227	78.38
335.455	92.38
335.684	94.38
335.912	93.38
336.14	83.38
336.369	93.38
336.597	97.38
336.825	88.38
337.053	81.38
337.281	99.38
337.51	74.38
337.738	93.38
337.966	89.38
338.194	98.38
338.422	94.38
338.65	86.38
338.878	90.38
339.106	85.38
339.334	99.38
339.562	92.38
339.79	74.38
340.018	87.38
340.246	94.38
340.474	94.38
340.702	95.38
340.93	87.38
341.158	96.38
341.386	86.38
341.614	93.38
341.842	85.38
342.07	89.38
342.298	95.38
342.526	72.38
342.754	89.38
342.981	80.38
343.209	93.38
343.437	94.38
343.665	98.38
343.893	94.38
344.12	88.38
344.348	75.38
344.576	78.38
344.804	99.38
345.031	83.38
345.259	90.38
345.487	83.38
345.714	91.38
345.942	89.38
346.17	79.38
346.397	99.38
346.625	74.38
346.853	91.38
347.08	98.38
347.308	84.38
347.535	85.38
347.763	87.38
347.99	94.38
348.218	85.38
348.445	94.38
348.673	103.38
348.9	109.38
349.128	96.38
349.355	98.38
349.583	80.38
349.81	97.38
350.037	96.38
350.265	95.38
350.492	87.38
350.72	95.38
350.947	103.38
351.174	100.38
351.402	115.38
351.629	92.38
351.856	95.38
352.083	103.38
352.311	105.38
352.538	96.38
352.765	105.38
352.992	111.38
353.22	97.38
353.447	104.38
353.674	92.38
353.901	94.38
354.128	96.38
354.355	86.38
354.583	89.38
354.81	91.38
355.037	103.38
355.264	104.38
355.491	90.38
355.718	106.38
355.945	83.38
356.172	82.38
356.399	103.38
356.626	84.38
356.853	95.38
357.08	86.38
357.307	90.38
357.534	94.38
357.761	98.38
357.988	91.38
358.215	83.38
358.441	89.38
358.668	84.38
358.895	96.38
359.122	86.38
359.349	78.38
359.576	90.38
359.802	90.38
360.029	102.38
360.256	83.38
360.483	84.38
360.709	97.38
360.936	94.38
361.163	75.38
361.39	94.38
361.616	80.38
361.843	73.38
362.07	79.38
362.296	95.38
362.523	86.38
362.749	80.38
362.976	80.38
363.203	96.38
363.429	96.38
363.656	77.38
363.882	82.38
364.109	92.38
364.335	73.38
364.562	90.38
364.788	94.38
365.015	101.38
365.241	109.38
365.468	102.38
365.694	96.38
365.92	80.38
366.147	95.38
366.373	85.38
366.599	73.38
366.826	74.38
367.052	81.38
367.278	95.38
367.505	80.38
367.731	90.38
367.957	80.38
368.184	94.38
368.41	79.38
368.636	100.38
368.862	112.38
369.089	119.38
369.315	79.38
369.541	78.38
369.767	78.38
369.993	97.38
370.219	74.38
370.445	90.38
370.672	82.38
370.898	92.38
371.124	78.38
371.35	81.38
371.576	92.38
371.802	85.38
372.028	79.38
372.254	86.38
372.48	92.38
372.706	88.38
372.932	88.38
373.158	76.38
373.384	97.38
373.61	88.38
373.835	95.38
374.061	81.38
374.287	99.38
374.513	81.38
374.739	88.38
374.965	91.38
375.191	74.38
375.416	83.38
375.642	80.38
375.868	89.38
376.094	83.38
376.319	80.38
376.545	78.38
376.771	75.38
376.997	73.38
377.222	95.38
377.448	83.38
377.674	86.38
377.899	93.38
378.125	97.38
378.35	83.38
378.576	95.38
378.802	94.38
379.027	96.38
379.253	96.38
379.478	85.38
379.704	76.38
379.929	83.38
380.155	89.38
380.38	92.38
380.606	96.38
380.831	89.38
381.057	100.38
381.282	102.38
381.507	89.38
381.733	100.38
381.958	99.38
382.184	92.38
382.409	87.38
382.634	97.38
382.86	108.38
383.085	119.38
383.31	91.38
383.535	91.38
383.761	96.38
383.986	98.38
384.211	92.38
384.436	82.38
384.662	78.38
384.887	99.38
385.112	107.38
385.337	103.38
385.562	114.38
385.787	112.38
386.013	104.38
386.238	109.38
386.463	91.38
386.688	118.38
386.913	106.38
387.138	95.38
387.363	83.38
387.588	93.38
387.813	85.38
388.038	109.38
388.263	102.38
388.488	106.38
388.713	101.38
388.938	84.38
389.163	104.38
389.387	87.38
389.612	87.38
389.837	85.38
390.062	84.38
390.287	83.38
390.512	95.38
390.736	89.38
390.961	93.38
391.186	82.38
391.411	93.38
391.636	88.38
391.86	92.38
392.085	89.38
392.31	94.38
392.534	77.38
392.759	90.38
392.984	86.38
393.208	85.38
393.433	78.38
393.658	93.38
393.882	68.38
394.107	95.38
394.331	89.38
394.556	83.38
394.78	66.38
395.005	75.38
395.229	84.38
395.454	90.38
395.678	87.38
395.903	73.38
396.127	93.38
396.352	87.38
396.576	78.38
396.801	75.38
397.025	96.38
397.249	81.38
397.474	91.38
397.698	73.38
397.922	83.38
398.147	77.38
398.371	86.38
398.595	82.38
398.82	73.38
399.044	83.38
399.268	82.38
399.492	69.38
399.717	97.38
399.941	89.38
400.165	80.38
400.389	78.38
400.613	94.38
400.837	85.38
401.062	78.38
401.286	101.38
401.51	85.38
401.734	92.38
401.958	104.38
402.182	117.38
402.406	137.38
402.63	96.38
402.854	96.38
403.078	94.38
403.302	82.38
403.526	98.38
403.75	90.38
403.974	84.38
404.198	96.38
404.422	90.38
404.645	90.38
404.869	76.38
405.093	98.38
405.317	88.38
405.541	79.38
405.765	91.38
405.988	94.38
406.212	151.38
406.436	189.38
406.66	133.38
406.883	86.38
407.107	81.38
407.331	89.38
407.555	84.38
407.778	88.38
408.002	87.38
408.226	92.38
408.449	75.38
408.673	76.38
408.896	91.38
409.12	100.38
409.344	75.38
409.567	81.38
409.791	89.38
410.014	86.38
410.238	86.38
410.461	98.38
410.685	87.38
410.908	83.38
411.132	81.38
411.355	92.38
411.578	83.38
411.802	87.38
412.025	71.38
412.249	96.38
412.472	100.38
412.695	81.38
412.919	84.38
413.142	89.38
413.365	81.38
413.589	93.38
413.812	93.38
414.035	78.38
414.258	81.38
414.482	70.38
414.705	88.38
414.928	90.38
415.151	83.38
415.374	83.38
415.597	95.38
415.821	85.38
416.044	80.38
416.267	88.38
416.49	84.38
416.713	76.38
416.936	74.38
417.159	71.38
417.382	94.38
417.605	96.38
417.828	91.38
418.051	87.38
418.274	80.38
418.497	85.38
418.72	82.38
418.943	91.38
419.166	84.38
419.389	72.38
419.611	80.38
419.834	81.38
420.057	83.38
420.28	82.38
420.503	83.38
420.726	92.38
420.948	79.38
421.171	84.38
421.394	98.38
421.617	79.38
421.839	92.38
422.062	94.38
422.285	77.38
422.507	83.38
422.73	110.38
422.953	82.38
423.175	84.38
423.398	81.38
423.621	82.38
423.843	86.38
424.066	80.38
424.288	71.38
424.511	93.38
424.733	87.38
424.956	99.38
425.178	82.38
425.401	84.38
425.623	85.38
425.846	83.38
426.068	73.38
426.291	65.38
426.513	63.38
426.735	83.38
426.958	93.38
427.18	98.38
427.402	113.38
427.625	127.38
427.847	120.38
428.069	92.38
428.292	81.38
428.514	84.38
428.736	82.38
428.958	75.38
429.181	78.38
429.403	70.38
429.625	74.38
429.847	83.38
430.069	87.38
430.292	88.38
430.514	80.38
430.736	83.38
430.958	90.38
431.18	62.38
431.402	82.38
431.624	79.38
431.846	72.38
432.068	75.38
432.29	77.38
432.512	78.38
432.734	81.38
432.956	83.38
433.178	84.38
433.4	64.38
433.622	83.38
433.844	82.38
434.066	71.38
434.287	78.38
434.509	81.38
434.731	86.38
434.953	83.38
435.175	80.38
435.397	81.38
435.618	94.38
435.84	94.38
436.062	117.38
436.284	105.38
436.505	99.38
436.727	96.38
436.949	92.38
437.17	81.38
437.392	88.38
437.614	83.38
437.835	85.38
438.057	99.38
438.278	95.38
438.5	95.38
438.721	115.38
438.943	90.38
439.165	86.38
439.386	68.38
439.608	77.38
439.829	87.38
440.05	106.38
440.272	131.38
440.493	89.38
440.715	92.38
440.936	91.38
441.158	80.38
441.379	83.38
441.6	96.38
441.822	80.38
442.043	83.38
442.264	86.38
442.486	93.38
442.707	87.38
442.928	99.38
443.149	103.38
443.371	119.38
443.592	90.38
443.813	93.38
444.034	98.38
444.255	74.38
444.476	61.38
444.698	83.38
444.919	83.38
445.14	112.38
445.361	99.38
445.582	108.38
445.803	99.38
446.024	106.38
446.245	107.38
446.466	93.38
446.687	73.38
446.908	69.38
447.129	90.38
447.35	81.38
447.571	83.38
447.792	92.38
448.013	94.38
448.234	96.38
448.455	102.38
448.675	106.38
448.896	115.38
449.117	73.38
449.338	89.38
449.559	112.38
449.779	106.38
450	95.38
450.221	89.38
450.442	91.38
450.662	76.38
450.883	97.38
451.104	119.38
451.324	91.38
451.545	74.38
451.766	85.38
451.986	85.38
452.207	82.38
452.428	89.38
452.648	92.38
452.869	95.38
453.089	95.38
453.31	102.38
453.53	77.38
453.751	89.38
453.971	85.38
454.192	99.38
454.412	98.38
454.633	88.38
454.853	81.38
455.073	86.38
455.294	82.38
455.514	94.38
455.734	93.38
455.955	92.38
456.175	82.38
456.395	82.38
456.616	72.38
456.836	75.38
457.056	69.38
457.276	78.38
457.497	81.38
457.717	83.38
457.937	91.38
458.157	88.38
458.377	74.38
458.598	92.38
458.818	133.38
459.038	114.38
459.258	84.38
459.478	72.38
459.698	67.38
459.918	68.38
460.138	78.38
460.358	96.38
460.578	74.38
460.798	90.38
461.018	83.38
461.238	98.38
461.458	85.38
461.678	67.38
461.898	82.38
462.118	90.38
462.338	75.38
462.558	102.38
462.777	77.38
462.997	78.38
463.217	78.38
463.437	84.38
463.657	72.38
463.876	81.38
464.096	81.38
464.316	77.38
464.536	83.38
464.755	96.38
464.975	96.38
465.195	128.38
465.414	137.38
465.634	86.38
465.854	83.38
466.073	80.38
466.293	70.38
466.512	77.38
466.732	78.38
466.951	75.38
467.171	90.38
467.391	95.38
467.61	98.38
467.829	81.38
468.049	93.38
468.268	71.38
468.488	86.38
468.707	80.38
468.927	82.38
469.146	71.38
469.365	75.38
469.585	86.38
469.804	75.38
470.023	81.38
470.243	83.38
470.462	87.38
470.681	90.38
470.901	98.38
471.12	83.38
471.339	84.38
471.558	92.38
471.777	79.38
471.997	78.38
472.216	83.38
472.435	83.38
472.654	80.38
472.873	79.38
473.092	67.38
473.311	80.38
473.53	71.38
473.749	77.38
473.968	88.38
474.187	87.38
474.406	87.38
474.625	76.38
474.844	69.38
475.063	70.38
475.282	77.38
475.501	80.38
475.72	94.38
475.939	81.38
476.158	72.38
476.377	77.38
476.596	88.38
476.814	86.38
477.033	78.38
477.252	93.38
477.471	75.38
477.69	70.38
477.908	86.38
478.127	88.38
478.346	71.38
478.564	83.38
478.783	85.38
479.002	85.38
479.22	96.38
479.439	87.38
479.658	87.38
479.876	81.38
480.095	92.38
480.313	94.38
480.532	80.38
480.751	91.38
480.969	85.38
481.188	92.38
481.406	73.38
481.624	81.38
481.843	92.38
482.061	91.38
482.28	87.38
482.498	99.38
482.717	92.38
482.935	79.38
483.153	82.38
483.372	71.38
483.59	81.38
483.808	81.38
484.027	86.38
484.245	94.38
484.463	93.38
484.681	83.38
484.9	83.38
485.118	83.38
485.336	83.38
485.554	87.38
485.772	92.38
485.99	90.38
486.209	84.38
486.427	88.38
486.645	100.38
486.863	109.38
487.081	88.38
487.299	109.38
487.517	75.38
487.735	87.38
487.953	91.38
488.171	91.38
488.389	84.38
488.607	82.38
488.825	86.38
489.043	79.38
489.261	86.38
489.479	86.38
489.696	79.38
489.914	83.38
490.132	98.38
490.35	93.38
490.568	87.38
490.786	92.38
491.003	77.38
491.221	75.38
491.439	93.38
491.657	101.38
491.874	102.38
492.092	93.38
492.31	87.38
492.527	76.38
492.745	83.38
492.963	86.38
493.18	83.38
493.398	77.38
493.615	101.38
493.833	87.38
494.05	84.38
494.268	85.38
494.485	82.38
494.703	92.38
494.92	94.38
495.138	87.38
495.355	83.38
495.573	95.38
495.79	78.38
496.008	91.38
496.225	87.38
496.442	87.38
496.66	88.38
496.877	75.38
497.094	83.38
497.312	67.38
497.529	83.38
497.746	89.38
497.963	95.38
498.181	83.38
498.398	82.38
498.615	93.38
498.832	88.38
499.049	101.38
499.267	91.38
499.484	81.38
499.701	86.38
499.918	85.38
500.135	75.38
500.352	81.38
500.569	74.38
500.786	81.38
501.003	73.38
501.22	93.38
501.437	80.38
501.654	98.38
501.871	117.38
502.088	93.38
502.305	84.38
502.522	87.38
502.739	79.38
502.956	84.38
503.172	93.38
503.389	102.38
503.606	103.38
503.823	87.38
504.04	87.38
504.256	85.38
504.473	83.38
504.69	83.38
504.907	98.38
505.123	86.38
505.34	86.38
505.557	78.38
505.773	75.38
505.99	98.38
506.207	79.38
506.423	106.38
506.64	96.38
506.856	86.38
507.073	77.38
507.289	101.38
507.506	81.38
507.722	90.38
507.939	89.38
508.155	80.38
508.372	89.38
508.588	94.38
508.805	86.38
509.021	98.38
509.238	99.38
509.454	91.38
509.67	93.38
509.887	93.38
510.103	121.38
510.319	203.38
510.536	664.38
510.752	2032.38
510.968	564.38
511.184	137.38
511.401	85.38
511.617	90.38
511.833	101.38
512.049	87.38
512.265	96.38
512.481	81.38
512.698	94.38
512.914	89.38
513.13	87.38
513.346	96.38
513.562	107.38
513.778	91.38
513.994	85.38
514.21	112.38
514.426	109.38
514.642	116.38
514.858	121.38
515.074	149.38
515.29	376.38
515.506	1255.38
515.721	478.38
515.937	110.38
516.153	105.38
516.369	95.38
516.585	80.38
516.801	85.38
517.016	79.38
517.232	103.38
517.448	92.38
517.664	99.38
517.879	96.38
