Data from Uncirc_2006_H10_HRD10591_00021.txt Node
Date: Wed Jan 03 10:24:59 EST 2024
User: Yrep
Spectrometer: HR+D1059
Trigger mode: 1
Integration Time (sec): 1.000000E-1
Scans to average: 1
Electric dark correction enabled: true
Nonlinearity correction enabled: false
Boxcar width: 0
XAxis mode: Wavelengths
Number of Pixels in Spectrum: 2048
>>>>>Begin Spectral Data<<<<<
223.165	-20.31
223.4	-20.31
223.635	-20.31
223.869	-19.31
224.104	-13.31
224.338	-22.31
224.573	-31.31
224.808	-6.31
225.042	-11.31
225.277	0.69
225.511	-5.31
225.746	8.69
225.98	7.69
226.215	1.69
226.449	23.69
226.683	29.69
226.918	38.69
227.152	18.69
227.387	37.69
227.621	31.69
227.856	39.69
228.09	43.69
228.324	51.69
228.559	40.69
228.793	61.69
229.027	66.69
229.262	64.69
229.496	84.69
229.73	81.69
229.964	89.69
230.199	82.69
230.433	70.69
230.667	77.69
230.901	75.69
231.136	82.69
231.37	78.69
231.604	71.69
231.838	66.69
232.072	85.69
232.306	74.69
232.541	78.69
232.775	86.69
233.009	72.69
233.243	86.69
233.477	88.69
233.711	80.69
233.945	77.69
234.179	92.69
234.413	86.69
234.647	83.69
234.881	76.69
235.115	74.69
235.349	75.69
235.583	77.69
235.817	91.69
236.051	73.69
236.285	69.69
236.519	74.69
236.753	66.69
236.987	72.69
237.221	78.69
237.455	84.69
237.689	69.69
237.922	80.69
238.156	71.69
238.39	80.69
238.624	77.69
238.858	86.69
239.091	66.69
239.325	83.69
239.559	87.69
239.793	61.69
240.027	69.69
240.26	80.69
240.494	73.69
240.728	84.69
240.961	79.69
241.195	76.69
241.429	71.69
241.662	74.69
241.896	66.69
242.13	67.69
242.363	76.69
242.597	72.69
242.83	68.69
243.064	76.69
243.298	80.69
243.531	80.69
243.765	81.69
243.998	77.69
244.232	62.69
244.465	93.69
244.699	86.69
244.932	87.69
245.166	77.69
245.399	77.69
245.633	75.69
245.866	85.69
246.099	76.69
246.333	70.69
246.566	57.69
246.8	76.69
247.033	76.69
247.266	74.69
247.5	83.69
247.733	69.69
247.966	81.69
248.2	86.69
248.433	59.69
248.666	83.69
248.899	74.69
249.133	90.69
249.366	88.69
249.599	95.69
249.832	82.69
250.066	72.69
250.299	73.69
250.532	79.69
250.765	72.69
250.998	104.69
251.231	89.69
251.465	83.69
251.698	84.69
251.931	67.69
252.164	80.69
252.397	76.69
252.63	89.69
252.863	85.69
253.096	74.69
253.329	74.69
253.562	92.69
253.795	85.69
254.028	71.69
254.261	74.69
254.494	84.69
254.727	85.69
254.96	74.69
255.193	98.69
255.426	78.69
255.659	79.69
255.892	67.69
256.124	84.69
256.357	75.69
256.59	80.69
256.823	73.69
257.056	81.69
257.289	67.69
257.521	92.69
257.754	77.69
257.987	67.69
258.22	85.69
258.452	84.69
258.685	82.69
258.918	84.69
259.151	72.69
259.383	70.69
259.616	69.69
259.849	81.69
260.081	93.69
260.314	78.69
260.547	78.69
260.779	71.69
261.012	89.69
261.244	72.69
261.477	94.69
261.71	96.69
261.942	101.69
262.175	98.69
262.407	100.69
262.64	83.69
262.872	77.69
263.105	90.69
263.337	84.69
263.57	82.69
263.802	98.69
264.035	76.69
264.267	81.69
264.499	86.69
264.732	84.69
264.964	76.69
265.197	85.69
265.429	93.69
265.661	81.69
265.894	73.69
266.126	88.69
266.358	91.69
266.591	75.69
266.823	84.69
267.055	68.69
267.287	70.69
267.52	94.69
267.752	94.69
267.984	88.69
268.216	78.69
268.448	73.69
268.681	88.69
268.913	85.69
269.145	88.69
269.377	101.69
269.609	89.69
269.841	75.69
270.073	72.69
270.306	78.69
270.538	86.69
270.77	84.69
271.002	87.69
271.234	86.69
271.466	91.69
271.698	88.69
271.93	91.69
272.162	81.69
272.394	96.69
272.626	85.69
272.858	80.69
273.09	84.69
273.322	79.69
273.553	92.69
273.785	76.69
274.017	84.69
274.249	86.69
274.481	98.69
274.713	100.69
274.945	83.69
275.176	83.69
275.408	89.69
275.64	71.69
275.872	86.69
276.104	91.69
276.335	93.69
276.567	98.69
276.799	108.69
277.031	99.69
277.262	89.69
277.494	75.69
277.726	91.69
277.957	84.69
278.189	99.69
278.421	88.69
278.652	99.69
278.884	75.69
279.115	91.69
279.347	73.69
279.579	76.69
279.81	85.69
280.042	77.69
280.273	78.69
280.505	85.69
280.736	86.69
280.968	84.69
281.199	96.69
281.431	86.69
281.662	86.69
281.894	83.69
282.125	97.69
282.356	99.69
282.588	123.69
282.819	105.69
283.051	83.69
283.282	80.69
283.513	78.69
283.745	93.69
283.976	79.69
284.207	68.69
284.439	86.69
284.67	83.69
284.901	90.69
285.132	82.69
285.364	92.69
285.595	90.69
285.826	94.69
286.057	102.69
286.288	102.69
286.52	94.69
286.751	86.69
286.982	78.69
287.213	83.69
287.444	76.69
287.675	81.69
287.906	84.69
288.138	85.69
288.369	104.69
288.6	78.69
288.831	90.69
289.062	85.69
289.293	93.69
289.524	90.69
289.755	71.69
289.986	96.69
290.217	98.69
290.448	66.69
290.679	97.69
290.91	84.69
291.141	92.69
291.371	93.69
291.602	104.69
291.833	80.69
292.064	95.69
292.295	91.69
292.526	99.69
292.757	75.69
292.987	82.69
293.218	86.69
293.449	91.69
293.68	80.69
293.91	93.69
294.141	108.69
294.372	83.69
294.603	76.69
294.833	99.69
295.064	94.69
295.295	91.69
295.525	85.69
295.756	100.69
295.987	110.69
296.217	143.69
296.448	123.69
296.679	96.69
296.909	90.69
297.14	85.69
297.37	80.69
297.601	90.69
297.831	84.69
298.062	84.69
298.292	104.69
298.523	89.69
298.753	87.69
298.984	98.69
299.214	97.69
299.445	79.69
299.675	87.69
299.905	95.69
300.136	85.69
300.366	80.69
300.597	97.69
300.827	84.69
301.057	99.69
301.288	102.69
301.518	85.69
301.748	85.69
301.979	96.69
302.209	103.69
302.439	82.69
302.669	81.69
302.9	97.69
303.13	85.69
303.36	90.69
303.59	93.69
303.82	94.69
304.051	91.69
304.281	97.69
304.511	86.69
304.741	88.69
304.971	80.69
305.201	69.69
305.431	76.69
305.661	78.69
305.891	86.69
306.121	91.69
306.352	107.69
306.582	110.69
306.812	91.69
307.042	92.69
307.272	75.69
307.502	85.69
307.731	92.69
307.961	74.69
308.191	84.69
308.421	79.69
308.651	87.69
308.881	84.69
309.111	88.69
309.341	98.69
309.571	91.69
309.8	95.69
310.03	88.69
310.26	86.69
310.49	99.69
310.72	94.69
310.949	110.69
311.179	97.69
311.409	91.69
311.639	76.69
311.868	90.69
312.098	96.69
312.328	99.69
312.557	109.69
312.787	102.69
313.017	90.69
313.246	96.69
313.476	87.69
313.706	79.69
313.935	85.69
314.165	92.69
314.394	110.69
314.624	94.69
314.853	104.69
315.083	105.69
315.312	88.69
315.542	94.69
315.771	96.69
316.001	86.69
316.23	88.69
316.46	101.69
316.689	89.69
316.919	91.69
317.148	93.69
317.377	109.69
317.607	108.69
317.836	83.69
318.065	83.69
318.295	83.69
318.524	73.69
318.753	92.69
318.983	97.69
319.212	98.69
319.441	114.69
319.67	109.69
319.9	100.69
320.129	99.69
320.358	86.69
320.587	87.69
320.816	92.69
321.046	88.69
321.275	98.69
321.504	85.69
321.733	100.69
321.962	104.69
322.191	90.69
322.42	107.69
322.649	125.69
322.878	97.69
323.108	115.69
323.337	124.69
323.566	119.69
323.795	154.69
324.024	200.69
324.253	360.69
324.482	746.69
324.71	1548.69
324.939	2075.69
325.168	757.69
325.397	235.69
325.626	136.69
325.855	124.69
326.084	136.69
326.313	134.69
326.542	144.69
326.77	221.69
326.999	424.69
327.228	885.69
327.457	1616.69
327.686	1283.69
327.914	358.69
328.143	175.69
328.372	140.69
328.6	128.69
328.829	97.69
329.058	128.69
329.287	114.69
329.515	107.69
329.744	101.69
329.972	100.69
330.201	102.69
330.43	85.69
330.658	114.69
330.887	137.69
331.115	115.69
331.344	96.69
331.572	96.69
331.801	115.69
332.03	93.69
332.258	95.69
332.486	97.69
332.715	103.69
332.943	102.69
333.172	89.69
333.4	84.69
333.629	108.69
333.857	101.69
334.085	112.69
334.314	81.69
334.542	109.69
334.771	97.69
334.999	93.69
335.227	99.69
335.455	94.69
335.684	86.69
335.912	78.69
336.14	95.69
336.369	96.69
336.597	94.69
336.825	109.69
337.053	107.69
337.281	102.69
337.51	95.69
337.738	86.69
337.966	96.69
338.194	102.69
338.422	87.69
338.65	106.69
338.878	103.69
339.106	97.69
339.334	94.69
339.562	91.69
339.79	91.69
340.018	84.69
340.246	81.69
340.474	105.69
340.702	90.69
340.93	97.69
341.158	90.69
341.386	100.69
341.614	92.69
341.842	99.69
342.07	86.69
342.298	91.69
342.526	84.69
342.754	86.69
342.981	83.69
343.209	104.69
343.437	110.69
343.665	98.69
343.893	80.69
344.12	92.69
344.348	75.69
344.576	97.69
344.804	82.69
345.031	86.69
345.259	102.69
345.487	80.69
345.714	79.69
345.942	77.69
346.17	86.69
346.397	86.69
346.625	94.69
346.853	104.69
347.08	87.69
347.308	89.69
347.535	86.69
347.763	90.69
347.99	86.69
348.218	101.69
348.445	83.69
348.673	85.69
348.9	84.69
349.128	92.69
349.355	95.69
349.583	92.69
349.81	101.69
350.037	105.69
350.265	90.69
350.492	90.69
350.72	98.69
350.947	102.69
351.174	109.69
351.402	109.69
351.629	89.69
351.856	97.69
352.083	99.69
352.311	115.69
352.538	101.69
352.765	105.69
352.992	116.69
353.22	100.69
353.447	100.69
353.674	90.69
353.901	95.69
354.128	90.69
354.355	99.69
354.583	101.69
354.81	98.69
355.037	92.69
355.264	90.69
355.491	89.69
355.718	74.69
355.945	91.69
356.172	94.69
356.399	86.69
356.626	105.69
356.853	85.69
357.08	95.69
357.307	94.69
357.534	98.69
357.761	99.69
357.988	100.69
358.215	90.69
358.441	101.69
358.668	78.69
358.895	84.69
359.122	90.69
359.349	106.69
359.576	97.69
359.802	99.69
360.029	106.69
360.256	93.69
360.483	93.69
360.709	92.69
360.936	96.69
361.163	91.69
361.39	89.69
361.616	99.69
361.843	79.69
362.07	93.69
362.296	86.69
362.523	97.69
362.749	92.69
362.976	87.69
363.203	94.69
363.429	99.69
363.656	90.69
363.882	94.69
364.109	79.69
364.335	107.69
364.562	97.69
364.788	92.69
365.015	93.69
365.241	90.69
365.468	103.69
365.694	100.69
365.92	101.69
366.147	97.69
366.373	102.69
366.599	79.69
366.826	94.69
367.052	85.69
367.278	83.69
367.505	94.69
367.731	97.69
367.957	83.69
368.184	89.69
368.41	96.69
368.636	100.69
368.862	114.69
369.089	101.69
369.315	90.69
369.541	90.69
369.767	80.69
369.993	88.69
370.219	80.69
370.445	92.69
370.672	108.69
370.898	97.69
371.124	101.69
371.35	99.69
371.576	75.69
371.802	92.69
372.028	93.69
372.254	85.69
372.48	79.69
372.706	77.69
372.932	90.69
373.158	87.69
373.384	99.69
373.61	90.69
373.835	85.69
374.061	86.69
374.287	89.69
374.513	90.69
374.739	100.69
374.965	96.69
375.191	74.69
375.416	85.69
375.642	76.69
375.868	99.69
376.094	101.69
376.319	105.69
376.545	72.69
376.771	92.69
376.997	86.69
377.222	87.69
377.448	85.69
377.674	98.69
377.899	79.69
378.125	90.69
378.35	89.69
378.576	110.69
378.802	85.69
379.027	106.69
379.253	95.69
379.478	100.69
379.704	82.69
379.929	103.69
380.155	109.69
380.38	97.69
380.606	91.69
380.831	86.69
381.057	112.69
381.282	85.69
381.507	86.69
381.733	100.69
381.958	105.69
382.184	104.69
382.409	106.69
382.634	109.69
382.86	99.69
383.085	89.69
383.31	104.69
383.535	98.69
383.761	104.69
383.986	103.69
384.211	80.69
384.436	101.69
384.662	106.69
384.887	99.69
385.112	95.69
385.337	93.69
385.562	98.69
385.787	110.69
386.013	105.69
386.238	117.69
386.463	101.69
386.688	100.69
386.913	106.69
387.138	121.69
387.363	94.69
387.588	103.69
387.813	97.69
388.038	107.69
388.263	117.69
388.488	112.69
388.713	94.69
388.938	78.69
389.163	113.69
389.387	103.69
389.612	78.69
389.837	91.69
390.062	84.69
390.287	89.69
390.512	96.69
390.736	91.69
390.961	84.69
391.186	89.69
391.411	101.69
391.636	87.69
391.86	81.69
392.085	92.69
392.31	75.69
392.534	96.69
392.759	77.69
392.984	92.69
393.208	86.69
393.433	100.69
393.658	96.69
393.882	84.69
394.107	107.69
394.331	93.69
394.556	96.69
394.78	80.69
395.005	84.69
395.229	93.69
395.454	83.69
395.678	82.69
395.903	85.69
396.127	94.69
396.352	95.69
396.576	90.69
396.801	81.69
397.025	94.69
397.249	99.69
397.474	85.69
397.698	95.69
397.922	99.69
398.147	75.69
398.371	76.69
398.595	86.69
398.82	79.69
399.044	73.69
399.268	92.69
399.492	90.69
399.717	82.69
399.941	82.69
400.165	111.69
400.389	90.69
400.613	69.69
400.837	95.69
401.062	85.69
401.286	88.69
401.51	86.69
401.734	95.69
401.958	108.69
402.182	125.69
402.406	152.69
402.63	104.69
402.854	97.69
403.078	93.69
403.302	90.69
403.526	86.69
403.75	83.69
403.974	71.69
404.198	78.69
404.422	81.69
404.645	80.69
404.869	89.69
405.093	95.69
405.317	96.69
405.541	100.69
405.765	100.69
405.988	120.69
406.212	159.69
406.436	217.69
406.66	130.69
406.883	97.69
407.107	93.69
407.331	113.69
407.555	91.69
407.778	89.69
408.002	86.69
408.226	80.69
408.449	80.69
408.673	92.69
408.896	92.69
409.12	80.69
409.344	80.69
409.567	91.69
409.791	90.69
410.014	95.69
410.238	74.69
410.461	86.69
410.685	92.69
410.908	104.69
411.132	105.69
411.355	98.69
411.578	88.69
411.802	74.69
412.025	92.69
412.249	101.69
412.472	83.69
412.695	85.69
412.919	93.69
413.142	104.69
413.365	92.69
413.589	84.69
413.812	103.69
414.035	95.69
414.258	77.69
414.482	83.69
414.705	101.69
414.928	96.69
415.151	104.69
415.374	77.69
415.597	90.69
415.821	90.69
416.044	76.69
416.267	85.69
416.49	87.69
416.713	92.69
416.936	85.69
417.159	98.69
417.382	89.69
417.605	97.69
417.828	79.69
418.051	105.69
418.274	93.69
418.497	90.69
418.72	77.69
418.943	108.69
419.166	88.69
419.389	96.69
419.611	85.69
419.834	83.69
420.057	91.69
420.28	84.69
420.503	90.69
420.726	93.69
420.948	77.69
421.171	86.69
421.394	99.69
421.617	97.69
421.839	89.69
422.062	73.69
422.285	97.69
422.507	96.69
422.73	99.69
422.953	83.69
423.175	76.69
423.398	81.69
423.621	92.69
423.843	83.69
424.066	69.69
424.288	85.69
424.511	95.69
424.733	99.69
424.956	98.69
425.178	109.69
425.401	89.69
425.623	91.69
425.846	84.69
426.068	96.69
426.291	85.69
426.513	85.69
426.735	90.69
426.958	94.69
427.18	88.69
427.402	104.69
427.625	140.69
427.847	113.69
428.069	91.69
428.292	78.69
428.514	93.69
428.736	80.69
428.958	89.69
429.181	75.69
429.403	94.69
429.625	76.69
429.847	85.69
430.069	106.69
430.292	74.69
430.514	75.69
430.736	90.69
430.958	94.69
431.18	94.69
431.402	85.69
431.624	84.69
431.846	93.69
432.068	92.69
432.29	79.69
432.512	73.69
432.734	80.69
432.956	85.69
433.178	81.69
433.4	99.69
433.622	78.69
433.844	99.69
434.066	113.69
434.287	108.69
434.509	91.69
434.731	87.69
434.953	85.69
435.175	85.69
435.397	93.69
435.618	84.69
435.84	86.69
436.062	113.69
436.284	105.69
436.505	103.69
436.727	92.69
436.949	90.69
437.17	89.69
437.392	85.69
437.614	88.69
437.835	97.69
438.057	124.69
438.278	101.69
438.5	101.69
438.721	102.69
438.943	81.69
439.165	80.69
439.386	85.69
439.608	86.69
439.829	109.69
440.05	108.69
440.272	130.69
440.493	83.69
440.715	84.69
440.936	95.69
441.158	85.69
441.379	92.69
441.6	85.69
441.822	94.69
442.043	96.69
442.264	97.69
442.486	98.69
442.707	105.69
442.928	107.69
443.149	108.69
443.371	113.69
443.592	101.69
443.813	102.69
444.034	91.69
444.255	83.69
444.476	90.69
444.698	78.69
444.919	84.69
445.14	133.69
445.361	112.69
445.582	100.69
445.803	116.69
446.024	122.69
446.245	124.69
446.466	104.69
446.687	91.69
446.908	83.69
447.129	90.69
447.35	82.69
447.571	90.69
447.792	81.69
448.013	96.69
448.234	106.69
448.455	94.69
448.675	91.69
448.896	108.69
449.117	82.69
449.338	106.69
449.559	117.69
449.779	104.69
450	100.69
450.221	74.69
450.442	86.69
450.662	91.69
450.883	100.69
451.104	92.69
451.324	98.69
451.545	96.69
451.766	72.69
451.986	93.69
452.207	80.69
452.428	86.69
452.648	75.69
452.869	91.69
453.089	112.69
453.31	96.69
453.53	91.69
453.751	80.69
453.971	94.69
454.192	105.69
454.412	89.69
454.633	72.69
454.853	82.69
455.073	80.69
455.294	92.69
455.514	101.69
455.734	90.69
455.955	77.69
456.175	85.69
456.395	79.69
456.616	85.69
456.836	86.69
457.056	82.69
457.276	94.69
457.497	81.69
457.717	77.69
457.937	93.69
458.157	102.69
458.377	84.69
458.598	100.69
458.818	128.69
459.038	150.69
459.258	110.69
459.478	92.69
459.698	81.69
459.918	89.69
460.138	82.69
460.358	94.69
460.578	92.69
460.798	85.69
461.018	90.69
461.238	88.69
461.458	78.69
461.678	75.69
461.898	88.69
462.118	81.69
462.338	82.69
462.558	90.69
462.777	85.69
462.997	96.69
463.217	80.69
463.437	86.69
463.657	73.69
463.876	89.69
464.096	87.69
464.316	99.69
464.536	105.69
464.755	96.69
464.975	92.69
465.195	156.69
465.414	154.69
465.634	84.69
465.854	103.69
466.073	97.69
466.293	101.69
466.512	92.69
466.732	73.69
466.951	85.69
467.171	91.69
467.391	86.69
467.61	88.69
467.829	72.69
468.049	97.69
468.268	86.69
468.488	82.69
468.707	87.69
468.927	80.69
469.146	75.69
469.365	87.69
469.585	95.69
469.804	95.69
470.023	104.69
470.243	93.69
470.462	92.69
470.681	111.69
470.901	88.69
471.12	84.69
471.339	82.69
471.558	100.69
471.777	99.69
471.997	98.69
472.216	95.69
472.435	79.69
472.654	81.69
472.873	84.69
473.092	72.69
473.311	72.69
473.53	79.69
473.749	86.69
473.968	95.69
474.187	108.69
474.406	85.69
474.625	80.69
474.844	95.69
475.063	76.69
475.282	84.69
475.501	86.69
475.72	74.69
475.939	88.69
476.158	84.69
476.377	93.69
476.596	89.69
476.814	95.69
477.033	85.69
477.252	92.69
477.471	82.69
477.69	86.69
477.908	84.69
478.127	93.69
478.346	88.69
478.564	92.69
478.783	86.69
479.002	96.69
479.22	88.69
479.439	97.69
479.658	86.69
479.876	82.69
480.095	81.69
480.313	89.69
480.532	92.69
480.751	83.69
480.969	83.69
481.188	96.69
481.406	95.69
481.624	85.69
481.843	78.69
482.061	91.69
482.28	96.69
482.498	87.69
482.717	84.69
482.935	85.69
483.153	85.69
483.372	85.69
483.59	92.69
483.808	80.69
484.027	84.69
484.245	77.69
484.463	95.69
484.681	94.69
484.9	91.69
485.118	98.69
485.336	96.69
485.554	74.69
485.772	101.69
485.99	101.69
486.209	109.69
486.427	100.69
486.645	92.69
486.863	103.69
487.081	97.69
487.299	90.69
487.517	107.69
487.735	91.69
487.953	97.69
488.171	92.69
488.389	91.69
488.607	103.69
488.825	77.69
489.043	93.69
489.261	92.69
489.479	91.69
489.696	84.69
489.914	85.69
490.132	90.69
490.35	101.69
490.568	83.69
490.786	91.69
491.003	99.69
491.221	78.69
491.439	83.69
491.657	91.69
491.874	98.69
492.092	102.69
492.31	95.69
492.527	83.69
492.745	86.69
492.963	90.69
493.18	99.69
493.398	97.69
493.615	98.69
493.833	97.69
494.05	84.69
494.268	83.69
494.485	97.69
494.703	90.69
494.92	109.69
495.138	93.69
495.355	104.69
495.573	88.69
495.79	100.69
496.008	85.69
496.225	86.69
496.442	78.69
496.66	74.69
496.877	92.69
497.094	100.69
497.312	83.69
497.529	74.69
497.746	95.69
497.963	76.69
498.181	80.69
498.398	95.69
498.615	103.69
498.832	84.69
499.049	90.69
499.267	84.69
499.484	91.69
499.701	86.69
499.918	90.69
500.135	83.69
500.352	85.69
500.569	81.69
500.786	100.69
501.003	91.69
501.22	81.69
501.437	84.69
501.654	97.69
501.871	92.69
502.088	76.69
502.305	93.69
502.522	104.69
502.739	88.69
502.956	85.69
503.172	100.69
503.389	94.69
503.606	104.69
503.823	79.69
504.04	86.69
504.256	85.69
504.473	97.69
504.69	108.69
504.907	98.69
505.123	93.69
505.34	83.69
505.557	86.69
505.773	87.69
505.99	80.69
506.207	83.69
506.423	91.69
506.64	91.69
506.856	85.69
507.073	100.69
507.289	95.69
507.506	93.69
507.722	115.69
507.939	103.69
508.155	96.69
508.372	101.69
508.588	92.69
508.805	90.69
509.021	109.69
509.238	109.69
509.454	100.69
509.67	87.69
509.887	103.69
510.103	128.69
510.319	199.69
510.536	705.69
510.752	2137.69
510.968	620.69
511.184	157.69
511.401	101.69
511.617	102.69
511.833	86.69
512.049	92.69
512.265	85.69
512.481	102.69
512.698	86.69
512.914	92.69
513.13	92.69
513.346	103.69
513.562	103.69
513.778	86.69
513.994	101.69
514.21	102.69
514.426	115.69
514.642	107.69
514.858	121.69
515.074	156.69
515.29	430.69
515.506	1337.69
515.721	499.69
515.937	154.69
516.153	106.69
