Data from Uncirc_2006_H10_HRD10591_00037.txt Node
Date: Wed Jan 03 10:25:02 EST 2024
User: Yrep
Spectrometer: HR+D1059
Trigger mode: 1
Integration Time (sec): 1.000000E-1
Scans to average: 1
Electric dark correction enabled: true
Nonlinearity correction enabled: false
Boxcar width: 0
XAxis mode: Wavelengths
Number of Pixels in Spectrum: 2048
>>>>>Begin Spectral Data<<<<<
223.165	-25.06
223.4	-25.06
223.635	-25.06
223.869	-18.06
224.104	-6.06
224.338	-24.06
224.573	-30.06
224.808	-13.06
225.042	-6.06
225.277	-5.06
225.511	16.94
225.746	9.94
225.98	-4.06
226.215	11.94
226.449	33.94
226.683	12.94
226.918	21.94
227.152	23.94
227.387	32.94
227.621	46.94
227.856	38.94
228.09	51.94
228.324	51.94
228.559	49.94
228.793	65.94
229.027	57.94
229.262	45.94
229.496	74.94
229.73	73.94
229.964	61.94
230.199	76.94
230.433	76.94
230.667	71.94
230.901	72.94
231.136	76.94
231.37	87.94
231.604	73.94
231.838	92.94
232.072	74.94
232.306	73.94
232.541	72.94
232.775	67.94
233.009	64.94
233.243	79.94
233.477	74.94
233.711	74.94
233.945	89.94
234.179	68.94
234.413	79.94
234.647	71.94
234.881	73.94
235.115	66.94
235.349	83.94
235.583	55.94
235.817	75.94
236.051	68.94
236.285	72.94
236.519	83.94
236.753	82.94
236.987	78.94
237.221	72.94
237.455	72.94
237.689	77.94
237.922	76.94
238.156	75.94
238.39	66.94
238.624	76.94
238.858	67.94
239.091	62.94
239.325	71.94
239.559	82.94
239.793	64.94
240.027	73.94
240.26	84.94
240.494	77.94
240.728	68.94
240.961	70.94
241.195	74.94
241.429	73.94
241.662	58.94
241.896	88.94
242.13	69.94
242.363	64.94
242.597	59.94
242.83	72.94
243.064	58.94
243.298	73.94
243.531	65.94
243.765	66.94
243.998	69.94
244.232	70.94
244.465	78.94
244.699	72.94
244.932	79.94
245.166	76.94
245.399	78.94
245.633	53.94
245.866	88.94
246.099	57.94
246.333	76.94
246.566	71.94
246.8	86.94
247.033	84.94
247.266	72.94
247.5	70.94
247.733	62.94
247.966	82.94
248.2	71.94
248.433	67.94
248.666	76.94
248.899	79.94
249.133	80.94
249.366	80.94
249.599	83.94
249.832	76.94
250.066	69.94
250.299	75.94
250.532	73.94
250.765	90.94
250.998	79.94
251.231	59.94
251.465	71.94
251.698	70.94
251.931	64.94
252.164	82.94
252.397	78.94
252.63	72.94
252.863	82.94
253.096	95.94
253.329	76.94
253.562	80.94
253.795	80.94
254.028	81.94
254.261	78.94
254.494	74.94
254.727	84.94
254.96	88.94
255.193	76.94
255.426	80.94
255.659	57.94
255.892	68.94
256.124	77.94
256.357	71.94
256.59	90.94
256.823	73.94
257.056	73.94
257.289	73.94
257.521	73.94
257.754	70.94
257.987	75.94
258.22	78.94
258.452	74.94
258.685	80.94
258.918	81.94
259.151	75.94
259.383	74.94
259.616	66.94
259.849	72.94
260.081	78.94
260.314	69.94
260.547	77.94
260.779	66.94
261.012	63.94
261.244	81.94
261.477	79.94
261.71	71.94
261.942	99.94
262.175	93.94
262.407	74.94
262.64	81.94
262.872	63.94
263.105	86.94
263.337	79.94
263.57	72.94
263.802	75.94
264.035	86.94
264.267	75.94
264.499	80.94
264.732	80.94
264.964	78.94
265.197	77.94
265.429	66.94
265.661	77.94
265.894	74.94
266.126	73.94
266.358	81.94
266.591	71.94
266.823	77.94
267.055	70.94
267.287	71.94
267.52	86.94
267.752	73.94
267.984	71.94
268.216	66.94
268.448	88.94
268.681	83.94
268.913	87.94
269.145	75.94
269.377	84.94
269.609	63.94
269.841	68.94
270.073	83.94
270.306	86.94
270.538	89.94
270.77	77.94
271.002	88.94
271.234	90.94
271.466	89.94
271.698	79.94
271.93	66.94
272.162	81.94
272.394	81.94
272.626	72.94
272.858	75.94
273.09	90.94
273.322	97.94
273.553	90.94
273.785	78.94
274.017	90.94
274.249	82.94
274.481	89.94
274.713	86.94
274.945	78.94
275.176	86.94
275.408	69.94
275.64	86.94
275.872	83.94
276.104	74.94
276.335	86.94
276.567	84.94
276.799	87.94
277.031	80.94
277.262	101.94
277.494	82.94
277.726	80.94
277.957	82.94
278.189	77.94
278.421	88.94
278.652	94.94
278.884	87.94
279.115	74.94
279.347	86.94
279.579	74.94
279.81	88.94
280.042	77.94
280.273	85.94
280.505	89.94
280.736	77.94
280.968	89.94
281.199	77.94
281.431	79.94
281.662	73.94
281.894	83.94
282.125	101.94
282.356	105.94
282.588	114.94
282.819	93.94
283.051	92.94
283.282	77.94
283.513	80.94
283.745	90.94
283.976	88.94
284.207	84.94
284.439	78.94
284.67	79.94
284.901	75.94
285.132	76.94
285.364	66.94
285.595	83.94
285.826	90.94
286.057	83.94
286.288	82.94
286.52	79.94
286.751	82.94
286.982	72.94
287.213	72.94
287.444	75.94
287.675	79.94
287.906	85.94
288.138	78.94
288.369	82.94
288.6	83.94
288.831	78.94
289.062	88.94
289.293	88.94
289.524	74.94
289.755	67.94
289.986	81.94
290.217	75.94
290.448	75.94
290.679	80.94
290.91	88.94
291.141	72.94
291.371	87.94
291.602	92.94
291.833	79.94
292.064	89.94
292.295	74.94
292.526	81.94
292.757	69.94
292.987	91.94
293.218	79.94
293.449	71.94
293.68	79.94
293.91	89.94
294.141	86.94
294.372	78.94
294.603	87.94
294.833	77.94
295.064	88.94
295.295	87.94
295.525	89.94
295.756	100.94
295.987	105.94
296.217	128.94
296.448	117.94
296.679	91.94
296.909	82.94
297.14	78.94
297.37	80.94
297.601	75.94
297.831	77.94
298.062	82.94
298.292	88.94
298.523	89.94
298.753	87.94
298.984	91.94
299.214	81.94
299.445	98.94
299.675	79.94
299.905	99.94
300.136	81.94
300.366	90.94
300.597	88.94
300.827	81.94
301.057	79.94
301.288	78.94
301.518	91.94
301.748	81.94
301.979	110.94
302.209	84.94
302.439	81.94
302.669	76.94
302.9	80.94
303.13	94.94
303.36	87.94
303.59	91.94
303.82	92.94
304.051	97.94
304.281	82.94
304.511	84.94
304.741	73.94
304.971	78.94
305.201	90.94
305.431	77.94
305.661	87.94
305.891	87.94
306.121	99.94
306.352	97.94
306.582	77.94
306.812	75.94
307.042	75.94
307.272	72.94
307.502	75.94
307.731	76.94
307.961	78.94
308.191	95.94
308.421	101.94
308.651	93.94
308.881	78.94
309.111	83.94
309.341	102.94
309.571	93.94
309.8	89.94
310.03	76.94
310.26	105.94
310.49	102.94
310.72	95.94
310.949	73.94
311.179	107.94
311.409	92.94
311.639	80.94
311.868	104.94
312.098	82.94
312.328	84.94
312.557	88.94
312.787	94.94
313.017	75.94
313.246	97.94
313.476	87.94
313.706	84.94
313.935	79.94
314.165	94.94
314.394	96.94
314.624	95.94
314.853	105.94
315.083	90.94
315.312	83.94
315.542	103.94
315.771	95.94
316.001	88.94
316.23	90.94
316.46	90.94
316.689	78.94
316.919	90.94
317.148	83.94
317.377	87.94
317.607	94.94
317.836	89.94
318.065	93.94
318.295	88.94
318.524	87.94
318.753	89.94
318.983	88.94
319.212	93.94
319.441	101.94
319.67	104.94
319.9	84.94
320.129	84.94
320.358	91.94
320.587	100.94
320.816	92.94
321.046	82.94
321.275	78.94
321.504	88.94
321.733	92.94
321.962	110.94
322.191	98.94
322.42	93.94
322.649	108.94
322.878	105.94
323.108	132.94
323.337	101.94
323.566	117.94
323.795	146.94
324.024	192.94
324.253	338.94
324.482	751.94
324.71	1512.94
324.939	1996.94
325.168	733.94
325.397	228.94
325.626	140.94
325.855	121.94
326.084	108.94
326.313	101.94
326.542	143.94
326.77	220.94
326.999	420.94
327.228	882.94
327.457	1572.94
327.686	1257.94
327.914	337.94
328.143	176.94
328.372	144.94
328.6	119.94
328.829	119.94
329.058	110.94
329.287	118.94
329.515	101.94
329.744	108.94
329.972	100.94
330.201	90.94
330.43	97.94
330.658	106.94
330.887	122.94
331.115	117.94
331.344	99.94
331.572	103.94
331.801	101.94
332.03	99.94
332.258	83.94
332.486	86.94
332.715	97.94
332.943	80.94
333.172	93.94
333.4	91.94
333.629	106.94
333.857	98.94
334.085	99.94
334.314	97.94
334.542	92.94
334.771	79.94
334.999	86.94
335.227	89.94
335.455	77.94
335.684	88.94
335.912	83.94
336.14	82.94
336.369	81.94
336.597	100.94
336.825	88.94
337.053	67.94
337.281	76.94
337.51	101.94
337.738	85.94
337.966	89.94
338.194	101.94
338.422	96.94
338.65	87.94
338.878	85.94
339.106	71.94
339.334	90.94
339.562	102.94
339.79	95.94
340.018	77.94
340.246	87.94
340.474	98.94
340.702	102.94
340.93	91.94
341.158	79.94
341.386	98.94
341.614	96.94
341.842	102.94
342.07	92.94
342.298	92.94
342.526	94.94
342.754	72.94
342.981	86.94
343.209	88.94
343.437	88.94
343.665	96.94
343.893	77.94
344.12	87.94
344.348	93.94
344.576	79.94
344.804	79.94
345.031	93.94
345.259	90.94
345.487	98.94
345.714	89.94
345.942	88.94
346.17	82.94
346.397	104.94
346.625	75.94
346.853	95.94
347.08	74.94
347.308	89.94
347.535	94.94
347.763	102.94
347.99	98.94
348.218	99.94
348.445	85.94
348.673	91.94
348.9	94.94
349.128	98.94
349.355	91.94
349.583	94.94
349.81	87.94
350.037	75.94
350.265	98.94
350.492	84.94
350.72	96.94
350.947	104.94
351.174	113.94
351.402	109.94
351.629	93.94
351.856	99.94
352.083	103.94
352.311	103.94
352.538	116.94
352.765	105.94
352.992	95.94
353.22	108.94
353.447	105.94
353.674	97.94
353.901	88.94
354.128	94.94
354.355	87.94
354.583	96.94
354.81	108.94
355.037	99.94
355.264	100.94
355.491	84.94
355.718	90.94
355.945	85.94
356.172	95.94
356.399	96.94
356.626	84.94
356.853	99.94
357.08	87.94
357.307	80.94
357.534	96.94
357.761	103.94
357.988	94.94
358.215	86.94
358.441	93.94
358.668	98.94
358.895	78.94
359.122	92.94
359.349	97.94
359.576	101.94
359.802	101.94
360.029	97.94
360.256	97.94
360.483	96.94
360.709	88.94
360.936	106.94
361.163	83.94
361.39	87.94
361.616	94.94
361.843	86.94
362.07	93.94
362.296	74.94
362.523	85.94
362.749	104.94
362.976	95.94
363.203	91.94
363.429	74.94
363.656	97.94
363.882	75.94
364.109	82.94
364.335	83.94
364.562	95.94
364.788	88.94
365.015	102.94
365.241	98.94
365.468	101.94
365.694	94.94
365.92	95.94
366.147	86.94
366.373	89.94
366.599	88.94
366.826	87.94
367.052	88.94
367.278	87.94
367.505	82.94
367.731	102.94
367.957	86.94
368.184	84.94
368.41	88.94
368.636	101.94
368.862	103.94
369.089	101.94
369.315	95.94
369.541	75.94
369.767	77.94
369.993	83.94
370.219	75.94
370.445	75.94
370.672	84.94
370.898	91.94
371.124	91.94
371.35	87.94
371.576	77.94
371.802	88.94
372.028	90.94
372.254	87.94
372.48	92.94
372.706	77.94
372.932	95.94
373.158	97.94
373.384	90.94
373.61	85.94
373.835	87.94
374.061	83.94
374.287	73.94
374.513	81.94
374.739	96.94
374.965	79.94
375.191	77.94
375.416	88.94
375.642	83.94
375.868	96.94
376.094	83.94
376.319	80.94
376.545	77.94
376.771	87.94
376.997	89.94
377.222	83.94
377.448	74.94
377.674	105.94
377.899	83.94
378.125	90.94
378.35	97.94
378.576	87.94
378.802	88.94
379.027	78.94
379.253	83.94
379.478	102.94
379.704	93.94
379.929	92.94
380.155	86.94
380.38	96.94
380.606	82.94
380.831	85.94
381.057	85.94
381.282	98.94
381.507	98.94
381.733	84.94
381.958	88.94
382.184	93.94
382.409	95.94
382.634	93.94
382.86	86.94
383.085	100.94
383.31	97.94
383.535	85.94
383.761	82.94
383.986	88.94
384.211	100.94
384.436	94.94
384.662	83.94
384.887	103.94
385.112	106.94
385.337	125.94
385.562	114.94
385.787	96.94
386.013	109.94
386.238	102.94
386.463	98.94
386.688	96.94
386.913	99.94
387.138	99.94
387.363	92.94
387.588	90.94
387.813	99.94
388.038	90.94
388.263	104.94
388.488	99.94
388.713	106.94
388.938	89.94
389.163	81.94
389.387	99.94
389.612	79.94
389.837	89.94
390.062	101.94
390.287	97.94
390.512	92.94
390.736	87.94
390.961	83.94
391.186	99.94
391.411	102.94
391.636	78.94
391.86	89.94
392.085	83.94
392.31	81.94
392.534	82.94
392.759	84.94
392.984	90.94
393.208	96.94
393.433	74.94
393.658	80.94
393.882	75.94
394.107	77.94
394.331	82.94
394.556	82.94
394.78	99.94
395.005	85.94
395.229	94.94
395.454	85.94
395.678	73.94
395.903	77.94
396.127	86.94
396.352	86.94
396.576	83.94
396.801	83.94
397.025	76.94
397.249	78.94
397.474	81.94
397.698	81.94
397.922	80.94
398.147	82.94
398.371	71.94
398.595	87.94
398.82	83.94
399.044	67.94
399.268	84.94
399.492	102.94
399.717	76.94
399.941	80.94
400.165	85.94
400.389	81.94
400.613	83.94
400.837	88.94
401.062	90.94
401.286	82.94
401.51	101.94
401.734	88.94
401.958	82.94
402.182	125.94
402.406	143.94
402.63	106.94
402.854	85.94
403.078	77.94
403.302	84.94
403.526	85.94
403.75	78.94
403.974	82.94
404.198	64.94
404.422	72.94
404.645	79.94
404.869	80.94
405.093	90.94
405.317	89.94
405.541	86.94
405.765	90.94
405.988	101.94
406.212	151.94
406.436	204.94
406.66	124.94
406.883	85.94
407.107	101.94
407.331	90.94
407.555	89.94
407.778	95.94
408.002	86.94
408.226	94.94
408.449	95.94
408.673	87.94
408.896	90.94
409.12	106.94
409.344	76.94
409.567	79.94
409.791	98.94
410.014	97.94
410.238	89.94
410.461	99.94
410.685	91.94
410.908	98.94
411.132	93.94
411.355	106.94
411.578	95.94
411.802	88.94
412.025	79.94
412.249	82.94
412.472	85.94
412.695	93.94
412.919	86.94
413.142	96.94
413.365	76.94
413.589	76.94
413.812	81.94
414.035	93.94
414.258	89.94
414.482	91.94
414.705	84.94
414.928	79.94
415.151	85.94
415.374	94.94
415.597	83.94
415.821	95.94
416.044	92.94
416.267	84.94
416.49	87.94
416.713	87.94
416.936	81.94
417.159	91.94
417.382	93.94
417.605	80.94
417.828	93.94
418.051	103.94
418.274	89.94
418.497	86.94
418.72	83.94
418.943	81.94
419.166	85.94
419.389	92.94
419.611	77.94
419.834	104.94
420.057	92.94
420.28	82.94
420.503	66.94
420.726	83.94
420.948	78.94
421.171	94.94
421.394	73.94
421.617	91.94
421.839	80.94
422.062	74.94
422.285	84.94
422.507	95.94
422.73	91.94
422.953	77.94
423.175	84.94
423.398	78.94
423.621	81.94
423.843	88.94
424.066	81.94
424.288	78.94
424.511	71.94
424.733	81.94
424.956	99.94
425.178	84.94
425.401	95.94
425.623	95.94
425.846	96.94
426.068	80.94
426.291	68.94
426.513	88.94
426.735	78.94
426.958	79.94
427.18	94.94
427.402	123.94
427.625	150.94
427.847	106.94
428.069	102.94
428.292	93.94
428.514	82.94
428.736	90.94
428.958	92.94
429.181	89.94
429.403	87.94
429.625	82.94
429.847	88.94
430.069	82.94
430.292	92.94
430.514	83.94
430.736	70.94
430.958	94.94
431.18	93.94
431.402	66.94
431.624	87.94
431.846	69.94
432.068	75.94
432.29	63.94
432.512	76.94
432.734	83.94
432.956	71.94
433.178	87.94
433.4	102.94
433.622	87.94
433.844	88.94
434.066	71.94
434.287	81.94
434.509	75.94
434.731	83.94
434.953	71.94
435.175	84.94
435.397	69.94
435.618	84.94
435.84	102.94
436.062	109.94
436.284	86.94
436.505	96.94
436.727	81.94
436.949	83.94
437.17	68.94
437.392	91.94
437.614	78.94
437.835	106.94
438.057	103.94
438.278	112.94
438.5	107.94
438.721	90.94
438.943	88.94
439.165	79.94
439.386	73.94
439.608	80.94
439.829	96.94
440.05	102.94
440.272	117.94
440.493	80.94
440.715	93.94
440.936	83.94
441.158	86.94
441.379	88.94
441.6	83.94
441.822	91.94
442.043	94.94
442.264	85.94
442.486	79.94
442.707	95.94
442.928	103.94
443.149	107.94
443.371	114.94
443.592	91.94
443.813	110.94
444.034	112.94
444.255	96.94
444.476	86.94
444.698	98.94
444.919	79.94
445.14	134.94
445.361	103.94
445.582	117.94
445.803	122.94
446.024	127.94
446.245	103.94
446.466	90.94
446.687	87.94
446.908	79.94
447.129	90.94
447.35	80.94
447.571	106.94
447.792	92.94
448.013	96.94
448.234	93.94
448.455	83.94
448.675	98.94
448.896	109.94
449.117	91.94
449.338	95.94
449.559	119.94
449.779	113.94
450	76.94
450.221	74.94
450.442	82.94
450.662	98.94
450.883	105.94
451.104	95.94
451.324	91.94
451.545	77.94
451.766	76.94
451.986	68.94
452.207	104.94
452.428	79.94
452.648	97.94
452.869	103.94
453.089	93.94
453.31	104.94
453.53	106.94
453.751	86.94
453.971	88.94
454.192	111.94
454.412	95.94
454.633	88.94
454.853	105.94
455.073	94.94
455.294	91.94
455.514	88.94
455.734	92.94
455.955	70.94
456.175	83.94
456.395	82.94
456.616	79.94
456.836	81.94
457.056	57.94
457.276	80.94
457.497	70.94
457.717	97.94
457.937	84.94
458.157	85.94
458.377	94.94
458.598	95.94
458.818	134.94
459.038	145.94
459.258	89.94
459.478	99.94
459.698	89.94
459.918	84.94
460.138	88.94
460.358	82.94
460.578	79.94
460.798	89.94
461.018	98.94
461.238	82.94
461.458	83.94
461.678	77.94
461.898	70.94
462.118	81.94
462.338	89.94
462.558	82.94
462.777	95.94
462.997	86.94
463.217	74.94
463.437	78.94
463.657	74.94
463.876	75.94
464.096	83.94
464.316	92.94
464.536	97.94
464.755	97.94
464.975	111.94
465.195	141.94
465.414	134.94
465.634	89.94
465.854	85.94
466.073	95.94
466.293	82.94
466.512	88.94
466.732	72.94
466.951	73.94
467.171	83.94
467.391	87.94
467.61	92.94
467.829	83.94
468.049	68.94
468.268	79.94
468.488	84.94
468.707	80.94
468.927	90.94
469.146	82.94
469.365	90.94
469.585	88.94
469.804	90.94
470.023	85.94
470.243	82.94
470.462	92.94
470.681	95.94
470.901	105.94
471.12	77.94
471.339	79.94
471.558	78.94
471.777	93.94
471.997	79.94
472.216	81.94
472.435	83.94
472.654	83.94
472.873	81.94
473.092	90.94
473.311	90.94
473.53	86.94
473.749	82.94
473.968	91.94
474.187	100.94
474.406	91.94
474.625	85.94
474.844	80.94
475.063	78.94
475.282	78.94
475.501	85.94
475.72	90.94
475.939	91.94
476.158	81.94
476.377	76.94
476.596	83.94
476.814	78.94
477.033	76.94
477.252	100.94
477.471	87.94
477.69	75.94
477.908	83.94
478.127	82.94
478.346	80.94
478.564	85.94
478.783	88.94
479.002	90.94
479.22	95.94
479.439	91.94
479.658	80.94
479.876	84.94
480.095	92.94
480.313	81.94
480.532	82.94
480.751	82.94
480.969	89.94
481.188	80.94
481.406	95.94
481.624	101.94
481.843	81.94
482.061	80.94
482.28	70.94
482.498	80.94
482.717	70.94
482.935	100.94
483.153	96.94
483.372	81.94
483.59	90.94
483.808	83.94
484.027	87.94
484.245	85.94
484.463	73.94
484.681	97.94
484.9	81.94
485.118	86.94
485.336	76.94
485.554	78.94
485.772	93.94
485.99	99.94
486.209	103.94
486.427	87.94
486.645	97.94
486.863	103.94
487.081	93.94
487.299	95.94
487.517	95.94
487.735	83.94
487.953	87.94
488.171	89.94
488.389	94.94
488.607	100.94
488.825	81.94
489.043	80.94
489.261	90.94
489.479	88.94
489.696	86.94
489.914	91.94
490.132	88.94
490.35	101.94
490.568	90.94
490.786	103.94
491.003	95.94
491.221	93.94
491.439	82.94
491.657	92.94
491.874	89.94
492.092	97.94
492.31	81.94
492.527	91.94
492.745	80.94
492.963	94.94
493.18	92.94
493.398	81.94
493.615	79.94
493.833	83.94
494.05	76.94
494.268	81.94
494.485	85.94
494.703	84.94
494.92	73.94
495.138	88.94
495.355	87.94
495.573	93.94
495.79	79.94
496.008	89.94
496.225	102.94
496.442	91.94
496.66	96.94
496.877	83.94
497.094	98.94
497.312	89.94
497.529	85.94
497.746	73.94
497.963	86.94
498.181	99.94
498.398	82.94
498.615	98.94
498.832	92.94
499.049	103.94
499.267	102.94
499.484	86.94
499.701	88.94
499.918	81.94
500.135	80.94
500.352	79.94
500.569	82.94
500.786	85.94
501.003	102.94
501.22	93.94
501.437	82.94
501.654	87.94
501.871	100.94
502.088	90.94
502.305	82.94
502.522	96.94
502.739	86.94
502.956	72.94
503.172	83.94
503.389	85.94
503.606	108.94
503.823	81.94
504.04	93.94
504.256	82.94
504.473	78.94
504.69	78.94
504.907	92.94
505.123	93.94
505.34	83.94
505.557	87.94
505.773	89.94
505.99	83.94
506.207	93.94
506.423	85.94
506.64	79.94
506.856	85.94
507.073	98.94
507.289	110.94
507.506	104.94
507.722	102.94
507.939	101.94
508.155	80.94
508.372	87.94
508.588	104.94
508.805	82.94
509.021	97.94
509.238	80.94
509.454	91.94
509.67	91.94
509.887	101.94
510.103	131.94
510.319	206.94
510.536	698.94
510.752	2201.94
510.968	619.94
511.184	152.94
511.401	101.94
511.617	104.94
511.833	90.94
512.049	85.94
512.265	87.94
512.481	100.94
512.698	88.94
512.914	86.94
513.13	95.94
513.346	80.94
513.562	80.94
513.778	78.94
513.994	93.94
514.21	91.94
514.426	101.94
514.642	130.94
514.858	116.94
515.074	151.94
515.29	404.94
515.506	1347.94
515.721	499.94
515.937	137.94
516.153	102.94
516.369	96.94
516.585	87.94
516.801	77.94
517.016	80.94
517.232	88.94
