Data from Uncirc_2006_H10_HRD10591_00063.txt Node
Date: Wed Jan 03 10:25:07 EST 2024
User: Yrep
Spectrometer: HR+D1059
Trigger mode: 1
Integration Time (sec): 1.000000E-1
Scans to average: 1
Electric dark correction enabled: true
Nonlinearity correction enabled: false
Boxcar width: 0
XAxis mode: Wavelengths
Number of Pixels in Spectrum: 2048
>>>>>Begin Spectral Data<<<<<
223.165	-27.5
223.4	-27.5
223.635	-27.5
223.869	-15.5
224.104	-10.5
224.338	-16.5
224.573	-6.5
224.808	-10.5
225.042	1.5
225.277	-14.5
225.511	-11.5
225.746	16.5
225.98	1.5
226.215	0.5
226.449	20.5
226.683	4.5
226.918	28.5
227.152	39.5
227.387	28.5
227.621	35.5
227.856	41.5
228.09	43.5
228.324	60.5
228.559	46.5
228.793	66.5
229.027	53.5
229.262	74.5
229.496	68.5
229.73	68.5
229.964	80.5
230.199	74.5
230.433	77.5
230.667	78.5
230.901	70.5
231.136	100.5
231.37	88.5
231.604	72.5
231.838	69.5
232.072	81.5
232.306	72.5
232.541	85.5
232.775	72.5
233.009	68.5
233.243	75.5
233.477	89.5
233.711	89.5
233.945	76.5
234.179	82.5
234.413	65.5
234.647	76.5
234.881	67.5
235.115	92.5
235.349	92.5
235.583	91.5
235.817	70.5
236.051	77.5
236.285	76.5
236.519	75.5
236.753	64.5
236.987	88.5
237.221	74.5
237.455	80.5
237.689	81.5
237.922	78.5
238.156	71.5
238.39	80.5
238.624	61.5
238.858	67.5
239.091	75.5
239.325	83.5
239.559	78.5
239.793	69.5
240.027	77.5
240.26	72.5
240.494	87.5
240.728	77.5
240.961	66.5
241.195	68.5
241.429	74.5
241.662	74.5
241.896	76.5
242.13	72.5
242.363	60.5
242.597	77.5
242.83	78.5
243.064	79.5
243.298	64.5
243.531	88.5
243.765	97.5
243.998	61.5
244.232	69.5
244.465	91.5
244.699	74.5
244.932	80.5
245.166	77.5
245.399	74.5
245.633	87.5
245.866	66.5
246.099	64.5
246.333	59.5
246.566	76.5
246.8	82.5
247.033	69.5
247.266	82.5
247.5	76.5
247.733	79.5
247.966	82.5
248.2	77.5
248.433	76.5
248.666	78.5
248.899	74.5
249.133	73.5
249.366	76.5
249.599	111.5
249.832	78.5
250.066	85.5
250.299	80.5
250.532	78.5
250.765	97.5
250.998	78.5
251.231	75.5
251.465	72.5
251.698	80.5
251.931	68.5
252.164	79.5
252.397	65.5
252.63	55.5
252.863	90.5
253.096	78.5
253.329	76.5
253.562	81.5
253.795	83.5
254.028	75.5
254.261	69.5
254.494	84.5
254.727	90.5
254.96	102.5
255.193	94.5
255.426	74.5
255.659	69.5
255.892	83.5
256.124	78.5
256.357	84.5
256.59	79.5
256.823	81.5
257.056	79.5
257.289	99.5
257.521	90.5
257.754	86.5
257.987	72.5
258.22	84.5
258.452	89.5
258.685	94.5
258.918	86.5
259.151	83.5
259.383	97.5
259.616	83.5
259.849	88.5
260.081	83.5
260.314	75.5
260.547	72.5
260.779	72.5
261.012	71.5
261.244	82.5
261.477	67.5
261.71	101.5
261.942	108.5
262.175	97.5
262.407	78.5
262.64	85.5
262.872	74.5
263.105	96.5
263.337	92.5
263.57	76.5
263.802	80.5
264.035	86.5
264.267	59.5
264.499	74.5
264.732	67.5
264.964	85.5
265.197	83.5
265.429	80.5
265.661	83.5
265.894	78.5
266.126	73.5
266.358	90.5
266.591	87.5
266.823	89.5
267.055	80.5
267.287	87.5
267.52	79.5
267.752	94.5
267.984	88.5
268.216	88.5
268.448	84.5
268.681	88.5
268.913	72.5
269.145	87.5
269.377	79.5
269.609	82.5
269.841	77.5
270.073	80.5
270.306	94.5
270.538	85.5
270.77	80.5
271.002	97.5
271.234	65.5
271.466	85.5
271.698	82.5
271.93	73.5
272.162	74.5
272.394	74.5
272.626	75.5
272.858	72.5
273.09	82.5
273.322	89.5
273.553	86.5
273.785	85.5
274.017	78.5
274.249	84.5
274.481	84.5
274.713	74.5
274.945	97.5
275.176	96.5
275.408	89.5
275.64	79.5
275.872	77.5
276.104	84.5
276.335	76.5
276.567	97.5
276.799	91.5
277.031	99.5
277.262	75.5
277.494	77.5
277.726	78.5
277.957	74.5
278.189	88.5
278.421	81.5
278.652	97.5
278.884	72.5
279.115	86.5
279.347	88.5
279.579	90.5
279.81	90.5
280.042	76.5
280.273	82.5
280.505	82.5
280.736	72.5
280.968	94.5
281.199	87.5
281.431	91.5
281.662	76.5
281.894	89.5
282.125	101.5
282.356	113.5
282.588	144.5
282.819	103.5
283.051	94.5
283.282	74.5
283.513	93.5
283.745	87.5
283.976	101.5
284.207	90.5
284.439	71.5
284.67	89.5
284.901	71.5
285.132	82.5
285.364	84.5
285.595	97.5
285.826	83.5
286.057	85.5
286.288	90.5
286.52	77.5
286.751	84.5
286.982	76.5
287.213	90.5
287.444	81.5
287.675	91.5
287.906	72.5
288.138	93.5
288.369	92.5
288.6	90.5
288.831	97.5
289.062	77.5
289.293	91.5
289.524	96.5
289.755	94.5
289.986	74.5
290.217	80.5
290.448	85.5
290.679	77.5
290.91	94.5
291.141	78.5
291.371	85.5
291.602	88.5
291.833	99.5
292.064	85.5
292.295	96.5
292.526	86.5
292.757	86.5
292.987	86.5
293.218	94.5
293.449	83.5
293.68	94.5
293.91	98.5
294.141	80.5
294.372	76.5
294.603	89.5
294.833	69.5
295.064	83.5
295.295	85.5
295.525	92.5
295.756	103.5
295.987	103.5
296.217	129.5
296.448	111.5
296.679	96.5
296.909	96.5
297.14	90.5
297.37	83.5
297.601	96.5
297.831	86.5
298.062	88.5
298.292	96.5
298.523	65.5
298.753	75.5
298.984	89.5
299.214	86.5
299.445	98.5
299.675	93.5
299.905	83.5
300.136	80.5
300.366	93.5
300.597	96.5
300.827	98.5
301.057	88.5
301.288	99.5
301.518	88.5
301.748	86.5
301.979	95.5
302.209	94.5
302.439	86.5
302.669	69.5
302.9	91.5
303.13	85.5
303.36	104.5
303.59	96.5
303.82	108.5
304.051	91.5
304.281	96.5
304.511	82.5
304.741	85.5
304.971	94.5
305.201	82.5
305.431	91.5
305.661	80.5
305.891	91.5
306.121	89.5
306.352	90.5
306.582	97.5
306.812	87.5
307.042	81.5
307.272	90.5
307.502	93.5
307.731	94.5
307.961	76.5
308.191	102.5
308.421	96.5
308.651	104.5
308.881	103.5
309.111	91.5
309.341	98.5
309.571	99.5
309.8	77.5
310.03	79.5
310.26	99.5
310.49	108.5
310.72	90.5
310.949	98.5
311.179	98.5
311.409	91.5
311.639	99.5
311.868	97.5
312.098	99.5
312.328	79.5
312.557	89.5
312.787	93.5
313.017	93.5
313.246	91.5
313.476	97.5
313.706	98.5
313.935	89.5
314.165	107.5
314.394	101.5
314.624	86.5
314.853	114.5
315.083	104.5
315.312	83.5
315.542	80.5
315.771	83.5
316.001	84.5
316.23	81.5
316.46	84.5
316.689	89.5
316.919	86.5
317.148	90.5
317.377	97.5
317.607	94.5
317.836	91.5
318.065	80.5
318.295	92.5
318.524	101.5
318.753	87.5
318.983	97.5
319.212	89.5
319.441	106.5
319.67	117.5
319.9	101.5
320.129	92.5
320.358	80.5
320.587	90.5
320.816	104.5
321.046	105.5
321.275	90.5
321.504	90.5
321.733	92.5
321.962	101.5
322.191	113.5
322.42	91.5
322.649	91.5
322.878	120.5
323.108	110.5
323.337	100.5
323.566	124.5
323.795	144.5
324.024	214.5
324.253	419.5
324.482	860.5
324.71	1818.5
324.939	2371.5
325.168	871.5
325.397	250.5
325.626	144.5
325.855	134.5
326.084	129.5
326.313	128.5
326.542	162.5
326.77	243.5
326.999	461.5
327.228	1028.5
327.457	1814.5
327.686	1428.5
327.914	377.5
328.143	202.5
328.372	145.5
328.6	102.5
328.829	114.5
329.058	124.5
329.287	125.5
329.515	108.5
329.744	99.5
329.972	96.5
330.201	96.5
330.43	111.5
330.658	119.5
330.887	133.5
331.115	120.5
331.344	93.5
331.572	102.5
331.801	95.5
332.03	97.5
332.258	106.5
332.486	92.5
332.715	90.5
332.943	92.5
333.172	86.5
333.4	80.5
333.629	98.5
333.857	90.5
334.085	99.5
334.314	94.5
334.542	98.5
334.771	105.5
334.999	97.5
335.227	98.5
335.455	81.5
335.684	105.5
335.912	92.5
336.14	80.5
336.369	106.5
336.597	98.5
336.825	91.5
337.053	97.5
337.281	88.5
337.51	86.5
337.738	83.5
337.966	87.5
338.194	86.5
338.422	100.5
338.65	100.5
338.878	93.5
339.106	102.5
339.334	101.5
339.562	79.5
339.79	98.5
340.018	85.5
340.246	92.5
340.474	94.5
340.702	85.5
340.93	90.5
341.158	105.5
341.386	90.5
341.614	94.5
341.842	77.5
342.07	94.5
342.298	92.5
342.526	99.5
342.754	86.5
342.981	96.5
343.209	76.5
343.437	96.5
343.665	67.5
343.893	97.5
344.12	83.5
344.348	93.5
344.576	100.5
344.804	85.5
345.031	89.5
345.259	104.5
345.487	76.5
345.714	101.5
345.942	101.5
346.17	89.5
346.397	71.5
346.625	88.5
346.853	89.5
347.08	88.5
347.308	92.5
347.535	86.5
347.763	97.5
347.99	98.5
348.218	97.5
348.445	94.5
348.673	109.5
348.9	97.5
349.128	81.5
349.355	84.5
349.583	84.5
349.81	89.5
350.037	85.5
350.265	99.5
350.492	91.5
350.72	84.5
350.947	88.5
351.174	107.5
351.402	99.5
351.629	92.5
351.856	101.5
352.083	102.5
352.311	104.5
352.538	84.5
352.765	108.5
352.992	99.5
353.22	109.5
353.447	98.5
353.674	99.5
353.901	80.5
354.128	92.5
354.355	103.5
354.583	102.5
354.81	93.5
355.037	106.5
355.264	87.5
355.491	88.5
355.718	94.5
355.945	105.5
356.172	82.5
356.399	89.5
356.626	90.5
356.853	101.5
357.08	86.5
357.307	91.5
357.534	85.5
357.761	104.5
357.988	95.5
358.215	95.5
358.441	105.5
358.668	105.5
358.895	89.5
359.122	83.5
359.349	97.5
359.576	84.5
359.802	101.5
360.029	105.5
360.256	106.5
360.483	92.5
360.709	90.5
360.936	110.5
361.163	102.5
361.39	89.5
361.616	99.5
361.843	85.5
362.07	94.5
362.296	92.5
362.523	86.5
362.749	86.5
362.976	84.5
363.203	88.5
363.429	78.5
363.656	87.5
363.882	99.5
364.109	86.5
364.335	97.5
364.562	90.5
364.788	91.5
365.015	85.5
365.241	85.5
365.468	102.5
365.694	93.5
365.92	96.5
366.147	80.5
366.373	89.5
366.599	96.5
366.826	83.5
367.052	98.5
367.278	83.5
367.505	95.5
367.731	83.5
367.957	93.5
368.184	93.5
368.41	86.5
368.636	110.5
368.862	121.5
369.089	98.5
369.315	89.5
369.541	87.5
369.767	83.5
369.993	89.5
370.219	93.5
370.445	88.5
370.672	95.5
370.898	82.5
371.124	84.5
371.35	88.5
371.576	72.5
371.802	73.5
372.028	71.5
372.254	97.5
372.48	86.5
372.706	69.5
372.932	81.5
373.158	101.5
373.384	97.5
373.61	81.5
373.835	86.5
374.061	74.5
374.287	93.5
374.513	92.5
374.739	90.5
374.965	78.5
375.191	86.5
375.416	80.5
375.642	83.5
375.868	90.5
376.094	84.5
376.319	94.5
376.545	84.5
376.771	99.5
376.997	61.5
377.222	96.5
377.448	82.5
377.674	78.5
377.899	89.5
378.125	104.5
378.35	80.5
378.576	85.5
378.802	90.5
379.027	74.5
379.253	94.5
379.478	90.5
379.704	90.5
379.929	82.5
380.155	108.5
380.38	86.5
380.606	86.5
380.831	103.5
381.057	96.5
381.282	75.5
381.507	85.5
381.733	97.5
381.958	96.5
382.184	97.5
382.409	93.5
382.634	105.5
382.86	104.5
383.085	84.5
383.31	103.5
383.535	90.5
383.761	110.5
383.986	99.5
384.211	100.5
384.436	96.5
384.662	92.5
384.887	97.5
385.112	107.5
385.337	96.5
385.562	110.5
385.787	108.5
386.013	110.5
386.238	100.5
386.463	80.5
386.688	93.5
386.913	109.5
387.138	104.5
387.363	96.5
387.588	107.5
387.813	109.5
388.038	101.5
388.263	123.5
388.488	106.5
388.713	102.5
388.938	105.5
389.163	105.5
389.387	97.5
389.612	88.5
389.837	92.5
390.062	100.5
390.287	94.5
390.512	81.5
390.736	93.5
390.961	98.5
391.186	97.5
391.411	97.5
391.636	91.5
391.86	92.5
392.085	89.5
392.31	94.5
392.534	97.5
392.759	78.5
392.984	84.5
393.208	81.5
393.433	72.5
393.658	85.5
393.882	74.5
394.107	86.5
394.331	81.5
394.556	90.5
394.78	89.5
395.005	96.5
395.229	90.5
395.454	100.5
395.678	84.5
395.903	97.5
396.127	84.5
396.352	83.5
396.576	76.5
396.801	83.5
397.025	72.5
397.249	90.5
397.474	93.5
397.698	86.5
397.922	77.5
398.147	83.5
398.371	95.5
398.595	76.5
398.82	85.5
399.044	86.5
399.268	88.5
399.492	90.5
399.717	91.5
399.941	86.5
400.165	104.5
400.389	86.5
400.613	78.5
400.837	92.5
401.062	99.5
401.286	78.5
401.51	88.5
401.734	92.5
401.958	88.5
402.182	116.5
402.406	150.5
402.63	112.5
402.854	87.5
403.078	90.5
403.302	96.5
403.526	97.5
403.75	81.5
403.974	83.5
404.198	73.5
404.422	85.5
404.645	76.5
404.869	85.5
405.093	97.5
405.317	88.5
405.541	93.5
405.765	101.5
405.988	114.5
406.212	150.5
406.436	213.5
406.66	132.5
406.883	90.5
407.107	88.5
407.331	87.5
407.555	95.5
407.778	89.5
408.002	84.5
408.226	76.5
408.449	76.5
408.673	84.5
408.896	93.5
409.12	96.5
409.344	86.5
409.567	100.5
409.791	86.5
410.014	88.5
410.238	97.5
410.461	98.5
410.685	89.5
410.908	104.5
411.132	118.5
411.355	109.5
411.578	85.5
411.802	92.5
412.025	87.5
412.249	77.5
412.472	91.5
412.695	92.5
412.919	93.5
413.142	93.5
413.365	94.5
413.589	81.5
413.812	93.5
414.035	77.5
414.258	80.5
414.482	83.5
414.705	80.5
414.928	94.5
415.151	94.5
415.374	98.5
415.597	85.5
415.821	92.5
416.044	90.5
416.267	81.5
416.49	89.5
416.713	78.5
416.936	106.5
417.159	93.5
417.382	91.5
417.605	86.5
417.828	102.5
418.051	92.5
418.274	84.5
418.497	81.5
418.72	75.5
418.943	87.5
419.166	78.5
419.389	91.5
419.611	84.5
419.834	89.5
420.057	80.5
420.28	86.5
420.503	90.5
420.726	95.5
420.948	84.5
421.171	86.5
421.394	97.5
421.617	91.5
421.839	109.5
422.062	93.5
422.285	81.5
422.507	94.5
422.73	91.5
422.953	103.5
423.175	85.5
423.398	83.5
423.621	78.5
423.843	91.5
424.066	81.5
424.288	88.5
424.511	90.5
424.733	89.5
424.956	95.5
425.178	87.5
425.401	90.5
425.623	83.5
425.846	90.5
426.068	101.5
426.291	90.5
426.513	95.5
426.735	101.5
426.958	97.5
427.18	82.5
427.402	140.5
427.625	158.5
427.847	107.5
428.069	106.5
428.292	91.5
428.514	80.5
428.736	90.5
428.958	92.5
429.181	73.5
429.403	83.5
429.625	85.5
429.847	100.5
430.069	104.5
430.292	91.5
430.514	90.5
430.736	84.5
430.958	85.5
431.18	94.5
431.402	97.5
431.624	88.5
431.846	74.5
432.068	79.5
432.29	82.5
432.512	86.5
432.734	99.5
432.956	91.5
433.178	101.5
433.4	94.5
433.622	92.5
433.844	106.5
434.066	94.5
434.287	100.5
434.509	78.5
434.731	90.5
434.953	88.5
435.175	85.5
435.397	87.5
435.618	86.5
435.84	100.5
436.062	109.5
436.284	124.5
436.505	86.5
436.727	112.5
436.949	81.5
437.17	79.5
437.392	92.5
437.614	83.5
437.835	98.5
438.057	102.5
438.278	100.5
438.5	97.5
438.721	93.5
438.943	90.5
439.165	98.5
439.386	79.5
439.608	98.5
439.829	89.5
440.05	111.5
440.272	120.5
440.493	105.5
440.715	78.5
440.936	82.5
441.158	85.5
441.379	86.5
441.6	83.5
441.822	93.5
442.043	93.5
442.264	105.5
442.486	99.5
442.707	85.5
442.928	102.5
443.149	117.5
443.371	121.5
443.592	106.5
443.813	104.5
444.034	101.5
444.255	93.5
444.476	85.5
444.698	87.5
444.919	92.5
445.14	121.5
445.361	117.5
445.582	94.5
445.803	138.5
446.024	120.5
446.245	128.5
446.466	107.5
446.687	93.5
446.908	86.5
447.129	80.5
447.35	85.5
447.571	92.5
447.792	98.5
448.013	90.5
448.234	100.5
448.455	94.5
448.675	112.5
448.896	107.5
449.117	90.5
449.338	92.5
449.559	115.5
449.779	131.5
450	98.5
450.221	92.5
450.442	72.5
450.662	99.5
450.883	99.5
451.104	115.5
451.324	99.5
451.545	90.5
451.766	90.5
451.986	87.5
452.207	90.5
452.428	84.5
452.648	85.5
452.869	100.5
453.089	106.5
453.31	114.5
453.53	82.5
453.751	105.5
453.971	99.5
454.192	111.5
454.412	86.5
454.633	88.5
454.853	88.5
455.073	71.5
455.294	84.5
455.514	98.5
455.734	79.5
455.955	82.5
456.175	99.5
456.395	90.5
456.616	68.5
456.836	76.5
457.056	80.5
457.276	74.5
457.497	86.5
457.717	83.5
457.937	84.5
458.157	92.5
458.377	96.5
458.598	106.5
458.818	141.5
459.038	158.5
459.258	114.5
459.478	87.5
459.698	89.5
459.918	86.5
460.138	92.5
460.358	108.5
460.578	80.5
460.798	89.5
461.018	92.5
461.238	88.5
461.458	95.5
461.678	74.5
461.898	85.5
462.118	76.5
462.338	91.5
462.558	82.5
462.777	69.5
462.997	90.5
463.217	80.5
463.437	81.5
463.657	73.5
463.876	88.5
464.096	95.5
464.316	90.5
464.536	83.5
464.755	86.5
464.975	100.5
465.195	156.5
465.414	161.5
465.634	99.5
465.854	78.5
466.073	87.5
466.293	83.5
466.512	69.5
466.732	89.5
466.951	84.5
467.171	87.5
467.391	83.5
467.61	94.5
467.829	97.5
468.049	93.5
468.268	82.5
468.488	80.5
468.707	80.5
468.927	99.5
469.146	101.5
469.365	87.5
469.585	98.5
469.804	93.5
470.023	97.5
470.243	81.5
470.462	89.5
470.681	113.5
470.901	94.5
471.12	75.5
471.339	91.5
471.558	85.5
471.777	92.5
471.997	76.5
472.216	93.5
472.435	86.5
472.654	85.5
472.873	90.5
473.092	83.5
473.311	93.5
473.53	99.5
473.749	87.5
473.968	98.5
474.187	105.5
474.406	99.5
474.625	86.5
474.844	86.5
475.063	93.5
475.282	78.5
475.501	100.5
475.72	76.5
475.939	85.5
476.158	89.5
476.377	78.5
476.596	80.5
476.814	89.5
477.033	99.5
477.252	93.5
477.471	104.5
477.69	95.5
477.908	73.5
478.127	85.5
478.346	83.5
478.564	92.5
478.783	104.5
479.002	94.5
479.22	82.5
479.439	107.5
479.658	113.5
479.876	87.5
480.095	78.5
480.313	83.5
480.532	88.5
480.751	86.5
480.969	86.5
481.188	94.5
481.406	88.5
481.624	96.5
481.843	82.5
482.061	92.5
482.28	85.5
482.498	90.5
482.717	78.5
482.935	82.5
483.153	92.5
483.372	94.5
483.59	81.5
483.808	80.5
484.027	92.5
484.245	94.5
484.463	83.5
484.681	92.5
484.9	86.5
485.118	83.5
485.336	91.5
485.554	100.5
485.772	94.5
485.99	95.5
486.209	107.5
486.427	85.5
486.645	99.5
486.863	99.5
487.081	93.5
487.299	94.5
487.517	88.5
487.735	86.5
487.953	99.5
488.171	105.5
488.389	92.5
488.607	109.5
488.825	99.5
489.043	85.5
489.261	101.5
489.479	82.5
489.696	91.5
489.914	77.5
490.132	77.5
490.35	96.5
490.568	76.5
490.786	89.5
491.003	82.5
491.221	85.5
491.439	90.5
491.657	97.5
491.874	81.5
492.092	85.5
492.31	104.5
492.527	90.5
492.745	93.5
492.963	102.5
493.18	85.5
493.398	89.5
493.615	78.5
493.833	98.5
494.05	73.5
494.268	73.5
494.485	71.5
494.703	92.5
494.92	97.5
495.138	80.5
495.355	74.5
495.573	86.5
495.79	87.5
496.008	88.5
496.225	93.5
496.442	78.5
496.66	78.5
496.877	90.5
497.094	85.5
497.312	96.5
497.529	94.5
497.746	72.5
497.963	78.5
498.181	95.5
498.398	99.5
498.615	105.5
498.832	110.5
499.049	89.5
499.267	89.5
499.484	80.5
499.701	113.5
499.918	88.5
500.135	78.5
500.352	89.5
500.569	93.5
500.786	91.5
501.003	83.5
501.22	84.5
501.437	85.5
501.654	84.5
501.871	102.5
502.088	90.5
502.305	89.5
502.522	83.5
502.739	90.5
502.956	90.5
503.172	71.5
503.389	93.5
503.606	93.5
503.823	94.5
504.04	101.5
504.256	95.5
504.473	80.5
504.69	77.5
504.907	79.5
505.123	88.5
505.34	95.5
505.557	98.5
505.773	100.5
505.99	102.5
506.207	97.5
506.423	91.5
506.64	91.5
506.856	79.5
507.073	92.5
507.289	96.5
507.506	93.5
507.722	112.5
507.939	107.5
508.155	93.5
508.372	104.5
508.588	86.5
508.805	98.5
509.021	94.5
509.238	89.5
509.454	94.5
509.67	99.5
509.887	108.5
510.103	142.5
510.319	209.5
510.536	781.5
510.752	2405.5
510.968	680.5
511.184	154.5
511.401	115.5
511.617	111.5
511.833	99.5
512.049	100.5
512.265	81.5
512.481	76.5
512.698	86.5
512.914	85.5
513.13	86.5
513.346	105.5
513.562	100.5
513.778	94.5
513.994	91.5
514.21	95.5
514.426	115.5
514.642	132.5
514.858	116.5
515.074	173.5
515.29	448.5
515.506	1453.5
515.721	533.5
515.937	154.5
516.153	122.5
516.369	96.5
516.585	99.5
516.801	98.5
517.016	86.5
517.232	99.5
517.448	86.5
517.664	91.5
517.879	98.5
518.095	96.5
518.311	98.5
518.527	94.5
518.742	89.5
518.958	94.5
519.173	93.5
519.389	105.5
519.605	106.5
519.82	85.5
520.036	89.5
520.251	116.5
520.467	112.5
520.682	121.5
520.898	105.5
521.113	111.5
521.329	138.5
521.544	197.5
521.76	554.5
521.975	2397.5
522.19	1466.5
522.406	316.5
522.621	130.5
522.836	96.5
523.052	95.5
523.267	94.5
523.482	84.5
523.698	90.5
523.913	122.5
524.128	108.5
524.343	94.5
524.559	95.5
524.774	79.5
524.989	84.5
525.204	122.5
525.419	88.5
525.634	87.5
525.849	90.5
526.064	80.5
526.28	88.5
526.495	95.5
526.71	86.5
526.925	84.5
527.14	83.5
527.355	84.5
527.57	103.5
527.785	88.5
527.999	88.5
528.214	96.5
528.429	92.5
528.644	100.5
528.859	86.5
529.074	98.5
529.289	123.5
529.503	168.5
529.718	108.5
529.933	91.5
530.148	81.5
530.363	77.5
530.577	92.5
530.792	83.5
531.007	86.5
531.221	88.5
531.436	92.5
531.651	81.5
531.865	83.5
532.08	82.5
532.295	90.5
532.509	87.5
532.724	81.5
532.938	84.5
533.153	115.5
533.367	100.5
533.582	109.5
533.796	98.5
534.011	98.5
534.225	85.5
534.44	88.5
534.654	83.5
534.868	84.5
535.083	95.5
535.297	85.5
535.511	83.5
535.726	91.5
535.94	107.5
536.154	94.5
536.369	91.5
