Data from Uncirc_2006_H10_HRD10591_00023.txt Node
Date: Wed Jan 03 10:24:59 EST 2024
User: Yrep
Spectrometer: HR+D1059
Trigger mode: 1
Integration Time (sec): 1.000000E-1
Scans to average: 1
Electric dark correction enabled: true
Nonlinearity correction enabled: false
Boxcar width: 0
XAxis mode: Wavelengths
Number of Pixels in Spectrum: 2048
>>>>>Begin Spectral Data<<<<<
223.165	-10.69
223.4	-10.69
223.635	-10.69
223.869	-16.69
224.104	-8.69
224.338	-16.69
224.573	-19.69
224.808	-9.69
225.042	-15.69
225.277	-7.69
225.511	-3.69
225.746	-0.69
225.98	4.31
226.215	15.31
226.449	14.31
226.683	22.31
226.918	22.31
227.152	31.31
227.387	40.31
227.621	44.31
227.856	48.31
228.09	40.31
228.324	62.31
228.559	77.31
228.793	52.31
229.027	60.31
229.262	71.31
229.496	70.31
229.73	72.31
229.964	67.31
230.199	78.31
230.433	76.31
230.667	77.31
230.901	82.31
231.136	80.31
231.37	75.31
231.604	78.31
231.838	91.31
232.072	85.31
232.306	83.31
232.541	92.31
232.775	93.31
233.009	85.31
233.243	74.31
233.477	78.31
233.711	89.31
233.945	73.31
234.179	69.31
234.413	86.31
234.647	83.31
234.881	86.31
235.115	79.31
235.349	76.31
235.583	80.31
235.817	92.31
236.051	82.31
236.285	87.31
236.519	77.31
236.753	88.31
236.987	74.31
237.221	83.31
237.455	76.31
237.689	71.31
237.922	75.31
238.156	90.31
238.39	81.31
238.624	78.31
238.858	77.31
239.091	72.31
239.325	96.31
239.559	76.31
239.793	80.31
240.027	87.31
240.26	67.31
240.494	82.31
240.728	85.31
240.961	86.31
241.195	79.31
241.429	72.31
241.662	62.31
241.896	84.31
242.13	79.31
242.363	77.31
242.597	88.31
242.83	84.31
243.064	74.31
243.298	84.31
243.531	70.31
243.765	81.31
243.998	87.31
244.232	91.31
244.465	89.31
244.699	85.31
244.932	92.31
245.166	80.31
245.399	84.31
245.633	83.31
245.866	75.31
246.099	93.31
246.333	80.31
246.566	84.31
246.8	75.31
247.033	81.31
247.266	91.31
247.5	78.31
247.733	95.31
247.966	67.31
248.2	84.31
248.433	76.31
248.666	77.31
248.899	91.31
249.133	80.31
249.366	97.31
249.599	90.31
249.832	81.31
250.066	86.31
250.299	87.31
250.532	85.31
250.765	75.31
250.998	92.31
251.231	80.31
251.465	69.31
251.698	73.31
251.931	80.31
252.164	75.31
252.397	82.31
252.63	85.31
252.863	85.31
253.096	92.31
253.329	81.31
253.562	79.31
253.795	73.31
254.028	79.31
254.261	63.31
254.494	77.31
254.727	71.31
254.96	88.31
255.193	77.31
255.426	74.31
255.659	83.31
255.892	83.31
256.124	96.31
256.357	79.31
256.59	77.31
256.823	83.31
257.056	89.31
257.289	84.31
257.521	83.31
257.754	75.31
257.987	82.31
258.22	83.31
258.452	89.31
258.685	92.31
258.918	78.31
259.151	76.31
259.383	84.31
259.616	94.31
259.849	103.31
260.081	87.31
260.314	69.31
260.547	79.31
260.779	81.31
261.012	79.31
261.244	88.31
261.477	88.31
261.71	100.31
261.942	107.31
262.175	90.31
262.407	81.31
262.64	75.31
262.872	84.31
263.105	95.31
263.337	75.31
263.57	73.31
263.802	90.31
264.035	81.31
264.267	76.31
264.499	84.31
264.732	83.31
264.964	79.31
265.197	84.31
265.429	81.31
265.661	85.31
265.894	72.31
266.126	95.31
266.358	82.31
266.591	75.31
266.823	92.31
267.055	90.31
267.287	89.31
267.52	81.31
267.752	76.31
267.984	83.31
268.216	92.31
268.448	88.31
268.681	84.31
268.913	76.31
269.145	91.31
269.377	93.31
269.609	89.31
269.841	94.31
270.073	85.31
270.306	75.31
270.538	96.31
270.77	99.31
271.002	89.31
271.234	95.31
271.466	91.31
271.698	82.31
271.93	93.31
272.162	81.31
272.394	87.31
272.626	95.31
272.858	88.31
273.09	92.31
273.322	80.31
273.553	78.31
273.785	88.31
274.017	85.31
274.249	90.31
274.481	98.31
274.713	84.31
274.945	95.31
275.176	83.31
275.408	79.31
275.64	72.31
275.872	75.31
276.104	83.31
276.335	82.31
276.567	85.31
276.799	95.31
277.031	89.31
277.262	76.31
277.494	84.31
277.726	85.31
277.957	87.31
278.189	99.31
278.421	80.31
278.652	93.31
278.884	88.31
279.115	102.31
279.347	86.31
279.579	83.31
279.81	86.31
280.042	89.31
280.273	81.31
280.505	84.31
280.736	83.31
280.968	71.31
281.199	81.31
281.431	75.31
281.662	86.31
281.894	94.31
282.125	94.31
282.356	118.31
282.588	115.31
282.819	99.31
283.051	87.31
283.282	95.31
283.513	87.31
283.745	88.31
283.976	104.31
284.207	84.31
284.439	85.31
284.67	115.31
284.901	99.31
285.132	80.31
285.364	88.31
285.595	79.31
285.826	83.31
286.057	86.31
286.288	96.31
286.52	84.31
286.751	89.31
286.982	68.31
287.213	82.31
287.444	98.31
287.675	87.31
287.906	80.31
288.138	87.31
288.369	99.31
288.6	93.31
288.831	79.31
289.062	91.31
289.293	88.31
289.524	95.31
289.755	89.31
289.986	79.31
290.217	69.31
290.448	94.31
290.679	88.31
290.91	95.31
291.141	75.31
291.371	91.31
291.602	93.31
291.833	75.31
292.064	98.31
292.295	88.31
292.526	83.31
292.757	87.31
292.987	82.31
293.218	81.31
293.449	102.31
293.68	91.31
293.91	84.31
294.141	78.31
294.372	96.31
294.603	93.31
294.833	88.31
295.064	78.31
295.295	99.31
295.525	83.31
295.756	86.31
295.987	101.31
296.217	115.31
296.448	112.31
296.679	87.31
296.909	100.31
297.14	90.31
297.37	106.31
297.601	86.31
297.831	71.31
298.062	84.31
298.292	87.31
298.523	86.31
298.753	86.31
298.984	83.31
299.214	94.31
299.445	93.31
299.675	90.31
299.905	82.31
300.136	96.31
300.366	93.31
300.597	80.31
300.827	83.31
301.057	83.31
301.288	104.31
301.518	80.31
301.748	88.31
301.979	94.31
302.209	92.31
302.439	94.31
302.669	90.31
302.9	86.31
303.13	105.31
303.36	87.31
303.59	90.31
303.82	95.31
304.051	100.31
304.281	86.31
304.511	93.31
304.741	88.31
304.971	97.31
305.201	101.31
305.431	83.31
305.661	90.31
305.891	89.31
306.121	106.31
306.352	83.31
306.582	91.31
306.812	91.31
307.042	96.31
307.272	94.31
307.502	88.31
307.731	100.31
307.961	85.31
308.191	81.31
308.421	87.31
308.651	85.31
308.881	93.31
309.111	92.31
309.341	81.31
309.571	95.31
309.8	75.31
310.03	82.31
310.26	96.31
310.49	95.31
310.72	89.31
310.949	95.31
311.179	94.31
311.409	92.31
311.639	91.31
311.868	95.31
312.098	88.31
312.328	86.31
312.557	92.31
312.787	87.31
313.017	106.31
313.246	95.31
313.476	96.31
313.706	96.31
313.935	105.31
314.165	89.31
314.394	108.31
314.624	87.31
314.853	90.31
315.083	93.31
315.312	83.31
315.542	99.31
315.771	87.31
316.001	84.31
316.23	82.31
316.46	87.31
316.689	105.31
316.919	78.31
317.148	91.31
317.377	89.31
317.607	92.31
317.836	100.31
318.065	92.31
318.295	87.31
318.524	92.31
318.753	95.31
318.983	96.31
319.212	103.31
319.441	96.31
319.67	90.31
319.9	84.31
320.129	88.31
320.358	102.31
320.587	88.31
320.816	96.31
321.046	89.31
321.275	104.31
321.504	96.31
321.733	93.31
321.962	89.31
322.191	109.31
322.42	99.31
322.649	99.31
322.878	91.31
323.108	110.31
323.337	112.31
323.566	111.31
323.795	120.31
324.024	148.31
324.253	292.31
324.482	598.31
324.71	1186.31
324.939	1523.31
325.168	595.31
325.397	206.31
325.626	129.31
325.855	103.31
326.084	120.31
326.313	134.31
326.542	125.31
326.77	189.31
326.999	345.31
327.228	696.31
327.457	1200.31
327.686	978.31
327.914	281.31
328.143	151.31
328.372	129.31
328.6	123.31
328.829	114.31
329.058	104.31
329.287	116.31
329.515	94.31
329.744	109.31
329.972	98.31
330.201	86.31
330.43	98.31
330.658	111.31
330.887	121.31
331.115	126.31
331.344	106.31
331.572	93.31
331.801	107.31
332.03	97.31
332.258	99.31
332.486	92.31
332.715	84.31
332.943	99.31
333.172	83.31
333.4	80.31
333.629	93.31
333.857	108.31
334.085	91.31
334.314	84.31
334.542	88.31
334.771	87.31
334.999	99.31
335.227	99.31
335.455	87.31
335.684	85.31
335.912	90.31
336.14	83.31
336.369	99.31
336.597	84.31
336.825	99.31
337.053	103.31
337.281	104.31
337.51	97.31
337.738	98.31
337.966	84.31
338.194	93.31
338.422	93.31
338.65	87.31
338.878	87.31
339.106	88.31
339.334	96.31
339.562	88.31
339.79	91.31
340.018	85.31
340.246	97.31
340.474	87.31
340.702	93.31
340.93	87.31
341.158	102.31
341.386	93.31
341.614	94.31
341.842	95.31
342.07	89.31
342.298	89.31
342.526	79.31
342.754	86.31
342.981	101.31
343.209	92.31
343.437	101.31
343.665	94.31
343.893	92.31
344.12	97.31
344.348	85.31
344.576	101.31
344.804	96.31
345.031	83.31
345.259	91.31
345.487	91.31
345.714	96.31
345.942	86.31
346.17	94.31
346.397	86.31
346.625	85.31
346.853	95.31
347.08	91.31
347.308	104.31
347.535	91.31
347.763	115.31
347.99	100.31
348.218	88.31
348.445	100.31
348.673	95.31
348.9	97.31
349.128	94.31
349.355	84.31
349.583	96.31
349.81	96.31
350.037	87.31
350.265	91.31
350.492	77.31
350.72	91.31
350.947	83.31
351.174	95.31
351.402	105.31
351.629	95.31
351.856	84.31
352.083	100.31
352.311	108.31
352.538	98.31
352.765	96.31
352.992	117.31
353.22	95.31
353.447	92.31
353.674	95.31
353.901	98.31
354.128	94.31
354.355	89.31
354.583	94.31
354.81	90.31
355.037	96.31
355.264	95.31
355.491	99.31
355.718	86.31
355.945	75.31
356.172	91.31
356.399	90.31
356.626	101.31
356.853	81.31
357.08	99.31
357.307	70.31
357.534	96.31
357.761	78.31
357.988	80.31
358.215	100.31
358.441	94.31
358.668	89.31
358.895	84.31
359.122	88.31
359.349	94.31
359.576	75.31
359.802	91.31
360.029	97.31
360.256	103.31
360.483	95.31
360.709	90.31
360.936	78.31
361.163	84.31
361.39	83.31
361.616	97.31
361.843	82.31
362.07	88.31
362.296	94.31
362.523	82.31
362.749	94.31
362.976	83.31
363.203	75.31
363.429	89.31
363.656	78.31
363.882	89.31
364.109	95.31
364.335	81.31
364.562	90.31
364.788	72.31
365.015	72.31
365.241	96.31
365.468	112.31
365.694	102.31
365.92	92.31
366.147	96.31
366.373	95.31
366.599	96.31
366.826	90.31
367.052	100.31
367.278	90.31
367.505	79.31
367.731	102.31
367.957	104.31
368.184	92.31
368.41	84.31
368.636	93.31
368.862	89.31
369.089	101.31
369.315	80.31
369.541	91.31
369.767	81.31
369.993	100.31
370.219	100.31
370.445	84.31
370.672	89.31
370.898	83.31
371.124	75.31
371.35	84.31
371.576	86.31
371.802	102.31
372.028	92.31
372.254	99.31
372.48	98.31
372.706	85.31
372.932	89.31
373.158	85.31
373.384	98.31
373.61	95.31
373.835	79.31
374.061	96.31
374.287	87.31
374.513	79.31
374.739	94.31
374.965	82.31
375.191	82.31
375.416	86.31
375.642	94.31
375.868	97.31
376.094	86.31
376.319	80.31
376.545	80.31
376.771	85.31
376.997	91.31
377.222	96.31
377.448	91.31
377.674	83.31
377.899	91.31
378.125	94.31
378.35	93.31
378.576	98.31
378.802	100.31
379.027	94.31
379.253	97.31
379.478	85.31
379.704	93.31
379.929	96.31
380.155	96.31
380.38	85.31
380.606	95.31
380.831	105.31
381.057	95.31
381.282	89.31
381.507	93.31
381.733	96.31
381.958	97.31
382.184	89.31
382.409	97.31
382.634	96.31
382.86	96.31
383.085	87.31
383.31	102.31
383.535	97.31
383.761	92.31
383.986	99.31
384.211	105.31
384.436	97.31
384.662	106.31
384.887	109.31
385.112	101.31
385.337	108.31
385.562	110.31
385.787	103.31
386.013	106.31
386.238	103.31
386.463	99.31
386.688	105.31
386.913	97.31
387.138	97.31
387.363	96.31
387.588	106.31
387.813	94.31
388.038	98.31
388.263	111.31
388.488	104.31
388.713	101.31
388.938	98.31
389.163	77.31
389.387	107.31
389.612	96.31
389.837	95.31
390.062	91.31
390.287	103.31
390.512	91.31
390.736	79.31
390.961	89.31
391.186	100.31
391.411	107.31
391.636	93.31
391.86	87.31
392.085	87.31
392.31	87.31
392.534	73.31
392.759	91.31
392.984	81.31
393.208	93.31
393.433	92.31
393.658	94.31
393.882	89.31
394.107	87.31
394.331	86.31
394.556	93.31
394.78	79.31
395.005	84.31
395.229	89.31
395.454	82.31
395.678	83.31
395.903	86.31
396.127	70.31
396.352	84.31
396.576	100.31
396.801	94.31
397.025	84.31
397.249	80.31
397.474	81.31
397.698	78.31
397.922	88.31
398.147	75.31
398.371	88.31
398.595	92.31
398.82	97.31
399.044	78.31
399.268	99.31
399.492	98.31
399.717	95.31
399.941	89.31
400.165	81.31
400.389	89.31
400.613	85.31
400.837	88.31
401.062	87.31
401.286	97.31
401.51	96.31
401.734	88.31
401.958	96.31
402.182	101.31
402.406	123.31
402.63	109.31
402.854	87.31
403.078	90.31
403.302	103.31
403.526	83.31
403.75	88.31
403.974	83.31
404.198	89.31
404.422	89.31
404.645	89.31
404.869	95.31
405.093	92.31
405.317	95.31
405.541	89.31
405.765	90.31
405.988	117.31
406.212	146.31
406.436	180.31
406.66	119.31
406.883	93.31
407.107	96.31
407.331	88.31
407.555	93.31
407.778	91.31
408.002	104.31
408.226	79.31
408.449	78.31
408.673	89.31
408.896	87.31
409.12	84.31
409.344	73.31
409.567	95.31
409.791	79.31
410.014	85.31
410.238	88.31
410.461	85.31
410.685	89.31
410.908	86.31
411.132	96.31
411.355	99.31
411.578	109.31
411.802	85.31
412.025	76.31
412.249	93.31
412.472	81.31
412.695	81.31
412.919	89.31
413.142	84.31
413.365	71.31
413.589	72.31
413.812	76.31
414.035	102.31
414.258	110.31
414.482	89.31
414.705	92.31
414.928	83.31
415.151	86.31
415.374	86.31
415.597	87.31
415.821	89.31
416.044	90.31
416.267	83.31
416.49	95.31
416.713	85.31
416.936	89.31
417.159	88.31
417.382	94.31
417.605	88.31
417.828	82.31
418.051	79.31
418.274	77.31
418.497	78.31
418.72	75.31
418.943	81.31
419.166	92.31
419.389	85.31
419.611	92.31
419.834	87.31
420.057	83.31
420.28	80.31
420.503	84.31
420.726	100.31
420.948	77.31
421.171	89.31
421.394	94.31
421.617	76.31
421.839	77.31
422.062	76.31
422.285	86.31
422.507	85.31
422.73	86.31
422.953	100.31
423.175	89.31
423.398	81.31
423.621	71.31
423.843	74.31
424.066	97.31
424.288	84.31
424.511	79.31
424.733	95.31
424.956	91.31
425.178	98.31
425.401	86.31
425.623	96.31
425.846	95.31
426.068	87.31
426.291	73.31
426.513	85.31
426.735	84.31
426.958	87.31
427.18	93.31
427.402	114.31
427.625	137.31
427.847	107.31
428.069	93.31
428.292	97.31
428.514	88.31
428.736	77.31
428.958	59.31
429.181	94.31
429.403	88.31
429.625	80.31
429.847	90.31
430.069	99.31
430.292	88.31
430.514	85.31
430.736	89.31
430.958	80.31
431.18	78.31
431.402	92.31
431.624	85.31
431.846	81.31
432.068	96.31
432.29	88.31
432.512	89.31
432.734	81.31
432.956	95.31
433.178	96.31
433.4	89.31
433.622	93.31
433.844	100.31
434.066	83.31
434.287	87.31
434.509	91.31
434.731	90.31
434.953	82.31
435.175	86.31
435.397	88.31
435.618	95.31
435.84	94.31
436.062	96.31
436.284	102.31
436.505	87.31
436.727	101.31
436.949	87.31
437.17	83.31
437.392	79.31
437.614	100.31
437.835	91.31
438.057	92.31
438.278	99.31
438.5	83.31
438.721	111.31
438.943	101.31
439.165	89.31
439.386	89.31
439.608	94.31
439.829	97.31
440.05	101.31
440.272	122.31
440.493	97.31
440.715	72.31
440.936	94.31
441.158	95.31
441.379	77.31
441.6	78.31
441.822	79.31
442.043	88.31
442.264	93.31
442.486	99.31
442.707	88.31
442.928	96.31
443.149	101.31
443.371	111.31
443.592	99.31
443.813	97.31
444.034	93.31
444.255	92.31
444.476	77.31
444.698	81.31
444.919	103.31
445.14	118.31
445.361	124.31
445.582	108.31
445.803	110.31
446.024	117.31
446.245	112.31
446.466	94.31
446.687	88.31
446.908	90.31
447.129	83.31
447.35	87.31
447.571	91.31
447.792	88.31
448.013	84.31
448.234	92.31
448.455	99.31
448.675	95.31
448.896	111.31
449.117	92.31
449.338	91.31
449.559	112.31
449.779	115.31
450	98.31
450.221	95.31
450.442	89.31
450.662	88.31
450.883	98.31
451.104	98.31
451.324	84.31
451.545	80.31
451.766	92.31
451.986	75.31
452.207	81.31
452.428	91.31
452.648	70.31
452.869	101.31
453.089	77.31
453.31	104.31
453.53	92.31
453.751	82.31
453.971	89.31
454.192	113.31
454.412	79.31
454.633	92.31
454.853	95.31
455.073	94.31
455.294	85.31
455.514	91.31
455.734	88.31
455.955	90.31
456.175	95.31
456.395	88.31
456.616	88.31
456.836	87.31
457.056	93.31
457.276	73.31
457.497	77.31
457.717	75.31
457.937	82.31
458.157	86.31
458.377	75.31
458.598	96.31
458.818	115.31
459.038	120.31
459.258	92.31
459.478	87.31
459.698	83.31
459.918	97.31
460.138	83.31
460.358	87.31
460.578	96.31
460.798	79.31
461.018	101.31
461.238	99.31
461.458	67.31
461.678	83.31
461.898	81.31
462.118	84.31
462.338	87.31
462.558	90.31
462.777	92.31
462.997	94.31
463.217	82.31
463.437	80.31
463.657	75.31
463.876	85.31
464.096	83.31
464.316	87.31
464.536	89.31
464.755	76.31
464.975	96.31
465.195	124.31
465.414	124.31
465.634	73.31
465.854	77.31
466.073	78.31
466.293	84.31
466.512	71.31
466.732	68.31
466.951	75.31
467.171	87.31
467.391	87.31
467.61	85.31
467.829	89.31
468.049	89.31
468.268	90.31
468.488	87.31
468.707	77.31
468.927	87.31
469.146	90.31
469.365	108.31
469.585	95.31
469.804	98.31
470.023	91.31
470.243	92.31
470.462	99.31
470.681	107.31
470.901	72.31
471.12	72.31
471.339	69.31
471.558	89.31
471.777	100.31
471.997	80.31
472.216	88.31
472.435	94.31
472.654	84.31
472.873	83.31
473.092	83.31
473.311	68.31
473.53	71.31
473.749	77.31
473.968	99.31
474.187	103.31
474.406	93.31
474.625	84.31
474.844	95.31
475.063	91.31
475.282	92.31
475.501	92.31
475.72	93.31
475.939	83.31
476.158	71.31
476.377	91.31
476.596	85.31
476.814	85.31
477.033	81.31
477.252	88.31
477.471	79.31
477.69	96.31
477.908	92.31
478.127	88.31
478.346	84.31
478.564	91.31
478.783	94.31
479.002	100.31
479.22	106.31
479.439	102.31
479.658	100.31
479.876	102.31
480.095	94.31
480.313	79.31
480.532	87.31
480.751	84.31
480.969	90.31
481.188	84.31
481.406	92.31
481.624	91.31
481.843	97.31
482.061	103.31
482.28	81.31
482.498	88.31
482.717	89.31
482.935	84.31
483.153	86.31
483.372	93.31
483.59	93.31
483.808	84.31
484.027	93.31
484.245	80.31
484.463	91.31
484.681	101.31
484.9	101.31
485.118	94.31
485.336	94.31
485.554	93.31
485.772	88.31
485.99	93.31
486.209	93.31
486.427	94.31
486.645	101.31
486.863	101.31
487.081	91.31
487.299	88.31
487.517	112.31
487.735	79.31
487.953	73.31
488.171	85.31
488.389	87.31
488.607	111.31
488.825	87.31
489.043	84.31
489.261	86.31
489.479	84.31
489.696	90.31
489.914	92.31
490.132	92.31
490.35	89.31
490.568	81.31
490.786	85.31
491.003	92.31
491.221	88.31
491.439	86.31
491.657	91.31
491.874	87.31
492.092	93.31
492.31	81.31
492.527	80.31
492.745	75.31
492.963	86.31
493.18	91.31
493.398	88.31
493.615	80.31
493.833	66.31
494.05	92.31
494.268	86.31
494.485	71.31
494.703	88.31
494.92	81.31
495.138	73.31
495.355	107.31
495.573	95.31
495.79	97.31
496.008	86.31
496.225	106.31
496.442	80.31
496.66	101.31
496.877	93.31
497.094	97.31
497.312	93.31
497.529	92.31
497.746	87.31
497.963	87.31
498.181	88.31
498.398	93.31
498.615	119.31
498.832	95.31
499.049	93.31
499.267	84.31
499.484	84.31
499.701	96.31
499.918	97.31
500.135	89.31
500.352	92.31
500.569	84.31
500.786	79.31
501.003	109.31
501.22	89.31
501.437	88.31
501.654	91.31
501.871	96.31
502.088	85.31
502.305	99.31
502.522	84.31
502.739	83.31
502.956	83.31
503.172	93.31
503.389	96.31
503.606	103.31
503.823	95.31
504.04	95.31
504.256	94.31
504.473	87.31
504.69	80.31
504.907	83.31
505.123	88.31
505.34	111.31
505.557	89.31
505.773	78.31
505.99	105.31
506.207	88.31
506.423	76.31
506.64	72.31
506.856	87.31
507.073	85.31
507.289	85.31
507.506	100.31
507.722	107.31
507.939	99.31
508.155	105.31
508.372	98.31
508.588	97.31
508.805	83.31
509.021	98.31
509.238	98.31
509.454	97.31
509.67	101.31
509.887	99.31
510.103	119.31
510.319	196.31
510.536	601.31
510.752	1675.31
510.968	495.31
511.184	148.31
511.401	116.31
511.617	94.31
511.833	107.31
512.049	95.31
512.265	96.31
512.481	93.31
512.698	86.31
512.914	87.31
513.13	105.31
513.346	86.31
513.562	95.31
513.778	94.31
513.994	88.31
514.21	99.31
514.426	124.31
514.642	124.31
514.858	117.31
515.074	140.31
515.29	331.31
515.506	1015.31
515.721	403.31
515.937	117.31
516.153	105.31
516.369	100.31
516.585	86.31
516.801	86.31
517.016	96.31
517.232	84.31
