Data from Uncirc_2006_H10_HRD10591_00077.txt Node
Date: Wed Jan 03 10:25:10 EST 2024
User: Yrep
Spectrometer: HR+D1059
Trigger mode: 1
Integration Time (sec): 1.000000E-1
Scans to average: 1
Electric dark correction enabled: true
Nonlinearity correction enabled: false
Boxcar width: 0
XAxis mode: Wavelengths
Number of Pixels in Spectrum: 2048
>>>>>Begin Spectral Data<<<<<
223.165	-10.5
223.4	-10.5
223.635	-10.5
223.869	-15.5
224.104	-37.5
224.338	-4.5
224.573	-17.5
224.808	-7.5
225.042	-7.5
225.277	-2.5
225.511	-3.5
225.746	4.5
225.98	3.5
226.215	3.5
226.449	13.5
226.683	31.5
226.918	24.5
227.152	25.5
227.387	33.5
227.621	46.5
227.856	40.5
228.09	33.5
228.324	39.5
228.559	67.5
228.793	62.5
229.027	59.5
229.262	69.5
229.496	71.5
229.73	86.5
229.964	85.5
230.199	67.5
230.433	69.5
230.667	84.5
230.901	80.5
231.136	65.5
231.37	79.5
231.604	74.5
231.838	74.5
232.072	95.5
232.306	83.5
232.541	81.5
232.775	81.5
233.009	84.5
233.243	71.5
233.477	73.5
233.711	81.5
233.945	82.5
234.179	71.5
234.413	82.5
234.647	60.5
234.881	72.5
235.115	84.5
235.349	76.5
235.583	81.5
235.817	89.5
236.051	74.5
236.285	64.5
236.519	69.5
236.753	80.5
236.987	75.5
237.221	78.5
237.455	98.5
237.689	91.5
237.922	77.5
238.156	75.5
238.39	74.5
238.624	81.5
238.858	76.5
239.091	75.5
239.325	68.5
239.559	78.5
239.793	78.5
240.027	71.5
240.26	83.5
240.494	80.5
240.728	73.5
240.961	70.5
241.195	72.5
241.429	89.5
241.662	82.5
241.896	89.5
242.13	84.5
242.363	85.5
242.597	67.5
242.83	60.5
243.064	87.5
243.298	83.5
243.531	77.5
243.765	75.5
243.998	83.5
244.232	64.5
244.465	76.5
244.699	81.5
244.932	91.5
245.166	75.5
245.399	69.5
245.633	71.5
245.866	79.5
246.099	76.5
246.333	89.5
246.566	83.5
246.8	67.5
247.033	73.5
247.266	65.5
247.5	79.5
247.733	80.5
247.966	78.5
248.2	75.5
248.433	88.5
248.666	72.5
248.899	82.5
249.133	80.5
249.366	91.5
249.599	90.5
249.832	85.5
250.066	82.5
250.299	82.5
250.532	88.5
250.765	77.5
250.998	82.5
251.231	81.5
251.465	73.5
251.698	77.5
251.931	83.5
252.164	79.5
252.397	75.5
252.63	85.5
252.863	81.5
253.096	76.5
253.329	80.5
253.562	93.5
253.795	79.5
254.028	61.5
254.261	86.5
254.494	81.5
254.727	84.5
254.96	82.5
255.193	95.5
255.426	72.5
255.659	80.5
255.892	74.5
256.124	73.5
256.357	75.5
256.59	94.5
256.823	86.5
257.056	77.5
257.289	79.5
257.521	89.5
257.754	89.5
257.987	67.5
258.22	80.5
258.452	63.5
258.685	90.5
258.918	75.5
259.151	81.5
259.383	90.5
259.616	86.5
259.849	77.5
260.081	77.5
260.314	78.5
260.547	81.5
260.779	86.5
261.012	82.5
261.244	73.5
261.477	92.5
261.71	81.5
261.942	121.5
262.175	114.5
262.407	106.5
262.64	85.5
262.872	100.5
263.105	83.5
263.337	75.5
263.57	76.5
263.802	81.5
264.035	94.5
264.267	76.5
264.499	81.5
264.732	82.5
264.964	76.5
265.197	90.5
265.429	70.5
265.661	79.5
265.894	90.5
266.126	75.5
266.358	81.5
266.591	83.5
266.823	90.5
267.055	77.5
267.287	90.5
267.52	95.5
267.752	94.5
267.984	83.5
268.216	79.5
268.448	86.5
268.681	78.5
268.913	79.5
269.145	82.5
269.377	81.5
269.609	77.5
269.841	77.5
270.073	73.5
270.306	79.5
270.538	88.5
270.77	93.5
271.002	85.5
271.234	65.5
271.466	85.5
271.698	77.5
271.93	71.5
272.162	82.5
272.394	89.5
272.626	72.5
272.858	68.5
273.09	74.5
273.322	88.5
273.553	82.5
273.785	80.5
274.017	85.5
274.249	82.5
274.481	101.5
274.713	95.5
274.945	76.5
275.176	92.5
275.408	79.5
275.64	86.5
275.872	77.5
276.104	92.5
276.335	91.5
276.567	106.5
276.799	96.5
277.031	93.5
277.262	88.5
277.494	86.5
277.726	102.5
277.957	91.5
278.189	86.5
278.421	72.5
278.652	74.5
278.884	95.5
279.115	97.5
279.347	90.5
279.579	86.5
279.81	101.5
280.042	78.5
280.273	87.5
280.505	96.5
280.736	76.5
280.968	93.5
281.199	86.5
281.431	91.5
281.662	89.5
281.894	101.5
282.125	90.5
282.356	108.5
282.588	122.5
282.819	108.5
283.051	83.5
283.282	83.5
283.513	91.5
283.745	100.5
283.976	91.5
284.207	92.5
284.439	81.5
284.67	86.5
284.901	96.5
285.132	97.5
285.364	85.5
285.595	87.5
285.826	81.5
286.057	85.5
286.288	91.5
286.52	84.5
286.751	82.5
286.982	72.5
287.213	87.5
287.444	93.5
287.675	92.5
287.906	78.5
288.138	91.5
288.369	93.5
288.6	84.5
288.831	88.5
289.062	97.5
289.293	92.5
289.524	80.5
289.755	85.5
289.986	96.5
290.217	81.5
290.448	96.5
290.679	82.5
290.91	78.5
291.141	86.5
291.371	75.5
291.602	82.5
291.833	90.5
292.064	105.5
292.295	99.5
292.526	81.5
292.757	95.5
292.987	94.5
293.218	80.5
293.449	88.5
293.68	85.5
293.91	91.5
294.141	83.5
294.372	86.5
294.603	84.5
294.833	91.5
295.064	90.5
295.295	97.5
295.525	78.5
295.756	99.5
295.987	115.5
296.217	126.5
296.448	116.5
296.679	86.5
296.909	81.5
297.14	89.5
297.37	93.5
297.601	85.5
297.831	85.5
298.062	87.5
298.292	97.5
298.523	92.5
298.753	75.5
298.984	94.5
299.214	89.5
299.445	79.5
299.675	78.5
299.905	96.5
300.136	84.5
300.366	95.5
300.597	90.5
300.827	86.5
301.057	93.5
301.288	114.5
301.518	95.5
301.748	91.5
301.979	98.5
302.209	92.5
302.439	90.5
302.669	77.5
302.9	92.5
303.13	89.5
303.36	80.5
303.59	99.5
303.82	89.5
304.051	109.5
304.281	72.5
304.511	75.5
304.741	85.5
304.971	78.5
305.201	92.5
305.431	85.5
305.661	100.5
305.891	83.5
306.121	96.5
306.352	98.5
306.582	99.5
306.812	93.5
307.042	82.5
307.272	88.5
307.502	96.5
307.731	87.5
307.961	96.5
308.191	90.5
308.421	83.5
308.651	86.5
308.881	89.5
309.111	86.5
309.341	100.5
309.571	94.5
309.8	93.5
310.03	89.5
310.26	101.5
310.49	81.5
310.72	92.5
310.949	99.5
311.179	96.5
311.409	100.5
311.639	84.5
311.868	90.5
312.098	92.5
312.328	84.5
312.557	105.5
312.787	101.5
313.017	93.5
313.246	88.5
313.476	92.5
313.706	83.5
313.935	89.5
314.165	100.5
314.394	99.5
314.624	90.5
314.853	110.5
315.083	94.5
315.312	85.5
315.542	97.5
315.771	86.5
316.001	83.5
316.23	98.5
316.46	78.5
316.689	85.5
316.919	103.5
317.148	84.5
317.377	91.5
317.607	85.5
317.836	75.5
318.065	82.5
318.295	91.5
318.524	73.5
318.753	85.5
318.983	94.5
319.212	92.5
319.441	107.5
319.67	96.5
319.9	97.5
320.129	92.5
320.358	94.5
320.587	83.5
320.816	93.5
321.046	99.5
321.275	117.5
321.504	88.5
321.733	100.5
321.962	97.5
322.191	93.5
322.42	99.5
322.649	102.5
322.878	112.5
323.108	120.5
323.337	111.5
323.566	122.5
323.795	148.5
324.024	220.5
324.253	410.5
324.482	821.5
324.71	1744.5
324.939	2252.5
325.168	803.5
325.397	253.5
325.626	155.5
325.855	122.5
326.084	119.5
326.313	121.5
326.542	128.5
326.77	211.5
326.999	473.5
327.228	986.5
327.457	1760.5
327.686	1356.5
327.914	367.5
328.143	188.5
328.372	150.5
328.6	123.5
328.829	107.5
329.058	124.5
329.287	118.5
329.515	97.5
329.744	110.5
329.972	97.5
330.201	93.5
330.43	99.5
330.658	96.5
330.887	116.5
331.115	110.5
331.344	89.5
331.572	107.5
331.801	94.5
332.03	90.5
332.258	96.5
332.486	82.5
332.715	97.5
332.943	80.5
333.172	99.5
333.4	97.5
333.629	95.5
333.857	101.5
334.085	98.5
334.314	94.5
334.542	92.5
334.771	100.5
334.999	100.5
335.227	90.5
335.455	89.5
335.684	95.5
335.912	97.5
336.14	79.5
336.369	105.5
336.597	86.5
336.825	104.5
337.053	84.5
337.281	96.5
337.51	89.5
337.738	81.5
337.966	82.5
338.194	89.5
338.422	90.5
338.65	81.5
338.878	80.5
339.106	84.5
339.334	99.5
339.562	86.5
339.79	94.5
340.018	91.5
340.246	80.5
340.474	83.5
340.702	80.5
340.93	86.5
341.158	85.5
341.386	99.5
341.614	107.5
341.842	80.5
342.07	96.5
342.298	87.5
342.526	87.5
342.754	100.5
342.981	83.5
343.209	84.5
343.437	92.5
343.665	82.5
343.893	92.5
344.12	86.5
344.348	98.5
344.576	88.5
344.804	96.5
345.031	104.5
345.259	106.5
345.487	102.5
345.714	82.5
345.942	91.5
346.17	82.5
346.397	84.5
346.625	90.5
346.853	90.5
347.08	92.5
347.308	90.5
347.535	97.5
347.763	97.5
347.99	102.5
348.218	92.5
348.445	103.5
348.673	80.5
348.9	96.5
349.128	99.5
349.355	93.5
349.583	101.5
349.81	101.5
350.037	90.5
350.265	85.5
350.492	87.5
350.72	89.5
350.947	104.5
351.174	102.5
351.402	99.5
351.629	102.5
351.856	100.5
352.083	97.5
352.311	97.5
352.538	98.5
352.765	107.5
352.992	89.5
353.22	118.5
353.447	96.5
353.674	98.5
353.901	110.5
354.128	96.5
354.355	79.5
354.583	104.5
354.81	97.5
355.037	82.5
355.264	95.5
355.491	83.5
355.718	80.5
355.945	91.5
356.172	80.5
356.399	98.5
356.626	97.5
356.853	97.5
357.08	81.5
357.307	95.5
357.534	82.5
357.761	90.5
357.988	89.5
358.215	96.5
358.441	97.5
358.668	99.5
358.895	88.5
359.122	91.5
359.349	69.5
359.576	96.5
359.802	98.5
360.029	111.5
360.256	110.5
360.483	101.5
360.709	90.5
360.936	103.5
361.163	93.5
361.39	97.5
361.616	93.5
361.843	89.5
362.07	72.5
362.296	86.5
362.523	92.5
362.749	82.5
362.976	98.5
363.203	85.5
363.429	94.5
363.656	93.5
363.882	86.5
364.109	87.5
364.335	91.5
364.562	99.5
364.788	80.5
365.015	90.5
365.241	96.5
365.468	109.5
365.694	94.5
365.92	107.5
366.147	83.5
366.373	98.5
366.599	90.5
366.826	92.5
367.052	108.5
367.278	81.5
367.505	85.5
367.731	97.5
367.957	80.5
368.184	90.5
368.41	92.5
368.636	104.5
368.862	100.5
369.089	93.5
369.315	78.5
369.541	87.5
369.767	93.5
369.993	86.5
370.219	76.5
370.445	85.5
370.672	97.5
370.898	96.5
371.124	91.5
371.35	80.5
371.576	88.5
371.802	83.5
372.028	81.5
372.254	89.5
372.48	91.5
372.706	97.5
372.932	91.5
373.158	86.5
373.384	88.5
373.61	81.5
373.835	86.5
374.061	84.5
374.287	96.5
374.513	82.5
374.739	87.5
374.965	91.5
375.191	89.5
375.416	89.5
375.642	96.5
375.868	97.5
376.094	82.5
376.319	86.5
376.545	75.5
376.771	91.5
376.997	90.5
377.222	90.5
377.448	90.5
377.674	90.5
377.899	95.5
378.125	91.5
378.35	80.5
378.576	84.5
378.802	86.5
379.027	82.5
379.253	90.5
379.478	76.5
379.704	86.5
379.929	95.5
380.155	81.5
380.38	107.5
380.606	94.5
380.831	91.5
381.057	100.5
381.282	78.5
381.507	73.5
381.733	98.5
381.958	108.5
382.184	82.5
382.409	82.5
382.634	92.5
382.86	102.5
383.085	82.5
383.31	98.5
383.535	96.5
383.761	94.5
383.986	92.5
384.211	98.5
384.436	94.5
384.662	89.5
384.887	96.5
385.112	105.5
385.337	104.5
385.562	84.5
385.787	91.5
386.013	99.5
386.238	102.5
386.463	104.5
386.688	109.5
386.913	100.5
387.138	106.5
387.363	100.5
387.588	87.5
387.813	108.5
388.038	108.5
388.263	96.5
388.488	122.5
388.713	94.5
388.938	104.5
389.163	98.5
389.387	98.5
389.612	102.5
389.837	78.5
390.062	93.5
390.287	100.5
390.512	86.5
390.736	88.5
390.961	88.5
391.186	97.5
391.411	105.5
391.636	88.5
391.86	100.5
392.085	87.5
392.31	83.5
392.534	77.5
392.759	87.5
392.984	68.5
393.208	89.5
393.433	70.5
393.658	91.5
393.882	80.5
394.107	88.5
394.331	91.5
394.556	95.5
394.78	100.5
395.005	78.5
395.229	99.5
395.454	80.5
395.678	76.5
395.903	86.5
396.127	107.5
396.352	80.5
396.576	104.5
396.801	90.5
397.025	98.5
397.249	73.5
397.474	94.5
397.698	98.5
397.922	82.5
398.147	84.5
398.371	85.5
398.595	89.5
398.82	72.5
399.044	85.5
399.268	80.5
399.492	87.5
399.717	75.5
399.941	90.5
400.165	95.5
400.389	98.5
400.613	89.5
400.837	81.5
401.062	93.5
401.286	85.5
401.51	102.5
401.734	96.5
401.958	109.5
402.182	111.5
402.406	141.5
402.63	111.5
402.854	89.5
403.078	76.5
403.302	87.5
403.526	92.5
403.75	93.5
403.974	74.5
404.198	84.5
404.422	82.5
404.645	94.5
404.869	77.5
405.093	85.5
405.317	99.5
405.541	84.5
405.765	90.5
405.988	103.5
406.212	158.5
406.436	211.5
406.66	143.5
406.883	106.5
407.107	89.5
407.331	82.5
407.555	89.5
407.778	84.5
408.002	92.5
408.226	89.5
408.449	82.5
408.673	96.5
408.896	96.5
409.12	87.5
409.344	85.5
409.567	75.5
409.791	85.5
410.014	90.5
410.238	70.5
410.461	92.5
410.685	80.5
410.908	101.5
411.132	97.5
411.355	101.5
411.578	92.5
411.802	87.5
412.025	89.5
412.249	72.5
412.472	88.5
412.695	86.5
412.919	85.5
413.142	83.5
413.365	89.5
413.589	79.5
413.812	86.5
414.035	94.5
414.258	82.5
414.482	100.5
414.705	80.5
414.928	108.5
415.151	104.5
415.374	88.5
415.597	83.5
415.821	87.5
416.044	91.5
416.267	100.5
416.49	88.5
416.713	77.5
416.936	84.5
417.159	91.5
417.382	87.5
417.605	73.5
417.828	87.5
418.051	92.5
418.274	84.5
418.497	83.5
418.72	98.5
418.943	102.5
419.166	79.5
419.389	85.5
419.611	92.5
419.834	88.5
420.057	86.5
420.28	82.5
420.503	86.5
420.726	99.5
420.948	81.5
421.171	94.5
421.394	81.5
421.617	76.5
421.839	86.5
422.062	75.5
422.285	93.5
422.507	88.5
422.73	100.5
422.953	85.5
423.175	78.5
423.398	89.5
423.621	72.5
423.843	74.5
424.066	90.5
424.288	77.5
424.511	93.5
424.733	84.5
424.956	102.5
425.178	88.5
425.401	90.5
425.623	96.5
425.846	80.5
426.068	91.5
426.291	85.5
426.513	100.5
426.735	88.5
426.958	107.5
427.18	82.5
427.402	117.5
427.625	144.5
427.847	100.5
428.069	90.5
428.292	73.5
428.514	84.5
428.736	73.5
428.958	80.5
429.181	94.5
429.403	78.5
429.625	89.5
429.847	81.5
430.069	93.5
430.292	84.5
430.514	102.5
430.736	90.5
430.958	81.5
431.18	77.5
431.402	76.5
431.624	81.5
431.846	79.5
432.068	90.5
432.29	80.5
432.512	106.5
432.734	89.5
432.956	89.5
433.178	98.5
433.4	90.5
433.622	88.5
433.844	90.5
434.066	77.5
434.287	84.5
434.509	105.5
434.731	91.5
434.953	99.5
435.175	102.5
435.397	95.5
435.618	95.5
435.84	92.5
436.062	114.5
436.284	121.5
436.505	108.5
436.727	108.5
436.949	82.5
437.17	90.5
437.392	79.5
437.614	91.5
437.835	118.5
438.057	120.5
438.278	98.5
438.5	103.5
438.721	113.5
438.943	99.5
439.165	86.5
439.386	66.5
439.608	86.5
439.829	89.5
440.05	109.5
440.272	131.5
440.493	95.5
440.715	93.5
440.936	81.5
441.158	97.5
441.379	90.5
441.6	92.5
441.822	82.5
442.043	94.5
442.264	94.5
442.486	98.5
442.707	102.5
442.928	94.5
443.149	129.5
443.371	109.5
443.592	107.5
443.813	93.5
444.034	113.5
444.255	85.5
444.476	93.5
444.698	81.5
444.919	66.5
445.14	121.5
445.361	114.5
445.582	113.5
445.803	136.5
446.024	134.5
446.245	125.5
446.466	113.5
446.687	96.5
446.908	82.5
447.129	95.5
447.35	91.5
447.571	83.5
447.792	101.5
448.013	93.5
448.234	111.5
448.455	82.5
448.675	113.5
448.896	114.5
449.117	110.5
449.338	108.5
449.559	125.5
449.779	124.5
450	92.5
450.221	78.5
450.442	77.5
450.662	97.5
450.883	107.5
451.104	100.5
451.324	85.5
451.545	97.5
451.766	81.5
451.986	79.5
452.207	90.5
452.428	82.5
452.648	93.5
452.869	112.5
453.089	112.5
453.31	122.5
453.53	78.5
453.751	95.5
453.971	92.5
454.192	98.5
454.412	77.5
454.633	87.5
454.853	81.5
455.073	76.5
455.294	96.5
455.514	100.5
455.734	95.5
455.955	83.5
456.175	88.5
456.395	88.5
456.616	92.5
456.836	83.5
457.056	79.5
457.276	79.5
457.497	77.5
457.717	85.5
457.937	81.5
458.157	96.5
458.377	85.5
458.598	95.5
458.818	125.5
459.038	145.5
459.258	108.5
459.478	83.5
459.698	86.5
459.918	75.5
460.138	78.5
460.358	73.5
460.578	87.5
460.798	99.5
461.018	78.5
461.238	88.5
461.458	77.5
461.678	88.5
461.898	83.5
462.118	92.5
462.338	98.5
462.558	95.5
462.777	91.5
462.997	93.5
463.217	89.5
463.437	92.5
463.657	85.5
463.876	84.5
464.096	87.5
464.316	86.5
464.536	91.5
464.755	75.5
464.975	87.5
465.195	134.5
465.414	150.5
465.634	100.5
465.854	75.5
466.073	85.5
466.293	94.5
466.512	100.5
466.732	90.5
466.951	105.5
467.171	93.5
467.391	95.5
467.61	77.5
467.829	92.5
468.049	85.5
468.268	89.5
468.488	82.5
468.707	81.5
468.927	88.5
469.146	88.5
469.365	83.5
469.585	95.5
469.804	81.5
470.023	93.5
470.243	84.5
470.462	91.5
470.681	98.5
470.901	104.5
471.12	89.5
471.339	94.5
471.558	81.5
471.777	86.5
471.997	95.5
472.216	83.5
472.435	82.5
472.654	90.5
472.873	91.5
473.092	78.5
473.311	70.5
473.53	77.5
473.749	88.5
473.968	106.5
474.187	100.5
474.406	79.5
474.625	76.5
474.844	83.5
475.063	82.5
475.282	92.5
475.501	84.5
475.72	94.5
475.939	72.5
476.158	90.5
476.377	81.5
476.596	88.5
476.814	103.5
477.033	97.5
477.252	80.5
477.471	86.5
477.69	82.5
477.908	86.5
478.127	90.5
478.346	77.5
478.564	85.5
478.783	88.5
479.002	80.5
479.22	80.5
479.439	100.5
479.658	97.5
479.876	93.5
480.095	74.5
480.313	86.5
480.532	79.5
480.751	91.5
480.969	80.5
481.188	96.5
481.406	69.5
481.624	97.5
481.843	90.5
482.061	84.5
482.28	92.5
482.498	87.5
482.717	92.5
482.935	88.5
483.153	82.5
483.372	92.5
483.59	78.5
483.808	86.5
484.027	98.5
484.245	89.5
484.463	81.5
484.681	99.5
484.9	75.5
485.118	82.5
485.336	90.5
485.554	120.5
485.772	94.5
485.99	92.5
486.209	90.5
486.427	106.5
486.645	102.5
486.863	106.5
487.081	88.5
487.299	99.5
487.517	86.5
487.735	94.5
487.953	92.5
488.171	88.5
488.389	94.5
488.607	81.5
488.825	93.5
489.043	107.5
489.261	91.5
489.479	81.5
489.696	85.5
489.914	81.5
490.132	98.5
490.35	90.5
490.568	99.5
490.786	88.5
491.003	67.5
491.221	83.5
491.439	93.5
491.657	92.5
491.874	86.5
492.092	85.5
492.31	90.5
492.527	85.5
492.745	86.5
492.963	87.5
493.18	96.5
493.398	99.5
493.615	91.5
493.833	97.5
494.05	84.5
494.268	81.5
494.485	84.5
494.703	84.5
494.92	88.5
495.138	75.5
495.355	95.5
495.573	95.5
495.79	100.5
496.008	86.5
496.225	90.5
496.442	86.5
496.66	85.5
496.877	108.5
497.094	85.5
497.312	85.5
497.529	94.5
497.746	89.5
497.963	81.5
498.181	81.5
498.398	96.5
498.615	107.5
498.832	97.5
499.049	97.5
499.267	84.5
499.484	99.5
499.701	87.5
499.918	93.5
500.135	78.5
500.352	81.5
500.569	85.5
500.786	95.5
501.003	82.5
501.22	84.5
501.437	80.5
501.654	86.5
501.871	107.5
502.088	91.5
502.305	90.5
502.522	97.5
502.739	100.5
502.956	92.5
503.172	89.5
503.389	100.5
503.606	108.5
503.823	100.5
504.04	87.5
504.256	101.5
504.473	86.5
504.69	92.5
504.907	88.5
505.123	87.5
505.34	81.5
505.557	89.5
505.773	88.5
505.99	79.5
506.207	94.5
506.423	82.5
506.64	88.5
506.856	98.5
507.073	92.5
507.289	94.5
507.506	93.5
507.722	115.5
507.939	114.5
508.155	105.5
508.372	100.5
508.588	88.5
508.805	100.5
509.021	88.5
509.238	108.5
509.454	85.5
509.67	79.5
509.887	104.5
510.103	124.5
510.319	198.5
510.536	701.5
510.752	2168.5
510.968	617.5
511.184	145.5
511.401	91.5
511.617	95.5
511.833	108.5
512.049	98.5
512.265	95.5
512.481	96.5
512.698	99.5
512.914	105.5
513.13	85.5
513.346	107.5
513.562	90.5
513.778	98.5
513.994	108.5
514.21	89.5
514.426	106.5
514.642	121.5
514.858	124.5
515.074	151.5
515.29	404.5
515.506	1319.5
515.721	498.5
515.937	143.5
516.153	108.5
516.369	108.5
516.585	92.5
516.801	89.5
517.016	92.5
517.232	94.5
517.448	81.5
517.664	92.5
517.879	92.5
518.095	91.5
518.311	94.5
518.527	73.5
518.742	102.5
518.958	93.5
519.173	94.5
519.389	91.5
519.605	95.5
519.82	89.5
520.036	107.5
520.251	125.5
520.467	112.5
520.682	118.5
520.898	108.5
521.113	113.5
521.329	118.5
521.544	172.5
521.76	512.5
521.975	2170.5
522.19	1308.5
522.406	286.5
522.621	123.5
522.836	110.5
523.052	95.5
523.267	82.5
523.482	90.5
523.698	100.5
523.913	103.5
524.128	90.5
524.343	90.5
524.559	101.5
524.774	92.5
524.989	92.5
525.204	94.5
525.419	95.5
525.634	97.5
525.849	89.5
526.064	94.5
526.28	92.5
526.495	79.5
526.71	83.5
526.925	94.5
527.14	87.5
527.355	94.5
527.57	93.5
527.785	81.5
527.999	110.5
528.214	104.5
528.429	108.5
528.644	74.5
528.859	90.5
529.074	99.5
529.289	138.5
529.503	156.5
529.718	100.5
529.933	90.5
530.148	97.5
530.363	92.5
530.577	83.5
530.792	88.5
531.007	99.5
531.221	83.5
531.436	78.5
531.651	84.5
531.865	91.5
532.08	91.5
532.295	102.5
532.509	79.5
532.724	101.5
532.938	103.5
533.153	102.5
533.367	75.5
533.582	90.5
533.796	99.5
534.011	68.5
534.225	69.5
534.44	97.5
534.654	89.5
534.868	97.5
535.083	87.5
535.297	93.5
535.511	94.5
535.726	92.5
535.94	93.5
536.154	100.5
536.369	85.5
