Data from Uncirc_2006_H10_HRD10591_00003.txt Node
Date: Wed Jan 03 10:24:55 EST 2024
User: Yrep
Spectrometer: HR+D1059
Trigger mode: 1
Integration Time (sec): 1.000000E-1
Scans to average: 1
Electric dark correction enabled: true
Nonlinearity correction enabled: false
Boxcar width: 0
XAxis mode: Wavelengths
Number of Pixels in Spectrum: 2048
>>>>>Begin Spectral Data<<<<<
223.165	-6.5
223.4	-6.5
223.635	-6.5
223.869	-9.5
224.104	-11.5
224.338	-4.5
224.573	-32.5
224.808	-13.5
225.042	-8.5
225.277	0.5
225.511	-4.5
225.746	-1.5
225.98	11.5
226.215	7.5
226.449	17.5
226.683	13.5
226.918	10.5
227.152	31.5
227.387	42.5
227.621	42.5
227.856	49.5
228.09	46.5
228.324	62.5
228.559	49.5
228.793	61.5
229.027	62.5
229.262	71.5
229.496	72.5
229.73	63.5
229.964	68.5
230.199	62.5
230.433	80.5
230.667	68.5
230.901	74.5
231.136	74.5
231.37	90.5
231.604	98.5
231.838	72.5
232.072	78.5
232.306	93.5
232.541	74.5
232.775	81.5
233.009	90.5
233.243	69.5
233.477	73.5
233.711	75.5
233.945	84.5
234.179	76.5
234.413	91.5
234.647	81.5
234.881	84.5
235.115	81.5
235.349	91.5
235.583	85.5
235.817	83.5
236.051	87.5
236.285	78.5
236.519	73.5
236.753	76.5
236.987	82.5
237.221	77.5
237.455	80.5
237.689	70.5
237.922	66.5
238.156	84.5
238.39	78.5
238.624	73.5
238.858	61.5
239.091	66.5
239.325	75.5
239.559	63.5
239.793	85.5
240.027	86.5
240.26	76.5
240.494	71.5
240.728	73.5
240.961	75.5
241.195	71.5
241.429	78.5
241.662	59.5
241.896	80.5
242.13	62.5
242.363	74.5
242.597	67.5
242.83	77.5
243.064	80.5
243.298	79.5
243.531	87.5
243.765	80.5
243.998	87.5
244.232	72.5
244.465	80.5
244.699	81.5
244.932	76.5
245.166	71.5
245.399	64.5
245.633	75.5
245.866	87.5
246.099	86.5
246.333	78.5
246.566	85.5
246.8	73.5
247.033	82.5
247.266	94.5
247.5	90.5
247.733	78.5
247.966	87.5
248.2	77.5
248.433	75.5
248.666	70.5
248.899	61.5
249.133	75.5
249.366	82.5
249.599	102.5
249.832	84.5
250.066	90.5
250.299	73.5
250.532	73.5
250.765	74.5
250.998	83.5
251.231	84.5
251.465	81.5
251.698	77.5
251.931	81.5
252.164	80.5
252.397	78.5
252.63	89.5
252.863	74.5
253.096	53.5
253.329	84.5
253.562	73.5
253.795	82.5
254.028	80.5
254.261	79.5
254.494	87.5
254.727	81.5
254.96	82.5
255.193	83.5
255.426	87.5
255.659	67.5
255.892	101.5
256.124	85.5
256.357	89.5
256.59	73.5
256.823	78.5
257.056	83.5
257.289	74.5
257.521	87.5
257.754	89.5
257.987	79.5
258.22	83.5
258.452	93.5
258.685	68.5
258.918	68.5
259.151	63.5
259.383	79.5
259.616	82.5
259.849	84.5
260.081	75.5
260.314	97.5
260.547	85.5
260.779	83.5
261.012	89.5
261.244	79.5
261.477	89.5
261.71	95.5
261.942	104.5
262.175	110.5
262.407	95.5
262.64	73.5
262.872	82.5
263.105	82.5
263.337	91.5
263.57	67.5
263.802	82.5
264.035	79.5
264.267	86.5
264.499	84.5
264.732	94.5
264.964	83.5
265.197	84.5
265.429	69.5
265.661	87.5
265.894	93.5
266.126	82.5
266.358	87.5
266.591	68.5
266.823	83.5
267.055	84.5
267.287	83.5
267.52	74.5
267.752	93.5
267.984	83.5
268.216	87.5
268.448	90.5
268.681	91.5
268.913	67.5
269.145	84.5
269.377	89.5
269.609	84.5
269.841	102.5
270.073	86.5
270.306	94.5
270.538	77.5
270.77	79.5
271.002	86.5
271.234	91.5
271.466	97.5
271.698	74.5
271.93	69.5
272.162	81.5
272.394	80.5
272.626	75.5
272.858	79.5
273.09	71.5
273.322	78.5
273.553	58.5
273.785	79.5
274.017	75.5
274.249	94.5
274.481	73.5
274.713	93.5
274.945	97.5
275.176	87.5
275.408	82.5
275.64	81.5
275.872	75.5
276.104	92.5
276.335	87.5
276.567	84.5
276.799	94.5
277.031	85.5
277.262	83.5
277.494	93.5
277.726	87.5
277.957	91.5
278.189	90.5
278.421	95.5
278.652	86.5
278.884	74.5
279.115	95.5
279.347	76.5
279.579	74.5
279.81	73.5
280.042	75.5
280.273	76.5
280.505	67.5
280.736	88.5
280.968	79.5
281.199	83.5
281.431	82.5
281.662	89.5
281.894	89.5
282.125	105.5
282.356	109.5
282.588	143.5
282.819	111.5
283.051	78.5
283.282	83.5
283.513	82.5
283.745	96.5
283.976	84.5
284.207	70.5
284.439	83.5
284.67	91.5
284.901	93.5
285.132	79.5
285.364	97.5
285.595	93.5
285.826	73.5
286.057	82.5
286.288	70.5
286.52	101.5
286.751	82.5
286.982	87.5
287.213	82.5
287.444	85.5
287.675	87.5
287.906	81.5
288.138	79.5
288.369	98.5
288.6	95.5
288.831	83.5
289.062	82.5
289.293	82.5
289.524	97.5
289.755	98.5
289.986	92.5
290.217	74.5
290.448	94.5
290.679	96.5
290.91	99.5
291.141	79.5
291.371	75.5
291.602	79.5
291.833	91.5
292.064	87.5
292.295	105.5
292.526	78.5
292.757	83.5
292.987	91.5
293.218	77.5
293.449	77.5
293.68	94.5
293.91	89.5
294.141	90.5
294.372	94.5
294.603	97.5
294.833	84.5
295.064	90.5
295.295	96.5
295.525	92.5
295.756	97.5
295.987	113.5
296.217	123.5
296.448	122.5
296.679	91.5
296.909	104.5
297.14	97.5
297.37	76.5
297.601	81.5
297.831	83.5
298.062	81.5
298.292	111.5
298.523	86.5
298.753	87.5
298.984	97.5
299.214	89.5
299.445	83.5
299.675	74.5
299.905	84.5
300.136	82.5
300.366	92.5
300.597	90.5
300.827	93.5
301.057	89.5
301.288	87.5
301.518	88.5
301.748	91.5
301.979	96.5
302.209	98.5
302.439	112.5
302.669	97.5
302.9	87.5
303.13	90.5
303.36	85.5
303.59	99.5
303.82	87.5
304.051	97.5
304.281	85.5
304.511	108.5
304.741	100.5
304.971	94.5
305.201	93.5
305.431	97.5
305.661	83.5
305.891	82.5
306.121	113.5
306.352	107.5
306.582	95.5
306.812	91.5
307.042	74.5
307.272	97.5
307.502	101.5
307.731	97.5
307.961	81.5
308.191	91.5
308.421	85.5
308.651	86.5
308.881	95.5
309.111	88.5
309.341	99.5
309.571	105.5
309.8	90.5
310.03	106.5
310.26	90.5
310.49	93.5
310.72	93.5
310.949	93.5
311.179	94.5
311.409	90.5
311.639	90.5
311.868	93.5
312.098	105.5
312.328	109.5
312.557	108.5
312.787	82.5
313.017	95.5
313.246	76.5
313.476	72.5
313.706	91.5
313.935	109.5
314.165	87.5
314.394	94.5
314.624	97.5
314.853	103.5
315.083	83.5
315.312	85.5
315.542	98.5
315.771	98.5
316.001	84.5
316.23	90.5
316.46	93.5
316.689	91.5
316.919	90.5
317.148	80.5
317.377	94.5
317.607	94.5
317.836	111.5
318.065	90.5
318.295	84.5
318.524	77.5
318.753	103.5
318.983	91.5
319.212	99.5
319.441	105.5
319.67	91.5
319.9	89.5
320.129	98.5
320.358	101.5
320.587	88.5
320.816	100.5
321.046	90.5
321.275	89.5
321.504	90.5
321.733	99.5
321.962	100.5
322.191	100.5
322.42	88.5
322.649	116.5
322.878	113.5
323.108	105.5
323.337	111.5
323.566	139.5
323.795	149.5
324.024	190.5
324.253	381.5
324.482	767.5
324.71	1553.5
324.939	2061.5
325.168	753.5
325.397	236.5
325.626	143.5
325.855	123.5
326.084	118.5
326.313	116.5
326.542	146.5
326.77	212.5
326.999	418.5
327.228	869.5
327.457	1592.5
327.686	1252.5
327.914	338.5
328.143	171.5
328.372	129.5
328.6	102.5
328.829	123.5
329.058	126.5
329.287	114.5
329.515	108.5
329.744	95.5
329.972	97.5
330.201	86.5
330.43	96.5
330.658	114.5
330.887	104.5
331.115	107.5
331.344	97.5
331.572	92.5
331.801	102.5
332.03	119.5
332.258	81.5
332.486	95.5
332.715	84.5
332.943	98.5
333.172	90.5
333.4	90.5
333.629	86.5
333.857	117.5
334.085	93.5
334.314	105.5
334.542	92.5
334.771	96.5
334.999	95.5
335.227	86.5
335.455	100.5
335.684	89.5
335.912	111.5
336.14	86.5
336.369	84.5
336.597	87.5
336.825	95.5
337.053	85.5
337.281	105.5
337.51	100.5
337.738	95.5
337.966	98.5
338.194	98.5
338.422	90.5
338.65	108.5
338.878	87.5
339.106	81.5
339.334	85.5
339.562	91.5
339.79	92.5
340.018	83.5
340.246	75.5
340.474	90.5
340.702	76.5
340.93	90.5
341.158	94.5
341.386	103.5
341.614	87.5
341.842	87.5
342.07	86.5
342.298	83.5
342.526	100.5
342.754	82.5
342.981	99.5
343.209	93.5
343.437	90.5
343.665	92.5
343.893	93.5
344.12	91.5
344.348	99.5
344.576	96.5
344.804	85.5
345.031	91.5
345.259	90.5
345.487	85.5
345.714	105.5
345.942	91.5
346.17	93.5
346.397	101.5
346.625	94.5
346.853	97.5
347.08	88.5
347.308	95.5
347.535	94.5
347.763	102.5
347.99	91.5
348.218	94.5
348.445	102.5
348.673	94.5
348.9	92.5
349.128	91.5
349.355	94.5
349.583	87.5
349.81	92.5
350.037	94.5
350.265	87.5
350.492	98.5
350.72	105.5
350.947	105.5
351.174	108.5
351.402	118.5
351.629	109.5
351.856	109.5
352.083	104.5
352.311	90.5
352.538	105.5
352.765	115.5
352.992	100.5
353.22	113.5
353.447	104.5
353.674	102.5
353.901	113.5
354.128	94.5
354.355	98.5
354.583	95.5
354.81	98.5
355.037	103.5
355.264	95.5
355.491	102.5
355.718	105.5
355.945	86.5
356.172	93.5
356.399	95.5
356.626	90.5
356.853	82.5
357.08	96.5
357.307	93.5
357.534	80.5
357.761	102.5
357.988	101.5
358.215	89.5
358.441	106.5
358.668	92.5
358.895	87.5
359.122	89.5
359.349	100.5
359.576	98.5
359.802	101.5
360.029	105.5
360.256	100.5
360.483	85.5
360.709	101.5
360.936	94.5
361.163	83.5
361.39	94.5
361.616	88.5
361.843	76.5
362.07	98.5
362.296	104.5
362.523	90.5
362.749	88.5
362.976	74.5
363.203	93.5
363.429	92.5
363.656	77.5
363.882	90.5
364.109	96.5
364.335	92.5
364.562	94.5
364.788	84.5
365.015	93.5
365.241	106.5
365.468	91.5
365.694	107.5
365.92	96.5
366.147	100.5
366.373	81.5
366.599	75.5
366.826	90.5
367.052	75.5
367.278	91.5
367.505	86.5
367.731	100.5
367.957	82.5
368.184	93.5
368.41	86.5
368.636	111.5
368.862	105.5
369.089	96.5
369.315	98.5
369.541	111.5
369.767	105.5
369.993	81.5
370.219	87.5
370.445	85.5
370.672	86.5
370.898	85.5
371.124	77.5
371.35	87.5
371.576	87.5
371.802	78.5
372.028	84.5
372.254	97.5
372.48	105.5
372.706	83.5
372.932	80.5
373.158	76.5
373.384	87.5
373.61	93.5
373.835	101.5
374.061	75.5
374.287	84.5
374.513	98.5
374.739	95.5
374.965	86.5
375.191	90.5
375.416	94.5
375.642	82.5
375.868	106.5
376.094	91.5
376.319	99.5
376.545	87.5
376.771	90.5
376.997	91.5
377.222	91.5
377.448	94.5
377.674	90.5
377.899	86.5
378.125	102.5
378.35	105.5
378.576	92.5
378.802	80.5
379.027	106.5
379.253	97.5
379.478	93.5
379.704	86.5
379.929	108.5
380.155	87.5
380.38	87.5
380.606	86.5
380.831	88.5
381.057	99.5
381.282	112.5
381.507	112.5
381.733	99.5
381.958	101.5
382.184	108.5
382.409	110.5
382.634	116.5
382.86	101.5
383.085	104.5
383.31	119.5
383.535	109.5
383.761	109.5
383.986	105.5
384.211	97.5
384.436	104.5
384.662	114.5
384.887	107.5
385.112	108.5
385.337	127.5
385.562	129.5
385.787	106.5
386.013	131.5
386.238	124.5
386.463	114.5
386.688	118.5
386.913	118.5
387.138	123.5
387.363	109.5
387.588	109.5
387.813	105.5
388.038	116.5
388.263	135.5
388.488	133.5
388.713	101.5
388.938	97.5
389.163	96.5
389.387	84.5
389.612	92.5
389.837	99.5
390.062	87.5
390.287	93.5
390.512	96.5
390.736	83.5
390.961	95.5
391.186	95.5
391.411	92.5
391.636	102.5
391.86	75.5
392.085	87.5
392.31	91.5
392.534	85.5
392.759	77.5
392.984	91.5
393.208	82.5
393.433	96.5
393.658	90.5
393.882	97.5
394.107	93.5
394.331	93.5
394.556	82.5
394.78	92.5
395.005	86.5
395.229	101.5
395.454	89.5
395.678	89.5
395.903	100.5
396.127	87.5
396.352	91.5
396.576	86.5
396.801	88.5
397.025	96.5
397.249	93.5
397.474	66.5
397.698	88.5
397.922	87.5
398.147	98.5
398.371	82.5
398.595	89.5
398.82	87.5
399.044	86.5
399.268	79.5
399.492	100.5
399.717	101.5
399.941	81.5
400.165	91.5
400.389	81.5
400.613	93.5
400.837	75.5
401.062	83.5
401.286	87.5
401.51	94.5
401.734	97.5
401.958	107.5
402.182	115.5
402.406	144.5
402.63	123.5
402.854	104.5
403.078	83.5
403.302	88.5
403.526	82.5
403.75	89.5
403.974	90.5
404.198	80.5
404.422	89.5
404.645	90.5
404.869	74.5
405.093	89.5
405.317	83.5
405.541	87.5
405.765	90.5
405.988	106.5
406.212	163.5
406.436	191.5
406.66	121.5
406.883	91.5
407.107	78.5
407.331	95.5
407.555	90.5
407.778	93.5
408.002	79.5
408.226	86.5
408.449	94.5
408.673	89.5
408.896	104.5
409.12	96.5
409.344	90.5
409.567	93.5
409.791	86.5
410.014	102.5
410.238	104.5
410.461	103.5
410.685	99.5
410.908	99.5
411.132	103.5
411.355	90.5
411.578	82.5
411.802	97.5
412.025	106.5
412.249	83.5
412.472	82.5
412.695	85.5
412.919	69.5
413.142	86.5
413.365	85.5
413.589	92.5
413.812	97.5
414.035	94.5
414.258	100.5
414.482	98.5
414.705	94.5
414.928	93.5
415.151	79.5
415.374	98.5
415.597	102.5
415.821	84.5
416.044	79.5
416.267	88.5
416.49	96.5
416.713	91.5
416.936	112.5
417.159	87.5
417.382	89.5
417.605	95.5
417.828	86.5
418.051	93.5
418.274	99.5
418.497	90.5
418.72	83.5
418.943	95.5
419.166	86.5
419.389	102.5
419.611	101.5
419.834	115.5
420.057	86.5
420.28	96.5
420.503	95.5
420.726	72.5
420.948	89.5
421.171	79.5
421.394	100.5
421.617	117.5
421.839	99.5
422.062	83.5
422.285	92.5
422.507	102.5
422.73	97.5
422.953	95.5
423.175	91.5
423.398	96.5
423.621	78.5
423.843	100.5
424.066	79.5
424.288	97.5
424.511	84.5
424.733	96.5
424.956	101.5
425.178	93.5
425.401	91.5
425.623	96.5
425.846	106.5
426.068	95.5
426.291	87.5
426.513	93.5
426.735	83.5
426.958	101.5
427.18	108.5
427.402	112.5
427.625	148.5
427.847	115.5
428.069	81.5
428.292	86.5
428.514	85.5
428.736	83.5
428.958	75.5
429.181	94.5
429.403	90.5
429.625	84.5
429.847	73.5
430.069	99.5
430.292	95.5
430.514	94.5
430.736	78.5
430.958	88.5
431.18	71.5
431.402	100.5
431.624	86.5
431.846	81.5
432.068	87.5
432.29	97.5
432.512	81.5
432.734	91.5
432.956	91.5
433.178	96.5
433.4	86.5
433.622	92.5
433.844	93.5
434.066	86.5
434.287	95.5
434.509	93.5
434.731	89.5
434.953	100.5
435.175	91.5
435.397	86.5
435.618	92.5
435.84	93.5
436.062	95.5
436.284	98.5
436.505	97.5
436.727	103.5
436.949	101.5
437.17	87.5
437.392	81.5
437.614	88.5
437.835	88.5
438.057	113.5
438.278	93.5
438.5	93.5
438.721	118.5
438.943	90.5
439.165	90.5
439.386	83.5
439.608	89.5
439.829	91.5
440.05	118.5
440.272	138.5
440.493	94.5
440.715	78.5
440.936	94.5
441.158	77.5
441.379	86.5
441.6	91.5
441.822	93.5
442.043	110.5
442.264	87.5
442.486	82.5
442.707	83.5
442.928	110.5
443.149	121.5
443.371	117.5
443.592	100.5
443.813	93.5
444.034	93.5
444.255	98.5
444.476	88.5
444.698	101.5
444.919	84.5
445.14	126.5
445.361	108.5
445.582	100.5
445.803	111.5
446.024	118.5
446.245	122.5
446.466	110.5
446.687	101.5
446.908	87.5
447.129	90.5
447.35	69.5
447.571	84.5
447.792	100.5
448.013	100.5
448.234	106.5
448.455	106.5
448.675	103.5
448.896	113.5
449.117	100.5
449.338	103.5
449.559	129.5
449.779	125.5
450	117.5
450.221	105.5
450.442	96.5
450.662	107.5
450.883	97.5
451.104	109.5
451.324	93.5
451.545	94.5
451.766	103.5
451.986	85.5
452.207	89.5
452.428	97.5
452.648	83.5
452.869	106.5
453.089	94.5
453.31	115.5
453.53	91.5
453.751	99.5
453.971	98.5
454.192	103.5
454.412	94.5
454.633	87.5
454.853	84.5
455.073	86.5
455.294	95.5
455.514	77.5
455.734	91.5
455.955	80.5
456.175	87.5
456.395	84.5
456.616	83.5
456.836	90.5
457.056	83.5
457.276	80.5
457.497	81.5
457.717	92.5
457.937	88.5
458.157	78.5
458.377	85.5
458.598	95.5
458.818	119.5
459.038	132.5
459.258	109.5
459.478	80.5
459.698	97.5
459.918	89.5
460.138	85.5
460.358	104.5
460.578	86.5
460.798	85.5
461.018	87.5
461.238	88.5
461.458	91.5
461.678	75.5
461.898	86.5
462.118	85.5
462.338	81.5
462.558	96.5
462.777	78.5
462.997	89.5
463.217	93.5
463.437	85.5
463.657	87.5
463.876	69.5
464.096	98.5
464.316	96.5
464.536	91.5
464.755	85.5
464.975	105.5
465.195	160.5
465.414	135.5
465.634	72.5
465.854	78.5
466.073	83.5
466.293	91.5
466.512	87.5
466.732	79.5
466.951	77.5
467.171	101.5
467.391	101.5
467.61	97.5
467.829	113.5
468.049	87.5
468.268	93.5
468.488	85.5
468.707	90.5
468.927	88.5
469.146	96.5
469.365	91.5
469.585	79.5
469.804	101.5
470.023	93.5
470.243	84.5
470.462	89.5
470.681	100.5
470.901	95.5
471.12	80.5
471.339	83.5
471.558	92.5
471.777	87.5
471.997	71.5
472.216	79.5
472.435	78.5
472.654	71.5
472.873	73.5
473.092	84.5
473.311	96.5
473.53	89.5
473.749	90.5
473.968	90.5
474.187	86.5
474.406	93.5
474.625	84.5
474.844	70.5
475.063	74.5
475.282	97.5
475.501	85.5
475.72	80.5
475.939	98.5
476.158	91.5
476.377	95.5
476.596	82.5
476.814	95.5
477.033	93.5
477.252	95.5
477.471	97.5
477.69	89.5
477.908	78.5
478.127	91.5
478.346	90.5
478.564	85.5
478.783	80.5
479.002	93.5
479.22	97.5
479.439	98.5
479.658	109.5
479.876	94.5
480.095	78.5
480.313	99.5
480.532	94.5
480.751	87.5
480.969	83.5
481.188	90.5
481.406	100.5
481.624	93.5
481.843	93.5
482.061	92.5
482.28	101.5
482.498	85.5
482.717	83.5
482.935	97.5
483.153	94.5
483.372	91.5
483.59	94.5
483.808	82.5
484.027	118.5
484.245	94.5
484.463	98.5
484.681	96.5
484.9	71.5
485.118	90.5
485.336	81.5
485.554	96.5
485.772	95.5
485.99	109.5
486.209	100.5
486.427	101.5
486.645	107.5
486.863	95.5
487.081	95.5
487.299	102.5
487.517	89.5
487.735	89.5
487.953	100.5
488.171	83.5
488.389	75.5
488.607	94.5
488.825	98.5
489.043	92.5
489.261	77.5
489.479	104.5
489.696	91.5
489.914	81.5
490.132	83.5
490.35	101.5
490.568	114.5
490.786	80.5
491.003	87.5
491.221	98.5
491.439	88.5
491.657	103.5
491.874	97.5
492.092	94.5
492.31	84.5
492.527	87.5
492.745	94.5
492.963	95.5
493.18	86.5
493.398	100.5
493.615	108.5
493.833	95.5
494.05	99.5
494.268	99.5
494.485	85.5
494.703	93.5
494.92	86.5
495.138	95.5
495.355	98.5
495.573	94.5
495.79	91.5
496.008	96.5
496.225	85.5
496.442	106.5
496.66	89.5
496.877	77.5
497.094	96.5
497.312	96.5
497.529	87.5
497.746	84.5
497.963	87.5
498.181	76.5
498.398	85.5
498.615	91.5
498.832	103.5
499.049	85.5
499.267	91.5
499.484	85.5
499.701	97.5
499.918	103.5
500.135	90.5
500.352	79.5
500.569	86.5
500.786	78.5
501.003	79.5
501.22	86.5
501.437	96.5
501.654	89.5
501.871	98.5
502.088	93.5
502.305	99.5
502.522	96.5
502.739	86.5
502.956	82.5
503.172	93.5
503.389	98.5
503.606	107.5
503.823	107.5
504.04	109.5
504.256	104.5
504.473	95.5
504.69	78.5
504.907	99.5
505.123	82.5
505.34	94.5
505.557	77.5
505.773	80.5
505.99	92.5
506.207	92.5
506.423	96.5
506.64	89.5
506.856	92.5
507.073	91.5
507.289	100.5
507.506	103.5
507.722	111.5
507.939	105.5
508.155	90.5
508.372	87.5
508.588	95.5
508.805	102.5
509.021	95.5
509.238	108.5
509.454	112.5
509.67	109.5
509.887	106.5
510.103	121.5
510.319	186.5
510.536	670.5
510.752	1995.5
510.968	576.5
511.184	141.5
511.401	117.5
511.617	111.5
511.833	98.5
512.049	83.5
512.265	96.5
512.481	95.5
512.698	92.5
512.914	86.5
513.13	96.5
513.346	89.5
513.562	92.5
513.778	91.5
513.994	91.5
514.21	93.5
514.426	105.5
514.642	116.5
514.858	118.5
515.074	152.5
515.29	405.5
515.506	1243.5
515.721	483.5
515.937	141.5
516.153	103.5
516.369	98.5
516.585	95.5
516.801	94.5
517.016	105.5
517.232	105.5
517.448	83.5
517.664	85.5
517.879	86.5
518.095	87.5
518.311	92.5
518.527	89.5
518.742	87.5
518.958	92.5
519.173	88.5
519.389	97.5
519.605	91.5
519.82	115.5
520.036	98.5
520.251	125.5
520.467	124.5
520.682	116.5
520.898	103.5
521.113	109.5
521.329	127.5
521.544	177.5
521.76	506.5
521.975	2017.5
522.19	1263.5
522.406	285.5
522.621	112.5
522.836	98.5
523.052	93.5
523.267	93.5
523.482	106.5
523.698	95.5
523.913	105.5
524.128	98.5
524.343	106.5
524.559	84.5
524.774	84.5
524.989	109.5
525.204	102.5
525.419	101.5
525.634	99.5
525.849	97.5
526.064	92.5
526.28	80.5
526.495	92.5
526.71	87.5
526.925	89.5
527.14	83.5
527.355	101.5
527.57	95.5
527.785	87.5
527.999	80.5
528.214	77.5
528.429	93.5
528.644	87.5
528.859	90.5
529.074	101.5
529.289	121.5
529.503	153.5
529.718	97.5
529.933	95.5
530.148	87.5
530.363	87.5
530.577	105.5
530.792	81.5
531.007	101.5
531.221	100.5
531.436	95.5
531.651	102.5
531.865	97.5
532.08	82.5
532.295	97.5
532.509	90.5
532.724	92.5
532.938	96.5
533.153	92.5
533.367	97.5
533.582	90.5
533.796	107.5
534.011	87.5
534.225	99.5
534.44	93.5
534.654	79.5
534.868	92.5
535.083	107.5
535.297	92.5
535.511	107.5
