Data from Uncirc_2006_H10_HRD10591_00017.txt Node
Date: Wed Jan 03 10:24:58 EST 2024
User: Yrep
Spectrometer: HR+D1059
Trigger mode: 1
Integration Time (sec): 1.000000E-1
Scans to average: 1
Electric dark correction enabled: true
Nonlinearity correction enabled: false
Boxcar width: 0
XAxis mode: Wavelengths
Number of Pixels in Spectrum: 2048
>>>>>Begin Spectral Data<<<<<
223.165	-14.44
223.4	-14.44
223.635	-14.44
223.869	-16.44
224.104	-27.44
224.338	-16.44
224.573	-15.44
224.808	-11.44
225.042	-4.44
225.277	-2.44
225.511	0.56
225.746	-7.44
225.98	12.56
226.215	20.56
226.449	6.56
226.683	21.56
226.918	13.56
227.152	40.56
227.387	41.56
227.621	34.56
227.856	43.56
228.09	42.56
228.324	56.56
228.559	56.56
228.793	143.56
229.027	422.56
229.262	482.56
229.496	551.56
229.73	756.56
229.964	762.56
230.199	512.56
230.433	438.56
230.667	445.56
230.901	428.56
231.136	394.56
231.37	410.56
231.604	411.56
231.838	432.56
232.072	426.56
232.306	420.56
232.541	423.56
232.775	408.56
233.009	433.56
233.243	451.56
233.477	443.56
233.711	451.56
233.945	458.56
234.179	472.56
234.413	457.56
234.647	465.56
234.881	480.56
235.115	481.56
235.349	498.56
235.583	508.56
235.817	538.56
236.051	581.56
236.285	562.56
236.519	585.56
236.753	643.56
236.987	826.56
237.221	1225.56
237.455	1351.56
237.689	819.56
237.922	685.56
238.156	664.56
238.39	626.56
238.624	594.56
238.858	582.56
239.091	611.56
239.325	601.56
239.559	623.56
239.793	657.56
240.027	712.56
240.26	832.56
240.494	861.56
240.728	890.56
240.961	833.56
241.195	766.56
241.429	734.56
241.662	701.56
241.896	714.56
242.13	707.56
242.363	724.56
242.597	731.56
242.83	763.56
243.064	746.56
243.298	760.56
243.531	770.56
243.765	787.56
243.998	813.56
244.232	788.56
244.465	809.56
244.699	830.56
244.932	881.56
245.166	826.56
245.399	871.56
245.633	841.56
245.866	861.56
246.099	850.56
246.333	859.56
246.566	875.56
246.8	906.56
247.033	931.56
247.266	987.56
247.5	1041.56
247.733	1050.56
247.966	1075.56
248.2	1015.56
248.433	1040.56
248.666	1110.56
248.899	1241.56
249.133	1314.56
249.366	1261.56
249.599	1229.56
249.832	1111.56
250.066	1096.56
250.299	1162.56
250.532	1194.56
250.765	1343.56
250.998	1571.56
251.231	1501.56
251.465	1382.56
251.698	1296.56
251.931	1266.56
252.164	1275.56
252.397	1304.56
252.63	1331.56
252.863	1423.56
253.096	1564.56
253.329	1605.56
253.562	1510.56
253.795	1428.56
254.028	1411.56
254.261	1489.56
254.494	1664.56
254.727	1936.56
254.96	2069.56
255.193	1789.56
255.426	1604.56
255.659	1498.56
255.892	1437.56
256.124	1416.56
256.357	1378.56
256.59	1385.56
256.823	1359.56
257.056	1349.56
257.289	1419.56
257.521	1442.56
257.754	1449.56
257.987	1390.56
258.22	1417.56
258.452	1399.56
258.685	1466.56
258.918	1458.56
259.151	1513.56
259.383	1562.56
259.616	1578.56
259.849	1647.56
260.081	1739.56
260.314	1921.56
260.547	1845.56
260.779	1676.56
261.012	1646.56
261.244	1595.56
261.477	1531.56
261.71	1573.56
261.942	1643.56
262.175	1625.56
262.407	1560.56
262.64	1534.56
262.872	1521.56
263.105	1525.56
263.337	1532.56
263.57	1555.56
263.802	1542.56
264.035	1526.56
264.267	1539.56
264.499	1528.56
264.732	1561.56
264.964	1576.56
265.197	1566.56
265.429	1592.56
265.661	1604.56
265.894	1617.56
266.126	1576.56
266.358	1633.56
266.591	1637.56
266.823	1715.56
267.055	1717.56
267.287	1733.56
267.52	1723.56
267.752	1746.56
267.984	1733.56
268.216	1753.56
268.448	1798.56
268.681	1849.56
268.913	1954.56
269.145	2155.56
269.377	2201.56
269.609	2089.56
269.841	2072.56
270.073	2170.56
270.306	2408.56
270.538	2566.56
270.77	2483.56
271.002	2299.56
271.234	2240.56
271.466	2368.56
271.698	2508.56
271.93	2504.56
272.162	2527.56
272.394	2459.56
272.626	2308.56
272.858	2176.56
273.09	2136.56
273.322	2086.56
273.553	2089.56
273.785	2042.56
274.017	2059.56
274.249	2095.56
274.481	2094.56
274.713	2137.56
274.945	2111.56
275.176	2154.56
275.408	2076.56
275.64	2098.56
275.872	2064.56
276.104	2115.56
276.335	2143.56
276.567	2226.56
276.799	2362.56
277.031	2552.56
277.262	2685.56
277.494	2561.56
277.726	2397.56
277.957	2323.56
278.189	2269.56
278.421	2222.56
278.652	2213.56
278.884	2207.56
279.115	2209.56
279.347	2246.56
279.579	2227.56
279.81	2195.56
280.042	2202.56
280.273	2245.56
280.505	2266.56
280.736	2223.56
280.968	2268.56
281.199	2258.56
281.431	2271.56
281.662	2311.56
281.894	2298.56
282.125	2345.56
282.356	2497.56
282.588	2611.56
282.819	2522.56
283.051	2386.56
283.282	2377.56
283.513	2366.56
283.745	2435.56
283.976	2436.56
284.207	2461.56
284.439	2428.56
284.67	2427.56
284.901	2445.56
285.132	2464.56
285.364	2458.56
285.595	2467.56
285.826	2439.56
286.057	2482.56
286.288	2504.56
286.52	2476.56
286.751	2515.56
286.982	2567.56
287.213	2551.56
287.444	2524.56
287.675	2638.56
287.906	2646.56
288.138	2778.56
288.369	2738.56
288.6	2697.56
288.831	2656.56
289.062	2621.56
289.293	2627.56
289.524	2642.56
289.755	2655.56
289.986	2603.56
290.217	2562.56
290.448	2627.56
290.679	2599.56
290.91	2640.56
291.141	2648.56
291.371	2668.56
291.602	2658.56
291.833	2618.56
292.064	2635.56
292.295	2671.56
292.526	2665.56
292.757	2627.56
292.987	2605.56
293.218	2656.56
293.449	2636.56
293.68	2671.56
293.91	2624.56
294.141	2663.56
294.372	2614.56
294.603	2688.56
294.833	2716.56
295.064	2751.56
295.295	2740.56
295.525	2705.56
295.756	2801.56
295.987	2842.56
296.217	2971.56
296.448	2899.56
296.679	2730.56
296.909	2734.56
297.14	2731.56
297.37	2842.56
297.601	2829.56
297.831	2850.56
298.062	2865.56
298.292	2881.56
298.523	2904.56
298.753	2914.56
298.984	2922.56
299.214	2902.56
299.445	2910.56
299.675	2895.56
299.905	2960.56
300.136	2912.56
300.366	2925.56
300.597	2946.56
300.827	3094.56
301.057	3113.56
301.288	3165.56
301.518	3118.56
301.748	3080.56
301.979	3170.56
302.209	3152.56
302.439	3193.56
302.669	3120.56
302.9	3115.56
303.13	3114.56
303.36	3119.56
303.59	3105.56
303.82	3121.56
304.051	3135.56
304.281	3101.56
304.511	3091.56
304.741	3126.56
304.971	3072.56
305.201	3033.56
305.431	3066.56
305.661	3035.56
305.891	3054.56
306.121	3099.56
306.352	3206.56
306.582	3091.56
306.812	2994.56
307.042	3058.56
307.272	3117.56
307.502	3069.56
307.731	3146.56
307.961	3091.56
308.191	3109.56
308.421	3064.56
308.651	3104.56
308.881	3101.56
309.111	3063.56
309.341	3161.56
309.571	3177.56
309.8	3266.56
310.03	3313.56
310.26	3326.56
310.49	3254.56
310.72	3438.56
310.949	3492.56
311.179	3516.56
311.409	3359.56
311.639	3410.56
311.868	3411.56
312.098	3404.56
312.328	3489.56
312.557	3624.56
312.787	3669.56
313.017	3545.56
313.246	3497.56
313.476	3422.56
313.706	3516.56
313.935	3563.56
314.165	3627.56
314.394	3665.56
314.624	3665.56
314.853	3569.56
315.083	3515.56
315.312	3491.56
315.542	3528.56
315.771	3499.56
316.001	3395.56
316.23	3464.56
316.46	3409.56
316.689	3510.56
316.919	3513.56
317.148	3586.56
317.377	3494.56
317.607	3462.56
317.836	3388.56
318.065	3442.56
318.295	3465.56
318.524	3449.56
318.753	3358.56
318.983	3467.56
319.212	3451.56
319.441	3451.56
319.67	3520.56
319.9	3414.56
320.129	3450.56
320.358	3492.56
320.587	3514.56
320.816	3609.56
321.046	3585.56
321.275	3546.56
321.504	3582.56
321.733	3576.56
321.962	3602.56
322.191	3783.56
322.42	3763.56
322.649	3784.56
322.878	3882.56
323.108	3972.56
323.337	4196.56
323.566	4266.56
323.795	4467.56
324.024	5072.56
324.253	6409.56
324.482	9556.56
324.71	14146.56
324.939	15604.56
325.168	10848.56
325.397	5878.56
325.626	4785.56
325.855	4455.56
326.084	4363.56
326.313	4375.56
326.542	4587.56
326.77	5015.56
326.999	6250.56
327.228	8961.56
327.457	13259.56
327.686	12330.56
327.914	6552.56
328.143	5206.56
328.372	4883.56
328.6	4778.56
328.829	4755.56
329.058	4859.56
329.287	4830.56
329.515	4493.56
329.744	4335.56
329.972	4400.56
330.201	4541.56
330.43	4606.56
330.658	4892.56
330.887	5188.56
331.115	4865.56
331.344	4546.56
331.572	4574.56
331.801	4602.56
332.03	4612.56
332.258	4573.56
332.486	4622.56
332.715	4706.56
332.943	4880.56
333.172	5004.56
333.4	5121.56
333.629	5246.56
333.857	5275.56
334.085	5151.56
334.314	5061.56
334.542	5041.56
334.771	4978.56
334.999	4866.56
335.227	4840.56
335.455	4759.56
335.684	4706.56
335.912	4771.56
336.14	4679.56
336.369	4647.56
336.597	4707.56
336.825	4577.56
337.053	4552.56
337.281	4487.56
337.51	4395.56
337.738	4398.56
337.966	4455.56
338.194	4404.56
338.422	4346.56
338.65	4214.56
338.878	4244.56
339.106	4256.56
339.334	4319.56
339.562	4122.56
339.79	4109.56
340.018	4151.56
340.246	4125.56
340.474	4152.56
340.702	4138.56
340.93	4162.56
341.158	4146.56
341.386	4087.56
341.614	4121.56
341.842	4041.56
342.07	3989.56
342.298	4104.56
342.526	4041.56
342.754	4051.56
342.981	4077.56
343.209	4144.56
343.437	4389.56
343.665	4726.56
343.893	4915.56
344.12	4858.56
344.348	4693.56
344.576	4557.56
344.804	4447.56
345.031	4299.56
345.259	4346.56
345.487	4152.56
345.714	4112.56
345.942	4003.56
346.17	3978.56
346.397	3912.56
346.625	3928.56
346.853	3942.56
347.08	3949.56
347.308	3962.56
347.535	4039.56
347.763	4028.56
347.99	3960.56
348.218	3987.56
348.445	4071.56
348.673	3962.56
348.9	3916.56
349.128	3852.56
349.355	3811.56
349.583	3847.56
349.81	3798.56
350.037	3802.56
350.265	3794.56
350.492	3822.56
350.72	3786.56
350.947	3837.56
351.174	3951.56
351.402	3986.56
351.629	3818.56
351.856	3870.56
352.083	3947.56
352.311	3992.56
352.538	3973.56
352.765	4001.56
352.992	3902.56
353.22	3844.56
353.447	3839.56
353.674	3735.56
353.901	3680.56
354.128	3758.56
354.355	3752.56
354.583	3739.56
354.81	3747.56
355.037	3748.56
355.264	3727.56
355.491	3671.56
355.718	3709.56
355.945	3679.56
356.172	3691.56
356.399	3753.56
356.626	3767.56
356.853	3762.56
357.08	3684.56
357.307	3758.56
357.534	3712.56
357.761	3710.56
357.988	3729.56
358.215	3751.56
358.441	3769.56
358.668	3787.56
358.895	3799.56
359.122	3837.56
359.349	3970.56
359.576	3950.56
359.802	4114.56
360.029	4241.56
360.256	4254.56
360.483	4094.56
360.709	3917.56
360.936	3982.56
361.163	3896.56
361.39	3942.56
361.616	3932.56
361.843	3894.56
362.07	3927.56
362.296	3912.56
362.523	3921.56
362.749	3942.56
362.976	3866.56
363.203	3852.56
363.429	3823.56
363.656	3830.56
363.882	3834.56
364.109	3755.56
364.335	3751.56
364.562	3803.56
364.788	3784.56
365.015	3791.56
365.241	3762.56
365.468	3826.56
365.694	3840.56
365.92	3878.56
366.147	3789.56
366.373	3739.56
366.599	3774.56
366.826	3713.56
367.052	3728.56
367.278	3822.56
367.505	3837.56
367.731	3805.56
367.957	3809.56
368.184	3840.56
368.41	3903.56
368.636	3969.56
368.862	3960.56
369.089	3875.56
369.315	3926.56
369.541	3912.56
369.767	3927.56
369.993	3932.56
370.219	3891.56
370.445	3959.56
370.672	3995.56
370.898	4010.56
371.124	4088.56
371.35	4009.56
371.576	3993.56
371.802	4024.56
372.028	4001.56
372.254	4076.56
372.48	4087.56
372.706	4137.56
372.932	4252.56
373.158	4165.56
373.384	4085.56
373.61	4105.56
373.835	4161.56
374.061	4124.56
374.287	4193.56
374.513	4308.56
374.739	4404.56
374.965	4511.56
375.191	4506.56
375.416	4441.56
375.642	4256.56
375.868	4195.56
376.094	4228.56
376.319	4167.56
376.545	4104.56
376.771	4095.56
376.997	4096.56
377.222	4090.56
377.448	4040.56
377.674	4138.56
377.899	4025.56
378.125	4006.56
378.35	4034.56
378.576	4095.56
378.802	4081.56
379.027	4056.56
379.253	4022.56
379.478	4069.56
379.704	4049.56
379.929	4019.56
380.155	4054.56
380.38	4083.56
380.606	4156.56
380.831	4067.56
381.057	4112.56
381.282	4050.56
381.507	4113.56
381.733	4187.56
381.958	4188.56
382.184	4295.56
382.409	4292.56
382.634	4294.56
382.86	4308.56
383.085	4436.56
383.31	4444.56
383.535	4496.56
383.761	4592.56
383.986	4670.56
384.211	4750.56
384.436	4772.56
384.662	4847.56
384.887	4835.56
385.112	4936.56
385.337	4979.56
385.562	4950.56
385.787	5030.56
386.013	5081.56
386.238	5084.56
386.463	5063.56
386.688	5083.56
386.913	4920.56
387.138	4851.56
387.363	4904.56
387.588	4825.56
387.813	4829.56
388.038	4882.56
388.263	5015.56
388.488	4924.56
388.713	4934.56
388.938	4930.56
389.163	4830.56
389.387	4884.56
389.612	4809.56
389.837	4851.56
390.062	4792.56
390.287	4784.56
390.512	4859.56
390.736	4896.56
390.961	5003.56
391.186	5014.56
391.411	5208.56
391.636	5275.56
391.86	5390.56
392.085	5522.56
392.31	5493.56
392.534	5327.56
392.759	5213.56
392.984	5110.56
393.208	5113.56
393.433	5170.56
393.658	5098.56
393.882	5091.56
394.107	5111.56
394.331	5116.56
394.556	5131.56
394.78	5265.56
395.005	5220.56
395.229	5224.56
395.454	5463.56
395.678	5588.56
395.903	5488.56
396.127	5517.56
396.352	5414.56
396.576	5224.56
396.801	5219.56
397.025	5268.56
397.249	5391.56
397.474	5524.56
397.698	5484.56
397.922	5636.56
398.147	5730.56
398.371	5827.56
398.595	5906.56
398.82	6270.56
399.044	6760.56
399.268	7494.56
399.492	8596.56
399.717	9246.56
399.941	8921.56
400.165	8244.56
400.389	7611.56
400.613	6906.56
400.837	6457.56
401.062	6370.56
401.286	6121.56
401.51	6123.56
401.734	6076.56
401.958	6200.56
402.182	6402.56
402.406	6477.56
402.63	6568.56
402.854	6673.56
403.078	6657.56
403.302	6887.56
403.526	6948.56
403.75	7042.56
403.974	7086.56
404.198	7072.56
404.422	7160.56
404.645	6988.56
404.869	6951.56
405.093	6990.56
405.317	7102.56
405.541	6990.56
405.765	6866.56
405.988	6854.56
406.212	6994.56
406.436	7159.56
406.66	7392.56
406.883	7293.56
407.107	7850.56
407.331	8385.56
407.555	8880.56
407.778	8514.56
408.002	7856.56
408.226	7503.56
408.449	7355.56
408.673	7309.56
408.896	7382.56
409.12	7527.56
409.344	7124.56
409.567	6831.56
409.791	6712.56
410.014	6675.56
410.238	6685.56
410.461	6592.56
410.685	6603.56
410.908	6704.56
411.132	6942.56
411.355	6941.56
411.578	6604.56
411.802	6439.56
412.025	6381.56
412.249	6468.56
412.472	6354.56
412.695	6163.56
412.919	6111.56
413.142	6114.56
413.365	6071.56
413.589	6125.56
413.812	5921.56
414.035	5912.56
414.258	6001.56
414.482	6089.56
414.705	6131.56
414.928	6024.56
415.151	6108.56
415.374	6083.56
415.597	6044.56
415.821	5899.56
416.044	5924.56
416.267	5988.56
416.49	5887.56
416.713	5854.56
416.936	5977.56
417.159	5943.56
417.382	6071.56
417.605	6011.56
417.828	6143.56
418.051	6335.56
418.274	6192.56
418.497	6103.56
418.72	6223.56
418.943	6128.56
419.166	6490.56
419.389	6794.56
419.611	6756.56
419.834	6502.56
420.057	6481.56
420.28	6202.56
420.503	6042.56
420.726	6079.56
420.948	6268.56
421.171	6659.56
421.394	6625.56
421.617	6205.56
421.839	6176.56
422.062	6162.56
422.285	6407.56
422.507	7003.56
422.73	7557.56
422.953	6976.56
423.175	6668.56
423.398	6676.56
423.621	6587.56
423.843	6870.56
424.066	6810.56
424.288	6736.56
424.511	6927.56
424.733	7426.56
424.956	7764.56
425.178	7312.56
425.401	7511.56
425.623	7302.56
425.846	6486.56
426.068	6195.56
426.291	6306.56
426.513	6166.56
426.735	6276.56
426.958	6744.56
427.18	7347.56
427.402	8414.56
427.625	8279.56
427.847	7018.56
428.069	6222.56
428.292	5989.56
428.514	5721.56
428.736	5608.56
428.958	5720.56
429.181	5427.56
429.403	5551.56
429.625	5687.56
429.847	5970.56
430.069	6497.56
430.292	6013.56
430.514	5493.56
430.736	5542.56
430.958	5511.56
431.18	5382.56
431.402	5318.56
431.624	5354.56
431.846	5439.56
432.068	5418.56
432.29	5470.56
432.512	5414.56
432.734	5577.56
432.956	5365.56
433.178	5471.56
433.4	5496.56
433.622	5473.56
433.844	5436.56
434.066	5454.56
434.287	5621.56
434.509	5811.56
434.731	5971.56
434.953	6161.56
435.175	6266.56
435.397	6314.56
435.618	6295.56
435.84	6569.56
436.062	7273.56
436.284	7246.56
436.505	6131.56
436.727	5850.56
436.949	5643.56
437.17	5548.56
437.392	5447.56
437.614	5647.56
437.835	6031.56
438.057	6879.56
438.278	7486.56
438.5	7339.56
438.721	8212.56
438.943	7106.56
439.165	5964.56
439.386	5897.56
439.608	5905.56
439.829	5998.56
440.05	6236.56
440.272	6567.56
440.493	6026.56
440.715	5887.56
440.936	5818.56
441.158	5802.56
441.379	5991.56
441.6	6280.56
441.822	6439.56
442.043	6822.56
442.264	7557.56
442.486	7290.56
442.707	6564.56
442.928	6341.56
443.149	6559.56
443.371	6788.56
443.592	7346.56
443.813	8200.56
444.034	8129.56
444.255	7130.56
444.476	6978.56
444.698	7135.56
444.919	7202.56
445.14	6991.56
445.361	6942.56
445.582	6877.56
445.803	7486.56
446.024	8082.56
446.245	7748.56
446.466	6918.56
446.687	6106.56
446.908	5828.56
447.129	5528.56
447.35	5369.56
447.571	5335.56
447.792	5273.56
448.013	5377.56
448.234	5463.56
448.455	6163.56
448.675	7167.56
448.896	7658.56
449.117	6353.56
449.338	6605.56
449.559	7675.56
449.779	7857.56
450	6102.56
450.221	5402.56
450.442	5171.56
450.662	5215.56
450.883	5174.56
451.104	5300.56
451.324	5124.56
451.545	5042.56
451.766	4941.56
451.986	4839.56
452.207	4841.56
452.428	4835.56
452.648	4819.56
452.869	4838.56
453.089	4945.56
453.31	5041.56
453.53	4822.56
453.751	4755.56
453.971	4782.56
454.192	4862.56
454.412	4646.56
454.633	4715.56
454.853	4573.56
455.073	4662.56
455.294	5104.56
455.514	5498.56
455.734	5058.56
455.955	4560.56
456.175	4459.56
456.395	4414.56
456.616	4414.56
456.836	4422.56
457.056	4407.56
457.276	4335.56
457.497	4521.56
457.717	4449.56
457.937	4484.56
458.157	4597.56
458.377	4636.56
458.598	5010.56
458.818	5553.56
459.038	6342.56
459.258	6194.56
459.478	5620.56
459.698	5464.56
459.918	5583.56
460.138	5784.56
460.358	6009.56
460.578	5954.56
460.798	5978.56
461.018	6021.56
461.238	5883.56
461.458	5904.56
461.678	5863.56
461.898	5979.56
462.118	6115.56
462.338	6418.56
462.558	6565.56
462.777	6849.56
462.997	7343.56
463.217	7740.56
463.437	7586.56
463.657	7016.56
463.876	6730.56
464.096	6959.56
464.316	6847.56
464.536	6961.56
464.755	6674.56
464.975	6545.56
465.195	6627.56
465.414	6673.56
465.634	5900.56
465.854	5577.56
466.073	5350.56
466.293	5264.56
466.512	5082.56
466.732	4921.56
466.951	4955.56
467.171	4913.56
467.391	5039.56
467.61	5059.56
467.829	5002.56
468.049	4878.56
468.268	4748.56
468.488	4742.56
468.707	4760.56
468.927	4775.56
469.146	4775.56
469.365	4821.56
469.585	4823.56
469.804	4981.56
470.023	5178.56
470.243	5126.56
470.462	5219.56
470.681	5353.56
470.901	5253.56
471.12	5081.56
471.339	5028.56
471.558	5009.56
471.777	4885.56
471.997	4814.56
472.216	4750.56
472.435	4810.56
472.654	4639.56
472.873	4630.56
473.092	4675.56
473.311	4698.56
473.53	4712.56
473.749	4889.56
473.968	5264.56
474.187	6249.56
474.406	5816.56
474.625	5000.56
474.844	4792.56
475.063	4780.56
475.282	4759.56
475.501	4802.56
475.72	4880.56
475.939	4876.56
476.158	4920.56
476.377	4929.56
476.596	4960.56
476.814	5078.56
477.033	5128.56
477.252	5194.56
477.471	5260.56
477.69	5419.56
477.908	5494.56
478.127	5621.56
478.346	5644.56
478.564	5850.56
478.783	5883.56
479.002	6026.56
479.22	5963.56
479.439	6043.56
479.658	6147.56
479.876	6209.56
480.095	6518.56
480.313	6767.56
480.532	6654.56
480.751	6592.56
480.969	6410.56
481.188	6206.56
481.406	6090.56
481.624	5896.56
481.843	5830.56
482.061	5651.56
482.28	5613.56
482.498	5601.56
482.717	5568.56
482.935	5497.56
483.153	5537.56
483.372	5610.56
483.59	5591.56
483.808	5566.56
484.027	5566.56
484.245	5592.56
484.463	5704.56
484.681	5688.56
484.9	5809.56
485.118	5832.56
485.336	5876.56
485.554	5924.56
485.772	5926.56
485.99	5982.56
486.209	5958.56
486.427	5935.56
486.645	5968.56
486.863	6041.56
487.081	6029.56
487.299	5976.56
487.517	5958.56
487.735	5887.56
487.953	5948.56
