Data from Uncirc_2006_H10_HRD10591_00092.txt Node
Date: Wed Jan 03 10:25:13 EST 2024
User: Yrep
Spectrometer: HR+D1059
Trigger mode: 1
Integration Time (sec): 1.000000E-1
Scans to average: 1
Electric dark correction enabled: true
Nonlinearity correction enabled: false
Boxcar width: 0
XAxis mode: Wavelengths
Number of Pixels in Spectrum: 2048
>>>>>Begin Spectral Data<<<<<
223.165	-12.06
223.4	-12.06
223.635	-12.06
223.869	-24.06
224.104	-16.06
224.338	-11.06
224.573	-18.06
224.808	-10.06
225.042	-9.06
225.277	5.94
225.511	2.94
225.746	0.94
225.98	-1.06
226.215	-1.06
226.449	8.94
226.683	22.94
226.918	27.94
227.152	32.94
227.387	43.94
227.621	33.94
227.856	38.94
228.09	59.94
228.324	48.94
228.559	52.94
228.793	65.94
229.027	69.94
229.262	66.94
229.496	68.94
229.73	75.94
229.964	74.94
230.199	71.94
230.433	75.94
230.667	71.94
230.901	91.94
231.136	100.94
231.37	67.94
231.604	77.94
231.838	82.94
232.072	80.94
232.306	90.94
232.541	106.94
232.775	82.94
233.009	71.94
233.243	78.94
233.477	97.94
233.711	82.94
233.945	70.94
234.179	78.94
234.413	70.94
234.647	86.94
234.881	85.94
235.115	83.94
235.349	76.94
235.583	96.94
235.817	74.94
236.051	92.94
236.285	70.94
236.519	76.94
236.753	76.94
236.987	88.94
237.221	89.94
237.455	81.94
237.689	90.94
237.922	77.94
238.156	85.94
238.39	74.94
238.624	76.94
238.858	71.94
239.091	62.94
239.325	74.94
239.559	68.94
239.793	74.94
240.027	68.94
240.26	70.94
240.494	85.94
240.728	77.94
240.961	90.94
241.195	86.94
241.429	79.94
241.662	75.94
241.896	70.94
242.13	85.94
242.363	78.94
242.597	78.94
242.83	75.94
243.064	78.94
243.298	85.94
243.531	70.94
243.765	73.94
243.998	83.94
244.232	62.94
244.465	72.94
244.699	76.94
244.932	65.94
245.166	76.94
245.399	80.94
245.633	76.94
245.866	80.94
246.099	90.94
246.333	67.94
246.566	85.94
246.8	78.94
247.033	68.94
247.266	75.94
247.5	80.94
247.733	72.94
247.966	68.94
248.2	73.94
248.433	71.94
248.666	70.94
248.899	89.94
249.133	75.94
249.366	97.94
249.599	104.94
249.832	83.94
250.066	91.94
250.299	73.94
250.532	96.94
250.765	91.94
250.998	84.94
251.231	77.94
251.465	65.94
251.698	77.94
251.931	72.94
252.164	80.94
252.397	75.94
252.63	78.94
252.863	60.94
253.096	75.94
253.329	78.94
253.562	77.94
253.795	82.94
254.028	75.94
254.261	68.94
254.494	72.94
254.727	67.94
254.96	70.94
255.193	77.94
255.426	59.94
255.659	72.94
255.892	80.94
256.124	90.94
256.357	87.94
256.59	73.94
256.823	72.94
257.056	71.94
257.289	77.94
257.521	94.94
257.754	78.94
257.987	80.94
258.22	71.94
258.452	67.94
258.685	84.94
258.918	85.94
259.151	84.94
259.383	74.94
259.616	71.94
259.849	76.94
260.081	75.94
260.314	84.94
260.547	92.94
260.779	75.94
261.012	92.94
261.244	81.94
261.477	80.94
261.71	94.94
261.942	101.94
262.175	100.94
262.407	82.94
262.64	77.94
262.872	84.94
263.105	75.94
263.337	76.94
263.57	70.94
263.802	74.94
264.035	72.94
264.267	90.94
264.499	87.94
264.732	85.94
264.964	75.94
265.197	87.94
265.429	84.94
265.661	77.94
265.894	81.94
266.126	86.94
266.358	78.94
266.591	74.94
266.823	72.94
267.055	84.94
267.287	75.94
267.52	85.94
267.752	85.94
267.984	91.94
268.216	82.94
268.448	69.94
268.681	77.94
268.913	94.94
269.145	77.94
269.377	79.94
269.609	84.94
269.841	69.94
270.073	73.94
270.306	73.94
270.538	87.94
270.77	72.94
271.002	74.94
271.234	88.94
271.466	83.94
271.698	103.94
271.93	90.94
272.162	77.94
272.394	68.94
272.626	75.94
272.858	81.94
273.09	89.94
273.322	77.94
273.553	85.94
273.785	84.94
274.017	80.94
274.249	79.94
274.481	79.94
274.713	92.94
274.945	77.94
275.176	92.94
275.408	77.94
275.64	84.94
275.872	82.94
276.104	86.94
276.335	86.94
276.567	91.94
276.799	107.94
277.031	80.94
277.262	67.94
277.494	86.94
277.726	86.94
277.957	78.94
278.189	93.94
278.421	80.94
278.652	88.94
278.884	85.94
279.115	80.94
279.347	78.94
279.579	101.94
279.81	83.94
280.042	82.94
280.273	90.94
280.505	77.94
280.736	86.94
280.968	84.94
281.199	70.94
281.431	79.94
281.662	91.94
281.894	95.94
282.125	82.94
282.356	114.94
282.588	121.94
282.819	96.94
283.051	89.94
283.282	76.94
283.513	72.94
283.745	81.94
283.976	79.94
284.207	89.94
284.439	101.94
284.67	92.94
284.901	94.94
285.132	87.94
285.364	87.94
285.595	91.94
285.826	96.94
286.057	96.94
286.288	72.94
286.52	71.94
286.751	86.94
286.982	78.94
287.213	73.94
287.444	83.94
287.675	82.94
287.906	85.94
288.138	86.94
288.369	85.94
288.6	92.94
288.831	94.94
289.062	79.94
289.293	93.94
289.524	86.94
289.755	81.94
289.986	65.94
290.217	94.94
290.448	90.94
290.679	81.94
290.91	81.94
291.141	74.94
291.371	91.94
291.602	89.94
291.833	97.94
292.064	81.94
292.295	91.94
292.526	95.94
292.757	83.94
292.987	101.94
293.218	83.94
293.449	94.94
293.68	91.94
293.91	79.94
294.141	95.94
294.372	90.94
294.603	84.94
294.833	76.94
295.064	89.94
295.295	88.94
295.525	100.94
295.756	93.94
295.987	112.94
296.217	128.94
296.448	131.94
296.679	94.94
296.909	98.94
297.14	99.94
297.37	88.94
297.601	93.94
297.831	86.94
298.062	97.94
298.292	98.94
298.523	98.94
298.753	70.94
298.984	96.94
299.214	95.94
299.445	89.94
299.675	102.94
299.905	83.94
300.136	92.94
300.366	102.94
300.597	86.94
300.827	90.94
301.057	95.94
301.288	96.94
301.518	94.94
301.748	87.94
301.979	99.94
302.209	93.94
302.439	77.94
302.669	77.94
302.9	78.94
303.13	81.94
303.36	92.94
303.59	86.94
303.82	99.94
304.051	91.94
304.281	88.94
304.511	91.94
304.741	75.94
304.971	88.94
305.201	95.94
305.431	93.94
305.661	94.94
305.891	94.94
306.121	81.94
306.352	85.94
306.582	95.94
306.812	93.94
307.042	96.94
307.272	83.94
307.502	83.94
307.731	89.94
307.961	86.94
308.191	81.94
308.421	80.94
308.651	93.94
308.881	99.94
309.111	77.94
309.341	99.94
309.571	86.94
309.8	100.94
310.03	107.94
310.26	92.94
310.49	84.94
310.72	108.94
310.949	95.94
311.179	84.94
311.409	76.94
311.639	98.94
311.868	79.94
312.098	105.94
312.328	90.94
312.557	90.94
312.787	111.94
313.017	87.94
313.246	96.94
313.476	90.94
313.706	97.94
313.935	90.94
314.165	105.94
314.394	100.94
314.624	85.94
314.853	92.94
315.083	92.94
315.312	90.94
315.542	105.94
315.771	89.94
316.001	85.94
316.23	97.94
316.46	77.94
316.689	75.94
316.919	94.94
317.148	93.94
317.377	92.94
317.607	88.94
317.836	96.94
318.065	90.94
318.295	81.94
318.524	89.94
318.753	96.94
318.983	98.94
319.212	100.94
319.441	94.94
319.67	101.94
319.9	92.94
320.129	88.94
320.358	89.94
320.587	92.94
320.816	74.94
321.046	101.94
321.275	97.94
321.504	96.94
321.733	109.94
321.962	93.94
322.191	89.94
322.42	92.94
322.649	102.94
322.878	99.94
323.108	101.94
323.337	112.94
323.566	131.94
323.795	152.94
324.024	197.94
324.253	406.94
324.482	829.94
324.71	1710.94
324.939	2226.94
325.168	810.94
325.397	236.94
325.626	140.94
325.855	124.94
326.084	145.94
326.313	120.94
326.542	160.94
326.77	237.94
326.999	474.94
327.228	980.94
327.457	1733.94
327.686	1372.94
327.914	375.94
328.143	182.94
328.372	140.94
328.6	122.94
328.829	110.94
329.058	129.94
329.287	111.94
329.515	108.94
329.744	96.94
329.972	94.94
330.201	90.94
330.43	92.94
330.658	101.94
330.887	108.94
331.115	116.94
331.344	95.94
331.572	100.94
331.801	86.94
332.03	95.94
332.258	85.94
332.486	89.94
332.715	90.94
332.943	86.94
333.172	95.94
333.4	95.94
333.629	109.94
333.857	108.94
334.085	91.94
334.314	98.94
334.542	96.94
334.771	85.94
334.999	96.94
335.227	99.94
335.455	84.94
335.684	89.94
335.912	104.94
336.14	97.94
336.369	100.94
336.597	82.94
336.825	89.94
337.053	82.94
337.281	102.94
337.51	89.94
337.738	84.94
337.966	93.94
338.194	99.94
338.422	93.94
338.65	93.94
338.878	81.94
339.106	88.94
339.334	99.94
339.562	76.94
339.79	96.94
340.018	97.94
340.246	83.94
340.474	85.94
340.702	106.94
340.93	102.94
341.158	80.94
341.386	98.94
341.614	86.94
341.842	97.94
342.07	101.94
342.298	93.94
342.526	85.94
342.754	89.94
342.981	99.94
343.209	88.94
343.437	93.94
343.665	90.94
343.893	85.94
344.12	78.94
344.348	82.94
344.576	77.94
344.804	108.94
345.031	106.94
345.259	100.94
345.487	97.94
345.714	84.94
345.942	97.94
346.17	88.94
346.397	90.94
346.625	85.94
346.853	83.94
347.08	87.94
347.308	92.94
347.535	77.94
347.763	96.94
347.99	104.94
348.218	98.94
348.445	108.94
348.673	91.94
348.9	86.94
349.128	96.94
349.355	93.94
349.583	101.94
349.81	87.94
350.037	93.94
350.265	90.94
350.492	95.94
350.72	90.94
350.947	103.94
351.174	111.94
351.402	109.94
351.629	97.94
351.856	103.94
352.083	98.94
352.311	97.94
352.538	96.94
352.765	103.94
352.992	120.94
353.22	125.94
353.447	116.94
353.674	105.94
353.901	94.94
354.128	95.94
354.355	79.94
354.583	77.94
354.81	104.94
355.037	101.94
355.264	92.94
355.491	101.94
355.718	81.94
355.945	94.94
356.172	90.94
356.399	81.94
356.626	83.94
356.853	94.94
357.08	89.94
357.307	77.94
357.534	84.94
357.761	101.94
357.988	86.94
358.215	103.94
358.441	81.94
358.668	95.94
358.895	90.94
359.122	100.94
359.349	89.94
359.576	83.94
359.802	91.94
360.029	99.94
360.256	94.94
360.483	98.94
360.709	94.94
360.936	89.94
361.163	88.94
361.39	87.94
361.616	105.94
361.843	102.94
362.07	93.94
362.296	92.94
362.523	76.94
362.749	80.94
362.976	96.94
363.203	80.94
363.429	85.94
363.656	96.94
363.882	90.94
364.109	79.94
364.335	109.94
364.562	101.94
364.788	90.94
365.015	94.94
365.241	94.94
365.468	104.94
365.694	85.94
365.92	91.94
366.147	110.94
366.373	93.94
366.599	99.94
366.826	78.94
367.052	88.94
367.278	96.94
367.505	88.94
367.731	96.94
367.957	90.94
368.184	89.94
368.41	100.94
368.636	108.94
368.862	113.94
369.089	122.94
369.315	90.94
369.541	84.94
369.767	100.94
369.993	91.94
370.219	87.94
370.445	89.94
370.672	107.94
370.898	98.94
371.124	88.94
371.35	86.94
371.576	85.94
371.802	94.94
372.028	77.94
372.254	97.94
372.48	93.94
372.706	83.94
372.932	93.94
373.158	98.94
373.384	89.94
373.61	94.94
373.835	78.94
374.061	95.94
374.287	85.94
374.513	86.94
374.739	91.94
374.965	93.94
375.191	91.94
375.416	93.94
375.642	85.94
375.868	97.94
376.094	93.94
376.319	90.94
376.545	99.94
376.771	94.94
376.997	88.94
377.222	85.94
377.448	108.94
377.674	86.94
377.899	76.94
378.125	75.94
378.35	85.94
378.576	79.94
378.802	93.94
379.027	94.94
379.253	98.94
379.478	101.94
379.704	97.94
379.929	84.94
380.155	100.94
380.38	96.94
380.606	94.94
380.831	86.94
381.057	90.94
381.282	94.94
381.507	73.94
381.733	103.94
381.958	88.94
382.184	100.94
382.409	102.94
382.634	107.94
382.86	96.94
383.085	92.94
383.31	98.94
383.535	91.94
383.761	78.94
383.986	95.94
384.211	100.94
384.436	86.94
384.662	90.94
384.887	112.94
385.112	92.94
385.337	92.94
385.562	97.94
385.787	108.94
386.013	93.94
386.238	96.94
386.463	105.94
386.688	117.94
386.913	108.94
387.138	102.94
387.363	99.94
387.588	92.94
387.813	97.94
388.038	103.94
388.263	94.94
388.488	101.94
388.713	83.94
388.938	101.94
389.163	89.94
389.387	82.94
389.612	95.94
389.837	87.94
390.062	99.94
390.287	85.94
390.512	84.94
390.736	90.94
390.961	101.94
391.186	93.94
391.411	88.94
391.636	94.94
391.86	94.94
392.085	90.94
392.31	76.94
392.534	85.94
392.759	90.94
392.984	83.94
393.208	86.94
393.433	80.94
393.658	83.94
393.882	85.94
394.107	100.94
394.331	90.94
394.556	101.94
394.78	103.94
395.005	86.94
395.229	82.94
395.454	78.94
395.678	83.94
395.903	89.94
396.127	97.94
396.352	84.94
396.576	85.94
396.801	80.94
397.025	89.94
397.249	74.94
397.474	81.94
397.698	81.94
397.922	75.94
398.147	88.94
398.371	96.94
398.595	86.94
398.82	98.94
399.044	87.94
399.268	80.94
399.492	90.94
399.717	96.94
399.941	104.94
400.165	91.94
400.389	92.94
400.613	93.94
400.837	77.94
401.062	83.94
401.286	95.94
401.51	95.94
401.734	93.94
401.958	101.94
402.182	125.94
402.406	146.94
402.63	111.94
402.854	88.94
403.078	80.94
403.302	81.94
403.526	74.94
403.75	85.94
403.974	95.94
404.198	87.94
404.422	96.94
404.645	95.94
404.869	80.94
405.093	105.94
405.317	98.94
405.541	90.94
405.765	100.94
405.988	112.94
406.212	156.94
406.436	213.94
406.66	128.94
406.883	85.94
407.107	100.94
407.331	86.94
407.555	90.94
407.778	100.94
408.002	89.94
408.226	83.94
408.449	86.94
408.673	91.94
408.896	97.94
409.12	98.94
409.344	101.94
409.567	90.94
409.791	93.94
410.014	87.94
410.238	95.94
410.461	95.94
410.685	106.94
410.908	103.94
411.132	93.94
411.355	85.94
411.578	82.94
411.802	85.94
412.025	82.94
412.249	84.94
412.472	101.94
412.695	89.94
412.919	88.94
413.142	89.94
413.365	102.94
413.589	81.94
413.812	78.94
414.035	83.94
414.258	84.94
414.482	94.94
414.705	95.94
414.928	92.94
415.151	83.94
415.374	83.94
415.597	92.94
415.821	94.94
416.044	88.94
416.267	85.94
416.49	102.94
416.713	89.94
416.936	80.94
417.159	93.94
417.382	91.94
417.605	100.94
417.828	83.94
418.051	85.94
418.274	89.94
418.497	79.94
418.72	95.94
418.943	81.94
419.166	83.94
419.389	93.94
419.611	94.94
419.834	97.94
420.057	87.94
420.28	92.94
420.503	96.94
420.726	92.94
420.948	80.94
421.171	100.94
421.394	100.94
421.617	93.94
421.839	88.94
422.062	94.94
422.285	86.94
422.507	99.94
422.73	108.94
422.953	100.94
423.175	83.94
423.398	67.94
423.621	94.94
423.843	94.94
424.066	83.94
424.288	95.94
424.511	90.94
424.733	101.94
424.956	102.94
425.178	101.94
425.401	93.94
425.623	97.94
425.846	99.94
426.068	90.94
426.291	86.94
426.513	75.94
426.735	85.94
426.958	97.94
427.18	102.94
427.402	115.94
427.625	150.94
427.847	122.94
428.069	100.94
428.292	92.94
428.514	88.94
428.736	77.94
428.958	72.94
429.181	96.94
429.403	87.94
429.625	98.94
429.847	93.94
430.069	91.94
430.292	93.94
430.514	84.94
430.736	73.94
430.958	83.94
431.18	90.94
431.402	91.94
431.624	82.94
431.846	83.94
432.068	62.94
432.29	85.94
432.512	84.94
432.734	81.94
432.956	89.94
433.178	95.94
433.4	89.94
433.622	86.94
433.844	93.94
434.066	82.94
434.287	88.94
434.509	94.94
434.731	85.94
434.953	97.94
435.175	83.94
435.397	85.94
435.618	103.94
435.84	99.94
436.062	115.94
436.284	106.94
436.505	111.94
436.727	106.94
436.949	90.94
437.17	93.94
437.392	66.94
437.614	82.94
437.835	84.94
438.057	108.94
438.278	115.94
438.5	104.94
438.721	101.94
438.943	101.94
439.165	84.94
439.386	80.94
439.608	84.94
439.829	93.94
440.05	109.94
440.272	128.94
440.493	89.94
440.715	84.94
440.936	86.94
441.158	66.94
441.379	98.94
441.6	77.94
441.822	89.94
442.043	88.94
442.264	93.94
442.486	110.94
442.707	101.94
442.928	106.94
443.149	115.94
443.371	114.94
443.592	101.94
443.813	119.94
444.034	96.94
444.255	85.94
444.476	92.94
444.698	84.94
444.919	86.94
445.14	135.94
445.361	125.94
445.582	119.94
445.803	116.94
446.024	118.94
446.245	130.94
446.466	101.94
446.687	90.94
446.908	100.94
447.129	74.94
447.35	91.94
447.571	77.94
447.792	83.94
448.013	90.94
448.234	94.94
448.455	101.94
448.675	109.94
448.896	109.94
449.117	84.94
449.338	98.94
449.559	130.94
449.779	125.94
450	92.94
450.221	98.94
450.442	80.94
450.662	89.94
450.883	106.94
451.104	121.94
451.324	100.94
451.545	72.94
451.766	90.94
451.986	88.94
452.207	80.94
452.428	85.94
452.648	96.94
452.869	98.94
453.089	88.94
453.31	106.94
453.53	98.94
453.751	80.94
453.971	109.94
454.192	96.94
454.412	95.94
454.633	89.94
454.853	89.94
455.073	91.94
455.294	79.94
455.514	85.94
455.734	94.94
455.955	99.94
456.175	83.94
456.395	83.94
456.616	78.94
456.836	90.94
457.056	81.94
457.276	81.94
457.497	83.94
457.717	80.94
457.937	78.94
458.157	82.94
458.377	92.94
458.598	93.94
458.818	148.94
459.038	132.94
459.258	106.94
459.478	94.94
459.698	84.94
459.918	99.94
460.138	77.94
460.358	85.94
460.578	73.94
460.798	82.94
461.018	88.94
461.238	85.94
461.458	85.94
461.678	85.94
461.898	99.94
462.118	93.94
462.338	93.94
462.558	76.94
462.777	84.94
462.997	77.94
463.217	90.94
463.437	92.94
463.657	81.94
463.876	74.94
464.096	91.94
464.316	85.94
464.536	95.94
464.755	84.94
464.975	90.94
465.195	158.94
465.414	146.94
465.634	89.94
465.854	68.94
466.073	80.94
466.293	90.94
466.512	83.94
466.732	89.94
466.951	88.94
467.171	88.94
467.391	89.94
467.61	100.94
467.829	93.94
468.049	90.94
468.268	90.94
468.488	77.94
468.707	78.94
468.927	91.94
469.146	86.94
469.365	90.94
469.585	100.94
469.804	77.94
470.023	101.94
470.243	94.94
470.462	88.94
470.681	109.94
470.901	93.94
471.12	83.94
471.339	82.94
471.558	99.94
471.777	82.94
471.997	83.94
472.216	86.94
472.435	65.94
472.654	72.94
472.873	84.94
473.092	85.94
473.311	100.94
473.53	92.94
473.749	79.94
473.968	90.94
474.187	103.94
474.406	91.94
474.625	95.94
474.844	85.94
475.063	73.94
475.282	76.94
475.501	106.94
475.72	97.94
475.939	78.94
476.158	92.94
476.377	90.94
476.596	91.94
476.814	84.94
477.033	97.94
477.252	85.94
477.471	81.94
477.69	75.94
477.908	94.94
478.127	89.94
478.346	87.94
478.564	86.94
478.783	81.94
479.002	102.94
479.22	91.94
479.439	90.94
479.658	98.94
479.876	99.94
480.095	96.94
480.313	93.94
480.532	97.94
480.751	93.94
480.969	94.94
481.188	87.94
481.406	89.94
481.624	92.94
481.843	82.94
482.061	83.94
482.28	83.94
482.498	97.94
482.717	98.94
482.935	86.94
483.153	73.94
483.372	89.94
483.59	85.94
483.808	89.94
484.027	93.94
484.245	85.94
484.463	90.94
484.681	97.94
484.9	94.94
485.118	100.94
485.336	78.94
485.554	109.94
485.772	98.94
485.99	98.94
486.209	103.94
486.427	89.94
486.645	103.94
486.863	96.94
487.081	95.94
487.299	99.94
487.517	90.94
487.735	93.94
487.953	93.94
488.171	83.94
488.389	99.94
488.607	89.94
488.825	100.94
489.043	85.94
489.261	98.94
489.479	78.94
489.696	75.94
489.914	99.94
490.132	108.94
490.35	107.94
490.568	78.94
490.786	85.94
491.003	83.94
491.221	93.94
491.439	98.94
491.657	84.94
491.874	87.94
492.092	89.94
492.31	89.94
492.527	88.94
492.745	77.94
492.963	84.94
493.18	88.94
493.398	81.94
493.615	104.94
493.833	92.94
494.05	95.94
494.268	95.94
494.485	88.94
494.703	79.94
494.92	87.94
495.138	76.94
495.355	88.94
495.573	77.94
495.79	81.94
496.008	94.94
496.225	105.94
496.442	83.94
496.66	80.94
496.877	84.94
497.094	94.94
497.312	86.94
497.529	89.94
497.746	90.94
497.963	78.94
498.181	98.94
498.398	95.94
498.615	108.94
498.832	95.94
499.049	88.94
499.267	91.94
499.484	85.94
499.701	95.94
499.918	96.94
500.135	86.94
500.352	96.94
500.569	82.94
500.786	78.94
501.003	89.94
501.22	75.94
501.437	88.94
501.654	97.94
501.871	99.94
502.088	95.94
502.305	85.94
502.522	84.94
502.739	83.94
502.956	91.94
503.172	90.94
503.389	89.94
503.606	104.94
503.823	92.94
504.04	82.94
504.256	81.94
504.473	86.94
504.69	90.94
504.907	101.94
505.123	97.94
505.34	87.94
505.557	87.94
505.773	100.94
505.99	87.94
506.207	98.94
506.423	91.94
506.64	101.94
506.856	88.94
507.073	85.94
507.289	88.94
507.506	96.94
507.722	107.94
507.939	101.94
508.155	98.94
508.372	90.94
508.588	86.94
508.805	100.94
509.021	95.94
509.238	90.94
509.454	96.94
509.67	113.94
509.887	100.94
510.103	132.94
510.319	190.94
510.536	744.94
510.752	2252.94
510.968	644.94
511.184	157.94
511.401	96.94
511.617	96.94
511.833	98.94
512.049	86.94
512.265	88.94
512.481	85.94
512.698	85.94
512.914	91.94
513.13	81.94
513.346	89.94
513.562	86.94
513.778	103.94
513.994	81.94
514.21	95.94
514.426	111.94
514.642	136.94
514.858	114.94
515.074	145.94
515.29	432.94
515.506	1352.94
515.721	528.94
515.937	142.94
516.153	105.94
516.369	110.94
516.585	103.94
