Data from Uncirc_2006_H10_HRD10591_00038.txt Node
Date: Wed Jan 03 10:25:02 EST 2024
User: Yrep
Spectrometer: HR+D1059
Trigger mode: 1
Integration Time (sec): 1.000000E-1
Scans to average: 1
Electric dark correction enabled: true
Nonlinearity correction enabled: false
Boxcar width: 0
XAxis mode: Wavelengths
Number of Pixels in Spectrum: 2048
>>>>>Begin Spectral Data<<<<<
223.165	-21.88
223.4	-21.88
223.635	-21.88
223.869	-23.88
224.104	-19.88
224.338	-11.88
224.573	-22.88
224.808	2.12
225.042	-8.88
225.277	-7.88
225.511	13.12
225.746	0.12
225.98	14.12
226.215	11.12
226.449	1.12
226.683	11.12
226.918	37.12
227.152	27.12
227.387	36.12
227.621	19.12
227.856	40.12
228.09	61.12
228.324	43.12
228.559	50.12
228.793	40.12
229.027	64.12
229.262	64.12
229.496	71.12
229.73	84.12
229.964	79.12
230.199	84.12
230.433	66.12
230.667	68.12
230.901	73.12
231.136	75.12
231.37	68.12
231.604	73.12
231.838	74.12
232.072	69.12
232.306	68.12
232.541	65.12
232.775	74.12
233.009	69.12
233.243	85.12
233.477	75.12
233.711	80.12
233.945	94.12
234.179	73.12
234.413	75.12
234.647	77.12
234.881	74.12
235.115	92.12
235.349	78.12
235.583	68.12
235.817	50.12
236.051	79.12
236.285	70.12
236.519	81.12
236.753	71.12
236.987	84.12
237.221	78.12
237.455	78.12
237.689	79.12
237.922	77.12
238.156	79.12
238.39	66.12
238.624	77.12
238.858	69.12
239.091	86.12
239.325	80.12
239.559	76.12
239.793	87.12
240.027	70.12
240.26	89.12
240.494	74.12
240.728	77.12
240.961	87.12
241.195	80.12
241.429	61.12
241.662	81.12
241.896	79.12
242.13	69.12
242.363	85.12
242.597	69.12
242.83	73.12
243.064	73.12
243.298	78.12
243.531	76.12
243.765	85.12
243.998	74.12
244.232	75.12
244.465	67.12
244.699	82.12
244.932	76.12
245.166	74.12
245.399	85.12
245.633	79.12
245.866	60.12
246.099	78.12
246.333	75.12
246.566	70.12
246.8	82.12
247.033	73.12
247.266	65.12
247.5	80.12
247.733	81.12
247.966	70.12
248.2	76.12
248.433	73.12
248.666	85.12
248.899	82.12
249.133	82.12
249.366	93.12
249.599	103.12
249.832	73.12
250.066	77.12
250.299	81.12
250.532	66.12
250.765	70.12
250.998	70.12
251.231	91.12
251.465	73.12
251.698	69.12
251.931	80.12
252.164	74.12
252.397	68.12
252.63	84.12
252.863	69.12
253.096	84.12
253.329	73.12
253.562	63.12
253.795	79.12
254.028	78.12
254.261	83.12
254.494	79.12
254.727	100.12
254.96	67.12
255.193	84.12
255.426	80.12
255.659	76.12
255.892	74.12
256.124	78.12
256.357	84.12
256.59	73.12
256.823	76.12
257.056	91.12
257.289	89.12
257.521	75.12
257.754	87.12
257.987	76.12
258.22	73.12
258.452	80.12
258.685	73.12
258.918	78.12
259.151	82.12
259.383	74.12
259.616	85.12
259.849	89.12
260.081	64.12
260.314	67.12
260.547	82.12
260.779	70.12
261.012	82.12
261.244	79.12
261.477	86.12
261.71	86.12
261.942	101.12
262.175	103.12
262.407	90.12
262.64	79.12
262.872	71.12
263.105	71.12
263.337	87.12
263.57	82.12
263.802	84.12
264.035	78.12
264.267	85.12
264.499	78.12
264.732	75.12
264.964	75.12
265.197	88.12
265.429	93.12
265.661	94.12
265.894	79.12
266.126	95.12
266.358	84.12
266.591	83.12
266.823	80.12
267.055	62.12
267.287	82.12
267.52	83.12
267.752	91.12
267.984	72.12
268.216	87.12
268.448	75.12
268.681	72.12
268.913	85.12
269.145	85.12
269.377	86.12
269.609	90.12
269.841	94.12
270.073	73.12
270.306	73.12
270.538	84.12
270.77	83.12
271.002	73.12
271.234	97.12
271.466	89.12
271.698	95.12
271.93	90.12
272.162	77.12
272.394	89.12
272.626	82.12
272.858	79.12
273.09	75.12
273.322	79.12
273.553	78.12
273.785	78.12
274.017	82.12
274.249	73.12
274.481	89.12
274.713	83.12
274.945	90.12
275.176	92.12
275.408	67.12
275.64	98.12
275.872	72.12
276.104	86.12
276.335	84.12
276.567	98.12
276.799	115.12
277.031	91.12
277.262	72.12
277.494	89.12
277.726	84.12
277.957	77.12
278.189	103.12
278.421	87.12
278.652	89.12
278.884	100.12
279.115	94.12
279.347	93.12
279.579	94.12
279.81	84.12
280.042	73.12
280.273	99.12
280.505	78.12
280.736	84.12
280.968	78.12
281.199	96.12
281.431	88.12
281.662	80.12
281.894	94.12
282.125	89.12
282.356	113.12
282.588	138.12
282.819	88.12
283.051	90.12
283.282	83.12
283.513	82.12
283.745	78.12
283.976	83.12
284.207	74.12
284.439	83.12
284.67	81.12
284.901	83.12
285.132	96.12
285.364	75.12
285.595	89.12
285.826	91.12
286.057	84.12
286.288	83.12
286.52	76.12
286.751	85.12
286.982	89.12
287.213	79.12
287.444	85.12
287.675	89.12
287.906	89.12
288.138	104.12
288.369	85.12
288.6	91.12
288.831	80.12
289.062	93.12
289.293	84.12
289.524	92.12
289.755	71.12
289.986	86.12
290.217	85.12
290.448	87.12
290.679	82.12
290.91	84.12
291.141	90.12
291.371	93.12
291.602	87.12
291.833	98.12
292.064	100.12
292.295	94.12
292.526	82.12
292.757	88.12
292.987	82.12
293.218	85.12
293.449	83.12
293.68	88.12
293.91	71.12
294.141	95.12
294.372	98.12
294.603	92.12
294.833	83.12
295.064	85.12
295.295	93.12
295.525	93.12
295.756	91.12
295.987	111.12
296.217	130.12
296.448	113.12
296.679	89.12
296.909	82.12
297.14	83.12
297.37	80.12
297.601	83.12
297.831	85.12
298.062	95.12
298.292	78.12
298.523	85.12
298.753	91.12
298.984	95.12
299.214	92.12
299.445	79.12
299.675	87.12
299.905	97.12
300.136	95.12
300.366	75.12
300.597	95.12
300.827	82.12
301.057	87.12
301.288	90.12
301.518	98.12
301.748	93.12
301.979	100.12
302.209	77.12
302.439	91.12
302.669	80.12
302.9	81.12
303.13	91.12
303.36	88.12
303.59	112.12
303.82	87.12
304.051	90.12
304.281	82.12
304.511	92.12
304.741	87.12
304.971	75.12
305.201	77.12
305.431	85.12
305.661	76.12
305.891	82.12
306.121	85.12
306.352	93.12
306.582	112.12
306.812	114.12
307.042	86.12
307.272	93.12
307.502	89.12
307.731	81.12
307.961	97.12
308.191	89.12
308.421	74.12
308.651	97.12
308.881	84.12
309.111	82.12
309.341	85.12
309.571	78.12
309.8	88.12
310.03	101.12
310.26	93.12
310.49	88.12
310.72	92.12
310.949	97.12
311.179	97.12
311.409	86.12
311.639	96.12
311.868	93.12
312.098	81.12
312.328	98.12
312.557	95.12
312.787	97.12
313.017	93.12
313.246	90.12
313.476	87.12
313.706	88.12
313.935	74.12
314.165	99.12
314.394	99.12
314.624	98.12
314.853	103.12
315.083	98.12
315.312	84.12
315.542	95.12
315.771	89.12
316.001	92.12
316.23	85.12
316.46	90.12
316.689	75.12
316.919	82.12
317.148	89.12
317.377	91.12
317.607	101.12
317.836	91.12
318.065	87.12
318.295	95.12
318.524	89.12
318.753	91.12
318.983	93.12
319.212	101.12
319.441	97.12
319.67	100.12
319.9	92.12
320.129	83.12
320.358	87.12
320.587	76.12
320.816	107.12
321.046	100.12
321.275	100.12
321.504	97.12
321.733	94.12
321.962	90.12
322.191	92.12
322.42	94.12
322.649	116.12
322.878	103.12
323.108	98.12
323.337	123.12
323.566	113.12
323.795	145.12
324.024	194.12
324.253	383.12
324.482	831.12
324.71	1716.12
324.939	2280.12
325.168	815.12
325.397	233.12
325.626	139.12
325.855	112.12
326.084	127.12
326.313	131.12
326.542	149.12
326.77	252.12
326.999	473.12
327.228	972.12
327.457	1756.12
327.686	1393.12
327.914	364.12
328.143	187.12
328.372	136.12
328.6	134.12
328.829	119.12
329.058	134.12
329.287	117.12
329.515	107.12
329.744	88.12
329.972	85.12
330.201	90.12
330.43	97.12
330.658	101.12
330.887	118.12
331.115	117.12
331.344	105.12
331.572	95.12
331.801	115.12
332.03	103.12
332.258	93.12
332.486	85.12
332.715	91.12
332.943	85.12
333.172	100.12
333.4	102.12
333.629	105.12
333.857	89.12
334.085	92.12
334.314	98.12
334.542	94.12
334.771	100.12
334.999	96.12
335.227	98.12
335.455	99.12
335.684	77.12
335.912	98.12
336.14	103.12
336.369	89.12
336.597	87.12
336.825	87.12
337.053	81.12
337.281	93.12
337.51	90.12
337.738	93.12
337.966	91.12
338.194	93.12
338.422	89.12
338.65	85.12
338.878	79.12
339.106	73.12
339.334	102.12
339.562	95.12
339.79	87.12
340.018	96.12
340.246	92.12
340.474	95.12
340.702	87.12
340.93	96.12
341.158	91.12
341.386	75.12
341.614	99.12
341.842	91.12
342.07	74.12
342.298	97.12
342.526	89.12
342.754	89.12
342.981	98.12
343.209	84.12
343.437	93.12
343.665	79.12
343.893	83.12
344.12	80.12
344.348	97.12
344.576	90.12
344.804	95.12
345.031	78.12
345.259	90.12
345.487	86.12
345.714	99.12
345.942	102.12
346.17	99.12
346.397	96.12
346.625	104.12
346.853	88.12
347.08	89.12
347.308	83.12
347.535	89.12
347.763	88.12
347.99	97.12
348.218	111.12
348.445	97.12
348.673	93.12
348.9	105.12
349.128	105.12
349.355	91.12
349.583	98.12
349.81	98.12
350.037	98.12
350.265	100.12
350.492	89.12
350.72	88.12
350.947	104.12
351.174	85.12
351.402	107.12
351.629	89.12
351.856	88.12
352.083	94.12
352.311	98.12
352.538	101.12
352.765	99.12
352.992	112.12
353.22	102.12
353.447	101.12
353.674	102.12
353.901	95.12
354.128	74.12
354.355	93.12
354.583	106.12
354.81	92.12
355.037	93.12
355.264	92.12
355.491	98.12
355.718	93.12
355.945	95.12
356.172	97.12
356.399	96.12
356.626	92.12
356.853	78.12
357.08	85.12
357.307	60.12
357.534	91.12
357.761	97.12
357.988	103.12
358.215	98.12
358.441	87.12
358.668	96.12
358.895	90.12
359.122	90.12
359.349	96.12
359.576	83.12
359.802	91.12
360.029	98.12
360.256	97.12
360.483	104.12
360.709	92.12
360.936	92.12
361.163	90.12
361.39	84.12
361.616	90.12
361.843	94.12
362.07	81.12
362.296	90.12
362.523	90.12
362.749	104.12
362.976	99.12
363.203	93.12
363.429	81.12
363.656	84.12
363.882	81.12
364.109	92.12
364.335	79.12
364.562	102.12
364.788	92.12
365.015	84.12
365.241	90.12
365.468	106.12
365.694	95.12
365.92	91.12
366.147	85.12
366.373	78.12
366.599	89.12
366.826	81.12
367.052	82.12
367.278	83.12
367.505	91.12
367.731	89.12
367.957	98.12
368.184	84.12
368.41	96.12
368.636	112.12
368.862	111.12
369.089	95.12
369.315	85.12
369.541	88.12
369.767	83.12
369.993	97.12
370.219	96.12
370.445	86.12
370.672	77.12
370.898	80.12
371.124	82.12
371.35	92.12
371.576	83.12
371.802	70.12
372.028	84.12
372.254	96.12
372.48	94.12
372.706	79.12
372.932	92.12
373.158	89.12
373.384	99.12
373.61	104.12
373.835	87.12
374.061	73.12
374.287	100.12
374.513	85.12
374.739	89.12
374.965	85.12
375.191	83.12
375.416	83.12
375.642	89.12
375.868	96.12
376.094	100.12
376.319	83.12
376.545	89.12
376.771	97.12
376.997	83.12
377.222	92.12
377.448	97.12
377.674	96.12
377.899	74.12
378.125	81.12
378.35	87.12
378.576	80.12
378.802	86.12
379.027	105.12
379.253	101.12
379.478	94.12
379.704	95.12
379.929	95.12
380.155	82.12
380.38	102.12
380.606	81.12
380.831	91.12
381.057	88.12
381.282	79.12
381.507	87.12
381.733	97.12
381.958	103.12
382.184	91.12
382.409	109.12
382.634	94.12
382.86	113.12
383.085	112.12
383.31	105.12
383.535	97.12
383.761	107.12
383.986	96.12
384.211	91.12
384.436	101.12
384.662	103.12
384.887	100.12
385.112	82.12
385.337	99.12
385.562	106.12
385.787	92.12
386.013	109.12
386.238	94.12
386.463	104.12
386.688	121.12
386.913	100.12
387.138	108.12
387.363	92.12
387.588	89.12
387.813	101.12
388.038	106.12
388.263	99.12
388.488	91.12
388.713	101.12
388.938	102.12
389.163	91.12
389.387	98.12
389.612	91.12
389.837	99.12
390.062	108.12
390.287	103.12
390.512	90.12
390.736	82.12
390.961	84.12
391.186	83.12
391.411	99.12
391.636	76.12
391.86	75.12
392.085	89.12
392.31	86.12
392.534	88.12
392.759	89.12
392.984	76.12
393.208	78.12
393.433	85.12
393.658	92.12
393.882	93.12
394.107	91.12
394.331	84.12
394.556	86.12
394.78	102.12
395.005	99.12
395.229	91.12
395.454	83.12
395.678	80.12
395.903	78.12
396.127	88.12
396.352	92.12
396.576	85.12
396.801	87.12
397.025	82.12
397.249	82.12
397.474	87.12
397.698	86.12
397.922	72.12
398.147	102.12
398.371	79.12
398.595	93.12
398.82	70.12
399.044	90.12
399.268	87.12
399.492	86.12
399.717	85.12
399.941	84.12
400.165	81.12
400.389	101.12
400.613	80.12
400.837	77.12
401.062	97.12
401.286	80.12
401.51	85.12
401.734	84.12
401.958	81.12
402.182	120.12
402.406	155.12
402.63	101.12
402.854	87.12
403.078	90.12
403.302	78.12
403.526	79.12
403.75	77.12
403.974	75.12
404.198	77.12
404.422	81.12
404.645	89.12
404.869	85.12
405.093	85.12
405.317	102.12
405.541	90.12
405.765	95.12
405.988	96.12
406.212	162.12
406.436	226.12
406.66	145.12
406.883	95.12
407.107	87.12
407.331	92.12
407.555	88.12
407.778	88.12
408.002	85.12
408.226	91.12
408.449	87.12
408.673	98.12
408.896	91.12
409.12	80.12
409.344	78.12
409.567	83.12
409.791	78.12
410.014	107.12
410.238	90.12
410.461	82.12
410.685	82.12
410.908	91.12
411.132	105.12
411.355	93.12
411.578	90.12
411.802	73.12
412.025	82.12
412.249	92.12
412.472	93.12
412.695	89.12
412.919	91.12
413.142	85.12
413.365	96.12
413.589	86.12
413.812	84.12
414.035	97.12
414.258	78.12
414.482	108.12
414.705	96.12
414.928	83.12
415.151	90.12
415.374	73.12
415.597	85.12
415.821	88.12
416.044	93.12
416.267	77.12
416.49	103.12
416.713	88.12
416.936	99.12
417.159	87.12
417.382	96.12
417.605	82.12
417.828	91.12
418.051	91.12
418.274	84.12
418.497	78.12
418.72	87.12
418.943	80.12
419.166	83.12
419.389	88.12
419.611	65.12
419.834	85.12
420.057	86.12
420.28	81.12
420.503	74.12
420.726	76.12
420.948	87.12
421.171	100.12
421.394	79.12
421.617	72.12
421.839	96.12
422.062	98.12
422.285	93.12
422.507	83.12
422.73	90.12
422.953	87.12
423.175	98.12
423.398	96.12
423.621	82.12
423.843	91.12
424.066	90.12
424.288	75.12
424.511	101.12
424.733	98.12
424.956	85.12
425.178	97.12
425.401	88.12
425.623	103.12
425.846	98.12
426.068	89.12
426.291	80.12
426.513	79.12
426.735	101.12
426.958	91.12
427.18	97.12
427.402	129.12
427.625	147.12
427.847	112.12
428.069	84.12
428.292	89.12
428.514	101.12
428.736	79.12
428.958	92.12
429.181	83.12
429.403	76.12
429.625	85.12
429.847	82.12
430.069	92.12
430.292	88.12
430.514	78.12
430.736	86.12
430.958	84.12
431.18	83.12
431.402	81.12
431.624	76.12
431.846	88.12
432.068	81.12
432.29	84.12
432.512	83.12
432.734	74.12
432.956	78.12
433.178	81.12
433.4	99.12
433.622	96.12
433.844	82.12
434.066	91.12
434.287	85.12
434.509	82.12
434.731	96.12
434.953	73.12
435.175	71.12
435.397	87.12
435.618	92.12
435.84	87.12
436.062	123.12
436.284	101.12
436.505	104.12
436.727	99.12
436.949	95.12
437.17	97.12
437.392	91.12
437.614	90.12
437.835	104.12
438.057	108.12
438.278	101.12
438.5	101.12
438.721	104.12
438.943	94.12
439.165	89.12
439.386	106.12
439.608	99.12
439.829	97.12
440.05	106.12
440.272	123.12
440.493	109.12
440.715	72.12
440.936	82.12
441.158	89.12
441.379	83.12
441.6	77.12
441.822	97.12
442.043	98.12
442.264	88.12
442.486	103.12
442.707	105.12
442.928	98.12
443.149	119.12
443.371	120.12
443.592	120.12
443.813	93.12
444.034	105.12
444.255	100.12
444.476	77.12
444.698	83.12
444.919	89.12
445.14	124.12
445.361	121.12
445.582	111.12
445.803	121.12
446.024	112.12
446.245	131.12
446.466	96.12
446.687	96.12
446.908	70.12
447.129	87.12
447.35	84.12
447.571	83.12
447.792	79.12
448.013	104.12
448.234	97.12
448.455	92.12
448.675	91.12
448.896	106.12
449.117	99.12
449.338	92.12
449.559	119.12
449.779	129.12
450	91.12
450.221	84.12
450.442	80.12
450.662	88.12
450.883	110.12
451.104	111.12
451.324	78.12
451.545	80.12
451.766	95.12
451.986	80.12
452.207	84.12
452.428	80.12
452.648	79.12
452.869	103.12
453.089	118.12
453.31	116.12
453.53	100.12
453.751	88.12
453.971	92.12
454.192	113.12
454.412	101.12
454.633	68.12
454.853	77.12
455.073	78.12
455.294	77.12
455.514	94.12
455.734	89.12
455.955	73.12
456.175	92.12
456.395	85.12
456.616	82.12
456.836	80.12
457.056	89.12
457.276	93.12
457.497	84.12
457.717	88.12
457.937	79.12
458.157	75.12
458.377	89.12
458.598	102.12
458.818	136.12
459.038	135.12
459.258	116.12
459.478	91.12
459.698	91.12
459.918	80.12
460.138	77.12
460.358	86.12
460.578	95.12
460.798	89.12
461.018	80.12
461.238	81.12
461.458	96.12
461.678	73.12
461.898	96.12
462.118	78.12
462.338	82.12
462.558	98.12
462.777	83.12
462.997	87.12
463.217	82.12
463.437	85.12
463.657	86.12
463.876	81.12
464.096	73.12
464.316	94.12
464.536	92.12
464.755	84.12
464.975	107.12
465.195	160.12
465.414	136.12
465.634	87.12
465.854	84.12
466.073	85.12
466.293	73.12
466.512	81.12
466.732	94.12
466.951	89.12
467.171	79.12
467.391	93.12
467.61	109.12
467.829	103.12
468.049	81.12
468.268	84.12
468.488	83.12
468.707	81.12
468.927	85.12
469.146	72.12
469.365	87.12
469.585	77.12
469.804	90.12
470.023	92.12
470.243	85.12
470.462	108.12
470.681	95.12
470.901	73.12
471.12	91.12
471.339	66.12
471.558	92.12
471.777	78.12
471.997	71.12
472.216	76.12
472.435	76.12
472.654	78.12
472.873	84.12
473.092	95.12
473.311	85.12
473.53	80.12
473.749	94.12
473.968	84.12
474.187	88.12
474.406	96.12
474.625	93.12
474.844	89.12
475.063	85.12
475.282	93.12
475.501	88.12
475.72	75.12
475.939	83.12
476.158	85.12
476.377	91.12
476.596	80.12
476.814	87.12
477.033	96.12
477.252	93.12
477.471	90.12
477.69	88.12
477.908	82.12
478.127	90.12
478.346	89.12
478.564	89.12
478.783	92.12
479.002	93.12
479.22	84.12
479.439	96.12
479.658	98.12
479.876	100.12
480.095	93.12
480.313	92.12
480.532	80.12
480.751	78.12
480.969	75.12
481.188	81.12
481.406	73.12
481.624	78.12
481.843	87.12
482.061	89.12
482.28	95.12
482.498	86.12
482.717	91.12
482.935	87.12
483.153	91.12
483.372	89.12
483.59	91.12
483.808	100.12
484.027	87.12
484.245	88.12
484.463	87.12
484.681	93.12
484.9	76.12
485.118	85.12
485.336	91.12
485.554	74.12
485.772	86.12
485.99	106.12
486.209	92.12
486.427	97.12
486.645	112.12
486.863	98.12
487.081	98.12
487.299	94.12
487.517	94.12
487.735	73.12
487.953	85.12
488.171	76.12
488.389	94.12
488.607	106.12
488.825	100.12
489.043	84.12
489.261	86.12
489.479	84.12
489.696	100.12
489.914	88.12
490.132	92.12
490.35	85.12
490.568	79.12
490.786	91.12
491.003	91.12
491.221	110.12
491.439	81.12
491.657	97.12
491.874	83.12
492.092	84.12
492.31	84.12
492.527	80.12
492.745	75.12
492.963	92.12
493.18	102.12
493.398	91.12
493.615	68.12
493.833	93.12
494.05	81.12
494.268	81.12
494.485	101.12
494.703	87.12
494.92	99.12
495.138	82.12
495.355	83.12
495.573	79.12
495.79	101.12
496.008	88.12
496.225	91.12
496.442	91.12
496.66	89.12
496.877	83.12
497.094	87.12
497.312	96.12
497.529	76.12
497.746	91.12
497.963	80.12
498.181	75.12
498.398	90.12
498.615	92.12
498.832	98.12
499.049	84.12
499.267	84.12
499.484	99.12
499.701	92.12
499.918	81.12
500.135	92.12
500.352	96.12
500.569	95.12
500.786	91.12
501.003	92.12
501.22	72.12
501.437	83.12
501.654	95.12
501.871	117.12
502.088	100.12
502.305	76.12
502.522	91.12
502.739	87.12
502.956	84.12
503.172	90.12
503.389	96.12
503.606	105.12
503.823	80.12
504.04	75.12
504.256	82.12
504.473	96.12
504.69	97.12
504.907	94.12
505.123	81.12
505.34	82.12
505.557	99.12
505.773	101.12
505.99	94.12
506.207	75.12
506.423	91.12
506.64	102.12
506.856	88.12
507.073	87.12
507.289	89.12
507.506	109.12
507.722	95.12
507.939	113.12
508.155	89.12
508.372	83.12
508.588	88.12
508.805	73.12
509.021	94.12
509.238	100.12
509.454	105.12
509.67	92.12
509.887	104.12
510.103	129.12
510.319	213.12
510.536	731.12
510.752	2275.12
510.968	627.12
511.184	148.12
511.401	122.12
511.617	107.12
511.833	83.12
512.049	74.12
512.265	83.12
512.481	86.12
512.698	87.12
512.914	95.12
513.13	86.12
513.346	95.12
513.562	92.12
513.778	96.12
513.994	89.12
514.21	94.12
514.426	113.12
514.642	121.12
514.858	112.12
515.074	159.12
515.29	448.12
515.506	1416.12
515.721	519.12
515.937	161.12
516.153	118.12
516.369	103.12
516.585	86.12
516.801	85.12
