Data from Uncirc_2006_H10_HRD10591_00020.txt Node
Date: Wed Jan 03 10:24:59 EST 2024
User: Yrep
Spectrometer: HR+D1059
Trigger mode: 1
Integration Time (sec): 1.000000E-1
Scans to average: 1
Electric dark correction enabled: true
Nonlinearity correction enabled: false
Boxcar width: 0
XAxis mode: Wavelengths
Number of Pixels in Spectrum: 2048
>>>>>Begin Spectral Data<<<<<
223.165	-13.44
223.4	-13.44
223.635	-13.44
223.869	-13.44
224.104	-19.44
224.338	-14.44
224.573	-2.44
224.808	3.56
225.042	-9.44
225.277	-7.44
225.511	-12.44
225.746	4.56
225.98	-7.44
226.215	21.56
226.449	7.56
226.683	18.56
226.918	24.56
227.152	19.56
227.387	27.56
227.621	27.56
227.856	31.56
228.09	31.56
228.324	53.56
228.559	52.56
228.793	45.56
229.027	59.56
229.262	53.56
229.496	69.56
229.73	74.56
229.964	71.56
230.199	60.56
230.433	64.56
230.667	59.56
230.901	75.56
231.136	70.56
231.37	72.56
231.604	77.56
231.838	96.56
232.072	71.56
232.306	69.56
232.541	56.56
232.775	60.56
233.009	80.56
233.243	83.56
233.477	71.56
233.711	87.56
233.945	61.56
234.179	82.56
234.413	62.56
234.647	88.56
234.881	70.56
235.115	68.56
235.349	74.56
235.583	89.56
235.817	76.56
236.051	79.56
236.285	71.56
236.519	73.56
236.753	77.56
236.987	85.56
237.221	89.56
237.455	77.56
237.689	69.56
237.922	73.56
238.156	67.56
238.39	62.56
238.624	75.56
238.858	76.56
239.091	80.56
239.325	77.56
239.559	80.56
239.793	79.56
240.027	78.56
240.26	67.56
240.494	73.56
240.728	84.56
240.961	71.56
241.195	78.56
241.429	77.56
241.662	79.56
241.896	97.56
242.13	74.56
242.363	82.56
242.597	79.56
242.83	71.56
243.064	67.56
243.298	81.56
243.531	68.56
243.765	67.56
243.998	83.56
244.232	69.56
244.465	74.56
244.699	75.56
244.932	79.56
245.166	79.56
245.399	82.56
245.633	71.56
245.866	92.56
246.099	80.56
246.333	65.56
246.566	88.56
246.8	75.56
247.033	72.56
247.266	73.56
247.5	77.56
247.733	79.56
247.966	68.56
248.2	72.56
248.433	61.56
248.666	65.56
248.899	72.56
249.133	74.56
249.366	81.56
249.599	82.56
249.832	64.56
250.066	89.56
250.299	69.56
250.532	76.56
250.765	77.56
250.998	72.56
251.231	73.56
251.465	68.56
251.698	81.56
251.931	74.56
252.164	77.56
252.397	75.56
252.63	76.56
252.863	74.56
253.096	72.56
253.329	75.56
253.562	84.56
253.795	77.56
254.028	72.56
254.261	67.56
254.494	89.56
254.727	69.56
254.96	79.56
255.193	86.56
255.426	78.56
255.659	83.56
255.892	79.56
256.124	75.56
256.357	83.56
256.59	80.56
256.823	80.56
257.056	72.56
257.289	75.56
257.521	79.56
257.754	91.56
257.987	80.56
258.22	79.56
258.452	91.56
258.685	76.56
258.918	74.56
259.151	71.56
259.383	70.56
259.616	89.56
259.849	82.56
260.081	81.56
260.314	79.56
260.547	91.56
260.779	89.56
261.012	91.56
261.244	88.56
261.477	96.56
261.71	81.56
261.942	119.56
262.175	98.56
262.407	85.56
262.64	65.56
262.872	81.56
263.105	68.56
263.337	77.56
263.57	80.56
263.802	85.56
264.035	80.56
264.267	83.56
264.499	77.56
264.732	71.56
264.964	76.56
265.197	71.56
265.429	80.56
265.661	71.56
265.894	96.56
266.126	61.56
266.358	78.56
266.591	78.56
266.823	84.56
267.055	84.56
267.287	80.56
267.52	81.56
267.752	78.56
267.984	66.56
268.216	67.56
268.448	79.56
268.681	90.56
268.913	82.56
269.145	73.56
269.377	75.56
269.609	74.56
269.841	71.56
270.073	72.56
270.306	76.56
270.538	73.56
270.77	85.56
271.002	82.56
271.234	73.56
271.466	76.56
271.698	94.56
271.93	79.56
272.162	81.56
272.394	84.56
272.626	83.56
272.858	77.56
273.09	90.56
273.322	84.56
273.553	68.56
273.785	93.56
274.017	87.56
274.249	85.56
274.481	80.56
274.713	81.56
274.945	68.56
275.176	88.56
275.408	86.56
275.64	78.56
275.872	59.56
276.104	78.56
276.335	70.56
276.567	86.56
276.799	110.56
277.031	86.56
277.262	76.56
277.494	90.56
277.726	88.56
277.957	71.56
278.189	93.56
278.421	63.56
278.652	74.56
278.884	91.56
279.115	93.56
279.347	78.56
279.579	86.56
279.81	84.56
280.042	72.56
280.273	83.56
280.505	78.56
280.736	71.56
280.968	86.56
281.199	98.56
281.431	84.56
281.662	88.56
281.894	87.56
282.125	93.56
282.356	100.56
282.588	137.56
282.819	109.56
283.051	77.56
283.282	89.56
283.513	91.56
283.745	82.56
283.976	75.56
284.207	83.56
284.439	90.56
284.67	84.56
284.901	78.56
285.132	72.56
285.364	82.56
285.595	85.56
285.826	93.56
286.057	81.56
286.288	78.56
286.52	94.56
286.751	87.56
286.982	91.56
287.213	86.56
287.444	87.56
287.675	79.56
287.906	95.56
288.138	94.56
288.369	92.56
288.6	80.56
288.831	88.56
289.062	80.56
289.293	85.56
289.524	93.56
289.755	87.56
289.986	80.56
290.217	73.56
290.448	79.56
290.679	85.56
290.91	95.56
291.141	88.56
291.371	83.56
291.602	97.56
291.833	91.56
292.064	82.56
292.295	91.56
292.526	80.56
292.757	83.56
292.987	78.56
293.218	84.56
293.449	89.56
293.68	80.56
293.91	75.56
294.141	91.56
294.372	106.56
294.603	88.56
294.833	85.56
295.064	85.56
295.295	92.56
295.525	96.56
295.756	79.56
295.987	119.56
296.217	123.56
296.448	112.56
296.679	85.56
296.909	76.56
297.14	89.56
297.37	81.56
297.601	67.56
297.831	92.56
298.062	84.56
298.292	93.56
298.523	98.56
298.753	76.56
298.984	87.56
299.214	81.56
299.445	79.56
299.675	92.56
299.905	84.56
300.136	83.56
300.366	86.56
300.597	88.56
300.827	92.56
301.057	93.56
301.288	103.56
301.518	95.56
301.748	84.56
301.979	96.56
302.209	92.56
302.439	80.56
302.669	80.56
302.9	89.56
303.13	94.56
303.36	85.56
303.59	95.56
303.82	97.56
304.051	100.56
304.281	87.56
304.511	99.56
304.741	84.56
304.971	78.56
305.201	76.56
305.431	105.56
305.661	101.56
305.891	82.56
306.121	100.56
306.352	87.56
306.582	100.56
306.812	99.56
307.042	85.56
307.272	76.56
307.502	95.56
307.731	93.56
307.961	79.56
308.191	91.56
308.421	95.56
308.651	91.56
308.881	89.56
309.111	96.56
309.341	85.56
309.571	89.56
309.8	98.56
310.03	99.56
310.26	88.56
310.49	104.56
310.72	93.56
310.949	96.56
311.179	90.56
311.409	78.56
311.639	87.56
311.868	93.56
312.098	91.56
312.328	105.56
312.557	95.56
312.787	104.56
313.017	93.56
313.246	97.56
313.476	100.56
313.706	91.56
313.935	101.56
314.165	91.56
314.394	98.56
314.624	101.56
314.853	94.56
315.083	93.56
315.312	101.56
315.542	83.56
315.771	94.56
316.001	97.56
316.23	90.56
316.46	82.56
316.689	89.56
316.919	77.56
317.148	90.56
317.377	99.56
317.607	75.56
317.836	74.56
318.065	80.56
318.295	89.56
318.524	96.56
318.753	88.56
318.983	91.56
319.212	112.56
319.441	106.56
319.67	98.56
319.9	95.56
320.129	96.56
320.358	89.56
320.587	91.56
320.816	82.56
321.046	105.56
321.275	109.56
321.504	91.56
321.733	92.56
321.962	92.56
322.191	96.56
322.42	101.56
322.649	101.56
322.878	101.56
323.108	114.56
323.337	107.56
323.566	127.56
323.795	159.56
324.024	197.56
324.253	392.56
324.482	785.56
324.71	1668.56
324.939	2173.56
325.168	798.56
325.397	241.56
325.626	143.56
325.855	122.56
326.084	119.56
326.313	127.56
326.542	146.56
326.77	237.56
326.999	452.56
327.228	923.56
327.457	1667.56
327.686	1335.56
327.914	364.56
328.143	185.56
328.372	147.56
328.6	111.56
328.829	100.56
329.058	123.56
329.287	130.56
329.515	104.56
329.744	91.56
329.972	100.56
330.201	86.56
330.43	97.56
330.658	100.56
330.887	113.56
331.115	114.56
331.344	78.56
331.572	100.56
331.801	113.56
332.03	93.56
332.258	92.56
332.486	89.56
332.715	73.56
332.943	100.56
333.172	93.56
333.4	85.56
333.629	96.56
333.857	117.56
334.085	95.56
334.314	110.56
334.542	87.56
334.771	82.56
334.999	101.56
335.227	91.56
335.455	92.56
335.684	94.56
335.912	91.56
336.14	91.56
336.369	106.56
336.597	108.56
336.825	104.56
337.053	82.56
337.281	88.56
337.51	71.56
337.738	85.56
337.966	89.56
338.194	97.56
338.422	106.56
338.65	93.56
338.878	79.56
339.106	102.56
339.334	92.56
339.562	88.56
339.79	86.56
340.018	86.56
340.246	69.56
340.474	101.56
340.702	82.56
340.93	73.56
341.158	94.56
341.386	85.56
341.614	82.56
341.842	93.56
342.07	87.56
342.298	84.56
342.526	92.56
342.754	81.56
342.981	95.56
343.209	84.56
343.437	98.56
343.665	74.56
343.893	76.56
344.12	83.56
344.348	67.56
344.576	88.56
344.804	98.56
345.031	104.56
345.259	89.56
345.487	88.56
345.714	102.56
345.942	90.56
346.17	98.56
346.397	91.56
346.625	97.56
346.853	100.56
347.08	88.56
347.308	93.56
347.535	106.56
347.763	102.56
347.99	90.56
348.218	88.56
348.445	103.56
348.673	94.56
348.9	100.56
349.128	83.56
349.355	88.56
349.583	99.56
349.81	100.56
350.037	89.56
350.265	82.56
350.492	91.56
350.72	91.56
350.947	101.56
351.174	128.56
351.402	95.56
351.629	91.56
351.856	102.56
352.083	100.56
352.311	109.56
352.538	105.56
352.765	98.56
352.992	104.56
353.22	104.56
353.447	92.56
353.674	98.56
353.901	79.56
354.128	96.56
354.355	100.56
354.583	92.56
354.81	92.56
355.037	99.56
355.264	95.56
355.491	88.56
355.718	93.56
355.945	90.56
356.172	105.56
356.399	96.56
356.626	95.56
356.853	95.56
357.08	100.56
357.307	95.56
357.534	88.56
357.761	81.56
357.988	100.56
358.215	94.56
358.441	96.56
358.668	95.56
358.895	76.56
359.122	90.56
359.349	85.56
359.576	85.56
359.802	94.56
360.029	106.56
360.256	111.56
360.483	103.56
360.709	76.56
360.936	102.56
361.163	90.56
361.39	82.56
361.616	92.56
361.843	88.56
362.07	95.56
362.296	88.56
362.523	73.56
362.749	97.56
362.976	89.56
363.203	89.56
363.429	81.56
363.656	76.56
363.882	82.56
364.109	85.56
364.335	80.56
364.562	91.56
364.788	94.56
365.015	91.56
365.241	91.56
365.468	99.56
365.694	105.56
365.92	88.56
366.147	89.56
366.373	79.56
366.599	82.56
366.826	84.56
367.052	94.56
367.278	82.56
367.505	88.56
367.731	105.56
367.957	69.56
368.184	84.56
368.41	82.56
368.636	103.56
368.862	111.56
369.089	105.56
369.315	103.56
369.541	83.56
369.767	83.56
369.993	89.56
370.219	89.56
370.445	84.56
370.672	90.56
370.898	86.56
371.124	81.56
371.35	103.56
371.576	91.56
371.802	88.56
372.028	75.56
372.254	89.56
372.48	79.56
372.706	99.56
372.932	88.56
373.158	91.56
373.384	97.56
373.61	78.56
373.835	80.56
374.061	87.56
374.287	78.56
374.513	86.56
374.739	83.56
374.965	87.56
375.191	104.56
375.416	87.56
375.642	84.56
375.868	83.56
376.094	87.56
376.319	94.56
376.545	97.56
376.771	95.56
376.997	90.56
377.222	89.56
377.448	100.56
377.674	93.56
377.899	79.56
378.125	75.56
378.35	93.56
378.576	95.56
378.802	91.56
379.027	81.56
379.253	80.56
379.478	100.56
379.704	87.56
379.929	89.56
380.155	86.56
380.38	80.56
380.606	91.56
380.831	84.56
381.057	103.56
381.282	82.56
381.507	92.56
381.733	103.56
381.958	101.56
382.184	94.56
382.409	95.56
382.634	128.56
382.86	95.56
383.085	90.56
383.31	94.56
383.535	92.56
383.761	92.56
383.986	109.56
384.211	94.56
384.436	95.56
384.662	100.56
384.887	104.56
385.112	112.56
385.337	91.56
385.562	107.56
385.787	95.56
386.013	108.56
386.238	127.56
386.463	105.56
386.688	114.56
386.913	104.56
387.138	108.56
387.363	103.56
387.588	93.56
387.813	103.56
388.038	103.56
388.263	113.56
388.488	112.56
388.713	94.56
388.938	87.56
389.163	92.56
389.387	94.56
389.612	99.56
389.837	85.56
390.062	96.56
390.287	89.56
390.512	89.56
390.736	94.56
390.961	100.56
391.186	99.56
391.411	101.56
391.636	79.56
391.86	90.56
392.085	89.56
392.31	85.56
392.534	79.56
392.759	73.56
392.984	83.56
393.208	90.56
393.433	86.56
393.658	83.56
393.882	82.56
394.107	86.56
394.331	81.56
394.556	92.56
394.78	89.56
395.005	79.56
395.229	88.56
395.454	79.56
395.678	87.56
395.903	80.56
396.127	98.56
396.352	104.56
396.576	88.56
396.801	89.56
397.025	91.56
397.249	85.56
397.474	85.56
397.698	72.56
397.922	80.56
398.147	84.56
398.371	72.56
398.595	87.56
398.82	77.56
399.044	92.56
399.268	76.56
399.492	89.56
399.717	78.56
399.941	83.56
400.165	80.56
400.389	81.56
400.613	88.56
400.837	89.56
401.062	84.56
401.286	83.56
401.51	91.56
401.734	92.56
401.958	105.56
402.182	128.56
402.406	149.56
402.63	114.56
402.854	99.56
403.078	84.56
403.302	85.56
403.526	102.56
403.75	83.56
403.974	92.56
404.198	69.56
404.422	83.56
404.645	76.56
404.869	90.56
405.093	101.56
405.317	92.56
405.541	105.56
405.765	97.56
405.988	109.56
406.212	171.56
406.436	207.56
406.66	121.56
406.883	102.56
407.107	88.56
407.331	80.56
407.555	88.56
407.778	102.56
408.002	85.56
408.226	93.56
408.449	82.56
408.673	81.56
408.896	79.56
409.12	85.56
409.344	95.56
409.567	69.56
409.791	81.56
410.014	96.56
410.238	90.56
410.461	98.56
410.685	96.56
410.908	98.56
411.132	109.56
411.355	98.56
411.578	90.56
411.802	86.56
412.025	80.56
412.249	88.56
412.472	88.56
412.695	92.56
412.919	89.56
413.142	95.56
413.365	90.56
413.589	88.56
413.812	92.56
414.035	81.56
414.258	88.56
414.482	89.56
414.705	90.56
414.928	98.56
415.151	105.56
415.374	104.56
415.597	85.56
415.821	85.56
416.044	88.56
416.267	76.56
416.49	79.56
416.713	89.56
416.936	82.56
417.159	87.56
417.382	90.56
417.605	80.56
417.828	90.56
418.051	100.56
418.274	80.56
418.497	79.56
418.72	89.56
418.943	77.56
419.166	91.56
419.389	96.56
419.611	81.56
419.834	84.56
420.057	89.56
420.28	89.56
420.503	83.56
420.726	83.56
420.948	89.56
421.171	85.56
421.394	84.56
421.617	82.56
421.839	92.56
422.062	95.56
422.285	95.56
422.507	89.56
422.73	103.56
422.953	85.56
423.175	84.56
423.398	89.56
423.621	82.56
423.843	78.56
424.066	79.56
424.288	83.56
424.511	66.56
424.733	82.56
424.956	88.56
425.178	95.56
425.401	91.56
425.623	104.56
425.846	78.56
426.068	84.56
426.291	104.56
426.513	93.56
426.735	93.56
426.958	85.56
427.18	89.56
427.402	131.56
427.625	135.56
427.847	104.56
428.069	85.56
428.292	87.56
428.514	91.56
428.736	87.56
428.958	78.56
429.181	75.56
429.403	89.56
429.625	88.56
429.847	87.56
430.069	111.56
430.292	78.56
430.514	97.56
430.736	78.56
430.958	85.56
431.18	75.56
431.402	99.56
431.624	84.56
431.846	95.56
432.068	90.56
432.29	89.56
432.512	78.56
432.734	78.56
432.956	91.56
433.178	103.56
433.4	101.56
433.622	83.56
433.844	79.56
434.066	85.56
434.287	66.56
434.509	87.56
434.731	98.56
434.953	90.56
435.175	96.56
435.397	94.56
435.618	80.56
435.84	88.56
436.062	112.56
436.284	117.56
436.505	92.56
436.727	92.56
436.949	98.56
437.17	94.56
437.392	79.56
437.614	74.56
437.835	96.56
438.057	98.56
438.278	95.56
438.5	104.56
438.721	107.56
438.943	94.56
439.165	77.56
439.386	68.56
439.608	79.56
439.829	91.56
440.05	111.56
440.272	125.56
440.493	95.56
440.715	89.56
440.936	79.56
441.158	87.56
441.379	80.56
441.6	89.56
441.822	88.56
442.043	96.56
442.264	93.56
442.486	91.56
442.707	84.56
442.928	96.56
443.149	116.56
443.371	129.56
443.592	107.56
443.813	101.56
444.034	103.56
444.255	97.56
444.476	80.56
444.698	83.56
444.919	81.56
445.14	130.56
445.361	120.56
445.582	104.56
445.803	126.56
446.024	115.56
446.245	119.56
446.466	91.56
446.687	88.56
446.908	88.56
447.129	81.56
447.35	68.56
447.571	76.56
447.792	82.56
448.013	93.56
448.234	102.56
448.455	92.56
448.675	99.56
448.896	103.56
449.117	93.56
449.338	98.56
449.559	111.56
449.779	136.56
450	87.56
450.221	85.56
450.442	85.56
450.662	99.56
450.883	102.56
451.104	119.56
451.324	87.56
451.545	97.56
451.766	96.56
451.986	93.56
452.207	86.56
452.428	82.56
452.648	88.56
452.869	100.56
453.089	120.56
453.31	113.56
453.53	96.56
453.751	99.56
453.971	104.56
454.192	104.56
454.412	97.56
454.633	89.56
454.853	98.56
455.073	88.56
455.294	79.56
455.514	105.56
455.734	77.56
455.955	86.56
456.175	89.56
456.395	86.56
456.616	85.56
456.836	68.56
457.056	76.56
457.276	93.56
457.497	64.56
457.717	83.56
457.937	76.56
458.157	78.56
458.377	99.56
458.598	89.56
458.818	141.56
459.038	151.56
459.258	103.56
459.478	97.56
459.698	92.56
459.918	81.56
460.138	79.56
460.358	77.56
460.578	80.56
460.798	95.56
461.018	78.56
461.238	92.56
461.458	85.56
461.678	92.56
461.898	83.56
462.118	90.56
462.338	88.56
462.558	92.56
462.777	77.56
462.997	87.56
463.217	84.56
463.437	78.56
463.657	85.56
463.876	83.56
464.096	92.56
464.316	74.56
464.536	106.56
464.755	106.56
464.975	81.56
465.195	144.56
465.414	151.56
465.634	94.56
465.854	88.56
466.073	89.56
466.293	88.56
466.512	78.56
466.732	89.56
466.951	88.56
467.171	92.56
467.391	100.56
467.61	91.56
467.829	96.56
468.049	80.56
468.268	82.56
468.488	89.56
468.707	79.56
468.927	85.56
469.146	77.56
469.365	101.56
469.585	79.56
469.804	80.56
470.023	100.56
470.243	93.56
470.462	87.56
470.681	92.56
470.901	94.56
471.12	103.56
471.339	86.56
471.558	95.56
471.777	85.56
471.997	85.56
472.216	76.56
472.435	88.56
472.654	88.56
472.873	79.56
473.092	75.56
473.311	81.56
473.53	79.56
473.749	89.56
473.968	97.56
474.187	98.56
474.406	99.56
474.625	87.56
474.844	93.56
475.063	81.56
475.282	72.56
475.501	82.56
475.72	86.56
475.939	89.56
476.158	81.56
476.377	77.56
476.596	85.56
476.814	75.56
477.033	83.56
477.252	79.56
477.471	89.56
477.69	82.56
477.908	88.56
478.127	86.56
478.346	79.56
478.564	82.56
478.783	92.56
479.002	93.56
479.22	85.56
479.439	95.56
479.658	92.56
479.876	90.56
480.095	99.56
480.313	85.56
480.532	89.56
480.751	74.56
480.969	90.56
481.188	89.56
481.406	89.56
481.624	89.56
481.843	89.56
482.061	89.56
482.28	76.56
482.498	78.56
482.717	91.56
482.935	83.56
483.153	84.56
483.372	81.56
483.59	90.56
483.808	85.56
484.027	85.56
484.245	92.56
484.463	94.56
484.681	92.56
484.9	93.56
485.118	78.56
485.336	87.56
485.554	89.56
485.772	78.56
485.99	96.56
486.209	96.56
486.427	83.56
486.645	101.56
486.863	110.56
487.081	84.56
487.299	86.56
487.517	90.56
487.735	96.56
487.953	92.56
488.171	95.56
488.389	84.56
488.607	96.56
488.825	94.56
489.043	93.56
489.261	95.56
489.479	80.56
489.696	101.56
489.914	79.56
490.132	83.56
490.35	80.56
490.568	88.56
490.786	88.56
491.003	92.56
491.221	83.56
491.439	95.56
491.657	87.56
491.874	80.56
492.092	90.56
492.31	95.56
492.527	87.56
492.745	98.56
492.963	84.56
493.18	95.56
493.398	84.56
493.615	94.56
493.833	89.56
494.05	97.56
494.268	81.56
494.485	72.56
494.703	76.56
494.92	80.56
495.138	82.56
495.355	86.56
495.573	91.56
495.79	76.56
496.008	94.56
496.225	91.56
496.442	71.56
496.66	83.56
496.877	71.56
497.094	88.56
497.312	85.56
497.529	95.56
497.746	84.56
497.963	92.56
498.181	101.56
498.398	88.56
498.615	97.56
498.832	96.56
499.049	88.56
499.267	85.56
499.484	88.56
499.701	94.56
499.918	92.56
500.135	92.56
500.352	96.56
500.569	80.56
500.786	89.56
501.003	88.56
501.22	87.56
501.437	93.56
501.654	89.56
501.871	96.56
502.088	95.56
502.305	87.56
502.522	84.56
502.739	85.56
502.956	84.56
503.172	86.56
503.389	89.56
503.606	101.56
503.823	90.56
504.04	89.56
504.256	80.56
504.473	84.56
504.69	82.56
504.907	80.56
505.123	86.56
505.34	89.56
505.557	91.56
505.773	108.56
505.99	75.56
506.207	103.56
506.423	102.56
506.64	79.56
506.856	97.56
507.073	87.56
507.289	92.56
507.506	75.56
507.722	104.56
507.939	95.56
508.155	92.56
508.372	105.56
508.588	93.56
508.805	104.56
509.021	91.56
509.238	100.56
509.454	112.56
509.67	104.56
509.887	105.56
510.103	122.56
510.319	212.56
510.536	697.56
510.752	2265.56
510.968	638.56
511.184	165.56
511.401	99.56
511.617	101.56
511.833	85.56
512.049	91.56
512.265	96.56
512.481	87.56
512.698	93.56
512.914	90.56
513.13	90.56
513.346	88.56
513.562	82.56
513.778	95.56
513.994	105.56
514.21	94.56
514.426	106.56
514.642	143.56
514.858	119.56
515.074	148.56
515.29	410.56
515.506	1384.56
515.721	521.56
515.937	135.56
516.153	99.56
516.369	81.56
516.585	98.56
516.801	88.56
