Data from Uncirc_2006_H10_HRD10591_00016.txt Node
Date: Wed Jan 03 10:24:58 EST 2024
User: Yrep
Spectrometer: HR+D1059
Trigger mode: 1
Integration Time (sec): 1.000000E-1
Scans to average: 1
Electric dark correction enabled: true
Nonlinearity correction enabled: false
Boxcar width: 0
XAxis mode: Wavelengths
Number of Pixels in Spectrum: 2048
>>>>>Begin Spectral Data<<<<<
223.165	-23.44
223.4	-23.44
223.635	-23.44
223.869	-28.44
224.104	-19.44
224.338	-13.44
224.573	-9.44
224.808	-14.44
225.042	5.56
225.277	1.56
225.511	-9.44
225.746	6.56
225.98	8.56
226.215	9.56
226.449	20.56
226.683	17.56
226.918	13.56
227.152	34.56
227.387	32.56
227.621	30.56
227.856	48.56
228.09	44.56
228.324	52.56
228.559	57.56
228.793	69.56
229.027	59.56
229.262	59.56
229.496	67.56
229.73	74.56
229.964	65.56
230.199	80.56
230.433	66.56
230.667	73.56
230.901	82.56
231.136	66.56
231.37	89.56
231.604	82.56
231.838	84.56
232.072	79.56
232.306	81.56
232.541	90.56
232.775	87.56
233.009	81.56
233.243	69.56
233.477	76.56
233.711	71.56
233.945	85.56
234.179	84.56
234.413	89.56
234.647	79.56
234.881	74.56
235.115	84.56
235.349	70.56
235.583	79.56
235.817	75.56
236.051	77.56
236.285	69.56
236.519	74.56
236.753	67.56
236.987	67.56
237.221	84.56
237.455	66.56
237.689	60.56
237.922	71.56
238.156	75.56
238.39	76.56
238.624	91.56
238.858	88.56
239.091	72.56
239.325	76.56
239.559	93.56
239.793	85.56
240.027	76.56
240.26	64.56
240.494	76.56
240.728	82.56
240.961	76.56
241.195	82.56
241.429	70.56
241.662	69.56
241.896	67.56
242.13	83.56
242.363	78.56
242.597	66.56
242.83	72.56
243.064	84.56
243.298	73.56
243.531	85.56
243.765	74.56
243.998	63.56
244.232	65.56
244.465	93.56
244.699	84.56
244.932	87.56
245.166	76.56
245.399	69.56
245.633	80.56
245.866	77.56
246.099	75.56
246.333	79.56
246.566	72.56
246.8	72.56
247.033	84.56
247.266	83.56
247.5	73.56
247.733	82.56
247.966	83.56
248.2	85.56
248.433	69.56
248.666	71.56
248.899	67.56
249.133	78.56
249.366	105.56
249.599	85.56
249.832	68.56
250.066	75.56
250.299	85.56
250.532	67.56
250.765	79.56
250.998	79.56
251.231	74.56
251.465	77.56
251.698	89.56
251.931	60.56
252.164	75.56
252.397	72.56
252.63	68.56
252.863	73.56
253.096	72.56
253.329	87.56
253.562	73.56
253.795	78.56
254.028	74.56
254.261	84.56
254.494	93.56
254.727	79.56
254.96	91.56
255.193	75.56
255.426	97.56
255.659	76.56
255.892	70.56
256.124	89.56
256.357	81.56
256.59	72.56
256.823	77.56
257.056	69.56
257.289	79.56
257.521	72.56
257.754	76.56
257.987	74.56
258.22	86.56
258.452	78.56
258.685	88.56
258.918	81.56
259.151	77.56
259.383	71.56
259.616	85.56
259.849	77.56
260.081	83.56
260.314	80.56
260.547	76.56
260.779	95.56
261.012	84.56
261.244	88.56
261.477	83.56
261.71	82.56
261.942	89.56
262.175	96.56
262.407	91.56
262.64	76.56
262.872	78.56
263.105	80.56
263.337	84.56
263.57	93.56
263.802	86.56
264.035	86.56
264.267	78.56
264.499	74.56
264.732	87.56
264.964	78.56
265.197	81.56
265.429	86.56
265.661	84.56
265.894	77.56
266.126	84.56
266.358	89.56
266.591	82.56
266.823	90.56
267.055	90.56
267.287	91.56
267.52	96.56
267.752	81.56
267.984	68.56
268.216	76.56
268.448	69.56
268.681	81.56
268.913	72.56
269.145	93.56
269.377	74.56
269.609	92.56
269.841	83.56
270.073	86.56
270.306	83.56
270.538	68.56
270.77	91.56
271.002	67.56
271.234	83.56
271.466	79.56
271.698	81.56
271.93	77.56
272.162	80.56
272.394	78.56
272.626	80.56
272.858	82.56
273.09	76.56
273.322	93.56
273.553	98.56
273.785	83.56
274.017	83.56
274.249	96.56
274.481	78.56
274.713	88.56
274.945	75.56
275.176	70.56
275.408	85.56
275.64	96.56
275.872	90.56
276.104	85.56
276.335	101.56
276.567	100.56
276.799	90.56
277.031	91.56
277.262	87.56
277.494	78.56
277.726	74.56
277.957	94.56
278.189	77.56
278.421	98.56
278.652	89.56
278.884	82.56
279.115	85.56
279.347	84.56
279.579	84.56
279.81	83.56
280.042	96.56
280.273	87.56
280.505	86.56
280.736	84.56
280.968	79.56
281.199	89.56
281.431	78.56
281.662	79.56
281.894	103.56
282.125	100.56
282.356	106.56
282.588	133.56
282.819	90.56
283.051	99.56
283.282	72.56
283.513	75.56
283.745	93.56
283.976	80.56
284.207	91.56
284.439	82.56
284.67	99.56
284.901	90.56
285.132	84.56
285.364	91.56
285.595	73.56
285.826	78.56
286.057	73.56
286.288	85.56
286.52	77.56
286.751	64.56
286.982	77.56
287.213	81.56
287.444	92.56
287.675	78.56
287.906	98.56
288.138	99.56
288.369	74.56
288.6	89.56
288.831	73.56
289.062	86.56
289.293	93.56
289.524	93.56
289.755	92.56
289.986	72.56
290.217	86.56
290.448	88.56
290.679	87.56
290.91	105.56
291.141	88.56
291.371	100.56
291.602	97.56
291.833	72.56
292.064	76.56
292.295	75.56
292.526	86.56
292.757	81.56
292.987	81.56
293.218	84.56
293.449	84.56
293.68	79.56
293.91	92.56
294.141	88.56
294.372	90.56
294.603	85.56
294.833	80.56
295.064	81.56
295.295	75.56
295.525	101.56
295.756	103.56
295.987	90.56
296.217	136.56
296.448	112.56
296.679	88.56
296.909	82.56
297.14	98.56
297.37	99.56
297.601	90.56
297.831	96.56
298.062	92.56
298.292	97.56
298.523	88.56
298.753	93.56
298.984	85.56
299.214	85.56
299.445	105.56
299.675	86.56
299.905	84.56
300.136	92.56
300.366	89.56
300.597	79.56
300.827	94.56
301.057	94.56
301.288	93.56
301.518	92.56
301.748	76.56
301.979	99.56
302.209	86.56
302.439	90.56
302.669	91.56
302.9	87.56
303.13	85.56
303.36	103.56
303.59	106.56
303.82	90.56
304.051	93.56
304.281	81.56
304.511	93.56
304.741	98.56
304.971	92.56
305.201	81.56
305.431	92.56
305.661	95.56
305.891	79.56
306.121	89.56
306.352	94.56
306.582	115.56
306.812	95.56
307.042	83.56
307.272	92.56
307.502	100.56
307.731	99.56
307.961	92.56
308.191	95.56
308.421	100.56
308.651	96.56
308.881	103.56
309.111	101.56
309.341	93.56
309.571	93.56
309.8	96.56
310.03	86.56
310.26	94.56
310.49	91.56
310.72	100.56
310.949	98.56
311.179	104.56
311.409	90.56
311.639	91.56
311.868	98.56
312.098	82.56
312.328	90.56
312.557	109.56
312.787	105.56
313.017	105.56
313.246	97.56
313.476	85.56
313.706	92.56
313.935	99.56
314.165	107.56
314.394	94.56
314.624	106.56
314.853	84.56
315.083	104.56
315.312	94.56
315.542	84.56
315.771	99.56
316.001	87.56
316.23	92.56
316.46	85.56
316.689	98.56
316.919	80.56
317.148	82.56
317.377	95.56
317.607	90.56
317.836	86.56
318.065	97.56
318.295	90.56
318.524	91.56
318.753	82.56
318.983	82.56
319.212	102.56
319.441	96.56
319.67	89.56
319.9	89.56
320.129	81.56
320.358	86.56
320.587	85.56
320.816	102.56
321.046	96.56
321.275	98.56
321.504	82.56
321.733	105.56
321.962	92.56
322.191	101.56
322.42	105.56
322.649	90.56
322.878	101.56
323.108	125.56
323.337	109.56
323.566	128.56
323.795	147.56
324.024	202.56
324.253	362.56
324.482	775.56
324.71	1568.56
324.939	2064.56
325.168	748.56
325.397	209.56
325.626	128.56
325.855	121.56
326.084	122.56
326.313	125.56
326.542	155.56
326.77	213.56
326.999	433.56
327.228	885.56
327.457	1561.56
327.686	1235.56
327.914	339.56
328.143	177.56
328.372	124.56
328.6	118.56
328.829	124.56
329.058	107.56
329.287	110.56
329.515	102.56
329.744	82.56
329.972	92.56
330.201	97.56
330.43	109.56
330.658	120.56
330.887	125.56
331.115	99.56
331.344	95.56
331.572	91.56
331.801	99.56
332.03	93.56
332.258	89.56
332.486	83.56
332.715	96.56
332.943	89.56
333.172	94.56
333.4	97.56
333.629	92.56
333.857	107.56
334.085	108.56
334.314	88.56
334.542	79.56
334.771	89.56
334.999	105.56
335.227	91.56
335.455	97.56
335.684	109.56
335.912	90.56
336.14	97.56
336.369	101.56
336.597	91.56
336.825	93.56
337.053	91.56
337.281	88.56
337.51	98.56
337.738	104.56
337.966	76.56
338.194	104.56
338.422	101.56
338.65	91.56
338.878	80.56
339.106	86.56
339.334	90.56
339.562	88.56
339.79	82.56
340.018	94.56
340.246	93.56
340.474	111.56
340.702	96.56
340.93	86.56
341.158	81.56
341.386	95.56
341.614	97.56
341.842	98.56
342.07	92.56
342.298	93.56
342.526	100.56
342.754	77.56
342.981	98.56
343.209	81.56
343.437	103.56
343.665	84.56
343.893	78.56
344.12	91.56
344.348	98.56
344.576	77.56
344.804	95.56
345.031	91.56
345.259	89.56
345.487	96.56
345.714	89.56
345.942	85.56
346.17	87.56
346.397	75.56
346.625	86.56
346.853	93.56
347.08	83.56
347.308	86.56
347.535	101.56
347.763	87.56
347.99	96.56
348.218	94.56
348.445	101.56
348.673	96.56
348.9	98.56
349.128	90.56
349.355	89.56
349.583	90.56
349.81	97.56
350.037	98.56
350.265	95.56
350.492	104.56
350.72	97.56
350.947	103.56
351.174	95.56
351.402	102.56
351.629	100.56
351.856	100.56
352.083	99.56
352.311	112.56
352.538	104.56
352.765	103.56
352.992	100.56
353.22	105.56
353.447	94.56
353.674	95.56
353.901	101.56
354.128	98.56
354.355	104.56
354.583	97.56
354.81	104.56
355.037	110.56
355.264	100.56
355.491	92.56
355.718	95.56
355.945	91.56
356.172	95.56
356.399	81.56
356.626	101.56
356.853	108.56
357.08	103.56
357.307	88.56
357.534	88.56
357.761	83.56
357.988	89.56
358.215	108.56
358.441	94.56
358.668	89.56
358.895	81.56
359.122	93.56
359.349	89.56
359.576	94.56
359.802	96.56
360.029	99.56
360.256	106.56
360.483	77.56
360.709	88.56
360.936	99.56
361.163	85.56
361.39	99.56
361.616	78.56
361.843	85.56
362.07	92.56
362.296	107.56
362.523	97.56
362.749	85.56
362.976	83.56
363.203	76.56
363.429	90.56
363.656	80.56
363.882	91.56
364.109	92.56
364.335	84.56
364.562	82.56
364.788	81.56
365.015	89.56
365.241	94.56
365.468	103.56
365.694	97.56
365.92	83.56
366.147	78.56
366.373	90.56
366.599	98.56
366.826	99.56
367.052	87.56
367.278	85.56
367.505	93.56
367.731	92.56
367.957	78.56
368.184	91.56
368.41	102.56
368.636	101.56
368.862	115.56
369.089	89.56
369.315	84.56
369.541	78.56
369.767	89.56
369.993	88.56
370.219	75.56
370.445	77.56
370.672	90.56
370.898	85.56
371.124	83.56
371.35	84.56
371.576	85.56
371.802	93.56
372.028	83.56
372.254	87.56
372.48	93.56
372.706	87.56
372.932	92.56
373.158	84.56
373.384	82.56
373.61	88.56
373.835	78.56
374.061	77.56
374.287	89.56
374.513	89.56
374.739	78.56
374.965	92.56
375.191	106.56
375.416	87.56
375.642	97.56
375.868	95.56
376.094	80.56
376.319	94.56
376.545	98.56
376.771	87.56
376.997	69.56
377.222	99.56
377.448	101.56
377.674	109.56
377.899	102.56
378.125	87.56
378.35	93.56
378.576	83.56
378.802	104.56
379.027	80.56
379.253	99.56
379.478	89.56
379.704	89.56
379.929	97.56
380.155	97.56
380.38	85.56
380.606	101.56
380.831	86.56
381.057	90.56
381.282	94.56
381.507	102.56
381.733	93.56
381.958	100.56
382.184	114.56
382.409	90.56
382.634	101.56
382.86	85.56
383.085	119.56
383.31	101.56
383.535	105.56
383.761	97.56
383.986	96.56
384.211	96.56
384.436	109.56
384.662	98.56
384.887	119.56
385.112	114.56
385.337	93.56
385.562	105.56
385.787	131.56
386.013	116.56
386.238	101.56
386.463	113.56
386.688	101.56
386.913	117.56
387.138	120.56
387.363	103.56
387.588	107.56
387.813	101.56
388.038	100.56
388.263	120.56
388.488	107.56
388.713	96.56
388.938	88.56
389.163	97.56
389.387	93.56
389.612	89.56
389.837	76.56
390.062	84.56
390.287	92.56
390.512	82.56
390.736	95.56
390.961	85.56
391.186	90.56
391.411	93.56
391.636	90.56
391.86	90.56
392.085	97.56
392.31	84.56
392.534	87.56
392.759	85.56
392.984	100.56
393.208	72.56
393.433	93.56
393.658	90.56
393.882	100.56
394.107	82.56
394.331	83.56
394.556	84.56
394.78	86.56
395.005	94.56
395.229	84.56
395.454	97.56
395.678	87.56
395.903	87.56
396.127	81.56
396.352	72.56
396.576	80.56
396.801	92.56
397.025	101.56
397.249	88.56
397.474	96.56
397.698	91.56
397.922	89.56
398.147	71.56
398.371	91.56
398.595	88.56
398.82	103.56
399.044	93.56
399.268	78.56
399.492	78.56
399.717	94.56
399.941	102.56
400.165	72.56
400.389	80.56
400.613	77.56
400.837	104.56
401.062	88.56
401.286	96.56
401.51	87.56
401.734	90.56
401.958	96.56
402.182	101.56
402.406	119.56
402.63	105.56
402.854	80.56
403.078	92.56
403.302	79.56
403.526	87.56
403.75	92.56
403.974	90.56
404.198	96.56
404.422	82.56
404.645	77.56
404.869	83.56
405.093	88.56
405.317	97.56
405.541	107.56
405.765	83.56
405.988	100.56
406.212	165.56
406.436	193.56
406.66	126.56
406.883	104.56
407.107	93.56
407.331	81.56
407.555	93.56
407.778	85.56
408.002	88.56
408.226	86.56
408.449	77.56
408.673	90.56
408.896	81.56
409.12	93.56
409.344	85.56
409.567	84.56
409.791	93.56
410.014	95.56
410.238	109.56
410.461	77.56
410.685	96.56
410.908	100.56
411.132	106.56
411.355	98.56
411.578	85.56
411.802	87.56
412.025	83.56
412.249	86.56
412.472	97.56
412.695	96.56
412.919	86.56
413.142	84.56
413.365	69.56
413.589	89.56
413.812	98.56
414.035	92.56
414.258	102.56
414.482	96.56
414.705	88.56
414.928	82.56
415.151	76.56
415.374	83.56
415.597	74.56
415.821	89.56
416.044	90.56
416.267	84.56
416.49	98.56
416.713	96.56
416.936	90.56
417.159	95.56
417.382	89.56
417.605	65.56
417.828	93.56
418.051	91.56
418.274	84.56
418.497	84.56
418.72	85.56
418.943	83.56
419.166	86.56
419.389	83.56
419.611	93.56
419.834	92.56
420.057	78.56
420.28	77.56
420.503	87.56
420.726	97.56
420.948	82.56
421.171	92.56
421.394	95.56
421.617	73.56
421.839	89.56
422.062	84.56
422.285	89.56
422.507	99.56
422.73	99.56
422.953	88.56
423.175	86.56
423.398	78.56
423.621	105.56
423.843	102.56
424.066	93.56
424.288	77.56
424.511	79.56
424.733	101.56
424.956	99.56
425.178	93.56
425.401	80.56
425.623	90.56
425.846	80.56
426.068	90.56
426.291	84.56
426.513	83.56
426.735	102.56
426.958	107.56
427.18	89.56
427.402	119.56
427.625	142.56
427.847	107.56
428.069	89.56
428.292	81.56
428.514	67.56
428.736	93.56
428.958	81.56
429.181	88.56
429.403	82.56
429.625	90.56
429.847	81.56
430.069	86.56
430.292	88.56
430.514	93.56
430.736	80.56
430.958	77.56
431.18	81.56
431.402	80.56
431.624	89.56
431.846	84.56
432.068	89.56
432.29	84.56
432.512	94.56
432.734	75.56
432.956	89.56
433.178	86.56
433.4	97.56
433.622	92.56
433.844	74.56
434.066	81.56
434.287	83.56
434.509	82.56
434.731	98.56
434.953	91.56
435.175	82.56
435.397	84.56
435.618	90.56
435.84	107.56
436.062	106.56
436.284	111.56
436.505	104.56
436.727	100.56
436.949	101.56
437.17	94.56
437.392	87.56
437.614	86.56
437.835	98.56
438.057	124.56
438.278	104.56
438.5	99.56
438.721	89.56
438.943	89.56
439.165	85.56
439.386	95.56
439.608	96.56
439.829	105.56
440.05	110.56
440.272	117.56
440.493	85.56
440.715	84.56
440.936	98.56
441.158	88.56
441.379	89.56
441.6	73.56
441.822	99.56
442.043	98.56
442.264	90.56
442.486	103.56
442.707	95.56
442.928	105.56
443.149	117.56
443.371	109.56
443.592	104.56
443.813	117.56
444.034	95.56
444.255	90.56
444.476	92.56
444.698	84.56
444.919	83.56
445.14	132.56
445.361	135.56
445.582	97.56
445.803	120.56
446.024	132.56
446.245	130.56
446.466	103.56
446.687	90.56
446.908	86.56
447.129	92.56
447.35	92.56
447.571	85.56
447.792	92.56
448.013	102.56
448.234	83.56
448.455	93.56
448.675	88.56
448.896	116.56
449.117	81.56
449.338	104.56
449.559	105.56
449.779	133.56
450	90.56
450.221	81.56
450.442	83.56
450.662	84.56
450.883	97.56
451.104	105.56
451.324	75.56
451.545	78.56
451.766	87.56
451.986	96.56
452.207	86.56
452.428	91.56
452.648	89.56
452.869	96.56
453.089	91.56
453.31	97.56
453.53	91.56
453.751	83.56
453.971	106.56
454.192	106.56
454.412	95.56
454.633	85.56
454.853	90.56
455.073	89.56
455.294	91.56
455.514	99.56
455.734	79.56
455.955	83.56
456.175	78.56
456.395	82.56
456.616	76.56
456.836	74.56
457.056	78.56
457.276	86.56
457.497	81.56
457.717	74.56
457.937	74.56
458.157	94.56
458.377	85.56
458.598	104.56
458.818	139.56
459.038	137.56
459.258	116.56
459.478	83.56
459.698	72.56
459.918	97.56
460.138	98.56
460.358	78.56
460.578	77.56
460.798	79.56
461.018	82.56
461.238	82.56
461.458	99.56
461.678	75.56
461.898	88.56
462.118	88.56
462.338	92.56
462.558	74.56
462.777	91.56
462.997	90.56
463.217	74.56
463.437	87.56
463.657	60.56
463.876	85.56
464.096	97.56
464.316	85.56
464.536	84.56
464.755	86.56
464.975	108.56
465.195	142.56
465.414	115.56
465.634	104.56
465.854	86.56
466.073	85.56
466.293	86.56
466.512	81.56
466.732	88.56
466.951	83.56
467.171	93.56
467.391	91.56
467.61	110.56
467.829	87.56
468.049	92.56
468.268	88.56
468.488	92.56
468.707	92.56
468.927	81.56
469.146	82.56
469.365	82.56
469.585	84.56
469.804	92.56
470.023	94.56
470.243	86.56
470.462	95.56
470.681	108.56
470.901	96.56
471.12	77.56
471.339	89.56
471.558	81.56
471.777	74.56
471.997	74.56
472.216	97.56
472.435	80.56
472.654	85.56
472.873	96.56
473.092	76.56
473.311	85.56
473.53	77.56
473.749	77.56
473.968	83.56
474.187	98.56
474.406	87.56
474.625	79.56
474.844	77.56
475.063	86.56
475.282	81.56
475.501	75.56
475.72	81.56
475.939	75.56
476.158	95.56
476.377	95.56
476.596	89.56
476.814	86.56
477.033	84.56
477.252	76.56
477.471	82.56
477.69	84.56
477.908	86.56
478.127	81.56
478.346	93.56
478.564	94.56
478.783	84.56
479.002	96.56
479.22	71.56
479.439	100.56
479.658	96.56
479.876	95.56
480.095	91.56
480.313	91.56
480.532	68.56
480.751	88.56
480.969	89.56
481.188	95.56
481.406	90.56
481.624	96.56
481.843	88.56
482.061	106.56
482.28	98.56
482.498	97.56
482.717	83.56
482.935	80.56
483.153	84.56
483.372	84.56
483.59	93.56
483.808	91.56
484.027	104.56
484.245	96.56
484.463	90.56
484.681	81.56
484.9	77.56
485.118	79.56
485.336	92.56
485.554	100.56
485.772	101.56
485.99	90.56
486.209	90.56
486.427	92.56
486.645	103.56
486.863	99.56
487.081	91.56
487.299	100.56
487.517	100.56
487.735	79.56
487.953	78.56
488.171	97.56
488.389	97.56
488.607	93.56
488.825	83.56
489.043	97.56
489.261	85.56
489.479	98.56
489.696	90.56
489.914	82.56
490.132	108.56
490.35	93.56
490.568	94.56
490.786	82.56
491.003	106.56
491.221	85.56
491.439	94.56
491.657	86.56
491.874	83.56
492.092	91.56
492.31	93.56
492.527	82.56
492.745	82.56
492.963	72.56
493.18	95.56
493.398	74.56
493.615	93.56
493.833	93.56
494.05	70.56
494.268	95.56
494.485	104.56
494.703	89.56
494.92	96.56
495.138	97.56
495.355	97.56
495.573	90.56
495.79	86.56
496.008	83.56
496.225	94.56
496.442	102.56
496.66	82.56
496.877	82.56
497.094	102.56
497.312	89.56
497.529	96.56
497.746	99.56
497.963	91.56
498.181	75.56
498.398	90.56
498.615	98.56
498.832	107.56
499.049	80.56
499.267	77.56
499.484	96.56
499.701	87.56
499.918	87.56
500.135	97.56
500.352	94.56
500.569	97.56
500.786	97.56
501.003	94.56
501.22	85.56
501.437	80.56
501.654	88.56
501.871	97.56
502.088	91.56
502.305	94.56
502.522	85.56
502.739	70.56
502.956	99.56
503.172	92.56
503.389	72.56
503.606	101.56
503.823	91.56
504.04	93.56
504.256	92.56
504.473	95.56
504.69	95.56
504.907	100.56
505.123	83.56
505.34	96.56
505.557	90.56
505.773	98.56
505.99	74.56
506.207	88.56
506.423	101.56
506.64	93.56
506.856	94.56
507.073	92.56
507.289	82.56
507.506	89.56
507.722	111.56
507.939	104.56
508.155	100.56
508.372	83.56
508.588	93.56
508.805	98.56
509.021	106.56
509.238	107.56
509.454	89.56
509.67	98.56
509.887	102.56
510.103	143.56
510.319	186.56
510.536	711.56
510.752	2094.56
510.968	614.56
511.184	163.56
511.401	118.56
511.617	96.56
511.833	83.56
512.049	106.56
512.265	98.56
512.481	93.56
512.698	96.56
512.914	92.56
513.13	106.56
513.346	94.56
513.562	79.56
513.778	100.56
513.994	97.56
514.21	93.56
514.426	105.56
514.642	111.56
514.858	138.56
515.074	163.56
515.29	403.56
515.506	1269.56
515.721	478.56
515.937	139.56
516.153	104.56
516.369	96.56
516.585	90.56
