Data from Uncirc_2006_H10_HRD10591_00048.txt Node
Date: Wed Jan 03 10:25:04 EST 2024
User: Yrep
Spectrometer: HR+D1059
Trigger mode: 1
Integration Time (sec): 1.000000E-1
Scans to average: 1
Electric dark correction enabled: true
Nonlinearity correction enabled: false
Boxcar width: 0
XAxis mode: Wavelengths
Number of Pixels in Spectrum: 2048
>>>>>Begin Spectral Data<<<<<
223.165	-27.62
223.4	-27.62
223.635	-27.62
223.869	-10.62
224.104	-26.62
224.338	-6.62
224.573	-12.62
224.808	-13.62
225.042	-11.62
225.277	-2.62
225.511	-5.62
225.746	-4.62
225.98	6.38
226.215	7.38
226.449	18.38
226.683	11.38
226.918	31.38
227.152	47.38
227.387	35.38
227.621	30.38
227.856	43.38
228.09	48.38
228.324	70.38
228.559	67.38
228.793	61.38
229.027	55.38
229.262	63.38
229.496	69.38
229.73	88.38
229.964	84.38
230.199	72.38
230.433	77.38
230.667	81.38
230.901	66.38
231.136	81.38
231.37	91.38
231.604	86.38
231.838	77.38
232.072	84.38
232.306	83.38
232.541	57.38
232.775	74.38
233.009	80.38
233.243	85.38
233.477	88.38
233.711	71.38
233.945	89.38
234.179	84.38
234.413	82.38
234.647	80.38
234.881	92.38
235.115	86.38
235.349	81.38
235.583	85.38
235.817	85.38
236.051	69.38
236.285	70.38
236.519	80.38
236.753	80.38
236.987	74.38
237.221	81.38
237.455	90.38
237.689	83.38
237.922	74.38
238.156	77.38
238.39	73.38
238.624	81.38
238.858	74.38
239.091	87.38
239.325	83.38
239.559	83.38
239.793	67.38
240.027	83.38
240.26	75.38
240.494	69.38
240.728	80.38
240.961	75.38
241.195	89.38
241.429	80.38
241.662	82.38
241.896	95.38
242.13	88.38
242.363	67.38
242.597	84.38
242.83	88.38
243.064	72.38
243.298	69.38
243.531	79.38
243.765	84.38
243.998	78.38
244.232	97.38
244.465	76.38
244.699	88.38
244.932	75.38
245.166	66.38
245.399	74.38
245.633	76.38
245.866	78.38
246.099	85.38
246.333	85.38
246.566	81.38
246.8	84.38
247.033	84.38
247.266	67.38
247.5	89.38
247.733	84.38
247.966	69.38
248.2	79.38
248.433	83.38
248.666	83.38
248.899	83.38
249.133	83.38
249.366	99.38
249.599	85.38
249.832	76.38
250.066	83.38
250.299	88.38
250.532	73.38
250.765	92.38
250.998	83.38
251.231	84.38
251.465	88.38
251.698	88.38
251.931	86.38
252.164	84.38
252.397	69.38
252.63	81.38
252.863	86.38
253.096	64.38
253.329	73.38
253.562	95.38
253.795	76.38
254.028	80.38
254.261	80.38
254.494	77.38
254.727	78.38
254.96	82.38
255.193	77.38
255.426	75.38
255.659	86.38
255.892	70.38
256.124	70.38
256.357	78.38
256.59	71.38
256.823	77.38
257.056	79.38
257.289	71.38
257.521	94.38
257.754	95.38
257.987	93.38
258.22	86.38
258.452	88.38
258.685	92.38
258.918	90.38
259.151	87.38
259.383	100.38
259.616	83.38
259.849	64.38
260.081	88.38
260.314	70.38
260.547	89.38
260.779	93.38
261.012	84.38
261.244	92.38
261.477	93.38
261.71	109.38
261.942	102.38
262.175	103.38
262.407	78.38
262.64	79.38
262.872	86.38
263.105	92.38
263.337	91.38
263.57	91.38
263.802	83.38
264.035	87.38
264.267	88.38
264.499	88.38
264.732	84.38
264.964	80.38
265.197	89.38
265.429	86.38
265.661	79.38
265.894	86.38
266.126	81.38
266.358	84.38
266.591	96.38
266.823	91.38
267.055	92.38
267.287	100.38
267.52	79.38
267.752	96.38
267.984	86.38
268.216	82.38
268.448	94.38
268.681	78.38
268.913	85.38
269.145	101.38
269.377	84.38
269.609	99.38
269.841	85.38
270.073	81.38
270.306	111.38
270.538	76.38
270.77	89.38
271.002	89.38
271.234	88.38
271.466	91.38
271.698	96.38
271.93	88.38
272.162	97.38
272.394	93.38
272.626	78.38
272.858	72.38
273.09	83.38
273.322	93.38
273.553	92.38
273.785	77.38
274.017	85.38
274.249	88.38
274.481	86.38
274.713	94.38
274.945	98.38
275.176	96.38
275.408	87.38
275.64	77.38
275.872	97.38
276.104	84.38
276.335	87.38
276.567	87.38
276.799	107.38
277.031	72.38
277.262	76.38
277.494	99.38
277.726	95.38
277.957	84.38
278.189	89.38
278.421	92.38
278.652	99.38
278.884	85.38
279.115	92.38
279.347	97.38
279.579	73.38
279.81	81.38
280.042	100.38
280.273	84.38
280.505	94.38
280.736	88.38
280.968	91.38
281.199	79.38
281.431	82.38
281.662	87.38
281.894	89.38
282.125	98.38
282.356	117.38
282.588	128.38
282.819	96.38
283.051	102.38
283.282	83.38
283.513	85.38
283.745	102.38
283.976	87.38
284.207	89.38
284.439	84.38
284.67	87.38
284.901	78.38
285.132	95.38
285.364	89.38
285.595	85.38
285.826	102.38
286.057	87.38
286.288	95.38
286.52	96.38
286.751	94.38
286.982	90.38
287.213	73.38
287.444	94.38
287.675	89.38
287.906	102.38
288.138	95.38
288.369	96.38
288.6	92.38
288.831	81.38
289.062	88.38
289.293	91.38
289.524	86.38
289.755	94.38
289.986	83.38
290.217	83.38
290.448	93.38
290.679	83.38
290.91	101.38
291.141	82.38
291.371	84.38
291.602	103.38
291.833	93.38
292.064	83.38
292.295	88.38
292.526	70.38
292.757	100.38
292.987	86.38
293.218	95.38
293.449	88.38
293.68	87.38
293.91	100.38
294.141	87.38
294.372	87.38
294.603	93.38
294.833	89.38
295.064	68.38
295.295	93.38
295.525	96.38
295.756	103.38
295.987	117.38
296.217	136.38
296.448	124.38
296.679	108.38
296.909	106.38
297.14	107.38
297.37	91.38
297.601	92.38
297.831	81.38
298.062	101.38
298.292	80.38
298.523	87.38
298.753	79.38
298.984	110.38
299.214	101.38
299.445	100.38
299.675	91.38
299.905	94.38
300.136	94.38
300.366	93.38
300.597	84.38
300.827	93.38
301.057	90.38
301.288	91.38
301.518	88.38
301.748	95.38
301.979	100.38
302.209	87.38
302.439	84.38
302.669	97.38
302.9	87.38
303.13	105.38
303.36	88.38
303.59	89.38
303.82	113.38
304.051	82.38
304.281	94.38
304.511	113.38
304.741	89.38
304.971	105.38
305.201	97.38
305.431	84.38
305.661	93.38
305.891	89.38
306.121	108.38
306.352	99.38
306.582	100.38
306.812	89.38
307.042	80.38
307.272	105.38
307.502	94.38
307.731	96.38
307.961	96.38
308.191	92.38
308.421	88.38
308.651	89.38
308.881	93.38
309.111	81.38
309.341	102.38
309.571	93.38
309.8	102.38
310.03	112.38
310.26	110.38
310.49	92.38
310.72	100.38
310.949	93.38
311.179	103.38
311.409	89.38
311.639	101.38
311.868	95.38
312.098	94.38
312.328	98.38
312.557	100.38
312.787	100.38
313.017	97.38
313.246	90.38
313.476	98.38
313.706	80.38
313.935	88.38
314.165	98.38
314.394	104.38
314.624	100.38
314.853	88.38
315.083	83.38
315.312	90.38
315.542	93.38
315.771	98.38
316.001	106.38
316.23	95.38
316.46	103.38
316.689	99.38
316.919	93.38
317.148	103.38
317.377	99.38
317.607	103.38
317.836	89.38
318.065	87.38
318.295	92.38
318.524	99.38
318.753	92.38
318.983	79.38
319.212	91.38
319.441	99.38
319.67	104.38
319.9	91.38
320.129	90.38
320.358	92.38
320.587	104.38
320.816	92.38
321.046	108.38
321.275	104.38
321.504	108.38
321.733	97.38
321.962	92.38
322.191	105.38
322.42	112.38
322.649	108.38
322.878	111.38
323.108	124.38
323.337	127.38
323.566	124.38
323.795	171.38
324.024	206.38
324.253	388.38
324.482	779.38
324.71	1636.38
324.939	2119.38
325.168	785.38
325.397	239.38
325.626	164.38
325.855	137.38
326.084	136.38
326.313	124.38
326.542	150.38
326.77	233.38
326.999	451.38
327.228	918.38
327.457	1709.38
327.686	1357.38
327.914	365.38
328.143	178.38
328.372	148.38
328.6	119.38
328.829	105.38
329.058	121.38
329.287	111.38
329.515	101.38
329.744	112.38
329.972	115.38
330.201	101.38
330.43	112.38
330.658	112.38
330.887	124.38
331.115	100.38
331.344	105.38
331.572	104.38
331.801	113.38
332.03	99.38
332.258	105.38
332.486	107.38
332.715	105.38
332.943	97.38
333.172	97.38
333.4	97.38
333.629	106.38
333.857	129.38
334.085	101.38
334.314	79.38
334.542	93.38
334.771	104.38
334.999	103.38
335.227	100.38
335.455	110.38
335.684	112.38
335.912	88.38
336.14	92.38
336.369	97.38
336.597	97.38
336.825	94.38
337.053	97.38
337.281	104.38
337.51	111.38
337.738	96.38
337.966	88.38
338.194	110.38
338.422	105.38
338.65	88.38
338.878	96.38
339.106	98.38
339.334	96.38
339.562	88.38
339.79	98.38
340.018	96.38
340.246	120.38
340.474	85.38
340.702	85.38
340.93	94.38
341.158	114.38
341.386	95.38
341.614	95.38
341.842	91.38
342.07	102.38
342.298	95.38
342.526	97.38
342.754	102.38
342.981	103.38
343.209	92.38
343.437	99.38
343.665	91.38
343.893	100.38
344.12	108.38
344.348	92.38
344.576	94.38
344.804	91.38
345.031	89.38
345.259	92.38
345.487	86.38
345.714	98.38
345.942	107.38
346.17	89.38
346.397	100.38
346.625	103.38
346.853	95.38
347.08	92.38
347.308	101.38
347.535	108.38
347.763	105.38
347.99	101.38
348.218	100.38
348.445	108.38
348.673	121.38
348.9	96.38
349.128	90.38
349.355	100.38
349.583	92.38
349.81	79.38
350.037	107.38
350.265	95.38
350.492	113.38
350.72	116.38
350.947	101.38
351.174	99.38
351.402	104.38
351.629	116.38
351.856	108.38
352.083	96.38
352.311	92.38
352.538	98.38
352.765	113.38
352.992	126.38
353.22	110.38
353.447	100.38
353.674	107.38
353.901	101.38
354.128	103.38
354.355	99.38
354.583	101.38
354.81	108.38
355.037	99.38
355.264	94.38
355.491	102.38
355.718	103.38
355.945	95.38
356.172	103.38
356.399	102.38
356.626	91.38
356.853	92.38
357.08	101.38
357.307	98.38
357.534	85.38
357.761	80.38
357.988	99.38
358.215	102.38
358.441	104.38
358.668	108.38
358.895	104.38
359.122	85.38
359.349	87.38
359.576	95.38
359.802	97.38
360.029	91.38
360.256	119.38
360.483	123.38
360.709	100.38
360.936	95.38
361.163	89.38
361.39	109.38
361.616	97.38
361.843	96.38
362.07	88.38
362.296	103.38
362.523	80.38
362.749	105.38
362.976	100.38
363.203	71.38
363.429	82.38
363.656	78.38
363.882	99.38
364.109	87.38
364.335	93.38
364.562	99.38
364.788	86.38
365.015	103.38
365.241	89.38
365.468	102.38
365.694	119.38
365.92	91.38
366.147	90.38
366.373	93.38
366.599	86.38
366.826	110.38
367.052	84.38
367.278	97.38
367.505	101.38
367.731	80.38
367.957	100.38
368.184	85.38
368.41	100.38
368.636	105.38
368.862	108.38
369.089	111.38
369.315	97.38
369.541	101.38
369.767	84.38
369.993	93.38
370.219	85.38
370.445	89.38
370.672	78.38
370.898	87.38
371.124	99.38
371.35	89.38
371.576	110.38
371.802	86.38
372.028	91.38
372.254	95.38
372.48	89.38
372.706	86.38
372.932	92.38
373.158	96.38
373.384	95.38
373.61	89.38
373.835	90.38
374.061	84.38
374.287	96.38
374.513	85.38
374.739	99.38
374.965	94.38
375.191	83.38
375.416	79.38
375.642	98.38
375.868	94.38
376.094	90.38
376.319	99.38
376.545	88.38
376.771	104.38
376.997	93.38
377.222	110.38
377.448	91.38
377.674	89.38
377.899	99.38
378.125	96.38
378.35	100.38
378.576	97.38
378.802	90.38
379.027	92.38
379.253	110.38
379.478	97.38
379.704	106.38
379.929	98.38
380.155	99.38
380.38	100.38
380.606	103.38
380.831	99.38
381.057	104.38
381.282	105.38
381.507	87.38
381.733	93.38
381.958	91.38
382.184	106.38
382.409	96.38
382.634	108.38
382.86	108.38
383.085	109.38
383.31	105.38
383.535	105.38
383.761	107.38
383.986	109.38
384.211	102.38
384.436	101.38
384.662	98.38
384.887	95.38
385.112	113.38
385.337	114.38
385.562	110.38
385.787	116.38
386.013	121.38
386.238	118.38
386.463	93.38
386.688	119.38
386.913	117.38
387.138	112.38
387.363	98.38
387.588	99.38
387.813	109.38
388.038	110.38
388.263	112.38
388.488	128.38
388.713	118.38
388.938	94.38
389.163	97.38
389.387	99.38
389.612	102.38
389.837	95.38
390.062	102.38
390.287	104.38
390.512	92.38
390.736	100.38
390.961	110.38
391.186	106.38
391.411	85.38
391.636	82.38
391.86	82.38
392.085	90.38
392.31	96.38
392.534	95.38
392.759	87.38
392.984	87.38
393.208	71.38
393.433	93.38
393.658	93.38
393.882	92.38
394.107	91.38
394.331	72.38
394.556	104.38
394.78	97.38
395.005	97.38
395.229	85.38
395.454	72.38
395.678	88.38
395.903	85.38
396.127	87.38
396.352	85.38
396.576	88.38
396.801	94.38
397.025	85.38
397.249	92.38
397.474	83.38
397.698	83.38
397.922	83.38
398.147	91.38
398.371	94.38
398.595	80.38
398.82	84.38
399.044	82.38
399.268	95.38
399.492	84.38
399.717	84.38
399.941	97.38
400.165	97.38
400.389	96.38
400.613	100.38
400.837	92.38
401.062	103.38
401.286	79.38
401.51	88.38
401.734	99.38
401.958	94.38
402.182	107.38
402.406	137.38
402.63	129.38
402.854	101.38
403.078	95.38
403.302	88.38
403.526	81.38
403.75	71.38
403.974	101.38
404.198	83.38
404.422	86.38
404.645	95.38
404.869	85.38
405.093	86.38
405.317	99.38
405.541	116.38
405.765	96.38
405.988	107.38
406.212	151.38
406.436	219.38
406.66	149.38
406.883	96.38
407.107	102.38
407.331	99.38
407.555	90.38
407.778	89.38
408.002	93.38
408.226	92.38
408.449	92.38
408.673	89.38
408.896	95.38
409.12	95.38
409.344	94.38
409.567	109.38
409.791	105.38
410.014	101.38
410.238	99.38
410.461	97.38
410.685	96.38
410.908	93.38
411.132	112.38
411.355	89.38
411.578	95.38
411.802	88.38
412.025	99.38
412.249	96.38
412.472	89.38
412.695	99.38
412.919	94.38
413.142	81.38
413.365	82.38
413.589	95.38
413.812	97.38
414.035	104.38
414.258	85.38
414.482	104.38
414.705	93.38
414.928	107.38
415.151	91.38
415.374	99.38
415.597	76.38
415.821	95.38
416.044	96.38
416.267	97.38
416.49	80.38
416.713	92.38
416.936	92.38
417.159	84.38
417.382	92.38
417.605	96.38
417.828	95.38
418.051	89.38
418.274	100.38
418.497	83.38
418.72	102.38
418.943	93.38
419.166	87.38
419.389	92.38
419.611	87.38
419.834	92.38
420.057	83.38
420.28	80.38
420.503	101.38
420.726	93.38
420.948	92.38
421.171	89.38
421.394	92.38
421.617	91.38
421.839	101.38
422.062	96.38
422.285	92.38
422.507	105.38
422.73	99.38
422.953	104.38
423.175	94.38
423.398	94.38
423.621	94.38
423.843	86.38
424.066	85.38
424.288	88.38
424.511	94.38
424.733	81.38
424.956	108.38
425.178	101.38
425.401	100.38
425.623	95.38
425.846	92.38
426.068	106.38
426.291	101.38
426.513	93.38
426.735	88.38
426.958	93.38
427.18	116.38
427.402	125.38
427.625	152.38
427.847	100.38
428.069	95.38
428.292	84.38
428.514	87.38
428.736	87.38
428.958	79.38
429.181	87.38
429.403	99.38
429.625	87.38
429.847	87.38
430.069	98.38
430.292	98.38
430.514	82.38
430.736	92.38
430.958	92.38
431.18	91.38
431.402	87.38
431.624	77.38
431.846	91.38
432.068	80.38
432.29	98.38
432.512	100.38
432.734	95.38
432.956	88.38
433.178	102.38
433.4	92.38
433.622	70.38
433.844	88.38
434.066	74.38
434.287	92.38
434.509	96.38
434.731	105.38
434.953	93.38
435.175	79.38
435.397	76.38
435.618	83.38
435.84	94.38
436.062	113.38
436.284	112.38
436.505	99.38
436.727	108.38
436.949	96.38
437.17	89.38
437.392	87.38
437.614	86.38
437.835	97.38
438.057	106.38
438.278	114.38
438.5	104.38
438.721	113.38
438.943	111.38
439.165	94.38
439.386	94.38
439.608	103.38
439.829	108.38
440.05	101.38
440.272	137.38
440.493	99.38
440.715	91.38
440.936	86.38
441.158	86.38
441.379	91.38
441.6	91.38
441.822	101.38
442.043	97.38
442.264	107.38
442.486	105.38
442.707	102.38
442.928	100.38
443.149	115.38
443.371	115.38
443.592	108.38
443.813	110.38
444.034	110.38
444.255	89.38
444.476	89.38
444.698	91.38
444.919	86.38
445.14	146.38
445.361	127.38
445.582	104.38
445.803	127.38
446.024	122.38
446.245	113.38
446.466	103.38
446.687	91.38
446.908	90.38
447.129	90.38
447.35	93.38
447.571	95.38
447.792	94.38
448.013	105.38
448.234	99.38
448.455	90.38
448.675	96.38
448.896	111.38
449.117	100.38
449.338	93.38
449.559	123.38
449.779	113.38
450	102.38
450.221	102.38
450.442	95.38
450.662	99.38
450.883	98.38
451.104	108.38
451.324	90.38
451.545	87.38
451.766	97.38
451.986	92.38
452.207	92.38
452.428	89.38
452.648	87.38
452.869	124.38
453.089	116.38
453.31	125.38
453.53	97.38
453.751	96.38
453.971	97.38
454.192	103.38
454.412	78.38
454.633	81.38
454.853	86.38
455.073	85.38
455.294	81.38
455.514	97.38
455.734	93.38
455.955	86.38
456.175	84.38
456.395	83.38
456.616	85.38
456.836	88.38
457.056	82.38
457.276	86.38
457.497	98.38
457.717	84.38
457.937	87.38
458.157	88.38
458.377	109.38
458.598	106.38
458.818	129.38
459.038	143.38
459.258	116.38
459.478	82.38
459.698	91.38
459.918	93.38
460.138	89.38
460.358	85.38
460.578	87.38
460.798	81.38
461.018	80.38
461.238	91.38
461.458	78.38
461.678	88.38
461.898	94.38
462.118	95.38
462.338	82.38
462.558	99.38
462.777	93.38
462.997	82.38
463.217	87.38
463.437	80.38
463.657	97.38
463.876	80.38
464.096	88.38
464.316	79.38
464.536	102.38
464.755	94.38
464.975	113.38
465.195	159.38
465.414	147.38
465.634	85.38
465.854	90.38
466.073	86.38
466.293	105.38
466.512	90.38
466.732	96.38
466.951	91.38
467.171	89.38
467.391	84.38
467.61	96.38
467.829	84.38
468.049	87.38
468.268	81.38
468.488	86.38
468.707	75.38
468.927	82.38
469.146	82.38
469.365	77.38
469.585	97.38
469.804	100.38
470.023	89.38
470.243	96.38
470.462	92.38
470.681	107.38
470.901	112.38
471.12	97.38
471.339	83.38
471.558	82.38
471.777	77.38
471.997	95.38
472.216	93.38
472.435	83.38
472.654	90.38
472.873	109.38
473.092	99.38
473.311	95.38
473.53	90.38
473.749	97.38
473.968	96.38
474.187	106.38
474.406	101.38
474.625	93.38
474.844	95.38
475.063	88.38
475.282	91.38
475.501	84.38
475.72	99.38
475.939	88.38
476.158	91.38
476.377	99.38
476.596	87.38
476.814	84.38
477.033	88.38
477.252	95.38
477.471	93.38
477.69	78.38
477.908	99.38
478.127	90.38
478.346	87.38
478.564	93.38
478.783	88.38
479.002	97.38
479.22	99.38
479.439	102.38
479.658	89.38
479.876	104.38
480.095	100.38
480.313	87.38
480.532	109.38
480.751	99.38
480.969	100.38
481.188	95.38
481.406	92.38
481.624	89.38
481.843	87.38
482.061	92.38
482.28	90.38
482.498	81.38
482.717	83.38
482.935	87.38
483.153	87.38
483.372	99.38
483.59	91.38
483.808	91.38
484.027	102.38
484.245	89.38
484.463	103.38
484.681	86.38
484.9	85.38
485.118	94.38
485.336	87.38
485.554	97.38
485.772	86.38
485.99	86.38
486.209	110.38
486.427	111.38
486.645	99.38
486.863	98.38
487.081	100.38
487.299	79.38
487.517	86.38
487.735	87.38
487.953	90.38
488.171	106.38
488.389	105.38
488.607	95.38
488.825	86.38
489.043	91.38
489.261	95.38
489.479	93.38
489.696	77.38
489.914	84.38
490.132	106.38
490.35	91.38
490.568	100.38
490.786	79.38
491.003	85.38
491.221	110.38
491.439	111.38
491.657	96.38
491.874	92.38
492.092	105.38
492.31	100.38
492.527	90.38
492.745	76.38
492.963	90.38
493.18	104.38
493.398	103.38
493.615	91.38
493.833	105.38
494.05	97.38
494.268	87.38
494.485	81.38
494.703	92.38
494.92	100.38
495.138	96.38
495.355	103.38
495.573	91.38
495.79	98.38
496.008	94.38
496.225	103.38
496.442	104.38
496.66	93.38
496.877	92.38
497.094	94.38
497.312	91.38
497.529	85.38
497.746	79.38
497.963	97.38
498.181	100.38
498.398	102.38
498.615	113.38
498.832	95.38
499.049	88.38
499.267	92.38
499.484	91.38
499.701	88.38
499.918	94.38
500.135	88.38
500.352	93.38
500.569	83.38
500.786	97.38
501.003	89.38
501.22	89.38
501.437	92.38
501.654	124.38
501.871	97.38
502.088	89.38
502.305	92.38
502.522	87.38
502.739	88.38
502.956	98.38
503.172	103.38
503.389	94.38
503.606	109.38
503.823	102.38
504.04	80.38
504.256	103.38
504.473	100.38
504.69	89.38
504.907	97.38
505.123	87.38
505.34	82.38
505.557	93.38
505.773	88.38
505.99	105.38
506.207	86.38
506.423	86.38
506.64	95.38
506.856	100.38
507.073	96.38
507.289	96.38
507.506	86.38
507.722	113.38
507.939	110.38
508.155	94.38
508.372	91.38
508.588	94.38
508.805	94.38
509.021	107.38
509.238	102.38
509.454	105.38
509.67	115.38
509.887	117.38
510.103	125.38
510.319	203.38
510.536	717.38
510.752	2166.38
510.968	628.38
511.184	164.38
511.401	120.38
511.617	98.38
511.833	85.38
512.049	88.38
512.265	104.38
512.481	97.38
512.698	93.38
512.914	93.38
513.13	103.38
513.346	83.38
513.562	88.38
513.778	91.38
513.994	83.38
514.21	100.38
514.426	125.38
514.642	115.38
514.858	121.38
