Data from Uncirc_2006_H10_HRD10591_00061.txt Node
Date: Wed Jan 03 10:25:07 EST 2024
User: Yrep
Spectrometer: HR+D1059
Trigger mode: 1
Integration Time (sec): 1.000000E-1
Scans to average: 1
Electric dark correction enabled: true
Nonlinearity correction enabled: false
Boxcar width: 0
XAxis mode: Wavelengths
Number of Pixels in Spectrum: 2048
>>>>>Begin Spectral Data<<<<<
223.165	-10.62
223.4	-10.62
223.635	-10.62
223.869	-24.62
224.104	-23.62
224.338	-7.62
224.573	-20.62
224.808	-3.62
225.042	-18.62
225.277	-3.62
225.511	-8.62
225.746	-3.62
225.98	2.38
226.215	19.38
226.449	14.38
226.683	23.38
226.918	33.38
227.152	32.38
227.387	29.38
227.621	30.38
227.856	34.38
228.09	30.38
228.324	44.38
228.559	54.38
228.793	66.38
229.027	57.38
229.262	66.38
229.496	60.38
229.73	75.38
229.964	73.38
230.199	57.38
230.433	83.38
230.667	79.38
230.901	69.38
231.136	66.38
231.37	69.38
231.604	92.38
231.838	68.38
232.072	61.38
232.306	68.38
232.541	81.38
232.775	75.38
233.009	69.38
233.243	69.38
233.477	73.38
233.711	80.38
233.945	70.38
234.179	83.38
234.413	83.38
234.647	66.38
234.881	78.38
235.115	65.38
235.349	61.38
235.583	63.38
235.817	79.38
236.051	73.38
236.285	61.38
236.519	73.38
236.753	79.38
236.987	80.38
237.221	79.38
237.455	86.38
237.689	55.38
237.922	79.38
238.156	69.38
238.39	71.38
238.624	65.38
238.858	76.38
239.091	73.38
239.325	82.38
239.559	88.38
239.793	74.38
240.027	76.38
240.26	75.38
240.494	71.38
240.728	67.38
240.961	62.38
241.195	77.38
241.429	75.38
241.662	72.38
241.896	88.38
242.13	75.38
242.363	61.38
242.597	64.38
242.83	73.38
243.064	75.38
243.298	76.38
243.531	82.38
243.765	77.38
243.998	72.38
244.232	86.38
244.465	70.38
244.699	66.38
244.932	66.38
245.166	65.38
245.399	69.38
245.633	84.38
245.866	77.38
246.099	74.38
246.333	70.38
246.566	82.38
246.8	62.38
247.033	70.38
247.266	73.38
247.5	68.38
247.733	68.38
247.966	74.38
248.2	70.38
248.433	74.38
248.666	77.38
248.899	73.38
249.133	87.38
249.366	74.38
249.599	81.38
249.832	89.38
250.066	92.38
250.299	64.38
250.532	84.38
250.765	81.38
250.998	59.38
251.231	71.38
251.465	75.38
251.698	79.38
251.931	88.38
252.164	74.38
252.397	77.38
252.63	83.38
252.863	80.38
253.096	64.38
253.329	87.38
253.562	61.38
253.795	85.38
254.028	85.38
254.261	80.38
254.494	78.38
254.727	75.38
254.96	79.38
255.193	76.38
255.426	80.38
255.659	71.38
255.892	76.38
256.124	73.38
256.357	61.38
256.59	62.38
256.823	75.38
257.056	83.38
257.289	65.38
257.521	79.38
257.754	87.38
257.987	86.38
258.22	80.38
258.452	68.38
258.685	73.38
258.918	82.38
259.151	73.38
259.383	61.38
259.616	89.38
259.849	62.38
260.081	80.38
260.314	71.38
260.547	72.38
260.779	76.38
261.012	82.38
261.244	66.38
261.477	99.38
261.71	86.38
261.942	109.38
262.175	114.38
262.407	83.38
262.64	77.38
262.872	77.38
263.105	69.38
263.337	83.38
263.57	77.38
263.802	74.38
264.035	84.38
264.267	68.38
264.499	81.38
264.732	77.38
264.964	78.38
265.197	78.38
265.429	91.38
265.661	70.38
265.894	68.38
266.126	68.38
266.358	80.38
266.591	75.38
266.823	87.38
267.055	82.38
267.287	75.38
267.52	79.38
267.752	76.38
267.984	76.38
268.216	81.38
268.448	74.38
268.681	76.38
268.913	82.38
269.145	82.38
269.377	91.38
269.609	86.38
269.841	77.38
270.073	78.38
270.306	74.38
270.538	78.38
270.77	87.38
271.002	82.38
271.234	73.38
271.466	75.38
271.698	67.38
271.93	76.38
272.162	99.38
272.394	95.38
272.626	80.38
272.858	86.38
273.09	69.38
273.322	72.38
273.553	75.38
273.785	88.38
274.017	87.38
274.249	83.38
274.481	74.38
274.713	75.38
274.945	85.38
275.176	83.38
275.408	94.38
275.64	91.38
275.872	72.38
276.104	83.38
276.335	91.38
276.567	91.38
276.799	102.38
277.031	89.38
277.262	92.38
277.494	83.38
277.726	78.38
277.957	86.38
278.189	87.38
278.421	83.38
278.652	77.38
278.884	78.38
279.115	89.38
279.347	95.38
279.579	88.38
279.81	66.38
280.042	83.38
280.273	77.38
280.505	78.38
280.736	87.38
280.968	88.38
281.199	87.38
281.431	77.38
281.662	85.38
281.894	77.38
282.125	92.38
282.356	105.38
282.588	136.38
282.819	101.38
283.051	93.38
283.282	74.38
283.513	94.38
283.745	75.38
283.976	87.38
284.207	74.38
284.439	97.38
284.67	84.38
284.901	77.38
285.132	83.38
285.364	78.38
285.595	79.38
285.826	73.38
286.057	88.38
286.288	80.38
286.52	92.38
286.751	81.38
286.982	83.38
287.213	82.38
287.444	79.38
287.675	85.38
287.906	82.38
288.138	88.38
288.369	92.38
288.6	82.38
288.831	89.38
289.062	86.38
289.293	74.38
289.524	80.38
289.755	86.38
289.986	82.38
290.217	87.38
290.448	65.38
290.679	73.38
290.91	83.38
291.141	89.38
291.371	91.38
291.602	80.38
291.833	85.38
292.064	98.38
292.295	89.38
292.526	91.38
292.757	78.38
292.987	90.38
293.218	81.38
293.449	82.38
293.68	66.38
293.91	83.38
294.141	105.38
294.372	80.38
294.603	81.38
294.833	65.38
295.064	73.38
295.295	91.38
295.525	72.38
295.756	77.38
295.987	106.38
296.217	126.38
296.448	101.38
296.679	91.38
296.909	80.38
297.14	81.38
297.37	72.38
297.601	77.38
297.831	101.38
298.062	79.38
298.292	88.38
298.523	80.38
298.753	93.38
298.984	82.38
299.214	90.38
299.445	82.38
299.675	72.38
299.905	95.38
300.136	91.38
300.366	86.38
300.597	80.38
300.827	80.38
301.057	93.38
301.288	102.38
301.518	79.38
301.748	92.38
301.979	81.38
302.209	85.38
302.439	89.38
302.669	77.38
302.9	84.38
303.13	78.38
303.36	94.38
303.59	90.38
303.82	98.38
304.051	82.38
304.281	78.38
304.511	79.38
304.741	75.38
304.971	90.38
305.201	98.38
305.431	96.38
305.661	77.38
305.891	79.38
306.121	81.38
306.352	89.38
306.582	92.38
306.812	85.38
307.042	75.38
307.272	90.38
307.502	93.38
307.731	85.38
307.961	84.38
308.191	79.38
308.421	83.38
308.651	80.38
308.881	86.38
309.111	83.38
309.341	81.38
309.571	113.38
309.8	94.38
310.03	82.38
310.26	101.38
310.49	82.38
310.72	82.38
310.949	91.38
311.179	80.38
311.409	101.38
311.639	91.38
311.868	95.38
312.098	80.38
312.328	77.38
312.557	95.38
312.787	94.38
313.017	93.38
313.246	87.38
313.476	87.38
313.706	93.38
313.935	90.38
314.165	105.38
314.394	84.38
314.624	93.38
314.853	97.38
315.083	94.38
315.312	99.38
315.542	79.38
315.771	105.38
316.001	94.38
316.23	91.38
316.46	96.38
316.689	69.38
316.919	93.38
317.148	100.38
317.377	93.38
317.607	90.38
317.836	83.38
318.065	73.38
318.295	80.38
318.524	77.38
318.753	77.38
318.983	83.38
319.212	103.38
319.441	99.38
319.67	105.38
319.9	94.38
320.129	78.38
320.358	87.38
320.587	93.38
320.816	89.38
321.046	104.38
321.275	89.38
321.504	90.38
321.733	89.38
321.962	90.38
322.191	93.38
322.42	106.38
322.649	89.38
322.878	95.38
323.108	91.38
323.337	111.38
323.566	133.38
323.795	125.38
324.024	189.38
324.253	347.38
324.482	768.38
324.71	1591.38
324.939	2076.38
325.168	757.38
325.397	214.38
325.626	133.38
325.855	134.38
326.084	114.38
326.313	123.38
326.542	138.38
326.77	222.38
326.999	445.38
327.228	865.38
327.457	1597.38
327.686	1263.38
327.914	348.38
328.143	165.38
328.372	118.38
328.6	110.38
328.829	122.38
329.058	106.38
329.287	108.38
329.515	106.38
329.744	101.38
329.972	79.38
330.201	87.38
330.43	94.38
330.658	98.38
330.887	99.38
331.115	102.38
331.344	85.38
331.572	99.38
331.801	102.38
332.03	95.38
332.258	83.38
332.486	90.38
332.715	83.38
332.943	96.38
333.172	96.38
333.4	96.38
333.629	95.38
333.857	122.38
334.085	109.38
334.314	89.38
334.542	90.38
334.771	88.38
334.999	104.38
335.227	84.38
335.455	84.38
335.684	89.38
335.912	99.38
336.14	90.38
336.369	86.38
336.597	86.38
336.825	85.38
337.053	87.38
337.281	96.38
337.51	85.38
337.738	91.38
337.966	86.38
338.194	98.38
338.422	92.38
338.65	79.38
338.878	96.38
339.106	91.38
339.334	90.38
339.562	99.38
339.79	85.38
340.018	89.38
340.246	101.38
340.474	79.38
340.702	88.38
340.93	85.38
341.158	102.38
341.386	88.38
341.614	85.38
341.842	91.38
342.07	74.38
342.298	88.38
342.526	85.38
342.754	98.38
342.981	91.38
343.209	86.38
343.437	85.38
343.665	85.38
343.893	103.38
344.12	90.38
344.348	91.38
344.576	86.38
344.804	92.38
345.031	85.38
345.259	89.38
345.487	93.38
345.714	95.38
345.942	78.38
346.17	85.38
346.397	83.38
346.625	97.38
346.853	76.38
347.08	83.38
347.308	93.38
347.535	92.38
347.763	93.38
347.99	83.38
348.218	95.38
348.445	91.38
348.673	85.38
348.9	79.38
349.128	85.38
349.355	73.38
349.583	104.38
349.81	88.38
350.037	94.38
350.265	80.38
350.492	93.38
350.72	96.38
350.947	97.38
351.174	92.38
351.402	84.38
351.629	89.38
351.856	101.38
352.083	95.38
352.311	93.38
352.538	97.38
352.765	101.38
352.992	103.38
353.22	97.38
353.447	97.38
353.674	102.38
353.901	102.38
354.128	94.38
354.355	81.38
354.583	71.38
354.81	81.38
355.037	97.38
355.264	87.38
355.491	93.38
355.718	78.38
355.945	103.38
356.172	89.38
356.399	78.38
356.626	77.38
356.853	80.38
357.08	103.38
357.307	87.38
357.534	75.38
357.761	89.38
357.988	101.38
358.215	97.38
358.441	87.38
358.668	75.38
358.895	92.38
359.122	96.38
359.349	86.38
359.576	74.38
359.802	88.38
360.029	96.38
360.256	97.38
360.483	76.38
360.709	81.38
360.936	103.38
361.163	77.38
361.39	91.38
361.616	77.38
361.843	82.38
362.07	75.38
362.296	91.38
362.523	96.38
362.749	82.38
362.976	77.38
363.203	92.38
363.429	98.38
363.656	90.38
363.882	81.38
364.109	85.38
364.335	83.38
364.562	98.38
364.788	78.38
365.015	82.38
365.241	95.38
365.468	99.38
365.694	102.38
365.92	90.38
366.147	95.38
366.373	69.38
366.599	86.38
366.826	92.38
367.052	75.38
367.278	87.38
367.505	95.38
367.731	86.38
367.957	80.38
368.184	80.38
368.41	88.38
368.636	97.38
368.862	109.38
369.089	94.38
369.315	94.38
369.541	100.38
369.767	80.38
369.993	96.38
370.219	79.38
370.445	77.38
370.672	77.38
370.898	72.38
371.124	86.38
371.35	70.38
371.576	74.38
371.802	95.38
372.028	80.38
372.254	75.38
372.48	101.38
372.706	76.38
372.932	86.38
373.158	87.38
373.384	92.38
373.61	79.38
373.835	91.38
374.061	80.38
374.287	92.38
374.513	90.38
374.739	74.38
374.965	86.38
375.191	89.38
375.416	88.38
375.642	79.38
375.868	88.38
376.094	88.38
376.319	91.38
376.545	77.38
376.771	77.38
376.997	75.38
377.222	92.38
377.448	81.38
377.674	92.38
377.899	90.38
378.125	96.38
378.35	90.38
378.576	87.38
378.802	82.38
379.027	96.38
379.253	92.38
379.478	80.38
379.704	79.38
379.929	95.38
380.155	88.38
380.38	88.38
380.606	90.38
380.831	73.38
381.057	76.38
381.282	96.38
381.507	74.38
381.733	98.38
381.958	80.38
382.184	88.38
382.409	88.38
382.634	90.38
382.86	97.38
383.085	100.38
383.31	96.38
383.535	88.38
383.761	88.38
383.986	75.38
384.211	83.38
384.436	88.38
384.662	77.38
384.887	98.38
385.112	97.38
385.337	102.38
385.562	93.38
385.787	96.38
386.013	109.38
386.238	113.38
386.463	95.38
386.688	89.38
386.913	89.38
387.138	87.38
387.363	89.38
387.588	103.38
387.813	90.38
388.038	99.38
388.263	103.38
388.488	100.38
388.713	91.38
388.938	85.38
389.163	91.38
389.387	84.38
389.612	106.38
389.837	90.38
390.062	87.38
390.287	95.38
390.512	87.38
390.736	81.38
390.961	97.38
391.186	96.38
391.411	90.38
391.636	105.38
391.86	70.38
392.085	81.38
392.31	79.38
392.534	86.38
392.759	89.38
392.984	76.38
393.208	88.38
393.433	86.38
393.658	83.38
393.882	75.38
394.107	92.38
394.331	88.38
394.556	83.38
394.78	89.38
395.005	94.38
395.229	90.38
395.454	86.38
395.678	80.38
395.903	78.38
396.127	91.38
396.352	78.38
396.576	77.38
396.801	92.38
397.025	83.38
397.249	90.38
397.474	96.38
397.698	89.38
397.922	92.38
398.147	90.38
398.371	81.38
398.595	72.38
398.82	72.38
399.044	76.38
399.268	81.38
399.492	83.38
399.717	85.38
399.941	79.38
400.165	94.38
400.389	88.38
400.613	77.38
400.837	79.38
401.062	87.38
401.286	98.38
401.51	76.38
401.734	85.38
401.958	80.38
402.182	111.38
402.406	137.38
402.63	102.38
402.854	73.38
403.078	85.38
403.302	83.38
403.526	73.38
403.75	77.38
403.974	82.38
404.198	72.38
404.422	92.38
404.645	71.38
404.869	71.38
405.093	100.38
405.317	93.38
405.541	97.38
405.765	94.38
405.988	100.38
406.212	159.38
406.436	195.38
406.66	130.38
406.883	89.38
407.107	99.38
407.331	83.38
407.555	81.38
407.778	87.38
408.002	87.38
408.226	98.38
408.449	79.38
408.673	90.38
408.896	85.38
409.12	92.38
409.344	83.38
409.567	76.38
409.791	81.38
410.014	91.38
410.238	86.38
410.461	78.38
410.685	85.38
410.908	87.38
411.132	96.38
411.355	86.38
411.578	98.38
411.802	79.38
412.025	75.38
412.249	93.38
412.472	74.38
412.695	93.38
412.919	80.38
413.142	87.38
413.365	86.38
413.589	81.38
413.812	79.38
414.035	68.38
414.258	88.38
414.482	71.38
414.705	77.38
414.928	79.38
415.151	79.38
415.374	97.38
415.597	86.38
415.821	102.38
416.044	88.38
416.267	81.38
416.49	78.38
416.713	74.38
416.936	84.38
417.159	82.38
417.382	78.38
417.605	82.38
417.828	88.38
418.051	85.38
418.274	91.38
418.497	71.38
418.72	80.38
418.943	98.38
419.166	79.38
419.389	78.38
419.611	72.38
419.834	87.38
420.057	77.38
420.28	87.38
420.503	80.38
420.726	92.38
420.948	72.38
421.171	82.38
421.394	75.38
421.617	82.38
421.839	83.38
422.062	93.38
422.285	91.38
422.507	110.38
422.73	90.38
422.953	83.38
423.175	92.38
423.398	76.38
423.621	83.38
423.843	87.38
424.066	78.38
424.288	77.38
424.511	91.38
424.733	93.38
424.956	93.38
425.178	82.38
425.401	99.38
425.623	96.38
425.846	93.38
426.068	87.38
426.291	83.38
426.513	76.38
426.735	93.38
426.958	93.38
427.18	93.38
427.402	124.38
427.625	157.38
427.847	115.38
428.069	88.38
428.292	91.38
428.514	81.38
428.736	81.38
428.958	83.38
429.181	64.38
429.403	71.38
429.625	73.38
429.847	82.38
430.069	85.38
430.292	99.38
430.514	73.38
430.736	88.38
430.958	83.38
431.18	89.38
431.402	81.38
431.624	97.38
431.846	86.38
432.068	91.38
432.29	91.38
432.512	79.38
432.734	85.38
432.956	74.38
433.178	88.38
433.4	87.38
433.622	94.38
433.844	99.38
434.066	90.38
434.287	90.38
434.509	83.38
434.731	91.38
434.953	82.38
435.175	81.38
435.397	96.38
435.618	97.38
435.84	83.38
436.062	117.38
436.284	93.38
436.505	96.38
436.727	100.38
436.949	82.38
437.17	80.38
437.392	96.38
437.614	78.38
437.835	94.38
438.057	105.38
438.278	99.38
438.5	96.38
438.721	109.38
438.943	105.38
439.165	73.38
439.386	93.38
439.608	77.38
439.829	84.38
440.05	93.38
440.272	129.38
440.493	84.38
440.715	86.38
440.936	79.38
441.158	89.38
441.379	75.38
441.6	93.38
441.822	99.38
442.043	81.38
442.264	107.38
442.486	85.38
442.707	77.38
442.928	98.38
443.149	90.38
443.371	122.38
443.592	107.38
443.813	106.38
444.034	89.38
444.255	97.38
444.476	78.38
444.698	70.38
444.919	89.38
445.14	125.38
445.361	111.38
445.582	97.38
445.803	105.38
446.024	138.38
446.245	121.38
446.466	106.38
446.687	83.38
446.908	81.38
447.129	96.38
447.35	89.38
447.571	86.38
447.792	89.38
448.013	87.38
448.234	91.38
448.455	97.38
448.675	107.38
448.896	125.38
449.117	88.38
449.338	91.38
449.559	115.38
449.779	104.38
450	92.38
450.221	74.38
450.442	85.38
450.662	91.38
450.883	101.38
451.104	98.38
451.324	88.38
451.545	91.38
451.766	96.38
451.986	73.38
452.207	90.38
452.428	77.38
452.648	89.38
452.869	87.38
453.089	109.38
453.31	106.38
453.53	82.38
453.751	82.38
453.971	90.38
454.192	97.38
454.412	88.38
454.633	80.38
454.853	75.38
455.073	80.38
455.294	96.38
455.514	90.38
455.734	89.38
455.955	90.38
456.175	79.38
456.395	70.38
456.616	62.38
456.836	82.38
457.056	73.38
457.276	64.38
457.497	86.38
457.717	75.38
457.937	89.38
458.157	76.38
458.377	78.38
458.598	100.38
458.818	136.38
459.038	127.38
459.258	108.38
459.478	74.38
459.698	93.38
459.918	81.38
460.138	88.38
460.358	89.38
460.578	82.38
460.798	80.38
461.018	75.38
461.238	85.38
461.458	76.38
461.678	77.38
461.898	91.38
462.118	85.38
462.338	92.38
462.558	87.38
462.777	71.38
462.997	78.38
463.217	93.38
463.437	93.38
463.657	86.38
463.876	90.38
464.096	78.38
464.316	91.38
464.536	102.38
464.755	94.38
464.975	94.38
465.195	138.38
465.414	127.38
465.634	74.38
465.854	73.38
466.073	81.38
466.293	91.38
466.512	75.38
466.732	100.38
466.951	81.38
467.171	85.38
467.391	86.38
467.61	100.38
467.829	93.38
468.049	82.38
468.268	82.38
468.488	74.38
468.707	84.38
468.927	93.38
469.146	66.38
469.365	82.38
469.585	83.38
469.804	99.38
470.023	93.38
470.243	82.38
470.462	102.38
470.681	93.38
470.901	87.38
471.12	81.38
471.339	87.38
471.558	89.38
471.777	92.38
471.997	62.38
472.216	84.38
472.435	87.38
472.654	98.38
472.873	77.38
473.092	78.38
473.311	72.38
473.53	71.38
473.749	69.38
473.968	81.38
474.187	77.38
474.406	98.38
474.625	73.38
474.844	72.38
475.063	89.38
475.282	79.38
475.501	69.38
475.72	84.38
475.939	77.38
476.158	88.38
476.377	73.38
476.596	86.38
476.814	85.38
477.033	73.38
477.252	88.38
477.471	83.38
477.69	79.38
477.908	88.38
478.127	96.38
478.346	90.38
478.564	80.38
478.783	83.38
479.002	76.38
479.22	80.38
479.439	87.38
479.658	96.38
479.876	79.38
480.095	92.38
480.313	80.38
480.532	85.38
480.751	78.38
480.969	92.38
481.188	76.38
481.406	82.38
481.624	83.38
481.843	87.38
482.061	83.38
482.28	76.38
482.498	82.38
482.717	88.38
482.935	74.38
483.153	84.38
483.372	87.38
483.59	73.38
483.808	87.38
484.027	92.38
484.245	86.38
484.463	92.38
484.681	82.38
484.9	87.38
485.118	83.38
485.336	104.38
485.554	89.38
485.772	88.38
485.99	91.38
486.209	99.38
486.427	94.38
486.645	96.38
486.863	111.38
487.081	89.38
487.299	89.38
487.517	90.38
487.735	86.38
487.953	103.38
488.171	82.38
488.389	96.38
488.607	90.38
488.825	80.38
489.043	90.38
489.261	94.38
489.479	90.38
489.696	77.38
489.914	75.38
490.132	84.38
490.35	81.38
490.568	87.38
490.786	87.38
491.003	85.38
491.221	86.38
491.439	81.38
491.657	83.38
491.874	77.38
492.092	92.38
492.31	83.38
492.527	83.38
492.745	79.38
492.963	90.38
493.18	79.38
493.398	99.38
493.615	94.38
493.833	103.38
494.05	86.38
494.268	85.38
494.485	75.38
494.703	82.38
494.92	83.38
495.138	87.38
495.355	89.38
495.573	86.38
495.79	95.38
496.008	83.38
496.225	83.38
496.442	73.38
496.66	83.38
496.877	78.38
497.094	93.38
497.312	87.38
497.529	99.38
497.746	77.38
497.963	84.38
498.181	92.38
498.398	90.38
498.615	112.38
498.832	113.38
499.049	77.38
499.267	82.38
499.484	86.38
499.701	94.38
499.918	78.38
500.135	89.38
500.352	83.38
500.569	81.38
500.786	83.38
501.003	80.38
501.22	83.38
501.437	94.38
501.654	75.38
501.871	90.38
502.088	79.38
502.305	83.38
502.522	88.38
502.739	80.38
502.956	91.38
503.172	78.38
503.389	85.38
503.606	86.38
503.823	82.38
504.04	91.38
504.256	97.38
504.473	83.38
504.69	90.38
504.907	97.38
505.123	72.38
505.34	88.38
505.557	88.38
505.773	79.38
505.99	100.38
506.207	86.38
506.423	83.38
506.64	88.38
506.856	90.38
507.073	82.38
507.289	84.38
507.506	94.38
507.722	97.38
507.939	103.38
508.155	101.38
508.372	86.38
508.588	91.38
508.805	91.38
509.021	83.38
509.238	97.38
509.454	101.38
509.67	94.38
509.887	104.38
510.103	135.38
510.319	187.38
510.536	686.38
510.752	2078.38
510.968	583.38
511.184	144.38
511.401	104.38
511.617	81.38
511.833	81.38
512.049	93.38
512.265	83.38
512.481	87.38
512.698	90.38
512.914	96.38
513.13	69.38
513.346	80.38
513.562	85.38
513.778	79.38
513.994	96.38
514.21	91.38
514.426	100.38
514.642	112.38
514.858	106.38
515.074	146.38
515.29	379.38
515.506	1229.38
515.721	483.38
515.937	152.38
516.153	100.38
516.369	94.38
516.585	75.38
516.801	102.38
517.016	95.38
517.232	106.38
517.448	89.38
517.664	91.38
517.879	95.38
