Data from Uncirc_2006_H10_HRD10591_00018.txt Node
Date: Wed Jan 03 10:24:58 EST 2024
User: Yrep
Spectrometer: HR+D1059
Trigger mode: 1
Integration Time (sec): 1.000000E-1
Scans to average: 1
Electric dark correction enabled: true
Nonlinearity correction enabled: false
Boxcar width: 0
XAxis mode: Wavelengths
Number of Pixels in Spectrum: 2048
>>>>>Begin Spectral Data<<<<<
223.165	-17.94
223.4	-17.94
223.635	-17.94
223.869	-14.94
224.104	-22.94
224.338	-10.94
224.573	-23.94
224.808	-4.94
225.042	-20.94
225.277	-11.94
225.511	-2.94
225.746	-0.94
225.98	6.06
226.215	19.06
226.449	22.06
226.683	13.06
226.918	36.06
227.152	36.06
227.387	25.06
227.621	46.06
227.856	45.06
228.09	49.06
228.324	61.06
228.559	56.06
228.793	51.06
229.027	69.06
229.262	73.06
229.496	68.06
229.73	80.06
229.964	81.06
230.199	72.06
230.433	73.06
230.667	87.06
230.901	74.06
231.136	77.06
231.37	73.06
231.604	68.06
231.838	79.06
232.072	81.06
232.306	81.06
232.541	84.06
232.775	95.06
233.009	89.06
233.243	79.06
233.477	81.06
233.711	73.06
233.945	77.06
234.179	87.06
234.413	85.06
234.647	80.06
234.881	89.06
235.115	69.06
235.349	76.06
235.583	92.06
235.817	95.06
236.051	90.06
236.285	89.06
236.519	77.06
236.753	74.06
236.987	98.06
237.221	92.06
237.455	80.06
237.689	82.06
237.922	75.06
238.156	70.06
238.39	81.06
238.624	85.06
238.858	80.06
239.091	86.06
239.325	76.06
239.559	79.06
239.793	87.06
240.027	68.06
240.26	81.06
240.494	89.06
240.728	87.06
240.961	72.06
241.195	80.06
241.429	83.06
241.662	87.06
241.896	84.06
242.13	77.06
242.363	68.06
242.597	83.06
242.83	88.06
243.064	67.06
243.298	80.06
243.531	75.06
243.765	64.06
243.998	78.06
244.232	96.06
244.465	86.06
244.699	84.06
244.932	93.06
245.166	78.06
245.399	69.06
245.633	91.06
245.866	76.06
246.099	65.06
246.333	85.06
246.566	72.06
246.8	92.06
247.033	91.06
247.266	94.06
247.5	94.06
247.733	71.06
247.966	84.06
248.2	66.06
248.433	79.06
248.666	80.06
248.899	81.06
249.133	84.06
249.366	89.06
249.599	82.06
249.832	81.06
250.066	78.06
250.299	68.06
250.532	80.06
250.765	93.06
250.998	81.06
251.231	86.06
251.465	91.06
251.698	84.06
251.931	85.06
252.164	73.06
252.397	84.06
252.63	85.06
252.863	87.06
253.096	86.06
253.329	78.06
253.562	78.06
253.795	76.06
254.028	89.06
254.261	65.06
254.494	92.06
254.727	77.06
254.96	80.06
255.193	77.06
255.426	83.06
255.659	94.06
255.892	82.06
256.124	76.06
256.357	82.06
256.59	90.06
256.823	86.06
257.056	89.06
257.289	81.06
257.521	78.06
257.754	90.06
257.987	92.06
258.22	95.06
258.452	95.06
258.685	93.06
258.918	89.06
259.151	75.06
259.383	86.06
259.616	80.06
259.849	89.06
260.081	69.06
260.314	72.06
260.547	75.06
260.779	73.06
261.012	86.06
261.244	74.06
261.477	79.06
261.71	84.06
261.942	116.06
262.175	114.06
262.407	86.06
262.64	87.06
262.872	94.06
263.105	85.06
263.337	91.06
263.57	84.06
263.802	69.06
264.035	87.06
264.267	79.06
264.499	77.06
264.732	96.06
264.964	84.06
265.197	78.06
265.429	84.06
265.661	76.06
265.894	88.06
266.126	93.06
266.358	80.06
266.591	79.06
266.823	93.06
267.055	92.06
267.287	81.06
267.52	85.06
267.752	81.06
267.984	69.06
268.216	86.06
268.448	80.06
268.681	83.06
268.913	95.06
269.145	75.06
269.377	95.06
269.609	86.06
269.841	75.06
270.073	89.06
270.306	90.06
270.538	90.06
270.77	94.06
271.002	84.06
271.234	109.06
271.466	88.06
271.698	93.06
271.93	94.06
272.162	89.06
272.394	73.06
272.626	79.06
272.858	83.06
273.09	84.06
273.322	88.06
273.553	84.06
273.785	89.06
274.017	95.06
274.249	77.06
274.481	94.06
274.713	81.06
274.945	91.06
275.176	81.06
275.408	84.06
275.64	97.06
275.872	93.06
276.104	93.06
276.335	99.06
276.567	89.06
276.799	108.06
277.031	105.06
277.262	95.06
277.494	92.06
277.726	80.06
277.957	93.06
278.189	105.06
278.421	86.06
278.652	83.06
278.884	95.06
279.115	80.06
279.347	89.06
279.579	84.06
279.81	84.06
280.042	83.06
280.273	95.06
280.505	88.06
280.736	80.06
280.968	87.06
281.199	91.06
281.431	96.06
281.662	92.06
281.894	94.06
282.125	101.06
282.356	106.06
282.588	128.06
282.819	101.06
283.051	98.06
283.282	89.06
283.513	101.06
283.745	98.06
283.976	101.06
284.207	93.06
284.439	81.06
284.67	95.06
284.901	103.06
285.132	86.06
285.364	78.06
285.595	69.06
285.826	83.06
286.057	76.06
286.288	97.06
286.52	88.06
286.751	96.06
286.982	89.06
287.213	89.06
287.444	85.06
287.675	86.06
287.906	85.06
288.138	94.06
288.369	79.06
288.6	100.06
288.831	93.06
289.062	95.06
289.293	84.06
289.524	83.06
289.755	78.06
289.986	87.06
290.217	99.06
290.448	96.06
290.679	98.06
290.91	87.06
291.141	83.06
291.371	89.06
291.602	102.06
291.833	79.06
292.064	81.06
292.295	92.06
292.526	77.06
292.757	92.06
292.987	83.06
293.218	84.06
293.449	101.06
293.68	90.06
293.91	98.06
294.141	81.06
294.372	105.06
294.603	93.06
294.833	100.06
295.064	95.06
295.295	86.06
295.525	85.06
295.756	90.06
295.987	98.06
296.217	125.06
296.448	123.06
296.679	96.06
296.909	105.06
297.14	86.06
297.37	96.06
297.601	100.06
297.831	71.06
298.062	86.06
298.292	100.06
298.523	93.06
298.753	87.06
298.984	86.06
299.214	91.06
299.445	89.06
299.675	88.06
299.905	99.06
300.136	88.06
300.366	96.06
300.597	95.06
300.827	89.06
301.057	101.06
301.288	92.06
301.518	93.06
301.748	108.06
301.979	102.06
302.209	88.06
302.439	89.06
302.669	94.06
302.9	101.06
303.13	93.06
303.36	88.06
303.59	98.06
303.82	107.06
304.051	86.06
304.281	84.06
304.511	94.06
304.741	79.06
304.971	87.06
305.201	93.06
305.431	83.06
305.661	97.06
305.891	102.06
306.121	85.06
306.352	93.06
306.582	100.06
306.812	93.06
307.042	86.06
307.272	96.06
307.502	104.06
307.731	91.06
307.961	88.06
308.191	78.06
308.421	90.06
308.651	80.06
308.881	93.06
309.111	85.06
309.341	96.06
309.571	102.06
309.8	100.06
310.03	96.06
310.26	85.06
310.49	89.06
310.72	97.06
310.949	103.06
311.179	95.06
311.409	90.06
311.639	96.06
311.868	80.06
312.098	96.06
312.328	91.06
312.557	99.06
312.787	86.06
313.017	99.06
313.246	91.06
313.476	85.06
313.706	84.06
313.935	82.06
314.165	101.06
314.394	104.06
314.624	109.06
314.853	87.06
315.083	99.06
315.312	101.06
315.542	98.06
315.771	90.06
316.001	90.06
316.23	85.06
316.46	99.06
316.689	110.06
316.919	102.06
317.148	83.06
317.377	97.06
317.607	80.06
317.836	88.06
318.065	91.06
318.295	87.06
318.524	91.06
318.753	99.06
318.983	91.06
319.212	118.06
319.441	97.06
319.67	99.06
319.9	88.06
320.129	92.06
320.358	92.06
320.587	102.06
320.816	98.06
321.046	99.06
321.275	96.06
321.504	103.06
321.733	95.06
321.962	103.06
322.191	119.06
322.42	119.06
322.649	91.06
322.878	119.06
323.108	104.06
323.337	107.06
323.566	123.06
323.795	142.06
324.024	208.06
324.253	365.06
324.482	741.06
324.71	1475.06
324.939	1957.06
325.168	717.06
325.397	233.06
325.626	153.06
325.855	124.06
326.084	127.06
326.313	129.06
326.542	154.06
326.77	228.06
326.999	426.06
327.228	879.06
327.457	1533.06
327.686	1229.06
327.914	343.06
328.143	172.06
328.372	135.06
328.6	118.06
328.829	110.06
329.058	113.06
329.287	112.06
329.515	111.06
329.744	103.06
329.972	88.06
330.201	89.06
330.43	101.06
330.658	116.06
330.887	129.06
331.115	115.06
331.344	106.06
331.572	93.06
331.801	96.06
332.03	81.06
332.258	94.06
332.486	106.06
332.715	89.06
332.943	89.06
333.172	86.06
333.4	110.06
333.629	107.06
333.857	116.06
334.085	111.06
334.314	94.06
334.542	82.06
334.771	96.06
334.999	101.06
335.227	88.06
335.455	100.06
335.684	98.06
335.912	88.06
336.14	113.06
336.369	91.06
336.597	99.06
336.825	91.06
337.053	111.06
337.281	87.06
337.51	93.06
337.738	102.06
337.966	78.06
338.194	94.06
338.422	90.06
338.65	104.06
338.878	94.06
339.106	94.06
339.334	92.06
339.562	93.06
339.79	93.06
340.018	95.06
340.246	80.06
340.474	108.06
340.702	103.06
340.93	103.06
341.158	83.06
341.386	93.06
341.614	95.06
341.842	110.06
342.07	96.06
342.298	78.06
342.526	89.06
342.754	101.06
342.981	93.06
343.209	85.06
343.437	84.06
343.665	117.06
343.893	101.06
344.12	91.06
344.348	86.06
344.576	100.06
344.804	94.06
345.031	78.06
345.259	91.06
345.487	88.06
345.714	92.06
345.942	91.06
346.17	93.06
346.397	93.06
346.625	106.06
346.853	103.06
347.08	77.06
347.308	93.06
347.535	99.06
347.763	105.06
347.99	96.06
348.218	103.06
348.445	97.06
348.673	97.06
348.9	93.06
349.128	96.06
349.355	98.06
349.583	102.06
349.81	99.06
350.037	95.06
350.265	94.06
350.492	88.06
350.72	92.06
350.947	92.06
351.174	99.06
351.402	105.06
351.629	93.06
351.856	96.06
352.083	100.06
352.311	94.06
352.538	104.06
352.765	103.06
352.992	106.06
353.22	104.06
353.447	104.06
353.674	90.06
353.901	93.06
354.128	96.06
354.355	96.06
354.583	93.06
354.81	104.06
355.037	94.06
355.264	93.06
355.491	100.06
355.718	82.06
355.945	93.06
356.172	99.06
356.399	98.06
356.626	95.06
356.853	100.06
357.08	95.06
357.307	99.06
357.534	97.06
357.761	92.06
357.988	104.06
358.215	99.06
358.441	102.06
358.668	113.06
358.895	98.06
359.122	84.06
359.349	98.06
359.576	86.06
359.802	96.06
360.029	110.06
360.256	110.06
360.483	82.06
360.709	89.06
360.936	103.06
361.163	87.06
361.39	82.06
361.616	92.06
361.843	94.06
362.07	91.06
362.296	85.06
362.523	88.06
362.749	104.06
362.976	94.06
363.203	95.06
363.429	92.06
363.656	97.06
363.882	88.06
364.109	81.06
364.335	98.06
364.562	88.06
364.788	107.06
365.015	83.06
365.241	115.06
365.468	95.06
365.694	108.06
365.92	95.06
366.147	96.06
366.373	87.06
366.599	88.06
366.826	90.06
367.052	86.06
367.278	94.06
367.505	86.06
367.731	85.06
367.957	81.06
368.184	99.06
368.41	91.06
368.636	117.06
368.862	123.06
369.089	98.06
369.315	102.06
369.541	96.06
369.767	93.06
369.993	86.06
370.219	87.06
370.445	83.06
370.672	96.06
370.898	88.06
371.124	94.06
371.35	88.06
371.576	109.06
371.802	92.06
372.028	80.06
372.254	93.06
372.48	100.06
372.706	83.06
372.932	104.06
373.158	91.06
373.384	101.06
373.61	103.06
373.835	94.06
374.061	81.06
374.287	89.06
374.513	84.06
374.739	72.06
374.965	79.06
375.191	83.06
375.416	92.06
375.642	94.06
375.868	100.06
376.094	87.06
376.319	111.06
376.545	106.06
376.771	100.06
376.997	110.06
377.222	91.06
377.448	73.06
377.674	83.06
377.899	89.06
378.125	87.06
378.35	91.06
378.576	92.06
378.802	89.06
379.027	105.06
379.253	105.06
379.478	92.06
379.704	97.06
379.929	95.06
380.155	93.06
380.38	97.06
380.606	97.06
380.831	102.06
381.057	87.06
381.282	89.06
381.507	97.06
381.733	98.06
381.958	83.06
382.184	106.06
382.409	87.06
382.634	104.06
382.86	107.06
383.085	104.06
383.31	117.06
383.535	104.06
383.761	109.06
383.986	100.06
384.211	112.06
384.436	100.06
384.662	102.06
384.887	107.06
385.112	108.06
385.337	107.06
385.562	129.06
385.787	89.06
386.013	111.06
386.238	109.06
386.463	106.06
386.688	115.06
386.913	109.06
387.138	108.06
387.363	108.06
387.588	110.06
387.813	119.06
388.038	115.06
388.263	126.06
388.488	106.06
388.713	100.06
388.938	96.06
389.163	90.06
389.387	89.06
389.612	102.06
389.837	98.06
390.062	99.06
390.287	96.06
390.512	109.06
390.736	102.06
390.961	106.06
391.186	102.06
391.411	89.06
391.636	94.06
391.86	78.06
392.085	89.06
392.31	87.06
392.534	93.06
392.759	81.06
392.984	86.06
393.208	87.06
393.433	102.06
393.658	109.06
393.882	92.06
394.107	90.06
394.331	80.06
394.556	88.06
394.78	92.06
395.005	89.06
395.229	99.06
395.454	91.06
395.678	85.06
395.903	99.06
396.127	94.06
396.352	95.06
396.576	88.06
396.801	86.06
397.025	87.06
397.249	93.06
397.474	94.06
397.698	83.06
397.922	80.06
398.147	69.06
398.371	95.06
398.595	83.06
398.82	89.06
399.044	89.06
399.268	86.06
399.492	81.06
399.717	97.06
399.941	91.06
400.165	101.06
400.389	98.06
400.613	99.06
400.837	92.06
401.062	77.06
401.286	96.06
401.51	95.06
401.734	86.06
401.958	98.06
402.182	111.06
402.406	143.06
402.63	101.06
402.854	102.06
403.078	99.06
403.302	96.06
403.526	99.06
403.75	86.06
403.974	76.06
404.198	68.06
404.422	78.06
404.645	114.06
404.869	87.06
405.093	92.06
405.317	96.06
405.541	103.06
405.765	84.06
405.988	99.06
406.212	161.06
406.436	186.06
406.66	123.06
406.883	105.06
407.107	86.06
407.331	103.06
407.555	96.06
407.778	96.06
408.002	90.06
408.226	103.06
408.449	92.06
408.673	103.06
408.896	95.06
409.12	105.06
409.344	97.06
409.567	106.06
409.791	93.06
410.014	99.06
410.238	89.06
410.461	97.06
410.685	104.06
410.908	99.06
411.132	106.06
411.355	107.06
411.578	96.06
411.802	81.06
412.025	99.06
412.249	92.06
412.472	78.06
412.695	79.06
412.919	96.06
413.142	94.06
413.365	95.06
413.589	101.06
413.812	78.06
414.035	103.06
414.258	91.06
414.482	101.06
414.705	90.06
414.928	109.06
415.151	100.06
415.374	88.06
415.597	90.06
415.821	90.06
416.044	83.06
416.267	88.06
416.49	92.06
416.713	89.06
416.936	99.06
417.159	86.06
417.382	76.06
417.605	88.06
417.828	99.06
418.051	87.06
418.274	84.06
418.497	84.06
418.72	94.06
418.943	88.06
419.166	87.06
419.389	88.06
419.611	111.06
419.834	93.06
420.057	93.06
420.28	81.06
420.503	87.06
420.726	81.06
420.948	73.06
421.171	100.06
421.394	96.06
421.617	90.06
421.839	101.06
422.062	89.06
422.285	94.06
422.507	99.06
422.73	100.06
422.953	89.06
423.175	93.06
423.398	90.06
423.621	82.06
423.843	89.06
424.066	86.06
424.288	101.06
424.511	93.06
424.733	92.06
424.956	95.06
425.178	97.06
425.401	98.06
425.623	104.06
425.846	98.06
426.068	96.06
426.291	112.06
426.513	106.06
426.735	95.06
426.958	84.06
427.18	106.06
427.402	114.06
427.625	141.06
427.847	115.06
428.069	89.06
428.292	94.06
428.514	92.06
428.736	78.06
428.958	85.06
429.181	91.06
429.403	93.06
429.625	84.06
429.847	92.06
430.069	94.06
430.292	97.06
430.514	80.06
430.736	88.06
430.958	74.06
431.18	84.06
431.402	89.06
431.624	78.06
431.846	91.06
432.068	96.06
432.29	84.06
432.512	96.06
432.734	91.06
432.956	91.06
433.178	92.06
433.4	90.06
433.622	74.06
433.844	82.06
434.066	94.06
434.287	89.06
434.509	95.06
434.731	86.06
434.953	93.06
435.175	102.06
435.397	82.06
435.618	66.06
435.84	92.06
436.062	119.06
436.284	101.06
436.505	96.06
436.727	91.06
436.949	82.06
437.17	78.06
437.392	92.06
437.614	93.06
437.835	94.06
438.057	100.06
438.278	101.06
438.5	107.06
438.721	124.06
438.943	104.06
439.165	90.06
439.386	88.06
439.608	99.06
439.829	97.06
440.05	118.06
440.272	123.06
440.493	91.06
440.715	92.06
440.936	89.06
441.158	91.06
441.379	94.06
441.6	90.06
441.822	95.06
442.043	108.06
442.264	87.06
442.486	103.06
442.707	95.06
442.928	99.06
443.149	134.06
443.371	120.06
443.592	96.06
443.813	105.06
444.034	91.06
444.255	93.06
444.476	92.06
444.698	93.06
444.919	89.06
445.14	125.06
445.361	121.06
445.582	104.06
445.803	119.06
446.024	137.06
446.245	128.06
446.466	104.06
446.687	84.06
446.908	74.06
447.129	83.06
447.35	96.06
447.571	90.06
447.792	75.06
448.013	86.06
448.234	91.06
448.455	91.06
448.675	113.06
448.896	109.06
449.117	96.06
449.338	106.06
449.559	115.06
449.779	107.06
450	82.06
450.221	102.06
450.442	99.06
450.662	83.06
450.883	88.06
451.104	100.06
451.324	85.06
451.545	100.06
451.766	104.06
451.986	102.06
452.207	102.06
452.428	88.06
452.648	97.06
452.869	110.06
453.089	101.06
453.31	98.06
453.53	99.06
453.751	81.06
453.971	100.06
454.192	110.06
454.412	86.06
454.633	103.06
454.853	95.06
455.073	94.06
455.294	94.06
455.514	98.06
455.734	82.06
455.955	94.06
456.175	77.06
456.395	84.06
456.616	84.06
456.836	81.06
457.056	97.06
457.276	96.06
457.497	83.06
457.717	80.06
457.937	84.06
458.157	88.06
458.377	89.06
458.598	121.06
458.818	136.06
459.038	152.06
459.258	111.06
459.478	97.06
459.698	103.06
459.918	87.06
460.138	74.06
460.358	81.06
460.578	102.06
460.798	86.06
461.018	88.06
461.238	72.06
461.458	80.06
461.678	76.06
461.898	86.06
462.118	83.06
462.338	83.06
462.558	84.06
462.777	95.06
462.997	100.06
463.217	85.06
463.437	87.06
463.657	78.06
463.876	86.06
464.096	97.06
464.316	85.06
464.536	82.06
464.755	92.06
464.975	109.06
465.195	154.06
465.414	125.06
465.634	95.06
465.854	74.06
466.073	82.06
466.293	82.06
466.512	95.06
466.732	97.06
466.951	80.06
467.171	95.06
467.391	95.06
467.61	96.06
467.829	103.06
468.049	89.06
468.268	90.06
468.488	87.06
468.707	79.06
468.927	84.06
469.146	95.06
469.365	75.06
469.585	93.06
469.804	93.06
470.023	88.06
470.243	96.06
470.462	96.06
470.681	117.06
470.901	95.06
471.12	87.06
471.339	85.06
471.558	86.06
471.777	94.06
471.997	88.06
472.216	95.06
472.435	87.06
472.654	88.06
472.873	85.06
473.092	76.06
473.311	78.06
473.53	87.06
473.749	89.06
473.968	100.06
474.187	107.06
474.406	90.06
474.625	90.06
474.844	87.06
475.063	99.06
475.282	76.06
475.501	86.06
475.72	89.06
475.939	87.06
476.158	82.06
476.377	80.06
476.596	96.06
476.814	94.06
477.033	92.06
477.252	82.06
477.471	86.06
477.69	95.06
477.908	94.06
478.127	88.06
478.346	72.06
478.564	72.06
478.783	90.06
479.002	97.06
479.22	93.06
479.439	104.06
479.658	102.06
479.876	94.06
480.095	93.06
480.313	87.06
480.532	111.06
480.751	98.06
480.969	84.06
481.188	85.06
481.406	92.06
481.624	102.06
481.843	93.06
482.061	80.06
482.28	79.06
482.498	88.06
482.717	85.06
482.935	96.06
483.153	77.06
483.372	95.06
483.59	88.06
483.808	89.06
484.027	104.06
484.245	91.06
484.463	88.06
484.681	100.06
484.9	92.06
485.118	94.06
485.336	100.06
485.554	102.06
485.772	100.06
485.99	127.06
486.209	98.06
486.427	98.06
486.645	96.06
486.863	100.06
487.081	97.06
487.299	98.06
487.517	97.06
487.735	95.06
487.953	86.06
488.171	99.06
488.389	96.06
488.607	102.06
488.825	96.06
489.043	81.06
489.261	99.06
489.479	90.06
489.696	87.06
489.914	95.06
490.132	96.06
490.35	90.06
490.568	99.06
490.786	88.06
491.003	83.06
491.221	94.06
491.439	98.06
491.657	83.06
491.874	92.06
492.092	93.06
492.31	85.06
492.527	94.06
492.745	93.06
492.963	75.06
493.18	89.06
493.398	87.06
493.615	91.06
493.833	97.06
494.05	91.06
494.268	100.06
494.485	96.06
494.703	81.06
494.92	83.06
495.138	93.06
495.355	102.06
495.573	92.06
495.79	104.06
496.008	95.06
496.225	82.06
496.442	93.06
496.66	91.06
496.877	102.06
497.094	93.06
497.312	101.06
497.529	80.06
497.746	100.06
497.963	85.06
498.181	93.06
498.398	100.06
498.615	104.06
498.832	103.06
499.049	80.06
499.267	96.06
499.484	75.06
499.701	100.06
499.918	103.06
500.135	92.06
500.352	90.06
500.569	85.06
500.786	87.06
501.003	91.06
501.22	83.06
501.437	96.06
501.654	102.06
501.871	109.06
502.088	95.06
502.305	104.06
502.522	78.06
502.739	95.06
502.956	81.06
503.172	100.06
503.389	95.06
503.606	108.06
503.823	96.06
504.04	92.06
504.256	82.06
504.473	102.06
504.69	79.06
504.907	93.06
505.123	83.06
505.34	90.06
505.557	83.06
505.773	98.06
505.99	100.06
506.207	81.06
506.423	95.06
506.64	94.06
506.856	93.06
507.073	100.06
507.289	99.06
507.506	86.06
507.722	105.06
507.939	92.06
508.155	100.06
508.372	88.06
508.588	92.06
508.805	82.06
509.021	92.06
509.238	85.06
509.454	81.06
509.67	98.06
509.887	94.06
510.103	127.06
510.319	182.06
510.536	639.06
510.752	1997.06
510.968	571.06
511.184	146.06
511.401	106.06
511.617	93.06
511.833	96.06
512.049	96.06
512.265	92.06
512.481	116.06
512.698	92.06
512.914	104.06
513.13	93.06
513.346	99.06
513.562	98.06
513.778	101.06
513.994	96.06
514.21	76.06
514.426	117.06
514.642	125.06
514.858	112.06
515.074	148.06
515.29	383.06
515.506	1213.06
