Data from Uncirc_2006_H10_HRD10591_00045.txt Node
Date: Wed Jan 03 10:25:04 EST 2024
User: Yrep
Spectrometer: HR+D1059
Trigger mode: 1
Integration Time (sec): 1.000000E-1
Scans to average: 1
Electric dark correction enabled: true
Nonlinearity correction enabled: false
Boxcar width: 0
XAxis mode: Wavelengths
Number of Pixels in Spectrum: 2048
>>>>>Begin Spectral Data<<<<<
223.165	-15.31
223.4	-15.31
223.635	-15.31
223.869	-17.31
224.104	-20.31
224.338	-19.31
224.573	-14.31
224.808	3.69
225.042	-26.31
225.277	0.69
225.511	-0.31
225.746	1.69
225.98	6.69
226.215	16.69
226.449	8.69
226.683	23.69
226.918	23.69
227.152	27.69
227.387	31.69
227.621	19.69
227.856	58.69
228.09	58.69
228.324	64.69
228.559	60.69
228.793	52.69
229.027	75.69
229.262	74.69
229.496	70.69
229.73	91.69
229.964	103.69
230.199	75.69
230.433	75.69
230.667	76.69
230.901	66.69
231.136	67.69
231.37	84.69
231.604	72.69
231.838	76.69
232.072	86.69
232.306	83.69
232.541	74.69
232.775	76.69
233.009	84.69
233.243	86.69
233.477	82.69
233.711	88.69
233.945	90.69
234.179	80.69
234.413	89.69
234.647	87.69
234.881	87.69
235.115	74.69
235.349	61.69
235.583	78.69
235.817	77.69
236.051	84.69
236.285	84.69
236.519	86.69
236.753	71.69
236.987	78.69
237.221	76.69
237.455	88.69
237.689	81.69
237.922	76.69
238.156	70.69
238.39	64.69
238.624	87.69
238.858	68.69
239.091	60.69
239.325	78.69
239.559	83.69
239.793	64.69
240.027	85.69
240.26	82.69
240.494	85.69
240.728	80.69
240.961	83.69
241.195	83.69
241.429	79.69
241.662	78.69
241.896	72.69
242.13	97.69
242.363	90.69
242.597	83.69
242.83	93.69
243.064	83.69
243.298	81.69
243.531	81.69
243.765	82.69
243.998	86.69
244.232	84.69
244.465	85.69
244.699	53.69
244.932	74.69
245.166	71.69
245.399	86.69
245.633	87.69
245.866	68.69
246.099	72.69
246.333	81.69
246.566	71.69
246.8	91.69
247.033	90.69
247.266	86.69
247.5	74.69
247.733	86.69
247.966	74.69
248.2	84.69
248.433	81.69
248.666	84.69
248.899	84.69
249.133	92.69
249.366	99.69
249.599	92.69
249.832	79.69
250.066	85.69
250.299	94.69
250.532	76.69
250.765	78.69
250.998	65.69
251.231	73.69
251.465	68.69
251.698	80.69
251.931	96.69
252.164	84.69
252.397	71.69
252.63	81.69
252.863	87.69
253.096	94.69
253.329	92.69
253.562	83.69
253.795	89.69
254.028	91.69
254.261	74.69
254.494	78.69
254.727	82.69
254.96	81.69
255.193	96.69
255.426	81.69
255.659	78.69
255.892	81.69
256.124	75.69
256.357	70.69
256.59	88.69
256.823	95.69
257.056	80.69
257.289	74.69
257.521	87.69
257.754	73.69
257.987	66.69
258.22	89.69
258.452	79.69
258.685	81.69
258.918	85.69
259.151	87.69
259.383	80.69
259.616	74.69
259.849	78.69
260.081	98.69
260.314	83.69
260.547	86.69
260.779	96.69
261.012	81.69
261.244	90.69
261.477	91.69
261.71	88.69
261.942	126.69
262.175	106.69
262.407	99.69
262.64	86.69
262.872	82.69
263.105	82.69
263.337	77.69
263.57	101.69
263.802	81.69
264.035	85.69
264.267	88.69
264.499	91.69
264.732	81.69
264.964	75.69
265.197	81.69
265.429	83.69
265.661	91.69
265.894	90.69
266.126	83.69
266.358	95.69
266.591	77.69
266.823	88.69
267.055	86.69
267.287	84.69
267.52	82.69
267.752	84.69
267.984	79.69
268.216	84.69
268.448	88.69
268.681	89.69
268.913	93.69
269.145	91.69
269.377	75.69
269.609	77.69
269.841	95.69
270.073	97.69
270.306	80.69
270.538	76.69
270.77	95.69
271.002	82.69
271.234	80.69
271.466	83.69
271.698	89.69
271.93	84.69
272.162	88.69
272.394	96.69
272.626	90.69
272.858	81.69
273.09	92.69
273.322	85.69
273.553	87.69
273.785	87.69
274.017	75.69
274.249	94.69
274.481	91.69
274.713	84.69
274.945	96.69
275.176	83.69
275.408	93.69
275.64	87.69
275.872	98.69
276.104	93.69
276.335	85.69
276.567	86.69
276.799	105.69
277.031	100.69
277.262	96.69
277.494	94.69
277.726	92.69
277.957	86.69
278.189	99.69
278.421	95.69
278.652	78.69
278.884	85.69
279.115	101.69
279.347	92.69
279.579	79.69
279.81	80.69
280.042	77.69
280.273	83.69
280.505	86.69
280.736	101.69
280.968	79.69
281.199	81.69
281.431	78.69
281.662	83.69
281.894	92.69
282.125	96.69
282.356	110.69
282.588	136.69
282.819	114.69
283.051	82.69
283.282	94.69
283.513	94.69
283.745	84.69
283.976	72.69
284.207	98.69
284.439	90.69
284.67	94.69
284.901	81.69
285.132	90.69
285.364	90.69
285.595	86.69
285.826	100.69
286.057	93.69
286.288	99.69
286.52	88.69
286.751	91.69
286.982	74.69
287.213	79.69
287.444	94.69
287.675	82.69
287.906	81.69
288.138	108.69
288.369	95.69
288.6	98.69
288.831	74.69
289.062	86.69
289.293	97.69
289.524	83.69
289.755	96.69
289.986	80.69
290.217	100.69
290.448	97.69
290.679	81.69
290.91	83.69
291.141	97.69
291.371	84.69
291.602	88.69
291.833	82.69
292.064	94.69
292.295	82.69
292.526	94.69
292.757	84.69
292.987	100.69
293.218	79.69
293.449	92.69
293.68	91.69
293.91	86.69
294.141	95.69
294.372	97.69
294.603	92.69
294.833	99.69
295.064	91.69
295.295	74.69
295.525	95.69
295.756	101.69
295.987	115.69
296.217	131.69
296.448	122.69
296.679	98.69
296.909	88.69
297.14	77.69
297.37	92.69
297.601	80.69
297.831	82.69
298.062	96.69
298.292	82.69
298.523	87.69
298.753	105.69
298.984	95.69
299.214	92.69
299.445	86.69
299.675	95.69
299.905	106.69
300.136	82.69
300.366	97.69
300.597	85.69
300.827	105.69
301.057	100.69
301.288	99.69
301.518	93.69
301.748	99.69
301.979	75.69
302.209	99.69
302.439	87.69
302.669	108.69
302.9	94.69
303.13	94.69
303.36	95.69
303.59	93.69
303.82	107.69
304.051	96.69
304.281	106.69
304.511	108.69
304.741	96.69
304.971	86.69
305.201	103.69
305.431	82.69
305.661	92.69
305.891	92.69
306.121	88.69
306.352	100.69
306.582	104.69
306.812	90.69
307.042	86.69
307.272	84.69
307.502	103.69
307.731	87.69
307.961	85.69
308.191	95.69
308.421	93.69
308.651	100.69
308.881	88.69
309.111	94.69
309.341	87.69
309.571	105.69
309.8	86.69
310.03	94.69
310.26	102.69
310.49	97.69
310.72	97.69
310.949	93.69
311.179	97.69
311.409	103.69
311.639	99.69
311.868	108.69
312.098	88.69
312.328	107.69
312.557	89.69
312.787	103.69
313.017	113.69
313.246	82.69
313.476	85.69
313.706	95.69
313.935	95.69
314.165	99.69
314.394	102.69
314.624	96.69
314.853	83.69
315.083	96.69
315.312	86.69
315.542	102.69
315.771	96.69
316.001	85.69
316.23	93.69
316.46	101.69
316.689	82.69
316.919	86.69
317.148	80.69
317.377	102.69
317.607	99.69
317.836	102.69
318.065	98.69
318.295	92.69
318.524	93.69
318.753	107.69
318.983	92.69
319.212	100.69
319.441	105.69
319.67	96.69
319.9	98.69
320.129	90.69
320.358	99.69
320.587	97.69
320.816	100.69
321.046	111.69
321.275	102.69
321.504	100.69
321.733	92.69
321.962	108.69
322.191	99.69
322.42	105.69
322.649	101.69
322.878	95.69
323.108	99.69
323.337	114.69
323.566	145.69
323.795	142.69
324.024	215.69
324.253	424.69
324.482	881.69
324.71	1830.69
324.939	2313.69
325.168	850.69
325.397	250.69
325.626	147.69
325.855	122.69
326.084	126.69
326.313	136.69
326.542	160.69
326.77	236.69
326.999	517.69
327.228	1010.69
327.457	1838.69
327.686	1447.69
327.914	373.69
328.143	190.69
328.372	143.69
328.6	132.69
328.829	112.69
329.058	122.69
329.287	114.69
329.515	116.69
329.744	98.69
329.972	89.69
330.201	105.69
330.43	123.69
330.658	114.69
330.887	126.69
331.115	125.69
331.344	113.69
331.572	99.69
331.801	109.69
332.03	101.69
332.258	109.69
332.486	98.69
332.715	92.69
332.943	99.69
333.172	103.69
333.4	102.69
333.629	99.69
333.857	113.69
334.085	95.69
334.314	87.69
334.542	101.69
334.771	111.69
334.999	95.69
335.227	97.69
335.455	76.69
335.684	99.69
335.912	96.69
336.14	92.69
336.369	98.69
336.597	97.69
336.825	93.69
337.053	88.69
337.281	87.69
337.51	86.69
337.738	85.69
337.966	88.69
338.194	88.69
338.422	94.69
338.65	95.69
338.878	93.69
339.106	85.69
339.334	94.69
339.562	99.69
339.79	96.69
340.018	100.69
340.246	93.69
340.474	100.69
340.702	102.69
340.93	90.69
341.158	88.69
341.386	96.69
341.614	107.69
341.842	104.69
342.07	101.69
342.298	99.69
342.526	79.69
342.754	93.69
342.981	103.69
343.209	84.69
343.437	101.69
343.665	93.69
343.893	94.69
344.12	95.69
344.348	91.69
344.576	100.69
344.804	107.69
345.031	98.69
345.259	97.69
345.487	89.69
345.714	85.69
345.942	95.69
346.17	78.69
346.397	92.69
346.625	93.69
346.853	88.69
347.08	102.69
347.308	94.69
347.535	85.69
347.763	102.69
347.99	96.69
348.218	98.69
348.445	99.69
348.673	98.69
348.9	97.69
349.128	97.69
349.355	86.69
349.583	89.69
349.81	94.69
350.037	98.69
350.265	96.69
350.492	80.69
350.72	97.69
350.947	88.69
351.174	118.69
351.402	104.69
351.629	93.69
351.856	107.69
352.083	111.69
352.311	91.69
352.538	100.69
352.765	102.69
352.992	104.69
353.22	99.69
353.447	96.69
353.674	100.69
353.901	98.69
354.128	116.69
354.355	101.69
354.583	112.69
354.81	102.69
355.037	97.69
355.264	98.69
355.491	85.69
355.718	99.69
355.945	95.69
356.172	91.69
356.399	108.69
356.626	95.69
356.853	89.69
357.08	106.69
357.307	97.69
357.534	92.69
357.761	87.69
357.988	95.69
358.215	93.69
358.441	100.69
358.668	108.69
358.895	102.69
359.122	91.69
359.349	98.69
359.576	82.69
359.802	103.69
360.029	108.69
360.256	117.69
360.483	97.69
360.709	84.69
360.936	90.69
361.163	97.69
361.39	99.69
361.616	84.69
361.843	101.69
362.07	99.69
362.296	99.69
362.523	88.69
362.749	82.69
362.976	88.69
363.203	106.69
363.429	80.69
363.656	92.69
363.882	92.69
364.109	88.69
364.335	80.69
364.562	88.69
364.788	94.69
365.015	92.69
365.241	103.69
365.468	95.69
365.694	117.69
365.92	84.69
366.147	97.69
366.373	91.69
366.599	84.69
366.826	102.69
367.052	87.69
367.278	88.69
367.505	91.69
367.731	98.69
367.957	83.69
368.184	102.69
368.41	93.69
368.636	106.69
368.862	110.69
369.089	112.69
369.315	95.69
369.541	102.69
369.767	84.69
369.993	104.69
370.219	92.69
370.445	91.69
370.672	87.69
370.898	75.69
371.124	86.69
371.35	92.69
371.576	90.69
371.802	86.69
372.028	92.69
372.254	101.69
372.48	83.69
372.706	96.69
372.932	95.69
373.158	87.69
373.384	76.69
373.61	83.69
373.835	80.69
374.061	87.69
374.287	79.69
374.513	100.69
374.739	82.69
374.965	104.69
375.191	72.69
375.416	94.69
375.642	94.69
375.868	94.69
376.094	96.69
376.319	94.69
376.545	89.69
376.771	93.69
376.997	98.69
377.222	95.69
377.448	103.69
377.674	85.69
377.899	86.69
378.125	91.69
378.35	95.69
378.576	103.69
378.802	93.69
379.027	93.69
379.253	86.69
379.478	84.69
379.704	83.69
379.929	99.69
380.155	92.69
380.38	95.69
380.606	99.69
380.831	95.69
381.057	107.69
381.282	75.69
381.507	88.69
381.733	103.69
381.958	100.69
382.184	100.69
382.409	89.69
382.634	100.69
382.86	105.69
383.085	91.69
383.31	101.69
383.535	113.69
383.761	104.69
383.986	105.69
384.211	96.69
384.436	101.69
384.662	112.69
384.887	101.69
385.112	108.69
385.337	99.69
385.562	102.69
385.787	107.69
386.013	122.69
386.238	105.69
386.463	103.69
386.688	109.69
386.913	114.69
387.138	116.69
387.363	93.69
387.588	109.69
387.813	101.69
388.038	104.69
388.263	111.69
388.488	112.69
388.713	94.69
388.938	119.69
389.163	107.69
389.387	103.69
389.612	87.69
389.837	80.69
390.062	101.69
390.287	84.69
390.512	88.69
390.736	102.69
390.961	113.69
391.186	91.69
391.411	106.69
391.636	101.69
391.86	87.69
392.085	86.69
392.31	86.69
392.534	86.69
392.759	82.69
392.984	94.69
393.208	90.69
393.433	103.69
393.658	89.69
393.882	76.69
394.107	83.69
394.331	85.69
394.556	91.69
394.78	86.69
395.005	72.69
395.229	84.69
395.454	86.69
395.678	82.69
395.903	74.69
396.127	80.69
396.352	84.69
396.576	92.69
396.801	75.69
397.025	86.69
397.249	88.69
397.474	94.69
397.698	83.69
397.922	92.69
398.147	94.69
398.371	109.69
398.595	94.69
398.82	84.69
399.044	82.69
399.268	79.69
399.492	83.69
399.717	94.69
399.941	86.69
400.165	102.69
400.389	92.69
400.613	86.69
400.837	108.69
401.062	86.69
401.286	83.69
401.51	71.69
401.734	92.69
401.958	100.69
402.182	129.69
402.406	151.69
402.63	120.69
402.854	87.69
403.078	86.69
403.302	110.69
403.526	84.69
403.75	86.69
403.974	78.69
404.198	92.69
404.422	90.69
404.645	105.69
404.869	84.69
405.093	91.69
405.317	103.69
405.541	105.69
405.765	99.69
405.988	103.69
406.212	174.69
406.436	225.69
406.66	152.69
406.883	110.69
407.107	100.69
407.331	104.69
407.555	80.69
407.778	98.69
408.002	106.69
408.226	95.69
408.449	93.69
408.673	96.69
408.896	100.69
409.12	107.69
409.344	101.69
409.567	90.69
409.791	88.69
410.014	108.69
410.238	91.69
410.461	84.69
410.685	98.69
410.908	99.69
411.132	90.69
411.355	92.69
411.578	98.69
411.802	84.69
412.025	85.69
412.249	98.69
412.472	85.69
412.695	105.69
412.919	93.69
413.142	92.69
413.365	74.69
413.589	94.69
413.812	91.69
414.035	93.69
414.258	87.69
414.482	83.69
414.705	83.69
414.928	89.69
415.151	95.69
415.374	90.69
415.597	90.69
415.821	82.69
416.044	89.69
416.267	87.69
416.49	96.69
416.713	98.69
416.936	81.69
417.159	95.69
417.382	92.69
417.605	95.69
417.828	85.69
418.051	93.69
418.274	89.69
418.497	88.69
418.72	73.69
418.943	84.69
419.166	84.69
419.389	91.69
419.611	80.69
419.834	90.69
420.057	89.69
420.28	88.69
420.503	83.69
420.726	84.69
420.948	85.69
421.171	92.69
421.394	82.69
421.617	86.69
421.839	79.69
422.062	88.69
422.285	84.69
422.507	101.69
422.73	96.69
422.953	79.69
423.175	92.69
423.398	86.69
423.621	76.69
423.843	92.69
424.066	76.69
424.288	97.69
424.511	86.69
424.733	89.69
424.956	107.69
425.178	94.69
425.401	105.69
425.623	99.69
425.846	91.69
426.068	94.69
426.291	96.69
426.513	97.69
426.735	99.69
426.958	75.69
427.18	96.69
427.402	124.69
427.625	154.69
427.847	136.69
428.069	99.69
428.292	73.69
428.514	79.69
428.736	83.69
428.958	82.69
429.181	80.69
429.403	91.69
429.625	99.69
429.847	96.69
430.069	106.69
430.292	82.69
430.514	95.69
430.736	85.69
430.958	93.69
431.18	82.69
431.402	83.69
431.624	74.69
431.846	91.69
432.068	88.69
432.29	82.69
432.512	83.69
432.734	89.69
432.956	97.69
433.178	89.69
433.4	98.69
433.622	82.69
433.844	91.69
434.066	94.69
434.287	101.69
434.509	94.69
434.731	84.69
434.953	93.69
435.175	83.69
435.397	83.69
435.618	87.69
435.84	107.69
436.062	124.69
436.284	113.69
436.505	91.69
436.727	104.69
436.949	93.69
437.17	97.69
437.392	81.69
437.614	77.69
437.835	91.69
438.057	111.69
438.278	102.69
438.5	96.69
438.721	128.69
438.943	103.69
439.165	91.69
439.386	85.69
439.608	84.69
439.829	98.69
440.05	105.69
440.272	137.69
440.493	108.69
440.715	88.69
440.936	87.69
441.158	96.69
441.379	83.69
441.6	107.69
441.822	92.69
442.043	102.69
442.264	103.69
442.486	103.69
442.707	91.69
442.928	112.69
443.149	136.69
443.371	113.69
443.592	104.69
443.813	94.69
444.034	105.69
444.255	89.69
444.476	93.69
444.698	92.69
444.919	96.69
445.14	133.69
445.361	122.69
445.582	124.69
445.803	144.69
446.024	131.69
446.245	123.69
446.466	111.69
446.687	88.69
446.908	94.69
447.129	96.69
447.35	92.69
447.571	88.69
447.792	85.69
448.013	95.69
448.234	109.69
448.455	125.69
448.675	111.69
448.896	112.69
449.117	112.69
449.338	91.69
449.559	138.69
449.779	158.69
450	101.69
450.221	105.69
450.442	99.69
450.662	102.69
450.883	105.69
451.104	92.69
451.324	93.69
451.545	83.69
451.766	85.69
451.986	109.69
452.207	85.69
452.428	101.69
452.648	92.69
452.869	97.69
453.089	126.69
453.31	125.69
453.53	95.69
453.751	87.69
453.971	99.69
454.192	106.69
454.412	100.69
454.633	109.69
454.853	85.69
455.073	82.69
455.294	89.69
455.514	93.69
455.734	86.69
455.955	95.69
456.175	76.69
456.395	95.69
456.616	85.69
456.836	84.69
457.056	88.69
457.276	79.69
457.497	94.69
457.717	89.69
457.937	83.69
458.157	76.69
458.377	110.69
458.598	109.69
458.818	146.69
459.038	133.69
459.258	114.69
459.478	88.69
459.698	91.69
459.918	97.69
460.138	94.69
460.358	87.69
460.578	90.69
460.798	79.69
461.018	85.69
461.238	88.69
461.458	85.69
461.678	74.69
461.898	84.69
462.118	87.69
462.338	90.69
462.558	91.69
462.777	89.69
462.997	82.69
463.217	98.69
463.437	87.69
463.657	83.69
463.876	90.69
464.096	88.69
464.316	86.69
464.536	90.69
464.755	91.69
464.975	112.69
465.195	156.69
465.414	156.69
465.634	110.69
465.854	88.69
466.073	92.69
466.293	90.69
466.512	99.69
466.732	95.69
466.951	106.69
467.171	86.69
467.391	100.69
467.61	100.69
467.829	105.69
468.049	104.69
468.268	96.69
468.488	87.69
468.707	94.69
468.927	88.69
469.146	87.69
469.365	83.69
469.585	90.69
469.804	101.69
470.023	87.69
470.243	88.69
470.462	105.69
470.681	106.69
470.901	78.69
471.12	83.69
471.339	94.69
471.558	90.69
471.777	77.69
471.997	87.69
472.216	85.69
472.435	76.69
472.654	92.69
472.873	76.69
473.092	87.69
473.311	89.69
473.53	82.69
473.749	86.69
473.968	79.69
474.187	89.69
474.406	103.69
474.625	96.69
474.844	88.69
475.063	109.69
475.282	88.69
475.501	90.69
475.72	96.69
475.939	88.69
476.158	88.69
476.377	83.69
476.596	94.69
476.814	95.69
477.033	87.69
477.252	92.69
477.471	92.69
477.69	97.69
477.908	94.69
478.127	89.69
478.346	99.69
478.564	97.69
478.783	102.69
479.002	99.69
479.22	87.69
479.439	103.69
479.658	108.69
479.876	100.69
480.095	91.69
480.313	105.69
480.532	100.69
480.751	93.69
480.969	103.69
481.188	102.69
481.406	99.69
481.624	89.69
481.843	85.69
482.061	99.69
482.28	90.69
482.498	91.69
482.717	96.69
482.935	92.69
483.153	88.69
483.372	96.69
483.59	76.69
483.808	89.69
484.027	94.69
484.245	92.69
484.463	102.69
484.681	94.69
484.9	96.69
485.118	100.69
485.336	84.69
485.554	98.69
485.772	104.69
485.99	115.69
486.209	119.69
486.427	98.69
486.645	106.69
486.863	91.69
487.081	92.69
487.299	87.69
487.517	100.69
487.735	91.69
487.953	96.69
488.171	101.69
488.389	101.69
488.607	89.69
488.825	100.69
489.043	105.69
489.261	93.69
489.479	96.69
489.696	77.69
489.914	102.69
490.132	87.69
490.35	99.69
490.568	100.69
490.786	102.69
491.003	86.69
491.221	96.69
491.439	85.69
491.657	88.69
491.874	100.69
492.092	94.69
492.31	92.69
492.527	87.69
492.745	80.69
492.963	78.69
493.18	92.69
493.398	75.69
493.615	110.69
493.833	93.69
494.05	90.69
494.268	82.69
494.485	87.69
494.703	90.69
494.92	79.69
495.138	95.69
495.355	103.69
495.573	106.69
495.79	90.69
496.008	100.69
496.225	100.69
496.442	97.69
496.66	103.69
496.877	98.69
497.094	92.69
497.312	90.69
497.529	93.69
497.746	96.69
497.963	92.69
498.181	88.69
498.398	86.69
498.615	114.69
498.832	107.69
499.049	104.69
499.267	97.69
499.484	90.69
499.701	107.69
499.918	85.69
500.135	81.69
500.352	88.69
500.569	99.69
500.786	93.69
501.003	105.69
501.22	108.69
501.437	86.69
501.654	94.69
501.871	113.69
502.088	93.69
502.305	85.69
502.522	96.69
502.739	98.69
502.956	99.69
503.172	95.69
503.389	92.69
503.606	91.69
503.823	108.69
504.04	92.69
504.256	106.69
504.473	99.69
504.69	76.69
504.907	91.69
505.123	95.69
505.34	94.69
505.557	81.69
505.773	79.69
505.99	100.69
506.207	71.69
506.423	81.69
506.64	103.69
506.856	95.69
507.073	88.69
507.289	107.69
507.506	99.69
507.722	113.69
507.939	113.69
508.155	94.69
508.372	98.69
508.588	85.69
508.805	105.69
509.021	91.69
509.238	94.69
509.454	99.69
509.67	103.69
509.887	111.69
510.103	122.69
510.319	215.69
510.536	770.69
510.752	2368.69
510.968	647.69
511.184	164.69
511.401	108.69
511.617	92.69
511.833	91.69
512.049	88.69
512.265	94.69
512.481	91.69
512.698	102.69
512.914	94.69
513.13	103.69
513.346	94.69
513.562	93.69
513.778	104.69
513.994	96.69
514.21	102.69
514.426	125.69
514.642	127.69
514.858	111.69
515.074	161.69
515.29	444.69
