Data from Uncirc_2006_H10_HRD10591_00062.txt Node
Date: Wed Jan 03 10:25:07 EST 2024
User: Yrep
Spectrometer: HR+D1059
Trigger mode: 1
Integration Time (sec): 1.000000E-1
Scans to average: 1
Electric dark correction enabled: true
Nonlinearity correction enabled: false
Boxcar width: 0
XAxis mode: Wavelengths
Number of Pixels in Spectrum: 2048
>>>>>Begin Spectral Data<<<<<
223.165	-17.69
223.4	-17.69
223.635	-17.69
223.869	-17.69
224.104	-18.69
224.338	-21.69
224.573	-14.69
224.808	2.31
225.042	-14.69
225.277	-9.69
225.511	0.31
225.746	1.31
225.98	6.31
226.215	7.31
226.449	18.31
226.683	19.31
226.918	26.31
227.152	33.31
227.387	10.31
227.621	47.31
227.856	63.31
228.09	50.31
228.324	44.31
228.559	59.31
228.793	164.31
229.027	389.31
229.262	482.31
229.496	578.31
229.73	757.31
229.964	776.31
230.199	528.31
230.433	473.31
230.667	464.31
230.901	408.31
231.136	434.31
231.37	444.31
231.604	442.31
231.838	409.31
232.072	424.31
232.306	451.31
232.541	447.31
232.775	447.31
233.009	463.31
233.243	459.31
233.477	457.31
233.711	463.31
233.945	480.31
234.179	508.31
234.413	489.31
234.647	470.31
234.881	490.31
235.115	513.31
235.349	524.31
235.583	541.31
235.817	572.31
236.051	595.31
236.285	571.31
236.519	600.31
236.753	667.31
236.987	881.31
237.221	1353.31
237.455	1457.31
237.689	853.31
237.922	710.31
238.156	688.31
238.39	658.31
238.624	611.31
238.858	610.31
239.091	618.31
239.325	617.31
239.559	640.31
239.793	657.31
240.027	736.31
240.26	846.31
240.494	947.31
240.728	915.31
240.961	866.31
241.195	804.31
241.429	737.31
241.662	715.31
241.896	732.31
242.13	731.31
242.363	745.31
242.597	766.31
242.83	766.31
243.064	794.31
243.298	785.31
243.531	789.31
243.765	788.31
243.998	808.31
244.232	819.31
244.465	824.31
244.699	864.31
244.932	865.31
245.166	832.31
245.399	848.31
245.633	859.31
245.866	867.31
246.099	866.31
246.333	885.31
246.566	937.31
246.8	936.31
247.033	979.31
247.266	1003.31
247.5	1046.31
247.733	1121.31
247.966	1089.31
248.2	1116.31
248.433	1097.31
248.666	1133.31
248.899	1260.31
249.133	1395.31
249.366	1340.31
249.599	1268.31
249.832	1164.31
250.066	1156.31
250.299	1182.31
250.532	1284.31
250.765	1456.31
250.998	1610.31
251.231	1536.31
251.465	1385.31
251.698	1324.31
251.931	1317.31
252.164	1347.31
252.397	1361.31
252.63	1388.31
252.863	1480.31
253.096	1594.31
253.329	1623.31
253.562	1616.31
253.795	1493.31
254.028	1478.31
254.261	1542.31
254.494	1738.31
254.727	2061.31
254.96	2165.31
255.193	1864.31
255.426	1653.31
255.659	1571.31
255.892	1507.31
256.124	1452.31
256.357	1469.31
256.59	1430.31
256.823	1431.31
257.056	1432.31
257.289	1449.31
257.521	1456.31
257.754	1472.31
257.987	1481.31
258.22	1460.31
258.452	1468.31
258.685	1494.31
258.918	1506.31
259.151	1551.31
259.383	1616.31
259.616	1627.31
259.849	1687.31
260.081	1856.31
260.314	2008.31
260.547	1972.31
260.779	1792.31
261.012	1699.31
261.244	1633.31
261.477	1575.31
261.71	1600.31
261.942	1640.31
262.175	1648.31
262.407	1648.31
262.64	1629.31
262.872	1604.31
263.105	1558.31
263.337	1554.31
263.57	1577.31
263.802	1606.31
264.035	1564.31
264.267	1604.31
264.499	1633.31
264.732	1615.31
264.964	1593.31
265.197	1610.31
265.429	1637.31
265.661	1640.31
265.894	1649.31
266.126	1670.31
266.358	1679.31
266.591	1739.31
266.823	1796.31
267.055	1812.31
267.287	1794.31
267.52	1754.31
267.752	1780.31
267.984	1786.31
268.216	1820.31
268.448	1825.31
268.681	1883.31
268.913	2056.31
269.145	2232.31
269.377	2281.31
269.609	2206.31
269.841	2161.31
270.073	2278.31
270.306	2576.31
270.538	2724.31
270.77	2555.31
271.002	2414.31
271.234	2332.31
271.466	2504.31
271.698	2664.31
271.93	2674.31
272.162	2653.31
272.394	2549.31
272.626	2432.31
272.858	2324.31
273.09	2172.31
273.322	2170.31
273.553	2148.31
273.785	2136.31
274.017	2123.31
274.249	2208.31
274.481	2156.31
274.713	2154.31
274.945	2208.31
275.176	2195.31
275.408	2162.31
275.64	2174.31
275.872	2189.31
276.104	2182.31
276.335	2224.31
276.567	2307.31
276.799	2412.31
277.031	2684.31
277.262	2798.31
277.494	2678.31
277.726	2509.31
277.957	2385.31
278.189	2345.31
278.421	2277.31
278.652	2284.31
278.884	2222.31
279.115	2230.31
279.347	2272.31
279.579	2206.31
279.81	2250.31
280.042	2310.31
280.273	2269.31
280.505	2314.31
280.736	2301.31
280.968	2303.31
281.199	2335.31
281.431	2349.31
281.662	2332.31
281.894	2387.31
282.125	2393.31
282.356	2592.31
282.588	2696.31
282.819	2552.31
283.051	2464.31
283.282	2473.31
283.513	2480.31
283.745	2523.31
283.976	2545.31
284.207	2550.31
284.439	2501.31
284.67	2557.31
284.901	2543.31
285.132	2501.31
285.364	2535.31
285.595	2545.31
285.826	2575.31
286.057	2571.31
286.288	2535.31
286.52	2603.31
286.751	2588.31
286.982	2652.31
287.213	2648.31
287.444	2702.31
287.675	2724.31
287.906	2801.31
288.138	2826.31
288.369	2834.31
288.6	2856.31
288.831	2734.31
289.062	2702.31
289.293	2718.31
289.524	2708.31
289.755	2691.31
289.986	2727.31
290.217	2680.31
290.448	2701.31
290.679	2742.31
290.91	2717.31
291.141	2704.31
291.371	2704.31
291.602	2766.31
291.833	2722.31
292.064	2694.31
292.295	2737.31
292.526	2794.31
292.757	2699.31
292.987	2750.31
293.218	2739.31
293.449	2790.31
293.68	2746.31
293.91	2748.31
294.141	2746.31
294.372	2764.31
294.603	2773.31
294.833	2795.31
295.064	2760.31
295.295	2753.31
295.525	2819.31
295.756	2863.31
295.987	2896.31
296.217	3056.31
296.448	2984.31
296.679	2838.31
296.909	2819.31
297.14	2848.31
297.37	2937.31
297.601	2903.31
297.831	2927.31
298.062	2971.31
298.292	2953.31
298.523	3028.31
298.753	3062.31
298.984	2981.31
299.214	2963.31
299.445	3025.31
299.675	2955.31
299.905	3078.31
300.136	3045.31
300.366	3033.31
300.597	3121.31
300.827	3178.31
301.057	3218.31
301.288	3237.31
301.518	3245.31
301.748	3253.31
301.979	3285.31
302.209	3253.31
302.439	3235.31
302.669	3261.31
302.9	3163.31
303.13	3232.31
303.36	3218.31
303.59	3260.31
303.82	3321.31
304.051	3209.31
304.281	3238.31
304.511	3178.31
304.741	3180.31
304.971	3152.31
305.201	3149.31
305.431	3164.31
305.661	3211.31
305.891	3153.31
306.121	3177.31
306.352	3204.31
306.582	3186.31
306.812	3109.31
307.042	3133.31
307.272	3183.31
307.502	3129.31
307.731	3189.31
307.961	3171.31
308.191	3155.31
308.421	3155.31
308.651	3253.31
308.881	3214.31
309.111	3261.31
309.341	3263.31
309.571	3314.31
309.8	3362.31
310.03	3474.31
310.26	3422.31
310.49	3439.31
310.72	3569.31
310.949	3669.31
311.179	3626.31
311.409	3483.31
311.639	3529.31
311.868	3500.31
312.098	3564.31
312.328	3657.31
312.557	3837.31
312.787	3818.31
313.017	3716.31
313.246	3682.31
313.476	3588.31
313.706	3607.31
313.935	3685.31
314.165	3827.31
314.394	3852.31
314.624	3756.31
314.853	3674.31
315.083	3712.31
315.312	3612.31
315.542	3564.31
315.771	3629.31
316.001	3546.31
316.23	3579.31
316.46	3613.31
316.689	3585.31
316.919	3594.31
317.148	3660.31
317.377	3671.31
317.607	3642.31
317.836	3667.31
318.065	3554.31
318.295	3549.31
318.524	3594.31
318.753	3549.31
318.983	3534.31
319.212	3609.31
319.441	3562.31
319.67	3603.31
319.9	3573.31
320.129	3603.31
320.358	3582.31
320.587	3643.31
320.816	3697.31
321.046	3710.31
321.275	3659.31
321.504	3742.31
321.733	3720.31
321.962	3778.31
322.191	3844.31
322.42	3957.31
322.649	4064.31
322.878	4076.31
323.108	4182.31
323.337	4323.31
323.566	4530.31
323.795	4781.31
324.024	5287.31
324.253	6897.31
324.482	10240.31
324.71	14714.31
324.939	15606.31
325.168	12156.31
325.397	6352.31
325.626	5029.31
325.855	4630.31
326.084	4579.31
326.313	4608.31
326.542	4765.31
326.77	5348.31
326.999	6664.31
327.228	9660.31
327.457	13816.31
327.686	13033.31
327.914	7025.31
328.143	5562.31
328.372	5156.31
328.6	5010.31
328.829	4938.31
329.058	5092.31
329.287	5093.31
329.515	4801.31
329.744	4586.31
329.972	4579.31
330.201	4611.31
330.43	4865.31
330.658	5209.31
330.887	5463.31
331.115	5072.31
331.344	4801.31
331.572	4775.31
331.801	4820.31
332.03	4800.31
332.258	4745.31
332.486	4847.31
332.715	4881.31
332.943	5048.31
333.172	5223.31
333.4	5293.31
333.629	5318.31
333.857	5458.31
334.085	5344.31
334.314	5196.31
334.542	5170.31
334.771	5216.31
334.999	5093.31
335.227	5048.31
335.455	4978.31
335.684	4955.31
335.912	4881.31
336.14	4767.31
336.369	4752.31
336.597	4826.31
336.825	4762.31
337.053	4747.31
337.281	4678.31
337.51	4626.31
337.738	4576.31
337.966	4600.31
338.194	4616.31
338.422	4461.31
338.65	4369.31
338.878	4424.31
339.106	4366.31
339.334	4430.31
339.562	4253.31
339.79	4304.31
340.018	4244.31
340.246	4269.31
340.474	4271.31
340.702	4334.31
340.93	4211.31
341.158	4202.31
341.386	4287.31
341.614	4273.31
341.842	4184.31
342.07	4238.31
342.298	4174.31
342.526	4136.31
342.754	4143.31
342.981	4181.31
343.209	4295.31
343.437	4476.31
343.665	4794.31
343.893	5046.31
344.12	5033.31
344.348	4849.31
344.576	4644.31
344.804	4564.31
345.031	4518.31
345.259	4520.31
345.487	4402.31
345.714	4202.31
345.942	4142.31
346.17	4092.31
346.397	4085.31
346.625	4094.31
346.853	4049.31
347.08	4038.31
347.308	4082.31
347.535	4095.31
347.763	4244.31
347.99	4125.31
348.218	4179.31
348.445	4220.31
348.673	4137.31
348.9	4047.31
349.128	4012.31
349.355	3953.31
349.583	3999.31
349.81	3937.31
350.037	3918.31
350.265	3921.31
350.492	3912.31
350.72	3992.31
350.947	4053.31
351.174	4069.31
351.402	4044.31
351.629	4054.31
351.856	4072.31
352.083	4101.31
352.311	4114.31
352.538	4070.31
352.765	4113.31
352.992	3968.31
353.22	3990.31
353.447	3891.31
353.674	3937.31
353.901	3875.31
354.128	3886.31
354.355	3845.31
354.583	3884.31
354.81	3881.31
355.037	3860.31
355.264	3802.31
355.491	3816.31
355.718	3818.31
355.945	3836.31
356.172	3835.31
356.399	3865.31
356.626	3851.31
356.853	3876.31
357.08	3818.31
357.307	3866.31
357.534	3868.31
357.761	3885.31
357.988	3872.31
358.215	3870.31
358.441	3880.31
358.668	3883.31
358.895	3952.31
359.122	3917.31
359.349	4066.31
359.576	4090.31
359.802	4294.31
360.029	4398.31
360.256	4421.31
360.483	4232.31
360.709	4101.31
360.936	4077.31
361.163	4059.31
361.39	4037.31
361.616	4103.31
361.843	4070.31
362.07	4060.31
362.296	4093.31
362.523	4036.31
362.749	4078.31
362.976	3947.31
363.203	3943.31
363.429	3896.31
363.656	4037.31
363.882	3916.31
364.109	3931.31
364.335	3894.31
364.562	3908.31
364.788	3929.31
365.015	3926.31
365.241	4005.31
365.468	3866.31
365.694	3977.31
365.92	4052.31
366.147	3883.31
366.373	3922.31
366.599	3957.31
366.826	3864.31
367.052	3859.31
367.278	3931.31
367.505	3874.31
367.731	3955.31
367.957	3929.31
368.184	3957.31
368.41	4057.31
368.636	4120.31
368.862	4083.31
369.089	4002.31
369.315	4004.31
369.541	4041.31
369.767	4029.31
369.993	4053.31
370.219	4057.31
370.445	4067.31
370.672	4147.31
370.898	4099.31
371.124	4148.31
371.35	4194.31
371.576	4112.31
371.802	4179.31
372.028	4170.31
372.254	4168.31
372.48	4268.31
372.706	4318.31
372.932	4325.31
373.158	4253.31
373.384	4234.31
373.61	4160.31
373.835	4273.31
374.061	4264.31
374.287	4293.31
374.513	4382.31
374.739	4512.31
374.965	4624.31
375.191	4672.31
375.416	4475.31
375.642	4399.31
375.868	4340.31
376.094	4285.31
376.319	4251.31
376.545	4237.31
376.771	4326.31
376.997	4185.31
377.222	4218.31
377.448	4217.31
377.674	4177.31
377.899	4167.31
378.125	4131.31
378.35	4149.31
378.576	4126.31
378.802	4182.31
379.027	4196.31
379.253	4165.31
379.478	4098.31
379.704	4144.31
379.929	4184.31
380.155	4219.31
380.38	4129.31
380.606	4213.31
380.831	4297.31
381.057	4281.31
381.282	4217.31
381.507	4252.31
381.733	4360.31
381.958	4328.31
382.184	4302.31
382.409	4424.31
382.634	4411.31
382.86	4411.31
383.085	4515.31
383.31	4630.31
383.535	4690.31
383.761	4739.31
383.986	4743.31
384.211	4874.31
384.436	4890.31
384.662	4976.31
384.887	5085.31
385.112	5022.31
385.337	5040.31
385.562	5045.31
385.787	5159.31
386.013	5188.31
386.238	5158.31
386.463	5084.31
386.688	5156.31
386.913	5068.31
387.138	5060.31
387.363	5060.31
387.588	4931.31
387.813	5030.31
388.038	5031.31
388.263	5069.31
388.488	5107.31
388.713	5017.31
388.938	4989.31
389.163	4990.31
389.387	5063.31
389.612	4979.31
389.837	4990.31
390.062	4944.31
390.287	4987.31
390.512	5006.31
390.736	5164.31
390.961	5101.31
391.186	5255.31
391.411	5359.31
391.636	5502.31
391.86	5620.31
392.085	5757.31
392.31	5586.31
392.534	5432.31
392.759	5364.31
392.984	5239.31
393.208	5271.31
393.433	5231.31
393.658	5203.31
393.882	5263.31
394.107	5219.31
394.331	5263.31
394.556	5304.31
394.78	5392.31
395.005	5398.31
395.229	5391.31
395.454	5593.31
395.678	5694.31
395.903	5688.31
396.127	5754.31
396.352	5559.31
396.576	5410.31
396.801	5364.31
397.025	5404.31
397.249	5521.31
397.474	5710.31
397.698	5643.31
397.922	5779.31
398.147	5896.31
398.371	6033.31
398.595	6086.31
398.82	6413.31
399.044	7016.31
399.268	7709.31
399.492	8955.31
399.717	9477.31
399.941	9266.31
400.165	8515.31
400.389	7878.31
400.613	7068.31
400.837	6649.31
401.062	6524.31
401.286	6360.31
401.51	6413.31
401.734	6268.31
401.958	6498.31
402.182	6590.31
402.406	6702.31
402.63	6786.31
402.854	6836.31
403.078	6919.31
403.302	7096.31
403.526	7189.31
403.75	7147.31
403.974	7283.31
404.198	7151.31
404.422	7332.31
404.645	7200.31
404.869	7163.31
405.093	7302.31
405.317	7332.31
405.541	7358.31
405.765	7121.31
405.988	7006.31
406.212	7175.31
406.436	7393.31
406.66	7544.31
406.883	7550.31
407.107	8147.31
407.331	8638.31
407.555	9146.31
407.778	8884.31
408.002	8156.31
408.226	7692.31
408.449	7620.31
408.673	7498.31
408.896	7612.31
409.12	7716.31
409.344	7419.31
409.567	6986.31
409.791	6993.31
410.014	6872.31
410.238	6803.31
410.461	6953.31
410.685	6963.31
410.908	7069.31
411.132	7224.31
411.355	7194.31
411.578	6882.31
411.802	6592.31
412.025	6530.31
412.249	6634.31
412.472	6622.31
412.695	6314.31
412.919	6252.31
413.142	6285.31
413.365	6217.31
413.589	6317.31
413.812	6178.31
414.035	6077.31
414.258	6189.31
414.482	6256.31
414.705	6276.31
414.928	6181.31
415.151	6292.31
415.374	6212.31
415.597	6168.31
415.821	6102.31
416.044	6100.31
416.267	6154.31
416.49	6114.31
416.713	6019.31
416.936	6107.31
417.159	6148.31
417.382	6245.31
417.605	6192.31
417.828	6382.31
418.051	6524.31
418.274	6337.31
418.497	6227.31
418.72	6376.31
418.943	6303.31
419.166	6677.31
419.389	7073.31
419.611	6965.31
419.834	6728.31
420.057	6582.31
420.28	6489.31
420.503	6215.31
420.726	6203.31
420.948	6394.31
421.171	6827.31
421.394	6827.31
421.617	6421.31
421.839	6421.31
422.062	6528.31
422.285	6583.31
422.507	7281.31
422.73	7748.31
422.953	7200.31
423.175	6857.31
423.398	6864.31
423.621	6859.31
423.843	7174.31
424.066	7107.31
424.288	6970.31
424.511	7256.31
424.733	7624.31
424.956	8065.31
425.178	7610.31
425.401	7734.31
425.623	7644.31
425.846	6689.31
426.068	6462.31
426.291	6418.31
426.513	6406.31
426.735	6652.31
426.958	7015.31
427.18	7728.31
427.402	8734.31
427.625	8756.31
427.847	7389.31
428.069	6562.31
428.292	6237.31
428.514	6007.31
428.736	5753.31
428.958	5786.31
429.181	5676.31
429.403	5692.31
429.625	5908.31
429.847	6294.31
430.069	6698.31
430.292	6267.31
430.514	5683.31
430.736	5636.31
430.958	5535.31
431.18	5524.31
431.402	5524.31
431.624	5550.31
431.846	5637.31
432.068	5565.31
432.29	5654.31
432.512	5607.31
432.734	5743.31
432.956	5646.31
433.178	5725.31
433.4	5635.31
433.622	5588.31
433.844	5674.31
434.066	5678.31
434.287	5755.31
434.509	6013.31
434.731	6188.31
434.953	6361.31
435.175	6490.31
435.397	6532.31
435.618	6493.31
435.84	6875.31
436.062	7683.31
436.284	7591.31
436.505	6385.31
436.727	6101.31
436.949	5877.31
437.17	5742.31
437.392	5624.31
437.614	5849.31
437.835	6272.31
438.057	7198.31
438.278	7724.31
438.5	7748.31
438.721	8465.31
438.943	7533.31
439.165	6254.31
439.386	6127.31
439.608	6165.31
439.829	6228.31
440.05	6504.31
440.272	6850.31
440.493	6306.31
440.715	6056.31
440.936	5986.31
441.158	6024.31
441.379	6123.31
441.6	6461.31
441.822	6716.31
442.043	7069.31
442.264	7817.31
442.486	7572.31
442.707	6863.31
442.928	6594.31
443.149	6811.31
443.371	7087.31
443.592	7544.31
443.813	8483.31
444.034	8535.31
444.255	7438.31
444.476	7246.31
444.698	7430.31
444.919	7443.31
445.14	7284.31
445.361	7260.31
445.582	7233.31
445.803	7842.31
446.024	8437.31
446.245	8081.31
446.466	7333.31
446.687	6380.31
446.908	5971.31
447.129	5758.31
447.35	5518.31
447.571	5568.31
447.792	5452.31
448.013	5563.31
448.234	5769.31
448.455	6412.31
448.675	7556.31
448.896	7937.31
449.117	6654.31
449.338	6794.31
449.559	8028.31
449.779	8192.31
450	6370.31
450.221	5666.31
450.442	5394.31
450.662	5349.31
450.883	5440.31
451.104	5511.31
451.324	5342.31
451.545	5209.31
451.766	5127.31
451.986	4987.31
452.207	4939.31
452.428	4957.31
452.648	4969.31
452.869	5020.31
453.089	5009.31
453.31	5198.31
453.53	5003.31
453.751	4973.31
453.971	4961.31
454.192	5032.31
454.412	4853.31
454.633	4863.31
454.853	4800.31
455.073	4812.31
455.294	5273.31
455.514	5792.31
455.734	5196.31
455.955	4670.31
456.175	4608.31
456.395	4487.31
456.616	4581.31
456.836	4531.31
457.056	4504.31
457.276	4466.31
457.497	4649.31
457.717	4662.31
457.937	4702.31
458.157	4731.31
458.377	4896.31
458.598	5148.31
458.818	5846.31
459.038	6613.31
459.258	6449.31
459.478	5841.31
459.698	5652.31
459.918	5788.31
460.138	5963.31
460.358	6201.31
460.578	6163.31
460.798	6266.31
461.018	6371.31
461.238	6049.31
461.458	6088.31
461.678	6083.31
461.898	6167.31
462.118	6271.31
462.338	6611.31
462.558	6735.31
462.777	7130.31
462.997	7546.31
463.217	8014.31
463.437	7731.31
463.657	7207.31
463.876	7015.31
464.096	7071.31
464.316	7086.31
464.536	7102.31
464.755	6892.31
464.975	6723.31
465.195	6844.31
465.414	6854.31
465.634	6112.31
465.854	5811.31
466.073	5563.31
466.293	5323.31
466.512	5226.31
466.732	5152.31
466.951	5210.31
467.171	5114.31
467.391	5199.31
467.61	5203.31
467.829	5173.31
468.049	5097.31
468.268	4977.31
468.488	4853.31
468.707	4897.31
468.927	4910.31
469.146	4878.31
469.365	4905.31
469.585	4972.31
469.804	5190.31
470.023	5335.31
470.243	5285.31
470.462	5408.31
470.681	5462.31
470.901	5388.31
471.12	5264.31
471.339	5161.31
471.558	5157.31
471.777	5098.31
471.997	4986.31
472.216	4875.31
472.435	4852.31
472.654	4822.31
472.873	4836.31
473.092	4879.31
473.311	4878.31
473.53	4901.31
473.749	4963.31
473.968	5515.31
474.187	6515.31
474.406	6134.31
474.625	5192.31
474.844	4944.31
475.063	4921.31
475.282	4885.31
475.501	4974.31
475.72	4988.31
475.939	5006.31
476.158	5074.31
476.377	5098.31
476.596	5128.31
476.814	5258.31
477.033	5253.31
477.252	5335.31
477.471	5456.31
477.69	5531.31
477.908	5711.31
478.127	5808.31
478.346	5811.31
478.564	5983.31
478.783	6033.31
479.002	6181.31
479.22	6154.31
479.439	6241.31
479.658	6375.31
479.876	6404.31
480.095	6606.31
480.313	6997.31
480.532	6942.31
480.751	6867.31
480.969	6594.31
481.188	6409.31
481.406	6289.31
481.624	6050.31
481.843	5948.31
482.061	5822.31
482.28	5756.31
482.498	5726.31
482.717	5670.31
482.935	5845.31
483.153	5759.31
483.372	5741.31
483.59	5674.31
483.808	5732.31
484.027	5793.31
484.245	5799.31
484.463	5841.31
484.681	5934.31
484.9	5932.31
485.118	5974.31
485.336	6031.31
485.554	6006.31
485.772	6113.31
485.99	6110.31
486.209	6155.31
486.427	6145.31
486.645	6173.31
486.863	6323.31
487.081	6278.31
487.299	6197.31
487.517	6152.31
487.735	6131.31
487.953	6126.31
