Data from Uncirc_2006_H10_HRD10591_00072.txt Node
Date: Wed Jan 03 10:25:09 EST 2024
User: Yrep
Spectrometer: HR+D1059
Trigger mode: 1
Integration Time (sec): 1.000000E-1
Scans to average: 1
Electric dark correction enabled: true
Nonlinearity correction enabled: false
Boxcar width: 0
XAxis mode: Wavelengths
Number of Pixels in Spectrum: 2048
>>>>>Begin Spectral Data<<<<<
223.165	-18.38
223.4	-18.38
223.635	-18.38
223.869	-18.38
224.104	-21.38
224.338	-28.38
224.573	-26.38
224.808	-14.38
225.042	-1.38
225.277	-8.38
225.511	6.62
225.746	0.62
225.98	5.62
226.215	12.62
226.449	17.62
226.683	20.62
226.918	29.62
227.152	43.62
227.387	26.62
227.621	45.62
227.856	32.62
228.09	55.62
228.324	54.62
228.559	77.62
228.793	45.62
229.027	56.62
229.262	71.62
229.496	72.62
229.73	78.62
229.964	82.62
230.199	53.62
230.433	86.62
230.667	73.62
230.901	74.62
231.136	75.62
231.37	86.62
231.604	79.62
231.838	77.62
232.072	95.62
232.306	87.62
232.541	81.62
232.775	76.62
233.009	83.62
233.243	77.62
233.477	85.62
233.711	88.62
233.945	81.62
234.179	89.62
234.413	76.62
234.647	85.62
234.881	74.62
235.115	86.62
235.349	101.62
235.583	81.62
235.817	73.62
236.051	64.62
236.285	86.62
236.519	78.62
236.753	83.62
236.987	86.62
237.221	75.62
237.455	83.62
237.689	86.62
237.922	90.62
238.156	77.62
238.39	86.62
238.624	81.62
238.858	70.62
239.091	74.62
239.325	82.62
239.559	78.62
239.793	75.62
240.027	80.62
240.26	87.62
240.494	69.62
240.728	74.62
240.961	73.62
241.195	85.62
241.429	89.62
241.662	82.62
241.896	76.62
242.13	65.62
242.363	77.62
242.597	86.62
242.83	80.62
243.064	67.62
243.298	70.62
243.531	80.62
243.765	84.62
243.998	80.62
244.232	82.62
244.465	85.62
244.699	96.62
244.932	76.62
245.166	89.62
245.399	87.62
245.633	96.62
245.866	94.62
246.099	65.62
246.333	81.62
246.566	84.62
246.8	89.62
247.033	73.62
247.266	88.62
247.5	70.62
247.733	86.62
247.966	79.62
248.2	77.62
248.433	92.62
248.666	83.62
248.899	75.62
249.133	81.62
249.366	88.62
249.599	111.62
249.832	86.62
250.066	85.62
250.299	75.62
250.532	80.62
250.765	85.62
250.998	85.62
251.231	92.62
251.465	89.62
251.698	87.62
251.931	79.62
252.164	78.62
252.397	76.62
252.63	79.62
252.863	83.62
253.096	73.62
253.329	87.62
253.562	88.62
253.795	72.62
254.028	88.62
254.261	69.62
254.494	93.62
254.727	91.62
254.96	97.62
255.193	84.62
255.426	74.62
255.659	77.62
255.892	85.62
256.124	76.62
256.357	86.62
256.59	80.62
256.823	82.62
257.056	97.62
257.289	92.62
257.521	81.62
257.754	92.62
257.987	72.62
258.22	76.62
258.452	81.62
258.685	79.62
258.918	88.62
259.151	81.62
259.383	78.62
259.616	106.62
259.849	80.62
260.081	78.62
260.314	72.62
260.547	85.62
260.779	82.62
261.012	76.62
261.244	92.62
261.477	108.62
261.71	105.62
261.942	113.62
262.175	103.62
262.407	100.62
262.64	82.62
262.872	89.62
263.105	83.62
263.337	68.62
263.57	88.62
263.802	96.62
264.035	81.62
264.267	90.62
264.499	87.62
264.732	90.62
264.964	95.62
265.197	94.62
265.429	91.62
265.661	81.62
265.894	82.62
266.126	73.62
266.358	77.62
266.591	86.62
266.823	89.62
267.055	103.62
267.287	96.62
267.52	81.62
267.752	80.62
267.984	90.62
268.216	91.62
268.448	84.62
268.681	74.62
268.913	80.62
269.145	96.62
269.377	70.62
269.609	81.62
269.841	73.62
270.073	85.62
270.306	82.62
270.538	82.62
270.77	75.62
271.002	83.62
271.234	85.62
271.466	92.62
271.698	72.62
271.93	88.62
272.162	86.62
272.394	98.62
272.626	77.62
272.858	86.62
273.09	85.62
273.322	86.62
273.553	80.62
273.785	93.62
274.017	105.62
274.249	86.62
274.481	85.62
274.713	80.62
274.945	87.62
275.176	89.62
275.408	93.62
275.64	88.62
275.872	84.62
276.104	94.62
276.335	89.62
276.567	119.62
276.799	105.62
277.031	92.62
277.262	90.62
277.494	76.62
277.726	85.62
277.957	76.62
278.189	91.62
278.421	83.62
278.652	85.62
278.884	79.62
279.115	90.62
279.347	98.62
279.579	88.62
279.81	87.62
280.042	84.62
280.273	83.62
280.505	84.62
280.736	96.62
280.968	88.62
281.199	96.62
281.431	96.62
281.662	81.62
281.894	94.62
282.125	111.62
282.356	105.62
282.588	136.62
282.819	116.62
283.051	88.62
283.282	97.62
283.513	92.62
283.745	98.62
283.976	96.62
284.207	105.62
284.439	90.62
284.67	87.62
284.901	90.62
285.132	65.62
285.364	82.62
285.595	99.62
285.826	94.62
286.057	101.62
286.288	86.62
286.52	77.62
286.751	71.62
286.982	99.62
287.213	97.62
287.444	96.62
287.675	102.62
287.906	92.62
288.138	88.62
288.369	87.62
288.6	94.62
288.831	87.62
289.062	90.62
289.293	88.62
289.524	96.62
289.755	93.62
289.986	103.62
290.217	99.62
290.448	94.62
290.679	79.62
290.91	80.62
291.141	89.62
291.371	91.62
291.602	89.62
291.833	92.62
292.064	98.62
292.295	91.62
292.526	94.62
292.757	82.62
292.987	76.62
293.218	94.62
293.449	95.62
293.68	92.62
293.91	95.62
294.141	95.62
294.372	94.62
294.603	98.62
294.833	89.62
295.064	89.62
295.295	77.62
295.525	106.62
295.756	97.62
295.987	114.62
296.217	144.62
296.448	120.62
296.679	79.62
296.909	90.62
297.14	98.62
297.37	87.62
297.601	89.62
297.831	80.62
298.062	88.62
298.292	96.62
298.523	89.62
298.753	97.62
298.984	75.62
299.214	106.62
299.445	94.62
299.675	78.62
299.905	81.62
300.136	90.62
300.366	90.62
300.597	97.62
300.827	93.62
301.057	93.62
301.288	100.62
301.518	88.62
301.748	90.62
301.979	114.62
302.209	83.62
302.439	86.62
302.669	79.62
302.9	88.62
303.13	105.62
303.36	108.62
303.59	105.62
303.82	94.62
304.051	85.62
304.281	91.62
304.511	84.62
304.741	110.62
304.971	86.62
305.201	83.62
305.431	112.62
305.661	90.62
305.891	95.62
306.121	84.62
306.352	100.62
306.582	104.62
306.812	95.62
307.042	99.62
307.272	83.62
307.502	110.62
307.731	97.62
307.961	83.62
308.191	83.62
308.421	96.62
308.651	102.62
308.881	97.62
309.111	89.62
309.341	101.62
309.571	109.62
309.8	91.62
310.03	85.62
310.26	86.62
310.49	91.62
310.72	104.62
310.949	108.62
311.179	98.62
311.409	96.62
311.639	90.62
311.868	85.62
312.098	97.62
312.328	99.62
312.557	105.62
312.787	101.62
313.017	100.62
313.246	90.62
313.476	94.62
313.706	100.62
313.935	99.62
314.165	89.62
314.394	97.62
314.624	67.62
314.853	87.62
315.083	78.62
315.312	113.62
315.542	87.62
315.771	106.62
316.001	97.62
316.23	97.62
316.46	79.62
316.689	84.62
316.919	104.62
317.148	94.62
317.377	103.62
317.607	89.62
317.836	101.62
318.065	89.62
318.295	95.62
318.524	82.62
318.753	99.62
318.983	84.62
319.212	106.62
319.441	115.62
319.67	88.62
319.9	96.62
320.129	91.62
320.358	80.62
320.587	105.62
320.816	96.62
321.046	114.62
321.275	104.62
321.504	96.62
321.733	97.62
321.962	101.62
322.191	95.62
322.42	107.62
322.649	102.62
322.878	119.62
323.108	127.62
323.337	110.62
323.566	116.62
323.795	156.62
324.024	215.62
324.253	398.62
324.482	809.62
324.71	1674.62
324.939	2194.62
325.168	817.62
325.397	238.62
325.626	160.62
325.855	115.62
326.084	128.62
326.313	138.62
326.542	155.62
326.77	233.62
326.999	470.62
327.228	952.62
327.457	1704.62
327.686	1361.62
327.914	333.62
328.143	174.62
328.372	132.62
328.6	106.62
328.829	121.62
329.058	130.62
329.287	118.62
329.515	123.62
329.744	113.62
329.972	104.62
330.201	86.62
330.43	109.62
330.658	114.62
330.887	136.62
331.115	112.62
331.344	96.62
331.572	97.62
331.801	107.62
332.03	105.62
332.258	98.62
332.486	94.62
332.715	91.62
332.943	96.62
333.172	108.62
333.4	106.62
333.629	103.62
333.857	108.62
334.085	94.62
334.314	96.62
334.542	84.62
334.771	86.62
334.999	96.62
335.227	97.62
335.455	89.62
335.684	108.62
335.912	99.62
336.14	81.62
336.369	96.62
336.597	105.62
336.825	100.62
337.053	100.62
337.281	93.62
337.51	94.62
337.738	93.62
337.966	87.62
338.194	98.62
338.422	88.62
338.65	78.62
338.878	97.62
339.106	100.62
339.334	91.62
339.562	82.62
339.79	89.62
340.018	102.62
340.246	93.62
340.474	92.62
340.702	81.62
340.93	92.62
341.158	112.62
341.386	114.62
341.614	97.62
341.842	105.62
342.07	88.62
342.298	74.62
342.526	96.62
342.754	115.62
342.981	92.62
343.209	111.62
343.437	94.62
343.665	87.62
343.893	106.62
344.12	100.62
344.348	86.62
344.576	98.62
344.804	89.62
345.031	104.62
345.259	96.62
345.487	97.62
345.714	100.62
345.942	100.62
346.17	82.62
346.397	100.62
346.625	100.62
346.853	87.62
347.08	87.62
347.308	100.62
347.535	98.62
347.763	96.62
347.99	107.62
348.218	110.62
348.445	115.62
348.673	96.62
348.9	90.62
349.128	93.62
349.355	94.62
349.583	95.62
349.81	101.62
350.037	89.62
350.265	95.62
350.492	102.62
350.72	106.62
350.947	100.62
351.174	118.62
351.402	109.62
351.629	97.62
351.856	89.62
352.083	104.62
352.311	100.62
352.538	107.62
352.765	109.62
352.992	112.62
353.22	111.62
353.447	102.62
353.674	107.62
353.901	98.62
354.128	105.62
354.355	122.62
354.583	89.62
354.81	93.62
355.037	101.62
355.264	102.62
355.491	83.62
355.718	89.62
355.945	92.62
356.172	85.62
356.399	96.62
356.626	97.62
356.853	89.62
357.08	96.62
357.307	102.62
357.534	77.62
357.761	102.62
357.988	96.62
358.215	82.62
358.441	94.62
358.668	90.62
358.895	95.62
359.122	101.62
359.349	103.62
359.576	85.62
359.802	99.62
360.029	108.62
360.256	105.62
360.483	90.62
360.709	89.62
360.936	98.62
361.163	102.62
361.39	90.62
361.616	81.62
361.843	96.62
362.07	92.62
362.296	84.62
362.523	91.62
362.749	94.62
362.976	94.62
363.203	86.62
363.429	96.62
363.656	101.62
363.882	86.62
364.109	102.62
364.335	84.62
364.562	87.62
364.788	76.62
365.015	91.62
365.241	87.62
365.468	114.62
365.694	84.62
365.92	93.62
366.147	106.62
366.373	100.62
366.599	79.62
366.826	96.62
367.052	81.62
367.278	101.62
367.505	93.62
367.731	104.62
367.957	81.62
368.184	84.62
368.41	96.62
368.636	122.62
368.862	129.62
369.089	116.62
369.315	92.62
369.541	104.62
369.767	97.62
369.993	104.62
370.219	84.62
370.445	75.62
370.672	87.62
370.898	89.62
371.124	92.62
371.35	89.62
371.576	71.62
371.802	85.62
372.028	98.62
372.254	100.62
372.48	85.62
372.706	88.62
372.932	84.62
373.158	84.62
373.384	87.62
373.61	98.62
373.835	93.62
374.061	96.62
374.287	89.62
374.513	85.62
374.739	86.62
374.965	85.62
375.191	85.62
375.416	89.62
375.642	98.62
375.868	84.62
376.094	92.62
376.319	87.62
376.545	84.62
376.771	91.62
376.997	88.62
377.222	79.62
377.448	93.62
377.674	83.62
377.899	89.62
378.125	89.62
378.35	91.62
378.576	86.62
378.802	108.62
379.027	87.62
379.253	90.62
379.478	105.62
379.704	87.62
379.929	92.62
380.155	91.62
380.38	100.62
380.606	89.62
380.831	104.62
381.057	90.62
381.282	105.62
381.507	96.62
381.733	106.62
381.958	94.62
382.184	104.62
382.409	86.62
382.634	106.62
382.86	111.62
383.085	84.62
383.31	105.62
383.535	108.62
383.761	99.62
383.986	105.62
384.211	104.62
384.436	108.62
384.662	108.62
384.887	106.62
385.112	100.62
385.337	95.62
385.562	97.62
385.787	106.62
386.013	116.62
386.238	120.62
386.463	102.62
386.688	118.62
386.913	107.62
387.138	112.62
387.363	86.62
387.588	99.62
387.813	105.62
388.038	103.62
388.263	104.62
388.488	94.62
388.713	98.62
388.938	100.62
389.163	94.62
389.387	106.62
389.612	100.62
389.837	94.62
390.062	87.62
390.287	102.62
390.512	93.62
390.736	78.62
390.961	96.62
391.186	104.62
391.411	93.62
391.636	95.62
391.86	92.62
392.085	93.62
392.31	89.62
392.534	84.62
392.759	92.62
392.984	85.62
393.208	87.62
393.433	94.62
393.658	73.62
393.882	81.62
394.107	85.62
394.331	78.62
394.556	91.62
394.78	90.62
395.005	96.62
395.229	80.62
395.454	89.62
395.678	96.62
395.903	104.62
396.127	95.62
396.352	100.62
396.576	89.62
396.801	84.62
397.025	86.62
397.249	87.62
397.474	74.62
397.698	88.62
397.922	85.62
398.147	85.62
398.371	99.62
398.595	100.62
398.82	99.62
399.044	76.62
399.268	93.62
399.492	94.62
399.717	88.62
399.941	100.62
400.165	88.62
400.389	83.62
400.613	88.62
400.837	90.62
401.062	98.62
401.286	98.62
401.51	76.62
401.734	92.62
401.958	113.62
402.182	120.62
402.406	130.62
402.63	117.62
402.854	103.62
403.078	85.62
403.302	85.62
403.526	79.62
403.75	87.62
403.974	90.62
404.198	68.62
404.422	76.62
404.645	96.62
404.869	88.62
405.093	90.62
405.317	105.62
405.541	103.62
405.765	94.62
405.988	124.62
406.212	166.62
406.436	214.62
406.66	144.62
406.883	112.62
407.107	89.62
407.331	102.62
407.555	90.62
407.778	88.62
408.002	94.62
408.226	98.62
408.449	102.62
408.673	90.62
408.896	102.62
409.12	91.62
409.344	96.62
409.567	89.62
409.791	97.62
410.014	100.62
410.238	96.62
410.461	92.62
410.685	101.62
410.908	109.62
411.132	107.62
411.355	107.62
411.578	105.62
411.802	104.62
412.025	86.62
412.249	85.62
412.472	90.62
412.695	88.62
412.919	90.62
413.142	91.62
413.365	83.62
413.589	96.62
413.812	97.62
414.035	90.62
414.258	98.62
414.482	90.62
414.705	91.62
414.928	98.62
415.151	88.62
415.374	107.62
415.597	90.62
415.821	88.62
416.044	87.62
416.267	91.62
416.49	104.62
416.713	88.62
416.936	98.62
417.159	89.62
417.382	96.62
417.605	94.62
417.828	93.62
418.051	85.62
418.274	81.62
418.497	89.62
418.72	79.62
418.943	98.62
419.166	97.62
419.389	93.62
419.611	77.62
419.834	93.62
420.057	91.62
420.28	102.62
420.503	80.62
420.726	89.62
420.948	79.62
421.171	109.62
421.394	98.62
421.617	89.62
421.839	89.62
422.062	105.62
422.285	96.62
422.507	105.62
422.73	98.62
422.953	106.62
423.175	87.62
423.398	96.62
423.621	92.62
423.843	84.62
424.066	103.62
424.288	85.62
424.511	93.62
424.733	90.62
424.956	108.62
425.178	99.62
425.401	94.62
425.623	97.62
425.846	103.62
426.068	95.62
426.291	88.62
426.513	98.62
426.735	89.62
426.958	98.62
427.18	91.62
427.402	108.62
427.625	162.62
427.847	132.62
428.069	111.62
428.292	96.62
428.514	93.62
428.736	96.62
428.958	91.62
429.181	83.62
429.403	91.62
429.625	79.62
429.847	97.62
430.069	94.62
430.292	88.62
430.514	89.62
430.736	78.62
430.958	89.62
431.18	80.62
431.402	94.62
431.624	86.62
431.846	80.62
432.068	92.62
432.29	79.62
432.512	97.62
432.734	101.62
432.956	90.62
433.178	108.62
433.4	95.62
433.622	90.62
433.844	100.62
434.066	101.62
434.287	100.62
434.509	96.62
434.731	106.62
434.953	95.62
435.175	89.62
435.397	85.62
435.618	86.62
435.84	93.62
436.062	114.62
436.284	117.62
436.505	93.62
436.727	108.62
436.949	98.62
437.17	100.62
437.392	96.62
437.614	109.62
437.835	102.62
438.057	105.62
438.278	95.62
438.5	87.62
438.721	108.62
438.943	102.62
439.165	96.62
439.386	103.62
439.608	90.62
439.829	97.62
440.05	107.62
440.272	113.62
440.493	108.62
440.715	88.62
440.936	86.62
441.158	80.62
441.379	88.62
441.6	92.62
441.822	86.62
442.043	99.62
442.264	102.62
442.486	112.62
442.707	98.62
442.928	112.62
443.149	108.62
443.371	117.62
443.592	111.62
443.813	121.62
444.034	126.62
444.255	100.62
444.476	88.62
444.698	84.62
444.919	84.62
445.14	125.62
445.361	129.62
445.582	108.62
445.803	140.62
446.024	130.62
446.245	129.62
446.466	118.62
446.687	100.62
446.908	77.62
447.129	90.62
447.35	77.62
447.571	101.62
447.792	97.62
448.013	89.62
448.234	108.62
448.455	99.62
448.675	103.62
448.896	106.62
449.117	107.62
449.338	105.62
449.559	125.62
449.779	126.62
450	100.62
450.221	76.62
450.442	94.62
450.662	100.62
450.883	91.62
451.104	107.62
451.324	104.62
451.545	97.62
451.766	88.62
451.986	100.62
452.207	92.62
452.428	95.62
452.648	96.62
452.869	103.62
453.089	114.62
453.31	124.62
453.53	76.62
453.751	86.62
453.971	97.62
454.192	109.62
454.412	88.62
454.633	78.62
454.853	89.62
455.073	103.62
455.294	91.62
455.514	102.62
455.734	96.62
455.955	100.62
456.175	92.62
456.395	93.62
456.616	89.62
456.836	84.62
457.056	94.62
457.276	83.62
457.497	88.62
457.717	81.62
457.937	86.62
458.157	90.62
458.377	91.62
458.598	104.62
458.818	119.62
459.038	135.62
459.258	124.62
459.478	76.62
459.698	81.62
459.918	92.62
460.138	94.62
460.358	83.62
460.578	84.62
460.798	94.62
461.018	87.62
461.238	85.62
461.458	85.62
461.678	88.62
461.898	96.62
462.118	82.62
462.338	83.62
462.558	88.62
462.777	84.62
462.997	87.62
463.217	88.62
463.437	100.62
463.657	83.62
463.876	83.62
464.096	108.62
464.316	93.62
464.536	104.62
464.755	93.62
464.975	99.62
465.195	148.62
465.414	144.62
465.634	89.62
465.854	96.62
466.073	92.62
466.293	86.62
466.512	87.62
466.732	94.62
466.951	94.62
467.171	97.62
467.391	85.62
467.61	94.62
467.829	104.62
468.049	86.62
468.268	87.62
468.488	101.62
468.707	86.62
468.927	77.62
469.146	100.62
469.365	96.62
469.585	90.62
469.804	93.62
470.023	93.62
470.243	89.62
470.462	97.62
470.681	106.62
470.901	87.62
471.12	85.62
471.339	89.62
471.558	87.62
471.777	93.62
471.997	100.62
472.216	89.62
472.435	82.62
472.654	94.62
472.873	82.62
473.092	96.62
473.311	85.62
473.53	89.62
473.749	81.62
473.968	103.62
474.187	108.62
474.406	89.62
474.625	88.62
474.844	84.62
475.063	81.62
475.282	87.62
475.501	97.62
475.72	87.62
475.939	87.62
476.158	98.62
476.377	95.62
476.596	103.62
476.814	100.62
477.033	89.62
477.252	102.62
477.471	97.62
477.69	89.62
477.908	77.62
478.127	96.62
478.346	93.62
478.564	84.62
478.783	81.62
479.002	82.62
479.22	86.62
479.439	106.62
479.658	101.62
479.876	93.62
480.095	96.62
480.313	91.62
480.532	74.62
480.751	109.62
480.969	89.62
481.188	85.62
481.406	100.62
481.624	97.62
481.843	92.62
482.061	92.62
482.28	96.62
482.498	94.62
482.717	85.62
482.935	90.62
483.153	85.62
483.372	76.62
483.59	103.62
483.808	100.62
484.027	84.62
484.245	89.62
484.463	81.62
484.681	99.62
484.9	102.62
485.118	99.62
485.336	87.62
485.554	98.62
485.772	94.62
485.99	90.62
486.209	106.62
486.427	94.62
486.645	95.62
486.863	113.62
487.081	106.62
487.299	92.62
487.517	97.62
487.735	94.62
487.953	101.62
488.171	102.62
488.389	100.62
488.607	102.62
488.825	95.62
489.043	89.62
489.261	91.62
489.479	96.62
489.696	86.62
489.914	90.62
490.132	97.62
490.35	93.62
490.568	94.62
490.786	97.62
491.003	89.62
491.221	94.62
491.439	98.62
491.657	116.62
491.874	100.62
492.092	93.62
492.31	105.62
492.527	93.62
492.745	87.62
492.963	92.62
493.18	102.62
493.398	81.62
493.615	88.62
493.833	94.62
494.05	101.62
494.268	89.62
494.485	97.62
494.703	101.62
494.92	95.62
495.138	90.62
495.355	95.62
495.573	101.62
495.79	76.62
496.008	86.62
496.225	98.62
496.442	95.62
496.66	94.62
496.877	89.62
497.094	94.62
497.312	81.62
497.529	95.62
497.746	85.62
497.963	96.62
498.181	101.62
498.398	100.62
498.615	88.62
498.832	103.62
499.049	68.62
499.267	99.62
499.484	92.62
499.701	102.62
499.918	84.62
500.135	93.62
500.352	89.62
500.569	81.62
500.786	82.62
501.003	87.62
501.22	98.62
501.437	90.62
501.654	101.62
501.871	93.62
502.088	88.62
502.305	93.62
502.522	82.62
502.739	81.62
502.956	96.62
503.172	92.62
503.389	105.62
503.606	99.62
503.823	97.62
504.04	108.62
504.256	78.62
504.473	99.62
504.69	103.62
504.907	99.62
505.123	81.62
505.34	95.62
505.557	101.62
505.773	100.62
505.99	98.62
506.207	92.62
506.423	91.62
506.64	92.62
506.856	87.62
507.073	95.62
507.289	91.62
507.506	101.62
507.722	120.62
507.939	110.62
508.155	107.62
508.372	96.62
508.588	95.62
508.805	96.62
509.021	97.62
509.238	103.62
509.454	110.62
509.67	103.62
509.887	96.62
510.103	128.62
510.319	200.62
510.536	715.62
510.752	2161.62
510.968	615.62
511.184	154.62
511.401	108.62
511.617	94.62
511.833	95.62
512.049	103.62
512.265	93.62
512.481	94.62
512.698	85.62
512.914	99.62
513.13	87.62
513.346	94.62
513.562	88.62
513.778	97.62
513.994	97.62
514.21	95.62
514.426	123.62
514.642	130.62
514.858	126.62
515.074	169.62
