Data from Uncirc_2006_H10_HRD10591_00024.txt Node
Date: Wed Jan 03 10:24:59 EST 2024
User: Yrep
Spectrometer: HR+D1059
Trigger mode: 1
Integration Time (sec): 1.000000E-1
Scans to average: 1
Electric dark correction enabled: true
Nonlinearity correction enabled: false
Boxcar width: 0
XAxis mode: Wavelengths
Number of Pixels in Spectrum: 2048
>>>>>Begin Spectral Data<<<<<
223.165	-19.06
223.4	-19.06
223.635	-19.06
223.869	-21.06
224.104	-21.06
224.338	-1.06
224.573	-2.06
224.808	-22.06
225.042	-9.06
225.277	-11.06
225.511	1.94
225.746	-5.06
225.98	9.94
226.215	4.94
226.449	17.94
226.683	16.94
226.918	33.94
227.152	25.94
227.387	43.94
227.621	37.94
227.856	43.94
228.09	45.94
228.324	48.94
228.559	56.94
228.793	58.94
229.027	60.94
229.262	56.94
229.496	78.94
229.73	86.94
229.964	86.94
230.199	80.94
230.433	81.94
230.667	82.94
230.901	66.94
231.136	75.94
231.37	67.94
231.604	80.94
231.838	72.94
232.072	64.94
232.306	76.94
232.541	85.94
232.775	93.94
233.009	88.94
233.243	78.94
233.477	76.94
233.711	80.94
233.945	90.94
234.179	86.94
234.413	80.94
234.647	76.94
234.881	79.94
235.115	68.94
235.349	81.94
235.583	75.94
235.817	71.94
236.051	87.94
236.285	70.94
236.519	95.94
236.753	89.94
236.987	65.94
237.221	72.94
237.455	77.94
237.689	77.94
237.922	73.94
238.156	78.94
238.39	71.94
238.624	70.94
238.858	76.94
239.091	83.94
239.325	66.94
239.559	72.94
239.793	77.94
240.027	76.94
240.26	80.94
240.494	88.94
240.728	64.94
240.961	74.94
241.195	73.94
241.429	66.94
241.662	82.94
241.896	79.94
242.13	83.94
242.363	74.94
242.597	85.94
242.83	77.94
243.064	72.94
243.298	76.94
243.531	81.94
243.765	62.94
243.998	83.94
244.232	76.94
244.465	83.94
244.699	83.94
244.932	85.94
245.166	65.94
245.399	77.94
245.633	75.94
245.866	64.94
246.099	68.94
246.333	73.94
246.566	74.94
246.8	82.94
247.033	73.94
247.266	82.94
247.5	72.94
247.733	79.94
247.966	84.94
248.2	97.94
248.433	69.94
248.666	81.94
248.899	92.94
249.133	68.94
249.366	85.94
249.599	82.94
249.832	90.94
250.066	82.94
250.299	84.94
250.532	77.94
250.765	65.94
250.998	82.94
251.231	78.94
251.465	78.94
251.698	82.94
251.931	69.94
252.164	76.94
252.397	67.94
252.63	66.94
252.863	85.94
253.096	79.94
253.329	68.94
253.562	81.94
253.795	86.94
254.028	83.94
254.261	85.94
254.494	81.94
254.727	82.94
254.96	88.94
255.193	73.94
255.426	81.94
255.659	76.94
255.892	79.94
256.124	72.94
256.357	77.94
256.59	85.94
256.823	83.94
257.056	84.94
257.289	91.94
257.521	88.94
257.754	75.94
257.987	75.94
258.22	91.94
258.452	93.94
258.685	76.94
258.918	75.94
259.151	85.94
259.383	72.94
259.616	83.94
259.849	67.94
260.081	96.94
260.314	80.94
260.547	92.94
260.779	72.94
261.012	67.94
261.244	80.94
261.477	86.94
261.71	97.94
261.942	103.94
262.175	121.94
262.407	76.94
262.64	67.94
262.872	75.94
263.105	71.94
263.337	77.94
263.57	85.94
263.802	70.94
264.035	90.94
264.267	82.94
264.499	91.94
264.732	82.94
264.964	89.94
265.197	83.94
265.429	79.94
265.661	79.94
265.894	72.94
266.126	88.94
266.358	87.94
266.591	86.94
266.823	94.94
267.055	76.94
267.287	82.94
267.52	80.94
267.752	88.94
267.984	86.94
268.216	77.94
268.448	86.94
268.681	78.94
268.913	79.94
269.145	86.94
269.377	86.94
269.609	82.94
269.841	93.94
270.073	81.94
270.306	80.94
270.538	92.94
270.77	86.94
271.002	83.94
271.234	82.94
271.466	85.94
271.698	83.94
271.93	78.94
272.162	69.94
272.394	97.94
272.626	86.94
272.858	88.94
273.09	86.94
273.322	75.94
273.553	75.94
273.785	73.94
274.017	88.94
274.249	95.94
274.481	84.94
274.713	80.94
274.945	79.94
275.176	94.94
275.408	81.94
275.64	82.94
275.872	78.94
276.104	84.94
276.335	91.94
276.567	91.94
276.799	111.94
277.031	82.94
277.262	86.94
277.494	88.94
277.726	82.94
277.957	84.94
278.189	94.94
278.421	85.94
278.652	77.94
278.884	91.94
279.115	96.94
279.347	81.94
279.579	92.94
279.81	81.94
280.042	75.94
280.273	88.94
280.505	85.94
280.736	76.94
280.968	83.94
281.199	104.94
281.431	86.94
281.662	95.94
281.894	88.94
282.125	84.94
282.356	101.94
282.588	133.94
282.819	108.94
283.051	85.94
283.282	86.94
283.513	84.94
283.745	68.94
283.976	91.94
284.207	85.94
284.439	88.94
284.67	94.94
284.901	93.94
285.132	98.94
285.364	90.94
285.595	80.94
285.826	86.94
286.057	97.94
286.288	79.94
286.52	93.94
286.751	94.94
286.982	83.94
287.213	93.94
287.444	93.94
287.675	75.94
287.906	85.94
288.138	84.94
288.369	87.94
288.6	101.94
288.831	94.94
289.062	85.94
289.293	79.94
289.524	87.94
289.755	75.94
289.986	77.94
290.217	90.94
290.448	93.94
290.679	90.94
290.91	75.94
291.141	85.94
291.371	80.94
291.602	86.94
291.833	82.94
292.064	99.94
292.295	92.94
292.526	75.94
292.757	81.94
292.987	105.94
293.218	82.94
293.449	88.94
293.68	90.94
293.91	85.94
294.141	92.94
294.372	87.94
294.603	86.94
294.833	108.94
295.064	84.94
295.295	93.94
295.525	92.94
295.756	81.94
295.987	106.94
296.217	117.94
296.448	114.94
296.679	88.94
296.909	99.94
297.14	86.94
297.37	78.94
297.601	88.94
297.831	90.94
298.062	86.94
298.292	82.94
298.523	95.94
298.753	94.94
298.984	96.94
299.214	80.94
299.445	99.94
299.675	104.94
299.905	105.94
300.136	94.94
300.366	89.94
300.597	85.94
300.827	86.94
301.057	91.94
301.288	93.94
301.518	94.94
301.748	94.94
301.979	102.94
302.209	93.94
302.439	94.94
302.669	96.94
302.9	101.94
303.13	75.94
303.36	80.94
303.59	101.94
303.82	99.94
304.051	97.94
304.281	83.94
304.511	95.94
304.741	83.94
304.971	83.94
305.201	76.94
305.431	90.94
305.661	84.94
305.891	87.94
306.121	95.94
306.352	97.94
306.582	111.94
306.812	97.94
307.042	87.94
307.272	79.94
307.502	76.94
307.731	89.94
307.961	90.94
308.191	91.94
308.421	76.94
308.651	90.94
308.881	90.94
309.111	97.94
309.341	108.94
309.571	100.94
309.8	91.94
310.03	96.94
310.26	104.94
310.49	101.94
310.72	92.94
310.949	80.94
311.179	90.94
311.409	94.94
311.639	97.94
311.868	94.94
312.098	90.94
312.328	90.94
312.557	100.94
312.787	108.94
313.017	100.94
313.246	103.94
313.476	84.94
313.706	73.94
313.935	86.94
314.165	105.94
314.394	90.94
314.624	90.94
314.853	86.94
315.083	83.94
315.312	95.94
315.542	78.94
315.771	92.94
316.001	93.94
316.23	95.94
316.46	90.94
316.689	94.94
316.919	100.94
317.148	87.94
317.377	89.94
317.607	84.94
317.836	90.94
318.065	94.94
318.295	83.94
318.524	88.94
318.753	101.94
318.983	100.94
319.212	96.94
319.441	108.94
319.67	126.94
319.9	98.94
320.129	68.94
320.358	96.94
320.587	93.94
320.816	95.94
321.046	94.94
321.275	83.94
321.504	89.94
321.733	97.94
321.962	85.94
322.191	89.94
322.42	100.94
322.649	116.94
322.878	108.94
323.108	97.94
323.337	109.94
323.566	125.94
323.795	148.94
324.024	197.94
324.253	372.94
324.482	756.94
324.71	1541.94
324.939	2051.94
325.168	775.94
325.397	234.94
325.626	140.94
325.855	130.94
326.084	126.94
326.313	141.94
326.542	153.94
326.77	220.94
326.999	440.94
327.228	906.94
327.457	1629.94
327.686	1299.94
327.914	363.94
328.143	185.94
328.372	135.94
328.6	112.94
328.829	111.94
329.058	126.94
329.287	123.94
329.515	109.94
329.744	101.94
329.972	96.94
330.201	98.94
330.43	112.94
330.658	112.94
330.887	130.94
331.115	117.94
331.344	93.94
331.572	89.94
331.801	88.94
332.03	102.94
332.258	89.94
332.486	92.94
332.715	100.94
332.943	79.94
333.172	107.94
333.4	97.94
333.629	102.94
333.857	97.94
334.085	95.94
334.314	85.94
334.542	94.94
334.771	96.94
334.999	89.94
335.227	105.94
335.455	93.94
335.684	104.94
335.912	106.94
336.14	91.94
336.369	83.94
336.597	87.94
336.825	81.94
337.053	93.94
337.281	98.94
337.51	93.94
337.738	104.94
337.966	93.94
338.194	78.94
338.422	91.94
338.65	83.94
338.878	82.94
339.106	78.94
339.334	92.94
339.562	100.94
339.79	100.94
340.018	85.94
340.246	96.94
340.474	92.94
340.702	92.94
340.93	81.94
341.158	85.94
341.386	84.94
341.614	100.94
341.842	98.94
342.07	90.94
342.298	91.94
342.526	89.94
342.754	77.94
342.981	92.94
343.209	84.94
343.437	81.94
343.665	85.94
343.893	85.94
344.12	94.94
344.348	88.94
344.576	90.94
344.804	100.94
345.031	98.94
345.259	109.94
345.487	80.94
345.714	96.94
345.942	96.94
346.17	91.94
346.397	92.94
346.625	81.94
346.853	93.94
347.08	89.94
347.308	89.94
347.535	85.94
347.763	99.94
347.99	97.94
348.218	107.94
348.445	101.94
348.673	94.94
348.9	107.94
349.128	80.94
349.355	86.94
349.583	100.94
349.81	96.94
350.037	97.94
350.265	98.94
350.492	95.94
350.72	78.94
350.947	87.94
351.174	108.94
351.402	105.94
351.629	106.94
351.856	100.94
352.083	86.94
352.311	99.94
352.538	102.94
352.765	94.94
352.992	105.94
353.22	99.94
353.447	117.94
353.674	105.94
353.901	86.94
354.128	100.94
354.355	90.94
354.583	96.94
354.81	103.94
355.037	100.94
355.264	93.94
355.491	97.94
355.718	91.94
355.945	105.94
356.172	86.94
356.399	102.94
356.626	93.94
356.853	91.94
357.08	99.94
357.307	101.94
357.534	86.94
357.761	90.94
357.988	111.94
358.215	101.94
358.441	85.94
358.668	93.94
358.895	92.94
359.122	86.94
359.349	77.94
359.576	84.94
359.802	93.94
360.029	87.94
360.256	105.94
360.483	113.94
360.709	72.94
360.936	100.94
361.163	95.94
361.39	80.94
361.616	102.94
361.843	91.94
362.07	87.94
362.296	86.94
362.523	91.94
362.749	104.94
362.976	100.94
363.203	80.94
363.429	84.94
363.656	91.94
363.882	89.94
364.109	85.94
364.335	93.94
364.562	83.94
364.788	94.94
365.015	87.94
365.241	104.94
365.468	101.94
365.694	95.94
365.92	106.94
366.147	90.94
366.373	77.94
366.599	86.94
366.826	85.94
367.052	84.94
367.278	89.94
367.505	87.94
367.731	96.94
367.957	78.94
368.184	81.94
368.41	93.94
368.636	110.94
368.862	112.94
369.089	99.94
369.315	93.94
369.541	86.94
369.767	101.94
369.993	87.94
370.219	97.94
370.445	97.94
370.672	86.94
370.898	97.94
371.124	82.94
371.35	97.94
371.576	106.94
371.802	79.94
372.028	85.94
372.254	90.94
372.48	92.94
372.706	95.94
372.932	82.94
373.158	72.94
373.384	84.94
373.61	91.94
373.835	76.94
374.061	91.94
374.287	82.94
374.513	88.94
374.739	82.94
374.965	89.94
375.191	87.94
375.416	98.94
375.642	82.94
375.868	87.94
376.094	94.94
376.319	98.94
376.545	92.94
376.771	89.94
376.997	89.94
377.222	70.94
377.448	88.94
377.674	92.94
377.899	90.94
378.125	88.94
378.35	85.94
378.576	99.94
378.802	93.94
379.027	98.94
379.253	93.94
379.478	94.94
379.704	86.94
379.929	93.94
380.155	81.94
380.38	104.94
380.606	96.94
380.831	82.94
381.057	89.94
381.282	84.94
381.507	92.94
381.733	102.94
381.958	112.94
382.184	93.94
382.409	86.94
382.634	106.94
382.86	103.94
383.085	106.94
383.31	101.94
383.535	96.94
383.761	98.94
383.986	101.94
384.211	98.94
384.436	96.94
384.662	92.94
384.887	107.94
385.112	108.94
385.337	107.94
385.562	109.94
385.787	110.94
386.013	107.94
386.238	110.94
386.463	113.94
386.688	113.94
386.913	116.94
387.138	110.94
387.363	100.94
387.588	96.94
387.813	84.94
388.038	112.94
388.263	143.94
388.488	120.94
388.713	100.94
388.938	101.94
389.163	104.94
389.387	99.94
389.612	105.94
389.837	90.94
390.062	95.94
390.287	89.94
390.512	86.94
390.736	82.94
390.961	85.94
391.186	93.94
391.411	95.94
391.636	80.94
391.86	86.94
392.085	93.94
392.31	91.94
392.534	81.94
392.759	79.94
392.984	89.94
393.208	85.94
393.433	82.94
393.658	93.94
393.882	69.94
394.107	96.94
394.331	92.94
394.556	93.94
394.78	109.94
395.005	85.94
395.229	84.94
395.454	86.94
395.678	85.94
395.903	92.94
396.127	84.94
396.352	92.94
396.576	83.94
396.801	86.94
397.025	84.94
397.249	89.94
397.474	86.94
397.698	100.94
397.922	77.94
398.147	66.94
398.371	85.94
398.595	76.94
398.82	89.94
399.044	89.94
399.268	91.94
399.492	81.94
399.717	91.94
399.941	72.94
400.165	93.94
400.389	83.94
400.613	79.94
400.837	89.94
401.062	93.94
401.286	92.94
401.51	94.94
401.734	84.94
401.958	105.94
402.182	112.94
402.406	140.94
402.63	121.94
402.854	91.94
403.078	87.94
403.302	83.94
403.526	80.94
403.75	100.94
403.974	85.94
404.198	75.94
404.422	99.94
404.645	72.94
404.869	74.94
405.093	103.94
405.317	101.94
405.541	90.94
405.765	106.94
405.988	115.94
406.212	150.94
406.436	195.94
406.66	131.94
406.883	108.94
407.107	96.94
407.331	85.94
407.555	100.94
407.778	86.94
408.002	81.94
408.226	89.94
408.449	90.94
408.673	86.94
408.896	97.94
409.12	86.94
409.344	85.94
409.567	86.94
409.791	84.94
410.014	94.94
410.238	103.94
410.461	92.94
410.685	110.94
410.908	100.94
411.132	116.94
411.355	107.94
411.578	96.94
411.802	90.94
412.025	87.94
412.249	90.94
412.472	90.94
412.695	86.94
412.919	97.94
413.142	86.94
413.365	84.94
413.589	95.94
413.812	72.94
414.035	80.94
414.258	92.94
414.482	87.94
414.705	81.94
414.928	96.94
415.151	76.94
415.374	88.94
415.597	67.94
415.821	76.94
416.044	99.94
416.267	82.94
416.49	71.94
416.713	87.94
416.936	88.94
417.159	89.94
417.382	70.94
417.605	81.94
417.828	103.94
418.051	94.94
418.274	114.94
418.497	99.94
418.72	89.94
418.943	97.94
419.166	98.94
419.389	97.94
419.611	94.94
419.834	89.94
420.057	80.94
420.28	84.94
420.503	95.94
420.726	98.94
420.948	98.94
421.171	95.94
421.394	91.94
421.617	97.94
421.839	82.94
422.062	96.94
422.285	101.94
422.507	97.94
422.73	97.94
422.953	85.94
423.175	91.94
423.398	92.94
423.621	97.94
423.843	72.94
424.066	78.94
424.288	94.94
424.511	102.94
424.733	92.94
424.956	88.94
425.178	86.94
425.401	91.94
425.623	86.94
425.846	88.94
426.068	97.94
426.291	94.94
426.513	96.94
426.735	76.94
426.958	96.94
427.18	101.94
427.402	124.94
427.625	144.94
427.847	123.94
428.069	102.94
428.292	92.94
428.514	90.94
428.736	90.94
428.958	81.94
429.181	94.94
429.403	72.94
429.625	88.94
429.847	98.94
430.069	97.94
430.292	86.94
430.514	80.94
430.736	85.94
430.958	92.94
431.18	72.94
431.402	81.94
431.624	96.94
431.846	103.94
432.068	81.94
432.29	75.94
432.512	92.94
432.734	95.94
432.956	89.94
433.178	94.94
433.4	97.94
433.622	82.94
433.844	92.94
434.066	84.94
434.287	85.94
434.509	92.94
434.731	97.94
434.953	97.94
435.175	75.94
435.397	100.94
435.618	99.94
435.84	96.94
436.062	100.94
436.284	107.94
436.505	97.94
436.727	96.94
436.949	90.94
437.17	93.94
437.392	81.94
437.614	70.94
437.835	96.94
438.057	124.94
438.278	107.94
438.5	106.94
438.721	103.94
438.943	93.94
439.165	85.94
439.386	76.94
439.608	87.94
439.829	97.94
440.05	129.94
440.272	137.94
440.493	90.94
440.715	86.94
440.936	95.94
441.158	82.94
441.379	78.94
441.6	79.94
441.822	91.94
442.043	90.94
442.264	108.94
442.486	95.94
442.707	111.94
442.928	99.94
443.149	116.94
443.371	116.94
443.592	100.94
443.813	97.94
444.034	95.94
444.255	84.94
444.476	89.94
444.698	85.94
444.919	88.94
445.14	108.94
445.361	115.94
445.582	102.94
445.803	114.94
446.024	146.94
446.245	126.94
446.466	114.94
446.687	92.94
446.908	81.94
447.129	97.94
447.35	91.94
447.571	85.94
447.792	93.94
448.013	93.94
448.234	106.94
448.455	94.94
448.675	115.94
448.896	120.94
449.117	75.94
449.338	99.94
449.559	127.94
449.779	113.94
450	84.94
450.221	99.94
450.442	104.94
450.662	86.94
450.883	100.94
451.104	106.94
451.324	91.94
451.545	85.94
451.766	91.94
451.986	81.94
452.207	88.94
452.428	83.94
452.648	93.94
452.869	109.94
453.089	109.94
453.31	124.94
453.53	95.94
453.751	98.94
453.971	94.94
454.192	99.94
454.412	94.94
454.633	98.94
454.853	90.94
455.073	94.94
455.294	77.94
455.514	92.94
455.734	88.94
455.955	89.94
456.175	91.94
456.395	93.94
456.616	94.94
456.836	85.94
457.056	86.94
457.276	74.94
457.497	82.94
457.717	85.94
457.937	82.94
458.157	83.94
458.377	100.94
458.598	109.94
458.818	143.94
459.038	157.94
459.258	98.94
459.478	103.94
459.698	77.94
459.918	95.94
460.138	73.94
460.358	76.94
460.578	83.94
460.798	88.94
461.018	99.94
461.238	88.94
461.458	88.94
461.678	91.94
461.898	79.94
462.118	90.94
462.338	83.94
462.558	84.94
462.777	75.94
462.997	82.94
463.217	85.94
463.437	82.94
463.657	93.94
463.876	84.94
464.096	88.94
464.316	98.94
464.536	86.94
464.755	92.94
464.975	102.94
465.195	154.94
465.414	152.94
465.634	105.94
465.854	103.94
466.073	83.94
466.293	81.94
466.512	93.94
466.732	83.94
466.951	92.94
467.171	101.94
467.391	94.94
467.61	91.94
467.829	88.94
468.049	93.94
468.268	66.94
468.488	76.94
468.707	89.94
468.927	92.94
469.146	93.94
469.365	80.94
469.585	87.94
469.804	95.94
470.023	86.94
470.243	98.94
470.462	89.94
470.681	104.94
470.901	98.94
471.12	78.94
471.339	85.94
471.558	93.94
471.777	95.94
471.997	92.94
472.216	83.94
472.435	93.94
472.654	78.94
472.873	85.94
473.092	85.94
473.311	90.94
473.53	88.94
473.749	92.94
473.968	89.94
474.187	94.94
474.406	98.94
474.625	84.94
474.844	78.94
475.063	81.94
475.282	77.94
475.501	85.94
475.72	96.94
475.939	81.94
476.158	86.94
476.377	90.94
476.596	82.94
476.814	91.94
477.033	90.94
477.252	97.94
477.471	83.94
477.69	93.94
477.908	95.94
478.127	74.94
478.346	99.94
478.564	82.94
478.783	86.94
479.002	93.94
479.22	94.94
479.439	96.94
479.658	98.94
479.876	96.94
480.095	85.94
480.313	93.94
480.532	82.94
480.751	83.94
480.969	85.94
481.188	89.94
481.406	92.94
481.624	84.94
481.843	89.94
482.061	79.94
482.28	86.94
482.498	87.94
482.717	90.94
482.935	91.94
483.153	94.94
483.372	92.94
483.59	91.94
483.808	84.94
484.027	80.94
484.245	96.94
484.463	89.94
484.681	99.94
484.9	103.94
485.118	103.94
485.336	104.94
485.554	109.94
485.772	108.94
485.99	105.94
486.209	99.94
486.427	108.94
486.645	113.94
486.863	116.94
487.081	97.94
487.299	94.94
487.517	74.94
487.735	98.94
487.953	100.94
488.171	91.94
488.389	84.94
488.607	96.94
488.825	92.94
489.043	97.94
489.261	94.94
489.479	92.94
489.696	93.94
489.914	99.94
490.132	78.94
490.35	92.94
490.568	91.94
490.786	78.94
491.003	91.94
491.221	89.94
491.439	83.94
491.657	88.94
491.874	98.94
492.092	85.94
492.31	88.94
492.527	85.94
492.745	87.94
492.963	85.94
493.18	95.94
493.398	85.94
493.615	91.94
493.833	107.94
494.05	87.94
494.268	85.94
494.485	102.94
494.703	71.94
494.92	96.94
495.138	87.94
495.355	89.94
495.573	98.94
495.79	120.94
496.008	99.94
496.225	84.94
496.442	93.94
496.66	90.94
496.877	90.94
497.094	99.94
497.312	94.94
497.529	82.94
497.746	78.94
497.963	101.94
498.181	104.94
498.398	97.94
498.615	103.94
498.832	100.94
499.049	101.94
499.267	99.94
499.484	97.94
499.701	93.94
499.918	97.94
500.135	94.94
500.352	85.94
500.569	80.94
500.786	78.94
501.003	91.94
501.22	81.94
501.437	91.94
501.654	79.94
501.871	107.94
502.088	88.94
502.305	81.94
502.522	85.94
502.739	95.94
502.956	102.94
503.172	91.94
503.389	104.94
503.606	115.94
503.823	88.94
504.04	101.94
504.256	90.94
504.473	85.94
504.69	96.94
504.907	99.94
505.123	87.94
505.34	82.94
505.557	100.94
505.773	102.94
505.99	94.94
506.207	68.94
506.423	98.94
506.64	89.94
506.856	82.94
507.073	92.94
507.289	85.94
507.506	97.94
507.722	107.94
507.939	109.94
508.155	98.94
508.372	103.94
508.588	98.94
508.805	96.94
509.021	115.94
509.238	104.94
509.454	115.94
509.67	100.94
509.887	115.94
510.103	114.94
510.319	206.94
510.536	712.94
510.752	2180.94
510.968	619.94
511.184	147.94
511.401	106.94
511.617	86.94
511.833	82.94
512.049	87.94
512.265	115.94
512.481	92.94
512.698	89.94
512.914	90.94
513.13	83.94
513.346	98.94
513.562	91.94
513.778	88.94
513.994	95.94
514.21	95.94
514.426	107.94
514.642	127.94
514.858	111.94
515.074	156.94
515.29	437.94
515.506	1351.94
515.721	512.94
515.937	152.94
516.153	113.94
516.369	108.94
