Data from Uncirc_2006_H10_HRD10591_00069.txt Node
Date: Wed Jan 03 10:25:08 EST 2024
User: Yrep
Spectrometer: HR+D1059
Trigger mode: 1
Integration Time (sec): 1.000000E-1
Scans to average: 1
Electric dark correction enabled: true
Nonlinearity correction enabled: false
Boxcar width: 0
XAxis mode: Wavelengths
Number of Pixels in Spectrum: 2048
>>>>>Begin Spectral Data<<<<<
223.165	-22.25
223.4	-22.25
223.635	-22.25
223.869	-13.25
224.104	-13.25
224.338	-8.25
224.573	-16.25
224.808	-2.25
225.042	1.75
225.277	-8.25
225.511	-5.25
225.746	-7.25
225.98	14.75
226.215	11.75
226.449	6.75
226.683	17.75
226.918	27.75
227.152	15.75
227.387	34.75
227.621	55.75
227.856	45.75
228.09	62.75
228.324	61.75
228.559	55.75
228.793	62.75
229.027	74.75
229.262	53.75
229.496	77.75
229.73	76.75
229.964	72.75
230.199	90.75
230.433	87.75
230.667	87.75
230.901	82.75
231.136	85.75
231.37	88.75
231.604	79.75
231.838	76.75
232.072	82.75
232.306	88.75
232.541	94.75
232.775	87.75
233.009	87.75
233.243	93.75
233.477	85.75
233.711	77.75
233.945	87.75
234.179	90.75
234.413	93.75
234.647	86.75
234.881	67.75
235.115	81.75
235.349	86.75
235.583	90.75
235.817	96.75
236.051	91.75
236.285	88.75
236.519	79.75
236.753	86.75
236.987	90.75
237.221	80.75
237.455	79.75
237.689	88.75
237.922	80.75
238.156	73.75
238.39	85.75
238.624	70.75
238.858	69.75
239.091	77.75
239.325	94.75
239.559	75.75
239.793	79.75
240.027	74.75
240.26	74.75
240.494	91.75
240.728	86.75
240.961	78.75
241.195	74.75
241.429	91.75
241.662	75.75
241.896	91.75
242.13	75.75
242.363	79.75
242.597	81.75
242.83	86.75
243.064	81.75
243.298	71.75
243.531	90.75
243.765	82.75
243.998	88.75
244.232	92.75
244.465	69.75
244.699	77.75
244.932	82.75
245.166	91.75
245.399	80.75
245.633	69.75
245.866	78.75
246.099	85.75
246.333	72.75
246.566	78.75
246.8	83.75
247.033	89.75
247.266	76.75
247.5	69.75
247.733	93.75
247.966	70.75
248.2	83.75
248.433	82.75
248.666	79.75
248.899	86.75
249.133	77.75
249.366	97.75
249.599	82.75
249.832	78.75
250.066	81.75
250.299	65.75
250.532	76.75
250.765	69.75
250.998	78.75
251.231	78.75
251.465	67.75
251.698	76.75
251.931	83.75
252.164	72.75
252.397	88.75
252.63	95.75
252.863	79.75
253.096	81.75
253.329	84.75
253.562	96.75
253.795	92.75
254.028	82.75
254.261	75.75
254.494	85.75
254.727	83.75
254.96	89.75
255.193	80.75
255.426	72.75
255.659	90.75
255.892	77.75
256.124	70.75
256.357	85.75
256.59	69.75
256.823	82.75
257.056	84.75
257.289	86.75
257.521	81.75
257.754	87.75
257.987	79.75
258.22	84.75
258.452	91.75
258.685	76.75
258.918	73.75
259.151	84.75
259.383	78.75
259.616	85.75
259.849	81.75
260.081	79.75
260.314	89.75
260.547	98.75
260.779	69.75
261.012	109.75
261.244	85.75
261.477	96.75
261.71	90.75
261.942	116.75
262.175	110.75
262.407	83.75
262.64	87.75
262.872	89.75
263.105	70.75
263.337	82.75
263.57	88.75
263.802	99.75
264.035	88.75
264.267	72.75
264.499	85.75
264.732	74.75
264.964	82.75
265.197	89.75
265.429	68.75
265.661	72.75
265.894	86.75
266.126	83.75
266.358	90.75
266.591	80.75
266.823	72.75
267.055	89.75
267.287	90.75
267.52	78.75
267.752	97.75
267.984	80.75
268.216	95.75
268.448	77.75
268.681	77.75
268.913	78.75
269.145	73.75
269.377	103.75
269.609	90.75
269.841	97.75
270.073	81.75
270.306	83.75
270.538	91.75
270.77	90.75
271.002	80.75
271.234	74.75
271.466	93.75
271.698	74.75
271.93	83.75
272.162	94.75
272.394	93.75
272.626	89.75
272.858	82.75
273.09	90.75
273.322	73.75
273.553	83.75
273.785	84.75
274.017	86.75
274.249	84.75
274.481	76.75
274.713	86.75
274.945	89.75
275.176	96.75
275.408	97.75
275.64	91.75
275.872	93.75
276.104	88.75
276.335	87.75
276.567	93.75
276.799	108.75
277.031	95.75
277.262	90.75
277.494	98.75
277.726	93.75
277.957	85.75
278.189	89.75
278.421	90.75
278.652	99.75
278.884	87.75
279.115	86.75
279.347	83.75
279.579	93.75
279.81	95.75
280.042	89.75
280.273	89.75
280.505	95.75
280.736	90.75
280.968	80.75
281.199	91.75
281.431	86.75
281.662	92.75
281.894	109.75
282.125	95.75
282.356	125.75
282.588	131.75
282.819	119.75
283.051	107.75
283.282	96.75
283.513	75.75
283.745	93.75
283.976	103.75
284.207	93.75
284.439	80.75
284.67	100.75
284.901	98.75
285.132	75.75
285.364	106.75
285.595	91.75
285.826	82.75
286.057	91.75
286.288	83.75
286.52	90.75
286.751	84.75
286.982	97.75
287.213	91.75
287.444	82.75
287.675	91.75
287.906	87.75
288.138	94.75
288.369	89.75
288.6	93.75
288.831	91.75
289.062	88.75
289.293	93.75
289.524	87.75
289.755	103.75
289.986	81.75
290.217	84.75
290.448	91.75
290.679	77.75
290.91	84.75
291.141	70.75
291.371	86.75
291.602	78.75
291.833	98.75
292.064	89.75
292.295	84.75
292.526	99.75
292.757	92.75
292.987	97.75
293.218	83.75
293.449	84.75
293.68	100.75
293.91	95.75
294.141	90.75
294.372	80.75
294.603	100.75
294.833	103.75
295.064	90.75
295.295	91.75
295.525	107.75
295.756	110.75
295.987	122.75
296.217	138.75
296.448	113.75
296.679	106.75
296.909	91.75
297.14	91.75
297.37	97.75
297.601	88.75
297.831	89.75
298.062	96.75
298.292	98.75
298.523	96.75
298.753	90.75
298.984	83.75
299.214	76.75
299.445	99.75
299.675	101.75
299.905	89.75
300.136	88.75
300.366	86.75
300.597	83.75
300.827	94.75
301.057	104.75
301.288	103.75
301.518	103.75
301.748	94.75
301.979	97.75
302.209	92.75
302.439	87.75
302.669	85.75
302.9	90.75
303.13	107.75
303.36	104.75
303.59	104.75
303.82	113.75
304.051	106.75
304.281	96.75
304.511	93.75
304.741	99.75
304.971	88.75
305.201	99.75
305.431	99.75
305.661	88.75
305.891	111.75
306.121	107.75
306.352	104.75
306.582	111.75
306.812	99.75
307.042	84.75
307.272	87.75
307.502	102.75
307.731	81.75
307.961	90.75
308.191	79.75
308.421	81.75
308.651	94.75
308.881	100.75
309.111	89.75
309.341	105.75
309.571	114.75
309.8	96.75
310.03	90.75
310.26	94.75
310.49	92.75
310.72	94.75
310.949	108.75
311.179	105.75
311.409	104.75
311.639	107.75
311.868	100.75
312.098	88.75
312.328	111.75
312.557	107.75
312.787	101.75
313.017	97.75
313.246	106.75
313.476	103.75
313.706	99.75
313.935	96.75
314.165	96.75
314.394	84.75
314.624	106.75
314.853	101.75
315.083	103.75
315.312	103.75
315.542	98.75
315.771	91.75
316.001	93.75
316.23	99.75
316.46	111.75
316.689	85.75
316.919	97.75
317.148	107.75
317.377	95.75
317.607	90.75
317.836	90.75
318.065	90.75
318.295	86.75
318.524	88.75
318.753	103.75
318.983	90.75
319.212	103.75
319.441	112.75
319.67	102.75
319.9	90.75
320.129	106.75
320.358	93.75
320.587	82.75
320.816	94.75
321.046	113.75
321.275	106.75
321.504	104.75
321.733	104.75
321.962	104.75
322.191	95.75
322.42	108.75
322.649	109.75
322.878	127.75
323.108	134.75
323.337	119.75
323.566	139.75
323.795	157.75
324.024	213.75
324.253	428.75
324.482	888.75
324.71	1860.75
324.939	2458.75
325.168	895.75
325.397	258.75
325.626	167.75
325.855	123.75
326.084	133.75
326.313	144.75
326.542	171.75
326.77	251.75
326.999	519.75
327.228	1049.75
327.457	1913.75
327.686	1484.75
327.914	397.75
328.143	194.75
328.372	162.75
328.6	130.75
328.829	120.75
329.058	129.75
329.287	136.75
329.515	116.75
329.744	97.75
329.972	96.75
330.201	101.75
330.43	115.75
330.658	119.75
330.887	139.75
331.115	122.75
331.344	106.75
331.572	101.75
331.801	99.75
332.03	129.75
332.258	104.75
332.486	106.75
332.715	98.75
332.943	91.75
333.172	96.75
333.4	117.75
333.629	110.75
333.857	119.75
334.085	118.75
334.314	100.75
334.542	92.75
334.771	91.75
334.999	109.75
335.227	97.75
335.455	96.75
335.684	101.75
335.912	93.75
336.14	96.75
336.369	108.75
336.597	109.75
336.825	107.75
337.053	89.75
337.281	98.75
337.51	105.75
337.738	97.75
337.966	100.75
338.194	96.75
338.422	105.75
338.65	91.75
338.878	101.75
339.106	83.75
339.334	91.75
339.562	88.75
339.79	103.75
340.018	108.75
340.246	104.75
340.474	114.75
340.702	87.75
340.93	107.75
341.158	101.75
341.386	102.75
341.614	105.75
341.842	88.75
342.07	91.75
342.298	105.75
342.526	87.75
342.754	83.75
342.981	94.75
343.209	117.75
343.437	108.75
343.665	91.75
343.893	101.75
344.12	100.75
344.348	94.75
344.576	103.75
344.804	107.75
345.031	94.75
345.259	102.75
345.487	102.75
345.714	82.75
345.942	91.75
346.17	96.75
346.397	92.75
346.625	109.75
346.853	111.75
347.08	88.75
347.308	87.75
347.535	100.75
347.763	103.75
347.99	107.75
348.218	99.75
348.445	105.75
348.673	92.75
348.9	93.75
349.128	111.75
349.355	113.75
349.583	118.75
349.81	89.75
350.037	101.75
350.265	98.75
350.492	90.75
350.72	98.75
350.947	125.75
351.174	125.75
351.402	97.75
351.629	107.75
351.856	107.75
352.083	108.75
352.311	91.75
352.538	110.75
352.765	106.75
352.992	122.75
353.22	110.75
353.447	116.75
353.674	105.75
353.901	98.75
354.128	112.75
354.355	111.75
354.583	106.75
354.81	128.75
355.037	105.75
355.264	98.75
355.491	98.75
355.718	87.75
355.945	93.75
356.172	90.75
356.399	97.75
356.626	107.75
356.853	99.75
357.08	100.75
357.307	104.75
357.534	100.75
357.761	101.75
357.988	81.75
358.215	87.75
358.441	99.75
358.668	88.75
358.895	96.75
359.122	84.75
359.349	96.75
359.576	91.75
359.802	102.75
360.029	120.75
360.256	116.75
360.483	110.75
360.709	97.75
360.936	89.75
361.163	93.75
361.39	94.75
361.616	86.75
361.843	91.75
362.07	98.75
362.296	101.75
362.523	96.75
362.749	87.75
362.976	96.75
363.203	99.75
363.429	96.75
363.656	85.75
363.882	101.75
364.109	87.75
364.335	84.75
364.562	89.75
364.788	90.75
365.015	95.75
365.241	106.75
365.468	117.75
365.694	108.75
365.92	104.75
366.147	105.75
366.373	75.75
366.599	85.75
366.826	95.75
367.052	86.75
367.278	88.75
367.505	102.75
367.731	88.75
367.957	103.75
368.184	87.75
368.41	90.75
368.636	108.75
368.862	123.75
369.089	103.75
369.315	98.75
369.541	95.75
369.767	96.75
369.993	92.75
370.219	91.75
370.445	99.75
370.672	105.75
370.898	98.75
371.124	90.75
371.35	79.75
371.576	100.75
371.802	99.75
372.028	91.75
372.254	83.75
372.48	99.75
372.706	92.75
372.932	85.75
373.158	88.75
373.384	98.75
373.61	97.75
373.835	95.75
374.061	103.75
374.287	92.75
374.513	78.75
374.739	93.75
374.965	81.75
375.191	100.75
375.416	95.75
375.642	102.75
375.868	96.75
376.094	90.75
376.319	97.75
376.545	95.75
376.771	82.75
376.997	94.75
377.222	97.75
377.448	86.75
377.674	100.75
377.899	94.75
378.125	107.75
378.35	98.75
378.576	105.75
378.802	111.75
379.027	91.75
379.253	97.75
379.478	95.75
379.704	100.75
379.929	105.75
380.155	106.75
380.38	87.75
380.606	95.75
380.831	104.75
381.057	109.75
381.282	104.75
381.507	105.75
381.733	95.75
381.958	100.75
382.184	97.75
382.409	118.75
382.634	96.75
382.86	97.75
383.085	102.75
383.31	104.75
383.535	107.75
383.761	108.75
383.986	109.75
384.211	92.75
384.436	113.75
384.662	95.75
384.887	108.75
385.112	99.75
385.337	110.75
385.562	97.75
385.787	112.75
386.013	110.75
386.238	111.75
386.463	106.75
386.688	119.75
386.913	110.75
387.138	114.75
387.363	109.75
387.588	111.75
387.813	113.75
388.038	101.75
388.263	114.75
388.488	104.75
388.713	85.75
388.938	105.75
389.163	88.75
389.387	92.75
389.612	87.75
389.837	89.75
390.062	102.75
390.287	90.75
390.512	102.75
390.736	94.75
390.961	92.75
391.186	81.75
391.411	113.75
391.636	100.75
391.86	82.75
392.085	87.75
392.31	89.75
392.534	82.75
392.759	86.75
392.984	86.75
393.208	98.75
393.433	97.75
393.658	89.75
393.882	105.75
394.107	95.75
394.331	91.75
394.556	102.75
394.78	73.75
395.005	87.75
395.229	99.75
395.454	98.75
395.678	91.75
395.903	95.75
396.127	85.75
396.352	80.75
396.576	84.75
396.801	95.75
397.025	89.75
397.249	80.75
397.474	83.75
397.698	78.75
397.922	96.75
398.147	88.75
398.371	111.75
398.595	84.75
398.82	93.75
399.044	81.75
399.268	81.75
399.492	98.75
399.717	103.75
399.941	90.75
400.165	83.75
400.389	100.75
400.613	89.75
400.837	88.75
401.062	107.75
401.286	96.75
401.51	101.75
401.734	91.75
401.958	107.75
402.182	122.75
402.406	147.75
402.63	117.75
402.854	111.75
403.078	106.75
403.302	96.75
403.526	99.75
403.75	102.75
403.974	101.75
404.198	96.75
404.422	88.75
404.645	101.75
404.869	91.75
405.093	89.75
405.317	100.75
405.541	106.75
405.765	104.75
405.988	121.75
406.212	159.75
406.436	224.75
406.66	149.75
406.883	91.75
407.107	92.75
407.331	91.75
407.555	106.75
407.778	93.75
408.002	102.75
408.226	90.75
408.449	106.75
408.673	83.75
408.896	103.75
409.12	97.75
409.344	94.75
409.567	94.75
409.791	97.75
410.014	108.75
410.238	90.75
410.461	97.75
410.685	99.75
410.908	109.75
411.132	105.75
411.355	97.75
411.578	114.75
411.802	110.75
412.025	94.75
412.249	83.75
412.472	81.75
412.695	90.75
412.919	90.75
413.142	91.75
413.365	90.75
413.589	104.75
413.812	90.75
414.035	93.75
414.258	87.75
414.482	99.75
414.705	95.75
414.928	107.75
415.151	86.75
415.374	77.75
415.597	79.75
415.821	77.75
416.044	94.75
416.267	96.75
416.49	106.75
416.713	109.75
416.936	91.75
417.159	98.75
417.382	93.75
417.605	91.75
417.828	90.75
418.051	86.75
418.274	83.75
418.497	95.75
418.72	88.75
418.943	91.75
419.166	98.75
419.389	99.75
419.611	90.75
419.834	95.75
420.057	98.75
420.28	86.75
420.503	84.75
420.726	97.75
420.948	89.75
421.171	104.75
421.394	85.75
421.617	88.75
421.839	90.75
422.062	85.75
422.285	101.75
422.507	113.75
422.73	98.75
422.953	89.75
423.175	97.75
423.398	83.75
423.621	85.75
423.843	106.75
424.066	88.75
424.288	90.75
424.511	97.75
424.733	86.75
424.956	101.75
425.178	95.75
425.401	102.75
425.623	111.75
425.846	84.75
426.068	90.75
426.291	105.75
426.513	96.75
426.735	105.75
426.958	91.75
427.18	99.75
427.402	134.75
427.625	145.75
427.847	118.75
428.069	88.75
428.292	82.75
428.514	95.75
428.736	98.75
428.958	98.75
429.181	72.75
429.403	106.75
429.625	89.75
429.847	97.75
430.069	102.75
430.292	90.75
430.514	96.75
430.736	90.75
430.958	81.75
431.18	90.75
431.402	92.75
431.624	84.75
431.846	91.75
432.068	90.75
432.29	93.75
432.512	101.75
432.734	92.75
432.956	86.75
433.178	93.75
433.4	105.75
433.622	79.75
433.844	105.75
434.066	100.75
434.287	96.75
434.509	90.75
434.731	108.75
434.953	89.75
435.175	89.75
435.397	82.75
435.618	96.75
435.84	106.75
436.062	139.75
436.284	115.75
436.505	103.75
436.727	113.75
436.949	82.75
437.17	84.75
437.392	90.75
437.614	92.75
437.835	105.75
438.057	126.75
438.278	107.75
438.5	92.75
438.721	113.75
438.943	96.75
439.165	97.75
439.386	106.75
439.608	103.75
439.829	110.75
440.05	116.75
440.272	147.75
440.493	100.75
440.715	89.75
440.936	97.75
441.158	101.75
441.379	95.75
441.6	84.75
441.822	100.75
442.043	105.75
442.264	106.75
442.486	101.75
442.707	92.75
442.928	118.75
443.149	109.75
443.371	125.75
443.592	122.75
443.813	102.75
444.034	105.75
444.255	104.75
444.476	90.75
444.698	90.75
444.919	83.75
445.14	130.75
445.361	115.75
445.582	118.75
445.803	137.75
446.024	133.75
446.245	142.75
446.466	111.75
446.687	83.75
446.908	95.75
447.129	93.75
447.35	91.75
447.571	88.75
447.792	89.75
448.013	100.75
448.234	108.75
448.455	99.75
448.675	100.75
448.896	110.75
449.117	116.75
449.338	94.75
449.559	127.75
449.779	135.75
450	89.75
450.221	95.75
450.442	95.75
450.662	106.75
450.883	93.75
451.104	117.75
451.324	98.75
451.545	83.75
451.766	98.75
451.986	77.75
452.207	79.75
452.428	96.75
452.648	90.75
452.869	116.75
453.089	118.75
453.31	114.75
453.53	91.75
453.751	100.75
453.971	106.75
454.192	107.75
454.412	78.75
454.633	96.75
454.853	79.75
455.073	103.75
455.294	104.75
455.514	88.75
455.734	91.75
455.955	101.75
456.175	88.75
456.395	82.75
456.616	85.75
456.836	78.75
457.056	69.75
457.276	88.75
457.497	83.75
457.717	82.75
457.937	92.75
458.157	105.75
458.377	93.75
458.598	106.75
458.818	140.75
459.038	156.75
459.258	119.75
459.478	100.75
459.698	82.75
459.918	81.75
460.138	70.75
460.358	86.75
460.578	92.75
460.798	86.75
461.018	79.75
461.238	99.75
461.458	79.75
461.678	79.75
461.898	80.75
462.118	85.75
462.338	97.75
462.558	74.75
462.777	94.75
462.997	84.75
463.217	96.75
463.437	108.75
463.657	78.75
463.876	89.75
464.096	83.75
464.316	103.75
464.536	91.75
464.755	96.75
464.975	118.75
465.195	169.75
465.414	146.75
465.634	95.75
465.854	86.75
466.073	82.75
466.293	85.75
466.512	95.75
466.732	92.75
466.951	92.75
467.171	99.75
467.391	106.75
467.61	111.75
467.829	97.75
468.049	81.75
468.268	94.75
468.488	91.75
468.707	78.75
468.927	85.75
469.146	82.75
469.365	79.75
469.585	75.75
469.804	91.75
470.023	101.75
470.243	91.75
470.462	95.75
470.681	112.75
470.901	93.75
471.12	89.75
471.339	90.75
471.558	75.75
471.777	82.75
471.997	97.75
472.216	81.75
472.435	86.75
472.654	88.75
472.873	88.75
473.092	82.75
473.311	98.75
473.53	87.75
473.749	83.75
473.968	97.75
474.187	101.75
474.406	108.75
474.625	86.75
474.844	98.75
475.063	90.75
475.282	105.75
475.501	99.75
475.72	92.75
475.939	91.75
476.158	95.75
476.377	108.75
476.596	86.75
476.814	91.75
477.033	92.75
477.252	97.75
477.471	99.75
477.69	80.75
477.908	88.75
478.127	88.75
478.346	98.75
478.564	101.75
478.783	98.75
479.002	83.75
479.22	85.75
479.439	112.75
479.658	112.75
479.876	104.75
480.095	78.75
480.313	101.75
480.532	87.75
480.751	97.75
480.969	91.75
481.188	90.75
481.406	95.75
481.624	91.75
481.843	94.75
482.061	87.75
482.28	98.75
482.498	77.75
482.717	89.75
482.935	89.75
483.153	97.75
483.372	98.75
483.59	80.75
483.808	80.75
484.027	99.75
484.245	92.75
484.463	95.75
484.681	100.75
484.9	93.75
485.118	108.75
485.336	87.75
485.554	111.75
485.772	86.75
485.99	94.75
486.209	93.75
486.427	100.75
486.645	107.75
486.863	95.75
487.081	95.75
487.299	96.75
487.517	95.75
487.735	98.75
487.953	100.75
488.171	73.75
488.389	95.75
488.607	99.75
488.825	98.75
489.043	87.75
489.261	83.75
489.479	100.75
489.696	107.75
489.914	88.75
490.132	96.75
490.35	86.75
490.568	83.75
490.786	80.75
491.003	87.75
491.221	86.75
491.439	115.75
491.657	104.75
491.874	73.75
492.092	94.75
492.31	88.75
492.527	94.75
492.745	96.75
492.963	98.75
493.18	105.75
493.398	99.75
493.615	92.75
493.833	101.75
494.05	93.75
494.268	94.75
494.485	98.75
494.703	101.75
494.92	96.75
495.138	82.75
495.355	96.75
495.573	90.75
495.79	91.75
496.008	96.75
496.225	100.75
496.442	85.75
496.66	94.75
496.877	83.75
497.094	104.75
497.312	92.75
497.529	87.75
497.746	91.75
497.963	93.75
498.181	99.75
498.398	86.75
498.615	103.75
498.832	99.75
499.049	83.75
499.267	91.75
499.484	89.75
499.701	90.75
499.918	94.75
500.135	84.75
500.352	97.75
500.569	101.75
500.786	89.75
501.003	93.75
501.22	87.75
501.437	114.75
501.654	90.75
501.871	110.75
502.088	96.75
502.305	79.75
502.522	83.75
502.739	116.75
502.956	96.75
503.172	89.75
503.389	102.75
503.606	110.75
503.823	94.75
504.04	100.75
504.256	102.75
504.473	81.75
504.69	87.75
504.907	106.75
505.123	96.75
505.34	105.75
505.557	90.75
505.773	99.75
505.99	82.75
506.207	100.75
506.423	81.75
506.64	106.75
506.856	96.75
507.073	86.75
507.289	95.75
507.506	105.75
507.722	101.75
507.939	94.75
508.155	81.75
508.372	109.75
508.588	96.75
508.805	101.75
509.021	108.75
509.238	99.75
509.454	94.75
509.67	104.75
509.887	123.75
510.103	146.75
510.319	221.75
510.536	773.75
510.752	2447.75
510.968	684.75
511.184	141.75
511.401	103.75
511.617	95.75
511.833	104.75
512.049	104.75
512.265	104.75
512.481	87.75
512.698	89.75
512.914	98.75
513.13	86.75
513.346	89.75
513.562	113.75
513.778	101.75
513.994	120.75
514.21	104.75
