Data from Uncirc_2006_H10_HRD10591_00035.txt Node
Date: Wed Jan 03 10:25:02 EST 2024
User: Yrep
Spectrometer: HR+D1059
Trigger mode: 1
Integration Time (sec): 1.000000E-1
Scans to average: 1
Electric dark correction enabled: true
Nonlinearity correction enabled: false
Boxcar width: 0
XAxis mode: Wavelengths
Number of Pixels in Spectrum: 2048
>>>>>Begin Spectral Data<<<<<
223.165	-12.62
223.4	-12.62
223.635	-12.62
223.869	-9.62
224.104	-17.62
224.338	-17.62
224.573	-9.62
224.808	-7.62
225.042	-14.62
225.277	-13.62
225.511	1.38
225.746	-4.62
225.98	0.38
226.215	12.38
226.449	10.38
226.683	26.38
226.918	35.38
227.152	21.38
227.387	34.38
227.621	35.38
227.856	50.38
228.09	44.38
228.324	62.38
228.559	61.38
228.793	59.38
229.027	69.38
229.262	63.38
229.496	67.38
229.73	85.38
229.964	89.38
230.199	75.38
230.433	69.38
230.667	79.38
230.901	79.38
231.136	70.38
231.37	82.38
231.604	77.38
231.838	84.38
232.072	75.38
232.306	77.38
232.541	88.38
232.775	89.38
233.009	80.38
233.243	75.38
233.477	74.38
233.711	77.38
233.945	93.38
234.179	79.38
234.413	75.38
234.647	86.38
234.881	77.38
235.115	74.38
235.349	69.38
235.583	75.38
235.817	75.38
236.051	81.38
236.285	82.38
236.519	91.38
236.753	86.38
236.987	72.38
237.221	67.38
237.455	85.38
237.689	86.38
237.922	73.38
238.156	73.38
238.39	80.38
238.624	74.38
238.858	83.38
239.091	87.38
239.325	82.38
239.559	85.38
239.793	88.38
240.027	93.38
240.26	63.38
240.494	91.38
240.728	86.38
240.961	83.38
241.195	70.38
241.429	68.38
241.662	76.38
241.896	81.38
242.13	81.38
242.363	71.38
242.597	79.38
242.83	66.38
243.064	85.38
243.298	79.38
243.531	86.38
243.765	81.38
243.998	80.38
244.232	85.38
244.465	77.38
244.699	82.38
244.932	89.38
245.166	79.38
245.399	86.38
245.633	73.38
245.866	79.38
246.099	94.38
246.333	80.38
246.566	95.38
246.8	79.38
247.033	77.38
247.266	74.38
247.5	85.38
247.733	83.38
247.966	81.38
248.2	82.38
248.433	86.38
248.666	68.38
248.899	83.38
249.133	89.38
249.366	95.38
249.599	92.38
249.832	76.38
250.066	86.38
250.299	94.38
250.532	87.38
250.765	84.38
250.998	81.38
251.231	84.38
251.465	84.38
251.698	82.38
251.931	78.38
252.164	85.38
252.397	69.38
252.63	85.38
252.863	84.38
253.096	71.38
253.329	91.38
253.562	91.38
253.795	70.38
254.028	65.38
254.261	86.38
254.494	81.38
254.727	97.38
254.96	87.38
255.193	62.38
255.426	85.38
255.659	92.38
255.892	89.38
256.124	86.38
256.357	74.38
256.59	75.38
256.823	80.38
257.056	89.38
257.289	86.38
257.521	92.38
257.754	85.38
257.987	84.38
258.22	93.38
258.452	85.38
258.685	88.38
258.918	86.38
259.151	91.38
259.383	86.38
259.616	71.38
259.849	92.38
260.081	84.38
260.314	87.38
260.547	92.38
260.779	86.38
261.012	93.38
261.244	70.38
261.477	81.38
261.71	96.38
261.942	115.38
262.175	117.38
262.407	94.38
262.64	81.38
262.872	75.38
263.105	95.38
263.337	93.38
263.57	87.38
263.802	84.38
264.035	84.38
264.267	88.38
264.499	93.38
264.732	86.38
264.964	73.38
265.197	78.38
265.429	82.38
265.661	91.38
265.894	82.38
266.126	80.38
266.358	91.38
266.591	77.38
266.823	79.38
267.055	80.38
267.287	88.38
267.52	70.38
267.752	84.38
267.984	91.38
268.216	86.38
268.448	89.38
268.681	90.38
268.913	81.38
269.145	91.38
269.377	88.38
269.609	89.38
269.841	84.38
270.073	92.38
270.306	86.38
270.538	86.38
270.77	80.38
271.002	85.38
271.234	82.38
271.466	73.38
271.698	87.38
271.93	89.38
272.162	78.38
272.394	84.38
272.626	82.38
272.858	78.38
273.09	83.38
273.322	86.38
273.553	87.38
273.785	81.38
274.017	78.38
274.249	88.38
274.481	90.38
274.713	83.38
274.945	83.38
275.176	83.38
275.408	96.38
275.64	80.38
275.872	83.38
276.104	89.38
276.335	96.38
276.567	86.38
276.799	102.38
277.031	98.38
277.262	78.38
277.494	87.38
277.726	81.38
277.957	84.38
278.189	93.38
278.421	89.38
278.652	77.38
278.884	82.38
279.115	85.38
279.347	99.38
279.579	81.38
279.81	97.38
280.042	77.38
280.273	91.38
280.505	82.38
280.736	94.38
280.968	78.38
281.199	88.38
281.431	91.38
281.662	87.38
281.894	85.38
282.125	95.38
282.356	106.38
282.588	132.38
282.819	100.38
283.051	86.38
283.282	84.38
283.513	72.38
283.745	89.38
283.976	70.38
284.207	81.38
284.439	91.38
284.67	94.38
284.901	72.38
285.132	87.38
285.364	85.38
285.595	85.38
285.826	89.38
286.057	97.38
286.288	84.38
286.52	85.38
286.751	91.38
286.982	94.38
287.213	96.38
287.444	87.38
287.675	73.38
287.906	84.38
288.138	93.38
288.369	95.38
288.6	84.38
288.831	92.38
289.062	95.38
289.293	80.38
289.524	77.38
289.755	74.38
289.986	95.38
290.217	100.38
290.448	85.38
290.679	91.38
290.91	85.38
291.141	81.38
291.371	97.38
291.602	93.38
291.833	89.38
292.064	86.38
292.295	82.38
292.526	76.38
292.757	90.38
292.987	92.38
293.218	96.38
293.449	100.38
293.68	95.38
293.91	96.38
294.141	87.38
294.372	84.38
294.603	90.38
294.833	80.38
295.064	102.38
295.295	86.38
295.525	91.38
295.756	90.38
295.987	114.38
296.217	146.38
296.448	112.38
296.679	98.38
296.909	83.38
297.14	81.38
297.37	103.38
297.601	82.38
297.831	86.38
298.062	102.38
298.292	82.38
298.523	75.38
298.753	96.38
298.984	97.38
299.214	83.38
299.445	94.38
299.675	102.38
299.905	91.38
300.136	93.38
300.366	97.38
300.597	86.38
300.827	94.38
301.057	107.38
301.288	108.38
301.518	84.38
301.748	91.38
301.979	103.38
302.209	96.38
302.439	77.38
302.669	97.38
302.9	101.38
303.13	93.38
303.36	106.38
303.59	102.38
303.82	106.38
304.051	85.38
304.281	88.38
304.511	96.38
304.741	94.38
304.971	108.38
305.201	94.38
305.431	91.38
305.661	90.38
305.891	81.38
306.121	87.38
306.352	101.38
306.582	106.38
306.812	86.38
307.042	95.38
307.272	87.38
307.502	81.38
307.731	101.38
307.961	98.38
308.191	89.38
308.421	77.38
308.651	94.38
308.881	94.38
309.111	86.38
309.341	85.38
309.571	114.38
309.8	86.38
310.03	100.38
310.26	98.38
310.49	108.38
310.72	103.38
310.949	105.38
311.179	86.38
311.409	89.38
311.639	106.38
311.868	96.38
312.098	105.38
312.328	95.38
312.557	93.38
312.787	82.38
313.017	87.38
313.246	81.38
313.476	93.38
313.706	98.38
313.935	100.38
314.165	95.38
314.394	106.38
314.624	86.38
314.853	98.38
315.083	85.38
315.312	77.38
315.542	83.38
315.771	98.38
316.001	102.38
316.23	83.38
316.46	80.38
316.689	97.38
316.919	87.38
317.148	95.38
317.377	84.38
317.607	85.38
317.836	88.38
318.065	84.38
318.295	81.38
318.524	109.38
318.753	99.38
318.983	109.38
319.212	114.38
319.441	94.38
319.67	103.38
319.9	86.38
320.129	117.38
320.358	102.38
320.587	83.38
320.816	92.38
321.046	97.38
321.275	88.38
321.504	108.38
321.733	84.38
321.962	89.38
322.191	99.38
322.42	111.38
322.649	125.38
322.878	112.38
323.108	114.38
323.337	127.38
323.566	122.38
323.795	150.38
324.024	192.38
324.253	384.38
324.482	802.38
324.71	1598.38
324.939	2084.38
325.168	772.38
325.397	225.38
325.626	149.38
325.855	128.38
326.084	134.38
326.313	139.38
326.542	146.38
326.77	220.38
326.999	453.38
327.228	948.38
327.457	1653.38
327.686	1287.38
327.914	333.38
328.143	178.38
328.372	140.38
328.6	112.38
328.829	119.38
329.058	107.38
329.287	106.38
329.515	110.38
329.744	101.38
329.972	104.38
330.201	109.38
330.43	99.38
330.658	114.38
330.887	110.38
331.115	130.38
331.344	95.38
331.572	100.38
331.801	104.38
332.03	94.38
332.258	86.38
332.486	95.38
332.715	86.38
332.943	103.38
333.172	96.38
333.4	96.38
333.629	96.38
333.857	117.38
334.085	105.38
334.314	87.38
334.542	103.38
334.771	93.38
334.999	97.38
335.227	90.38
335.455	100.38
335.684	93.38
335.912	96.38
336.14	98.38
336.369	91.38
336.597	98.38
336.825	92.38
337.053	85.38
337.281	82.38
337.51	91.38
337.738	92.38
337.966	92.38
338.194	102.38
338.422	93.38
338.65	76.38
338.878	85.38
339.106	81.38
339.334	97.38
339.562	87.38
339.79	87.38
340.018	84.38
340.246	86.38
340.474	84.38
340.702	102.38
340.93	94.38
341.158	76.38
341.386	89.38
341.614	94.38
341.842	100.38
342.07	79.38
342.298	83.38
342.526	96.38
342.754	97.38
342.981	99.38
343.209	80.38
343.437	92.38
343.665	83.38
343.893	98.38
344.12	96.38
344.348	73.38
344.576	82.38
344.804	96.38
345.031	87.38
345.259	104.38
345.487	97.38
345.714	92.38
345.942	93.38
346.17	83.38
346.397	84.38
346.625	101.38
346.853	92.38
347.08	91.38
347.308	95.38
347.535	90.38
347.763	101.38
347.99	99.38
348.218	111.38
348.445	113.38
348.673	100.38
348.9	86.38
349.128	95.38
349.355	93.38
349.583	88.38
349.81	101.38
350.037	93.38
350.265	97.38
350.492	93.38
350.72	81.38
350.947	98.38
351.174	98.38
351.402	100.38
351.629	106.38
351.856	106.38
352.083	109.38
352.311	108.38
352.538	97.38
352.765	109.38
352.992	107.38
353.22	114.38
353.447	100.38
353.674	94.38
353.901	109.38
354.128	105.38
354.355	95.38
354.583	90.38
354.81	96.38
355.037	82.38
355.264	94.38
355.491	86.38
355.718	92.38
355.945	101.38
356.172	95.38
356.399	98.38
356.626	93.38
356.853	83.38
357.08	97.38
357.307	96.38
357.534	98.38
357.761	98.38
357.988	105.38
358.215	93.38
358.441	92.38
358.668	73.38
358.895	89.38
359.122	91.38
359.349	89.38
359.576	90.38
359.802	97.38
360.029	107.38
360.256	111.38
360.483	100.38
360.709	78.38
360.936	88.38
361.163	77.38
361.39	88.38
361.616	69.38
361.843	100.38
362.07	91.38
362.296	96.38
362.523	98.38
362.749	77.38
362.976	85.38
363.203	90.38
363.429	91.38
363.656	88.38
363.882	91.38
364.109	91.38
364.335	101.38
364.562	93.38
364.788	78.38
365.015	95.38
365.241	92.38
365.468	106.38
365.694	102.38
365.92	105.38
366.147	98.38
366.373	86.38
366.599	97.38
366.826	82.38
367.052	110.38
367.278	105.38
367.505	96.38
367.731	99.38
367.957	87.38
368.184	97.38
368.41	94.38
368.636	111.38
368.862	112.38
369.089	100.38
369.315	89.38
369.541	89.38
369.767	85.38
369.993	100.38
370.219	93.38
370.445	91.38
370.672	75.38
370.898	90.38
371.124	94.38
371.35	92.38
371.576	98.38
371.802	84.38
372.028	82.38
372.254	98.38
372.48	84.38
372.706	81.38
372.932	82.38
373.158	86.38
373.384	109.38
373.61	113.38
373.835	84.38
374.061	98.38
374.287	91.38
374.513	94.38
374.739	87.38
374.965	83.38
375.191	95.38
375.416	87.38
375.642	79.38
375.868	98.38
376.094	95.38
376.319	86.38
376.545	74.38
376.771	66.38
376.997	90.38
377.222	85.38
377.448	91.38
377.674	93.38
377.899	101.38
378.125	94.38
378.35	92.38
378.576	90.38
378.802	100.38
379.027	105.38
379.253	100.38
379.478	102.38
379.704	92.38
379.929	106.38
380.155	88.38
380.38	106.38
380.606	96.38
380.831	90.38
381.057	97.38
381.282	95.38
381.507	96.38
381.733	90.38
381.958	93.38
382.184	92.38
382.409	96.38
382.634	106.38
382.86	94.38
383.085	114.38
383.31	107.38
383.535	93.38
383.761	106.38
383.986	78.38
384.211	85.38
384.436	99.38
384.662	102.38
384.887	112.38
385.112	110.38
385.337	96.38
385.562	109.38
385.787	107.38
386.013	102.38
386.238	90.38
386.463	101.38
386.688	121.38
386.913	108.38
387.138	114.38
387.363	112.38
387.588	109.38
387.813	91.38
388.038	110.38
388.263	103.38
388.488	121.38
388.713	94.38
388.938	94.38
389.163	102.38
389.387	105.38
389.612	98.38
389.837	103.38
390.062	100.38
390.287	101.38
390.512	101.38
390.736	86.38
390.961	89.38
391.186	102.38
391.411	88.38
391.636	84.38
391.86	79.38
392.085	86.38
392.31	78.38
392.534	95.38
392.759	79.38
392.984	88.38
393.208	73.38
393.433	88.38
393.658	92.38
393.882	79.38
394.107	83.38
394.331	87.38
394.556	88.38
394.78	97.38
395.005	95.38
395.229	88.38
395.454	80.38
395.678	86.38
395.903	71.38
396.127	74.38
396.352	84.38
396.576	86.38
396.801	94.38
397.025	94.38
397.249	87.38
397.474	88.38
397.698	84.38
397.922	87.38
398.147	75.38
398.371	84.38
398.595	92.38
398.82	95.38
399.044	101.38
399.268	96.38
399.492	87.38
399.717	86.38
399.941	96.38
400.165	97.38
400.389	90.38
400.613	83.38
400.837	74.38
401.062	87.38
401.286	78.38
401.51	81.38
401.734	80.38
401.958	84.38
402.182	127.38
402.406	137.38
402.63	123.38
402.854	85.38
403.078	82.38
403.302	82.38
403.526	96.38
403.75	100.38
403.974	79.38
404.198	84.38
404.422	78.38
404.645	85.38
404.869	92.38
405.093	91.38
405.317	91.38
405.541	96.38
405.765	90.38
405.988	119.38
406.212	155.38
406.436	207.38
406.66	139.38
406.883	100.38
407.107	82.38
407.331	95.38
407.555	92.38
407.778	88.38
408.002	92.38
408.226	97.38
408.449	91.38
408.673	93.38
408.896	91.38
409.12	98.38
409.344	90.38
409.567	92.38
409.791	82.38
410.014	88.38
410.238	83.38
410.461	82.38
410.685	95.38
410.908	97.38
411.132	107.38
411.355	99.38
411.578	100.38
411.802	81.38
412.025	81.38
412.249	94.38
412.472	100.38
412.695	88.38
412.919	93.38
413.142	89.38
413.365	84.38
413.589	101.38
413.812	91.38
414.035	87.38
414.258	86.38
414.482	86.38
414.705	90.38
414.928	93.38
415.151	99.38
415.374	84.38
415.597	88.38
415.821	93.38
416.044	91.38
416.267	102.38
416.49	103.38
416.713	87.38
416.936	88.38
417.159	104.38
417.382	79.38
417.605	79.38
417.828	94.38
418.051	97.38
418.274	93.38
418.497	83.38
418.72	87.38
418.943	83.38
419.166	73.38
419.389	102.38
419.611	101.38
419.834	85.38
420.057	95.38
420.28	91.38
420.503	93.38
420.726	86.38
420.948	89.38
421.171	87.38
421.394	87.38
421.617	88.38
421.839	98.38
422.062	91.38
422.285	89.38
422.507	80.38
422.73	102.38
422.953	93.38
423.175	105.38
423.398	91.38
423.621	87.38
423.843	93.38
424.066	87.38
424.288	87.38
424.511	84.38
424.733	102.38
424.956	98.38
425.178	100.38
425.401	93.38
425.623	93.38
425.846	83.38
426.068	73.38
426.291	92.38
426.513	93.38
426.735	78.38
426.958	79.38
427.18	87.38
427.402	116.38
427.625	134.38
427.847	124.38
428.069	96.38
428.292	78.38
428.514	97.38
428.736	79.38
428.958	80.38
429.181	97.38
429.403	95.38
429.625	94.38
429.847	103.38
430.069	86.38
430.292	98.38
430.514	83.38
430.736	92.38
430.958	83.38
431.18	96.38
431.402	94.38
431.624	91.38
431.846	90.38
432.068	94.38
432.29	88.38
432.512	92.38
432.734	106.38
432.956	89.38
433.178	87.38
433.4	94.38
433.622	92.38
433.844	98.38
434.066	98.38
434.287	101.38
434.509	96.38
434.731	90.38
434.953	92.38
435.175	92.38
435.397	92.38
435.618	110.38
435.84	95.38
436.062	113.38
436.284	108.38
436.505	97.38
436.727	104.38
436.949	92.38
437.17	82.38
437.392	81.38
437.614	90.38
437.835	104.38
438.057	117.38
438.278	107.38
438.5	96.38
438.721	103.38
438.943	106.38
439.165	70.38
439.386	91.38
439.608	103.38
439.829	84.38
440.05	119.38
440.272	117.38
440.493	97.38
440.715	80.38
440.936	78.38
441.158	82.38
441.379	83.38
441.6	93.38
441.822	94.38
442.043	101.38
442.264	99.38
442.486	101.38
442.707	83.38
442.928	110.38
443.149	118.38
443.371	129.38
443.592	110.38
443.813	110.38
444.034	98.38
444.255	93.38
444.476	77.38
444.698	92.38
444.919	99.38
445.14	116.38
445.361	113.38
445.582	107.38
445.803	125.38
446.024	130.38
446.245	127.38
446.466	103.38
446.687	95.38
446.908	108.38
447.129	84.38
447.35	86.38
447.571	100.38
447.792	95.38
448.013	98.38
448.234	103.38
448.455	106.38
448.675	103.38
448.896	114.38
449.117	108.38
449.338	97.38
449.559	123.38
449.779	117.38
450	96.38
450.221	84.38
450.442	102.38
450.662	90.38
450.883	103.38
451.104	104.38
451.324	101.38
451.545	85.38
451.766	87.38
451.986	88.38
452.207	83.38
452.428	83.38
452.648	97.38
452.869	111.38
453.089	117.38
453.31	116.38
453.53	104.38
453.751	101.38
453.971	95.38
454.192	113.38
454.412	98.38
454.633	97.38
454.853	93.38
455.073	86.38
455.294	99.38
455.514	102.38
455.734	94.38
455.955	100.38
456.175	79.38
456.395	96.38
456.616	95.38
456.836	101.38
457.056	85.38
457.276	67.38
457.497	80.38
457.717	82.38
457.937	95.38
458.157	85.38
458.377	86.38
458.598	87.38
458.818	144.38
459.038	165.38
459.258	102.38
459.478	87.38
459.698	85.38
459.918	85.38
460.138	91.38
460.358	84.38
460.578	90.38
460.798	94.38
461.018	87.38
461.238	98.38
461.458	87.38
461.678	87.38
461.898	94.38
462.118	88.38
462.338	96.38
462.558	84.38
462.777	87.38
462.997	91.38
463.217	93.38
463.437	85.38
463.657	76.38
463.876	88.38
464.096	95.38
464.316	108.38
464.536	96.38
464.755	106.38
464.975	120.38
465.195	146.38
465.414	148.38
465.634	97.38
465.854	90.38
466.073	83.38
466.293	74.38
466.512	92.38
466.732	84.38
466.951	96.38
467.171	82.38
467.391	85.38
467.61	96.38
467.829	95.38
468.049	79.38
468.268	90.38
468.488	86.38
468.707	89.38
468.927	91.38
469.146	92.38
469.365	87.38
469.585	88.38
469.804	96.38
470.023	101.38
470.243	103.38
470.462	93.38
470.681	110.38
470.901	90.38
471.12	87.38
471.339	77.38
471.558	84.38
471.777	88.38
471.997	93.38
472.216	85.38
472.435	84.38
472.654	87.38
472.873	85.38
473.092	89.38
473.311	88.38
473.53	81.38
473.749	89.38
473.968	87.38
474.187	100.38
474.406	93.38
474.625	89.38
474.844	85.38
475.063	81.38
475.282	92.38
475.501	84.38
475.72	79.38
475.939	77.38
476.158	83.38
476.377	80.38
476.596	86.38
476.814	85.38
477.033	101.38
477.252	84.38
477.471	95.38
477.69	93.38
477.908	91.38
478.127	97.38
478.346	100.38
478.564	93.38
478.783	91.38
479.002	85.38
479.22	94.38
479.439	99.38
479.658	88.38
479.876	101.38
480.095	84.38
480.313	87.38
480.532	93.38
480.751	99.38
480.969	99.38
481.188	94.38
481.406	89.38
481.624	89.38
481.843	85.38
482.061	85.38
482.28	101.38
482.498	89.38
482.717	84.38
482.935	99.38
483.153	95.38
483.372	89.38
483.59	97.38
483.808	79.38
484.027	101.38
484.245	98.38
484.463	90.38
484.681	85.38
484.9	107.38
485.118	98.38
485.336	75.38
485.554	101.38
485.772	106.38
485.99	93.38
486.209	91.38
486.427	94.38
486.645	88.38
486.863	107.38
487.081	94.38
487.299	91.38
487.517	108.38
487.735	95.38
487.953	98.38
488.171	78.38
488.389	95.38
488.607	102.38
488.825	95.38
489.043	93.38
489.261	93.38
489.479	76.38
489.696	100.38
489.914	80.38
490.132	96.38
490.35	102.38
490.568	88.38
490.786	83.38
491.003	93.38
491.221	76.38
491.439	91.38
491.657	112.38
491.874	105.38
492.092	89.38
492.31	87.38
492.527	87.38
492.745	90.38
492.963	115.38
493.18	103.38
493.398	111.38
493.615	90.38
493.833	101.38
494.05	94.38
494.268	88.38
494.485	83.38
494.703	95.38
494.92	86.38
495.138	95.38
495.355	93.38
495.573	99.38
495.79	87.38
496.008	99.38
496.225	86.38
496.442	101.38
496.66	91.38
496.877	105.38
497.094	93.38
497.312	82.38
497.529	93.38
497.746	86.38
497.963	73.38
498.181	97.38
498.398	91.38
498.615	111.38
498.832	98.38
499.049	101.38
499.267	104.38
499.484	93.38
499.701	84.38
499.918	89.38
500.135	93.38
500.352	83.38
500.569	87.38
500.786	88.38
501.003	82.38
501.22	98.38
501.437	101.38
501.654	95.38
501.871	99.38
502.088	98.38
502.305	90.38
502.522	101.38
502.739	98.38
502.956	98.38
503.172	108.38
503.389	97.38
503.606	97.38
503.823	112.38
504.04	90.38
504.256	103.38
504.473	99.38
504.69	91.38
504.907	98.38
505.123	81.38
505.34	94.38
505.557	101.38
505.773	80.38
505.99	84.38
506.207	94.38
506.423	89.38
506.64	96.38
506.856	101.38
507.073	86.38
507.289	98.38
507.506	100.38
507.722	122.38
507.939	103.38
508.155	87.38
508.372	83.38
508.588	98.38
508.805	96.38
509.021	103.38
509.238	95.38
509.454	93.38
509.67	95.38
509.887	114.38
510.103	125.38
510.319	215.38
510.536	738.38
510.752	2272.38
510.968	638.38
511.184	160.38
511.401	123.38
511.617	101.38
511.833	100.38
512.049	84.38
512.265	90.38
512.481	86.38
512.698	102.38
512.914	90.38
513.13	94.38
513.346	87.38
513.562	104.38
513.778	95.38
513.994	94.38
514.21	97.38
514.426	124.38
514.642	132.38
514.858	119.38
515.074	179.38
515.29	423.38
515.506	1367.38
515.721	513.38
