Data from Uncirc_2006_H10_HRD10591_00009.txt Node
Date: Wed Jan 03 10:24:56 EST 2024
User: Yrep
Spectrometer: HR+D1059
Trigger mode: 1
Integration Time (sec): 1.000000E-1
Scans to average: 1
Electric dark correction enabled: true
Nonlinearity correction enabled: false
Boxcar width: 0
XAxis mode: Wavelengths
Number of Pixels in Spectrum: 2048
>>>>>Begin Spectral Data<<<<<
223.165	-15.06
223.4	-15.06
223.635	-15.06
223.869	-13.06
224.104	-22.06
224.338	-25.06
224.573	-11.06
224.808	-15.06
225.042	-8.06
225.277	-19.06
225.511	5.94
225.746	-1.06
225.98	5.94
226.215	6.94
226.449	34.94
226.683	20.94
226.918	25.94
227.152	28.94
227.387	40.94
227.621	39.94
227.856	44.94
228.09	42.94
228.324	57.94
228.559	49.94
228.793	61.94
229.027	70.94
229.262	58.94
229.496	71.94
229.73	85.94
229.964	84.94
230.199	81.94
230.433	76.94
230.667	87.94
230.901	72.94
231.136	75.94
231.37	78.94
231.604	70.94
231.838	80.94
232.072	90.94
232.306	73.94
232.541	86.94
232.775	82.94
233.009	74.94
233.243	73.94
233.477	83.94
233.711	90.94
233.945	59.94
234.179	70.94
234.413	88.94
234.647	81.94
234.881	87.94
235.115	61.94
235.349	65.94
235.583	79.94
235.817	72.94
236.051	69.94
236.285	81.94
236.519	81.94
236.753	78.94
236.987	68.94
237.221	76.94
237.455	82.94
237.689	75.94
237.922	74.94
238.156	93.94
238.39	83.94
238.624	74.94
238.858	60.94
239.091	78.94
239.325	71.94
239.559	76.94
239.793	77.94
240.027	82.94
240.26	76.94
240.494	71.94
240.728	80.94
240.961	71.94
241.195	81.94
241.429	85.94
241.662	82.94
241.896	76.94
242.13	75.94
242.363	97.94
242.597	74.94
242.83	97.94
243.064	88.94
243.298	75.94
243.531	70.94
243.765	85.94
243.998	85.94
244.232	81.94
244.465	74.94
244.699	81.94
244.932	84.94
245.166	79.94
245.399	77.94
245.633	78.94
245.866	80.94
246.099	73.94
246.333	82.94
246.566	76.94
246.8	68.94
247.033	80.94
247.266	67.94
247.5	77.94
247.733	73.94
247.966	87.94
248.2	70.94
248.433	83.94
248.666	78.94
248.899	77.94
249.133	92.94
249.366	90.94
249.599	97.94
249.832	79.94
250.066	83.94
250.299	63.94
250.532	85.94
250.765	66.94
250.998	79.94
251.231	81.94
251.465	58.94
251.698	83.94
251.931	84.94
252.164	96.94
252.397	85.94
252.63	85.94
252.863	72.94
253.096	87.94
253.329	86.94
253.562	75.94
253.795	88.94
254.028	94.94
254.261	79.94
254.494	76.94
254.727	96.94
254.96	78.94
255.193	76.94
255.426	87.94
255.659	82.94
255.892	67.94
256.124	79.94
256.357	75.94
256.59	74.94
256.823	73.94
257.056	79.94
257.289	73.94
257.521	79.94
257.754	70.94
257.987	65.94
258.22	85.94
258.452	88.94
258.685	78.94
258.918	76.94
259.151	88.94
259.383	84.94
259.616	71.94
259.849	75.94
260.081	63.94
260.314	78.94
260.547	84.94
260.779	90.94
261.012	84.94
261.244	92.94
261.477	91.94
261.71	95.94
261.942	97.94
262.175	100.94
262.407	84.94
262.64	79.94
262.872	84.94
263.105	65.94
263.337	81.94
263.57	85.94
263.802	79.94
264.035	83.94
264.267	78.94
264.499	72.94
264.732	82.94
264.964	79.94
265.197	77.94
265.429	93.94
265.661	78.94
265.894	88.94
266.126	83.94
266.358	78.94
266.591	85.94
266.823	82.94
267.055	69.94
267.287	67.94
267.52	63.94
267.752	80.94
267.984	78.94
268.216	77.94
268.448	77.94
268.681	79.94
268.913	80.94
269.145	76.94
269.377	80.94
269.609	100.94
269.841	80.94
270.073	70.94
270.306	84.94
270.538	77.94
270.77	95.94
271.002	86.94
271.234	77.94
271.466	86.94
271.698	80.94
271.93	71.94
272.162	89.94
272.394	91.94
272.626	95.94
272.858	96.94
273.09	75.94
273.322	76.94
273.553	63.94
273.785	78.94
274.017	65.94
274.249	84.94
274.481	79.94
274.713	72.94
274.945	83.94
275.176	85.94
275.408	77.94
275.64	69.94
275.872	74.94
276.104	90.94
276.335	88.94
276.567	88.94
276.799	113.94
277.031	84.94
277.262	108.94
277.494	78.94
277.726	90.94
277.957	85.94
278.189	66.94
278.421	76.94
278.652	75.94
278.884	74.94
279.115	81.94
279.347	87.94
279.579	81.94
279.81	84.94
280.042	76.94
280.273	90.94
280.505	83.94
280.736	70.94
280.968	79.94
281.199	90.94
281.431	90.94
281.662	89.94
281.894	101.94
282.125	93.94
282.356	109.94
282.588	115.94
282.819	105.94
283.051	106.94
283.282	90.94
283.513	82.94
283.745	76.94
283.976	80.94
284.207	87.94
284.439	90.94
284.67	81.94
284.901	82.94
285.132	81.94
285.364	73.94
285.595	90.94
285.826	90.94
286.057	67.94
286.288	87.94
286.52	97.94
286.751	90.94
286.982	79.94
287.213	82.94
287.444	86.94
287.675	95.94
287.906	100.94
288.138	99.94
288.369	83.94
288.6	90.94
288.831	91.94
289.062	92.94
289.293	91.94
289.524	87.94
289.755	97.94
289.986	69.94
290.217	90.94
290.448	80.94
290.679	81.94
290.91	84.94
291.141	88.94
291.371	60.94
291.602	80.94
291.833	94.94
292.064	94.94
292.295	82.94
292.526	86.94
292.757	90.94
292.987	79.94
293.218	89.94
293.449	79.94
293.68	87.94
293.91	82.94
294.141	93.94
294.372	83.94
294.603	97.94
294.833	91.94
295.064	91.94
295.295	79.94
295.525	86.94
295.756	116.94
295.987	107.94
296.217	114.94
296.448	129.94
296.679	99.94
296.909	88.94
297.14	70.94
297.37	84.94
297.601	87.94
297.831	83.94
298.062	93.94
298.292	74.94
298.523	71.94
298.753	80.94
298.984	83.94
299.214	92.94
299.445	102.94
299.675	88.94
299.905	109.94
300.136	83.94
300.366	80.94
300.597	68.94
300.827	114.94
301.057	80.94
301.288	83.94
301.518	87.94
301.748	88.94
301.979	106.94
302.209	92.94
302.439	95.94
302.669	84.94
302.9	95.94
303.13	91.94
303.36	82.94
303.59	106.94
303.82	101.94
304.051	86.94
304.281	102.94
304.511	104.94
304.741	86.94
304.971	91.94
305.201	87.94
305.431	94.94
305.661	68.94
305.891	87.94
306.121	95.94
306.352	95.94
306.582	106.94
306.812	79.94
307.042	105.94
307.272	90.94
307.502	82.94
307.731	106.94
307.961	84.94
308.191	81.94
308.421	72.94
308.651	84.94
308.881	90.94
309.111	100.94
309.341	96.94
309.571	78.94
309.8	91.94
310.03	103.94
310.26	94.94
310.49	89.94
310.72	99.94
310.949	94.94
311.179	86.94
311.409	80.94
311.639	93.94
311.868	82.94
312.098	105.94
312.328	101.94
312.557	103.94
312.787	91.94
313.017	95.94
313.246	91.94
313.476	95.94
313.706	83.94
313.935	81.94
314.165	99.94
314.394	108.94
314.624	94.94
314.853	96.94
315.083	88.94
315.312	87.94
315.542	83.94
315.771	96.94
316.001	91.94
316.23	87.94
316.46	80.94
316.689	90.94
316.919	87.94
317.148	92.94
317.377	85.94
317.607	92.94
317.836	98.94
318.065	91.94
318.295	80.94
318.524	98.94
318.753	79.94
318.983	88.94
319.212	106.94
319.441	98.94
319.67	96.94
319.9	86.94
320.129	87.94
320.358	101.94
320.587	95.94
320.816	92.94
321.046	98.94
321.275	94.94
321.504	89.94
321.733	97.94
321.962	85.94
322.191	117.94
322.42	92.94
322.649	106.94
322.878	106.94
323.108	109.94
323.337	109.94
323.566	121.94
323.795	141.94
324.024	200.94
324.253	379.94
324.482	783.94
324.71	1615.94
324.939	2095.94
325.168	761.94
325.397	235.94
325.626	144.94
325.855	116.94
326.084	108.94
326.313	136.94
326.542	155.94
326.77	234.94
326.999	452.94
327.228	876.94
327.457	1648.94
327.686	1302.94
327.914	361.94
328.143	189.94
328.372	137.94
328.6	123.94
328.829	121.94
329.058	120.94
329.287	108.94
329.515	110.94
329.744	107.94
329.972	93.94
330.201	95.94
330.43	97.94
330.658	97.94
330.887	121.94
331.115	108.94
331.344	103.94
331.572	94.94
331.801	92.94
332.03	95.94
332.258	90.94
332.486	86.94
332.715	93.94
332.943	100.94
333.172	96.94
333.4	87.94
333.629	97.94
333.857	114.94
334.085	104.94
334.314	89.94
334.542	80.94
334.771	72.94
334.999	90.94
335.227	90.94
335.455	88.94
335.684	90.94
335.912	99.94
336.14	93.94
336.369	83.94
336.597	91.94
336.825	97.94
337.053	71.94
337.281	82.94
337.51	75.94
337.738	79.94
337.966	94.94
338.194	84.94
338.422	103.94
338.65	83.94
338.878	88.94
339.106	78.94
339.334	89.94
339.562	88.94
339.79	80.94
340.018	75.94
340.246	73.94
340.474	82.94
340.702	87.94
340.93	95.94
341.158	82.94
341.386	66.94
341.614	89.94
341.842	94.94
342.07	73.94
342.298	89.94
342.526	92.94
342.754	91.94
342.981	76.94
343.209	87.94
343.437	95.94
343.665	85.94
343.893	80.94
344.12	74.94
344.348	84.94
344.576	105.94
344.804	91.94
345.031	95.94
345.259	80.94
345.487	75.94
345.714	87.94
345.942	98.94
346.17	83.94
346.397	89.94
346.625	79.94
346.853	76.94
347.08	86.94
347.308	97.94
347.535	88.94
347.763	98.94
347.99	86.94
348.218	98.94
348.445	82.94
348.673	101.94
348.9	93.94
349.128	97.94
349.355	100.94
349.583	99.94
349.81	96.94
350.037	90.94
350.265	91.94
350.492	88.94
350.72	90.94
350.947	81.94
351.174	94.94
351.402	110.94
351.629	93.94
351.856	101.94
352.083	99.94
352.311	103.94
352.538	97.94
352.765	96.94
352.992	106.94
353.22	110.94
353.447	122.94
353.674	92.94
353.901	103.94
354.128	87.94
354.355	99.94
354.583	87.94
354.81	104.94
355.037	83.94
355.264	80.94
355.491	97.94
355.718	91.94
355.945	100.94
356.172	87.94
356.399	95.94
356.626	101.94
356.853	80.94
357.08	87.94
357.307	82.94
357.534	88.94
357.761	102.94
357.988	101.94
358.215	99.94
358.441	81.94
358.668	90.94
358.895	82.94
359.122	90.94
359.349	107.94
359.576	89.94
359.802	95.94
360.029	98.94
360.256	87.94
360.483	96.94
360.709	87.94
360.936	86.94
361.163	84.94
361.39	87.94
361.616	91.94
361.843	83.94
362.07	96.94
362.296	90.94
362.523	100.94
362.749	91.94
362.976	86.94
363.203	92.94
363.429	93.94
363.656	91.94
363.882	96.94
364.109	83.94
364.335	85.94
364.562	84.94
364.788	78.94
365.015	94.94
365.241	89.94
365.468	94.94
365.694	96.94
365.92	85.94
366.147	95.94
366.373	82.94
366.599	82.94
366.826	91.94
367.052	76.94
367.278	85.94
367.505	75.94
367.731	94.94
367.957	94.94
368.184	88.94
368.41	88.94
368.636	106.94
368.862	122.94
369.089	103.94
369.315	106.94
369.541	96.94
369.767	98.94
369.993	91.94
370.219	89.94
370.445	80.94
370.672	89.94
370.898	93.94
371.124	75.94
371.35	99.94
371.576	82.94
371.802	87.94
372.028	82.94
372.254	75.94
372.48	100.94
372.706	99.94
372.932	69.94
373.158	95.94
373.384	92.94
373.61	93.94
373.835	81.94
374.061	69.94
374.287	93.94
374.513	100.94
374.739	85.94
374.965	90.94
375.191	76.94
375.416	88.94
375.642	105.94
375.868	89.94
376.094	100.94
376.319	75.94
376.545	100.94
376.771	101.94
376.997	109.94
377.222	76.94
377.448	95.94
377.674	100.94
377.899	94.94
378.125	85.94
378.35	100.94
378.576	83.94
378.802	90.94
379.027	77.94
379.253	90.94
379.478	82.94
379.704	99.94
379.929	97.94
380.155	85.94
380.38	84.94
380.606	97.94
380.831	91.94
381.057	94.94
381.282	111.94
381.507	79.94
381.733	90.94
381.958	103.94
382.184	109.94
382.409	99.94
382.634	112.94
382.86	98.94
383.085	105.94
383.31	108.94
383.535	101.94
383.761	92.94
383.986	105.94
384.211	106.94
384.436	104.94
384.662	108.94
384.887	118.94
385.112	99.94
385.337	116.94
385.562	123.94
385.787	115.94
386.013	111.94
386.238	136.94
386.463	102.94
386.688	126.94
386.913	114.94
387.138	112.94
387.363	115.94
387.588	99.94
387.813	95.94
388.038	125.94
388.263	109.94
388.488	133.94
388.713	103.94
388.938	99.94
389.163	87.94
389.387	93.94
389.612	113.94
389.837	96.94
390.062	99.94
390.287	89.94
390.512	89.94
390.736	89.94
390.961	100.94
391.186	82.94
391.411	91.94
391.636	90.94
391.86	75.94
392.085	80.94
392.31	82.94
392.534	84.94
392.759	95.94
392.984	77.94
393.208	97.94
393.433	91.94
393.658	103.94
393.882	79.94
394.107	81.94
394.331	96.94
394.556	95.94
394.78	85.94
395.005	86.94
395.229	93.94
395.454	95.94
395.678	96.94
395.903	83.94
396.127	85.94
396.352	80.94
396.576	94.94
396.801	90.94
397.025	92.94
397.249	88.94
397.474	87.94
397.698	81.94
397.922	98.94
398.147	80.94
398.371	80.94
398.595	84.94
398.82	83.94
399.044	97.94
399.268	91.94
399.492	89.94
399.717	90.94
399.941	75.94
400.165	95.94
400.389	90.94
400.613	74.94
400.837	83.94
401.062	79.94
401.286	83.94
401.51	80.94
401.734	95.94
401.958	103.94
402.182	127.94
402.406	143.94
402.63	116.94
402.854	92.94
403.078	93.94
403.302	89.94
403.526	83.94
403.75	101.94
403.974	92.94
404.198	80.94
404.422	85.94
404.645	87.94
404.869	81.94
405.093	90.94
405.317	93.94
405.541	87.94
405.765	89.94
405.988	107.94
406.212	144.94
406.436	199.94
406.66	122.94
406.883	83.94
407.107	81.94
407.331	89.94
407.555	99.94
407.778	96.94
408.002	90.94
408.226	91.94
408.449	93.94
408.673	85.94
408.896	94.94
409.12	91.94
409.344	89.94
409.567	90.94
409.791	88.94
410.014	98.94
410.238	98.94
410.461	92.94
410.685	100.94
410.908	107.94
411.132	103.94
411.355	100.94
411.578	77.94
411.802	92.94
412.025	86.94
412.249	95.94
412.472	85.94
412.695	84.94
412.919	89.94
413.142	83.94
413.365	79.94
413.589	107.94
413.812	81.94
414.035	87.94
414.258	85.94
414.482	98.94
414.705	76.94
414.928	91.94
415.151	96.94
415.374	95.94
415.597	82.94
415.821	112.94
416.044	81.94
416.267	96.94
416.49	94.94
416.713	91.94
416.936	84.94
417.159	88.94
417.382	78.94
417.605	89.94
417.828	82.94
418.051	82.94
418.274	94.94
418.497	94.94
418.72	83.94
418.943	81.94
419.166	92.94
419.389	109.94
419.611	88.94
419.834	95.94
420.057	92.94
420.28	85.94
420.503	92.94
420.726	73.94
420.948	88.94
421.171	80.94
421.394	85.94
421.617	80.94
421.839	95.94
422.062	106.94
422.285	87.94
422.507	102.94
422.73	83.94
422.953	81.94
423.175	88.94
423.398	92.94
423.621	83.94
423.843	91.94
424.066	104.94
424.288	91.94
424.511	92.94
424.733	92.94
424.956	86.94
425.178	100.94
425.401	84.94
425.623	104.94
425.846	94.94
426.068	89.94
426.291	89.94
426.513	76.94
426.735	91.94
426.958	96.94
427.18	95.94
427.402	126.94
427.625	133.94
427.847	115.94
428.069	89.94
428.292	99.94
428.514	92.94
428.736	93.94
428.958	90.94
429.181	90.94
429.403	98.94
429.625	88.94
429.847	83.94
430.069	87.94
430.292	91.94
430.514	81.94
430.736	84.94
430.958	77.94
431.18	82.94
431.402	76.94
431.624	77.94
431.846	83.94
432.068	94.94
432.29	88.94
432.512	82.94
432.734	84.94
432.956	85.94
433.178	92.94
433.4	97.94
433.622	82.94
433.844	103.94
434.066	81.94
434.287	79.94
434.509	101.94
434.731	90.94
434.953	97.94
435.175	84.94
435.397	98.94
435.618	81.94
435.84	103.94
436.062	104.94
436.284	121.94
436.505	98.94
436.727	89.94
436.949	94.94
437.17	89.94
437.392	76.94
437.614	88.94
437.835	104.94
438.057	104.94
438.278	100.94
438.5	90.94
438.721	121.94
438.943	101.94
439.165	85.94
439.386	85.94
439.608	91.94
439.829	94.94
440.05	106.94
440.272	115.94
440.493	92.94
440.715	89.94
440.936	83.94
441.158	85.94
441.379	85.94
441.6	84.94
441.822	80.94
442.043	95.94
442.264	101.94
442.486	80.94
442.707	87.94
442.928	107.94
443.149	119.94
443.371	111.94
443.592	107.94
443.813	113.94
444.034	86.94
444.255	93.94
444.476	85.94
444.698	89.94
444.919	72.94
445.14	118.94
445.361	123.94
445.582	124.94
445.803	121.94
446.024	129.94
446.245	110.94
446.466	101.94
446.687	81.94
446.908	85.94
447.129	95.94
447.35	77.94
447.571	76.94
447.792	82.94
448.013	102.94
448.234	111.94
448.455	85.94
448.675	103.94
448.896	112.94
449.117	106.94
449.338	99.94
449.559	110.94
449.779	141.94
450	102.94
450.221	97.94
450.442	92.94
450.662	98.94
450.883	111.94
451.104	97.94
451.324	91.94
451.545	78.94
451.766	82.94
451.986	96.94
452.207	92.94
452.428	87.94
452.648	92.94
452.869	119.94
453.089	121.94
453.31	100.94
453.53	80.94
453.751	102.94
453.971	89.94
454.192	112.94
454.412	93.94
454.633	81.94
454.853	82.94
455.073	91.94
455.294	80.94
455.514	92.94
455.734	100.94
455.955	72.94
456.175	74.94
456.395	87.94
456.616	89.94
456.836	77.94
457.056	84.94
457.276	77.94
457.497	76.94
457.717	89.94
457.937	96.94
458.157	78.94
458.377	92.94
458.598	97.94
458.818	129.94
459.038	145.94
459.258	108.94
459.478	86.94
459.698	76.94
459.918	87.94
460.138	86.94
460.358	86.94
460.578	98.94
460.798	90.94
461.018	80.94
461.238	75.94
461.458	85.94
461.678	97.94
461.898	88.94
462.118	67.94
462.338	82.94
462.558	99.94
462.777	90.94
462.997	97.94
463.217	85.94
463.437	73.94
463.657	89.94
463.876	84.94
464.096	78.94
464.316	103.94
464.536	99.94
464.755	74.94
464.975	114.94
465.195	142.94
465.414	129.94
465.634	84.94
465.854	90.94
466.073	88.94
466.293	93.94
466.512	68.94
466.732	89.94
466.951	78.94
467.171	102.94
467.391	92.94
467.61	103.94
467.829	98.94
468.049	96.94
468.268	93.94
468.488	77.94
468.707	83.94
468.927	96.94
469.146	99.94
469.365	93.94
469.585	73.94
469.804	73.94
470.023	79.94
470.243	77.94
470.462	108.94
470.681	99.94
470.901	81.94
471.12	91.94
471.339	99.94
471.558	91.94
471.777	74.94
471.997	75.94
472.216	91.94
472.435	80.94
472.654	76.94
472.873	81.94
473.092	85.94
473.311	85.94
473.53	84.94
473.749	101.94
473.968	92.94
474.187	92.94
474.406	77.94
474.625	94.94
474.844	95.94
475.063	78.94
475.282	88.94
475.501	99.94
475.72	83.94
475.939	89.94
476.158	95.94
476.377	85.94
476.596	93.94
476.814	88.94
477.033	78.94
477.252	90.94
477.471	78.94
477.69	80.94
477.908	89.94
478.127	88.94
478.346	91.94
478.564	90.94
478.783	95.94
479.002	90.94
479.22	91.94
479.439	90.94
479.658	92.94
479.876	90.94
480.095	88.94
480.313	95.94
480.532	90.94
480.751	85.94
480.969	80.94
481.188	91.94
481.406	87.94
481.624	89.94
481.843	78.94
482.061	76.94
482.28	73.94
482.498	75.94
482.717	90.94
482.935	77.94
483.153	85.94
483.372	83.94
483.59	79.94
483.808	74.94
484.027	89.94
484.245	89.94
484.463	87.94
484.681	95.94
484.9	106.94
485.118	103.94
485.336	102.94
485.554	85.94
485.772	78.94
485.99	87.94
486.209	99.94
486.427	98.94
486.645	91.94
486.863	104.94
487.081	108.94
487.299	100.94
487.517	101.94
487.735	96.94
487.953	90.94
488.171	92.94
488.389	96.94
488.607	100.94
488.825	96.94
489.043	85.94
489.261	94.94
489.479	84.94
489.696	90.94
489.914	73.94
490.132	91.94
490.35	90.94
490.568	84.94
490.786	84.94
491.003	72.94
491.221	89.94
491.439	80.94
491.657	81.94
491.874	85.94
492.092	76.94
492.31	77.94
492.527	88.94
492.745	93.94
492.963	84.94
493.18	93.94
493.398	93.94
493.615	90.94
493.833	100.94
494.05	88.94
494.268	104.94
494.485	84.94
494.703	91.94
494.92	72.94
495.138	87.94
495.355	90.94
495.573	93.94
495.79	79.94
496.008	107.94
496.225	93.94
496.442	91.94
496.66	100.94
496.877	92.94
497.094	83.94
497.312	97.94
497.529	82.94
497.746	90.94
497.963	84.94
498.181	96.94
498.398	89.94
498.615	98.94
498.832	96.94
499.049	77.94
499.267	85.94
499.484	81.94
499.701	80.94
499.918	87.94
500.135	88.94
500.352	107.94
500.569	93.94
500.786	94.94
501.003	82.94
501.22	91.94
501.437	89.94
501.654	97.94
501.871	109.94
502.088	103.94
502.305	89.94
502.522	97.94
502.739	84.94
502.956	80.94
503.172	90.94
503.389	83.94
503.606	106.94
503.823	82.94
504.04	76.94
504.256	88.94
504.473	91.94
504.69	85.94
504.907	100.94
505.123	82.94
505.34	97.94
505.557	85.94
505.773	76.94
505.99	79.94
506.207	81.94
506.423	90.94
506.64	88.94
506.856	92.94
507.073	78.94
507.289	110.94
507.506	93.94
507.722	106.94
507.939	110.94
508.155	95.94
508.372	92.94
508.588	91.94
508.805	84.94
509.021	85.94
509.238	100.94
509.454	88.94
509.67	101.94
509.887	93.94
510.103	129.94
510.319	199.94
510.536	693.94
510.752	2168.94
510.968	615.94
511.184	135.94
511.401	108.94
511.617	89.94
511.833	87.94
512.049	90.94
512.265	90.94
512.481	95.94
512.698	97.94
512.914	96.94
513.13	89.94
513.346	98.94
513.562	93.94
513.778	93.94
513.994	96.94
514.21	81.94
514.426	110.94
514.642	124.94
514.858	120.94
515.074	149.94
515.29	392.94
515.506	1309.94
515.721	497.94
515.937	144.94
516.153	113.94
516.369	97.94
516.585	90.94
