Data from Uncirc_2006_H10_HRD10591_00046.txt Node
Date: Wed Jan 03 10:25:04 EST 2024
User: Yrep
Spectrometer: HR+D1059
Trigger mode: 1
Integration Time (sec): 1.000000E-1
Scans to average: 1
Electric dark correction enabled: true
Nonlinearity correction enabled: false
Boxcar width: 0
XAxis mode: Wavelengths
Number of Pixels in Spectrum: 2048
>>>>>Begin Spectral Data<<<<<
223.165	-14.19
223.4	-14.19
223.635	-14.19
223.869	-15.19
224.104	-15.19
224.338	-22.19
224.573	-19.19
224.808	-19.19
225.042	-14.19
225.277	-0.19
225.511	4.81
225.746	-5.19
225.98	10.81
226.215	22.81
226.449	6.81
226.683	20.81
226.918	21.81
227.152	36.81
227.387	36.81
227.621	39.81
227.856	49.81
228.09	41.81
228.324	28.81
228.559	61.81
228.793	62.81
229.027	60.81
229.262	62.81
229.496	68.81
229.73	76.81
229.964	93.81
230.199	85.81
230.433	69.81
230.667	79.81
230.901	75.81
231.136	79.81
231.37	80.81
231.604	72.81
231.838	83.81
232.072	87.81
232.306	79.81
232.541	77.81
232.775	67.81
233.009	82.81
233.243	93.81
233.477	67.81
233.711	76.81
233.945	79.81
234.179	76.81
234.413	85.81
234.647	82.81
234.881	74.81
235.115	85.81
235.349	70.81
235.583	80.81
235.817	75.81
236.051	80.81
236.285	76.81
236.519	72.81
236.753	86.81
236.987	73.81
237.221	79.81
237.455	85.81
237.689	81.81
237.922	64.81
238.156	61.81
238.39	69.81
238.624	78.81
238.858	82.81
239.091	78.81
239.325	70.81
239.559	81.81
239.793	84.81
240.027	77.81
240.26	75.81
240.494	81.81
240.728	73.81
240.961	83.81
241.195	69.81
241.429	50.81
241.662	84.81
241.896	79.81
242.13	75.81
242.363	69.81
242.597	79.81
242.83	63.81
243.064	67.81
243.298	63.81
243.531	71.81
243.765	67.81
243.998	77.81
244.232	75.81
244.465	87.81
244.699	68.81
244.932	79.81
245.166	89.81
245.399	86.81
245.633	95.81
245.866	77.81
246.099	76.81
246.333	74.81
246.566	74.81
246.8	86.81
247.033	70.81
247.266	72.81
247.5	81.81
247.733	80.81
247.966	79.81
248.2	85.81
248.433	84.81
248.666	85.81
248.899	72.81
249.133	80.81
249.366	90.81
249.599	100.81
249.832	88.81
250.066	72.81
250.299	73.81
250.532	92.81
250.765	69.81
250.998	75.81
251.231	77.81
251.465	80.81
251.698	86.81
251.931	83.81
252.164	83.81
252.397	78.81
252.63	74.81
252.863	60.81
253.096	81.81
253.329	63.81
253.562	67.81
253.795	78.81
254.028	89.81
254.261	83.81
254.494	63.81
254.727	81.81
254.96	81.81
255.193	73.81
255.426	69.81
255.659	75.81
255.892	81.81
256.124	74.81
256.357	80.81
256.59	71.81
256.823	75.81
257.056	72.81
257.289	65.81
257.521	79.81
257.754	88.81
257.987	77.81
258.22	78.81
258.452	76.81
258.685	71.81
258.918	82.81
259.151	87.81
259.383	87.81
259.616	85.81
259.849	85.81
260.081	93.81
260.314	88.81
260.547	74.81
260.779	63.81
261.012	84.81
261.244	82.81
261.477	84.81
261.71	81.81
261.942	97.81
262.175	95.81
262.407	92.81
262.64	84.81
262.872	69.81
263.105	86.81
263.337	95.81
263.57	72.81
263.802	96.81
264.035	86.81
264.267	73.81
264.499	86.81
264.732	71.81
264.964	75.81
265.197	81.81
265.429	88.81
265.661	76.81
265.894	91.81
266.126	85.81
266.358	90.81
266.591	77.81
266.823	99.81
267.055	82.81
267.287	81.81
267.52	88.81
267.752	73.81
267.984	87.81
268.216	80.81
268.448	75.81
268.681	76.81
268.913	79.81
269.145	85.81
269.377	88.81
269.609	97.81
269.841	83.81
270.073	81.81
270.306	92.81
270.538	85.81
270.77	72.81
271.002	89.81
271.234	62.81
271.466	74.81
271.698	72.81
271.93	83.81
272.162	84.81
272.394	89.81
272.626	80.81
272.858	70.81
273.09	73.81
273.322	79.81
273.553	85.81
273.785	81.81
274.017	84.81
274.249	76.81
274.481	88.81
274.713	81.81
274.945	99.81
275.176	78.81
275.408	75.81
275.64	79.81
275.872	82.81
276.104	82.81
276.335	94.81
276.567	103.81
276.799	95.81
277.031	103.81
277.262	76.81
277.494	89.81
277.726	108.81
277.957	82.81
278.189	90.81
278.421	82.81
278.652	75.81
278.884	95.81
279.115	91.81
279.347	79.81
279.579	93.81
279.81	83.81
280.042	88.81
280.273	77.81
280.505	80.81
280.736	63.81
280.968	84.81
281.199	88.81
281.431	94.81
281.662	85.81
281.894	89.81
282.125	112.81
282.356	107.81
282.588	120.81
282.819	91.81
283.051	84.81
283.282	89.81
283.513	102.81
283.745	94.81
283.976	89.81
284.207	71.81
284.439	79.81
284.67	84.81
284.901	80.81
285.132	88.81
285.364	82.81
285.595	75.81
285.826	88.81
286.057	99.81
286.288	85.81
286.52	76.81
286.751	81.81
286.982	85.81
287.213	81.81
287.444	89.81
287.675	85.81
287.906	79.81
288.138	99.81
288.369	79.81
288.6	87.81
288.831	84.81
289.062	77.81
289.293	69.81
289.524	73.81
289.755	80.81
289.986	77.81
290.217	83.81
290.448	77.81
290.679	99.81
290.91	89.81
291.141	79.81
291.371	91.81
291.602	93.81
291.833	88.81
292.064	75.81
292.295	92.81
292.526	87.81
292.757	82.81
292.987	88.81
293.218	84.81
293.449	83.81
293.68	80.81
293.91	92.81
294.141	96.81
294.372	73.81
294.603	83.81
294.833	94.81
295.064	84.81
295.295	78.81
295.525	72.81
295.756	83.81
295.987	102.81
296.217	128.81
296.448	121.81
296.679	107.81
296.909	84.81
297.14	77.81
297.37	80.81
297.601	89.81
297.831	82.81
298.062	97.81
298.292	91.81
298.523	89.81
298.753	82.81
298.984	77.81
299.214	86.81
299.445	86.81
299.675	102.81
299.905	85.81
300.136	84.81
300.366	99.81
300.597	89.81
300.827	81.81
301.057	111.81
301.288	88.81
301.518	79.81
301.748	80.81
301.979	113.81
302.209	92.81
302.439	97.81
302.669	72.81
302.9	87.81
303.13	99.81
303.36	83.81
303.59	89.81
303.82	103.81
304.051	94.81
304.281	92.81
304.511	87.81
304.741	79.81
304.971	84.81
305.201	91.81
305.431	91.81
305.661	82.81
305.891	89.81
306.121	82.81
306.352	92.81
306.582	106.81
306.812	88.81
307.042	91.81
307.272	93.81
307.502	89.81
307.731	97.81
307.961	82.81
308.191	92.81
308.421	85.81
308.651	95.81
308.881	84.81
309.111	93.81
309.341	110.81
309.571	98.81
309.8	91.81
310.03	84.81
310.26	77.81
310.49	89.81
310.72	96.81
310.949	96.81
311.179	93.81
311.409	105.81
311.639	85.81
311.868	101.81
312.098	96.81
312.328	115.81
312.557	106.81
312.787	93.81
313.017	103.81
313.246	90.81
313.476	92.81
313.706	92.81
313.935	97.81
314.165	97.81
314.394	94.81
314.624	97.81
314.853	101.81
315.083	115.81
315.312	98.81
315.542	98.81
315.771	74.81
316.001	79.81
316.23	97.81
316.46	103.81
316.689	99.81
316.919	95.81
317.148	88.81
317.377	92.81
317.607	102.81
317.836	89.81
318.065	105.81
318.295	75.81
318.524	97.81
318.753	80.81
318.983	79.81
319.212	112.81
319.441	94.81
319.67	109.81
319.9	92.81
320.129	94.81
320.358	90.81
320.587	94.81
320.816	96.81
321.046	89.81
321.275	90.81
321.504	81.81
321.733	91.81
321.962	83.81
322.191	116.81
322.42	104.81
322.649	97.81
322.878	103.81
323.108	108.81
323.337	125.81
323.566	137.81
323.795	145.81
324.024	182.81
324.253	388.81
324.482	769.81
324.71	1596.81
324.939	2088.81
325.168	767.81
325.397	230.81
325.626	141.81
325.855	114.81
326.084	104.81
326.313	114.81
326.542	155.81
326.77	223.81
326.999	437.81
327.228	890.81
327.457	1643.81
327.686	1302.81
327.914	348.81
328.143	185.81
328.372	112.81
328.6	109.81
328.829	107.81
329.058	130.81
329.287	124.81
329.515	103.81
329.744	99.81
329.972	95.81
330.201	100.81
330.43	108.81
330.658	99.81
330.887	119.81
331.115	96.81
331.344	105.81
331.572	107.81
331.801	111.81
332.03	105.81
332.258	101.81
332.486	98.81
332.715	97.81
332.943	84.81
333.172	90.81
333.4	92.81
333.629	99.81
333.857	95.81
334.085	94.81
334.314	85.81
334.542	88.81
334.771	89.81
334.999	96.81
335.227	91.81
335.455	95.81
335.684	79.81
335.912	97.81
336.14	96.81
336.369	97.81
336.597	99.81
336.825	99.81
337.053	77.81
337.281	96.81
337.51	90.81
337.738	96.81
337.966	104.81
338.194	100.81
338.422	77.81
338.65	105.81
338.878	85.81
339.106	88.81
339.334	89.81
339.562	79.81
339.79	75.81
340.018	96.81
340.246	99.81
340.474	99.81
340.702	84.81
340.93	95.81
341.158	79.81
341.386	89.81
341.614	74.81
341.842	84.81
342.07	85.81
342.298	83.81
342.526	86.81
342.754	80.81
342.981	89.81
343.209	95.81
343.437	98.81
343.665	95.81
343.893	87.81
344.12	85.81
344.348	81.81
344.576	82.81
344.804	70.81
345.031	71.81
345.259	104.81
345.487	95.81
345.714	86.81
345.942	89.81
346.17	95.81
346.397	85.81
346.625	85.81
346.853	97.81
347.08	97.81
347.308	95.81
347.535	108.81
347.763	106.81
347.99	83.81
348.218	89.81
348.445	79.81
348.673	95.81
348.9	99.81
349.128	102.81
349.355	100.81
349.583	90.81
349.81	79.81
350.037	85.81
350.265	83.81
350.492	99.81
350.72	90.81
350.947	100.81
351.174	109.81
351.402	95.81
351.629	96.81
351.856	94.81
352.083	104.81
352.311	105.81
352.538	103.81
352.765	98.81
352.992	102.81
353.22	97.81
353.447	107.81
353.674	95.81
353.901	90.81
354.128	94.81
354.355	105.81
354.583	98.81
354.81	92.81
355.037	100.81
355.264	88.81
355.491	94.81
355.718	96.81
355.945	99.81
356.172	98.81
356.399	80.81
356.626	81.81
356.853	98.81
357.08	89.81
357.307	92.81
357.534	74.81
357.761	93.81
357.988	99.81
358.215	88.81
358.441	98.81
358.668	88.81
358.895	86.81
359.122	89.81
359.349	95.81
359.576	90.81
359.802	82.81
360.029	100.81
360.256	93.81
360.483	129.81
360.709	91.81
360.936	93.81
361.163	85.81
361.39	105.81
361.616	99.81
361.843	97.81
362.07	86.81
362.296	89.81
362.523	91.81
362.749	89.81
362.976	99.81
363.203	84.81
363.429	89.81
363.656	89.81
363.882	77.81
364.109	91.81
364.335	94.81
364.562	81.81
364.788	87.81
365.015	82.81
365.241	88.81
365.468	93.81
365.694	88.81
365.92	94.81
366.147	75.81
366.373	83.81
366.599	78.81
366.826	92.81
367.052	94.81
367.278	84.81
367.505	90.81
367.731	89.81
367.957	77.81
368.184	95.81
368.41	94.81
368.636	105.81
368.862	103.81
369.089	103.81
369.315	85.81
369.541	100.81
369.767	92.81
369.993	91.81
370.219	76.81
370.445	86.81
370.672	96.81
370.898	85.81
371.124	89.81
371.35	88.81
371.576	76.81
371.802	82.81
372.028	65.81
372.254	85.81
372.48	97.81
372.706	75.81
372.932	93.81
373.158	85.81
373.384	91.81
373.61	88.81
373.835	79.81
374.061	92.81
374.287	102.81
374.513	83.81
374.739	83.81
374.965	89.81
375.191	88.81
375.416	92.81
375.642	85.81
375.868	91.81
376.094	95.81
376.319	92.81
376.545	80.81
376.771	87.81
376.997	100.81
377.222	75.81
377.448	82.81
377.674	91.81
377.899	80.81
378.125	82.81
378.35	93.81
378.576	92.81
378.802	98.81
379.027	86.81
379.253	83.81
379.478	82.81
379.704	94.81
379.929	106.81
380.155	93.81
380.38	98.81
380.606	97.81
380.831	99.81
381.057	88.81
381.282	91.81
381.507	78.81
381.733	106.81
381.958	95.81
382.184	92.81
382.409	95.81
382.634	108.81
382.86	92.81
383.085	108.81
383.31	108.81
383.535	106.81
383.761	90.81
383.986	101.81
384.211	115.81
384.436	100.81
384.662	103.81
384.887	112.81
385.112	93.81
385.337	109.81
385.562	106.81
385.787	85.81
386.013	118.81
386.238	104.81
386.463	114.81
386.688	109.81
386.913	97.81
387.138	109.81
387.363	100.81
387.588	92.81
387.813	90.81
388.038	110.81
388.263	100.81
388.488	110.81
388.713	81.81
388.938	99.81
389.163	86.81
389.387	104.81
389.612	95.81
389.837	76.81
390.062	101.81
390.287	95.81
390.512	84.81
390.736	80.81
390.961	95.81
391.186	80.81
391.411	91.81
391.636	95.81
391.86	80.81
392.085	77.81
392.31	96.81
392.534	74.81
392.759	81.81
392.984	71.81
393.208	80.81
393.433	99.81
393.658	82.81
393.882	84.81
394.107	92.81
394.331	100.81
394.556	90.81
394.78	98.81
395.005	79.81
395.229	75.81
395.454	85.81
395.678	74.81
395.903	95.81
396.127	82.81
396.352	101.81
396.576	86.81
396.801	84.81
397.025	87.81
397.249	84.81
397.474	74.81
397.698	91.81
397.922	83.81
398.147	98.81
398.371	76.81
398.595	82.81
398.82	82.81
399.044	93.81
399.268	79.81
399.492	89.81
399.717	100.81
399.941	92.81
400.165	87.81
400.389	80.81
400.613	78.81
400.837	64.81
401.062	88.81
401.286	84.81
401.51	89.81
401.734	96.81
401.958	107.81
402.182	105.81
402.406	152.81
402.63	98.81
402.854	101.81
403.078	82.81
403.302	89.81
403.526	94.81
403.75	92.81
403.974	78.81
404.198	82.81
404.422	84.81
404.645	84.81
404.869	80.81
405.093	90.81
405.317	93.81
405.541	94.81
405.765	91.81
405.988	110.81
406.212	157.81
406.436	205.81
406.66	123.81
406.883	89.81
407.107	96.81
407.331	85.81
407.555	92.81
407.778	94.81
408.002	92.81
408.226	92.81
408.449	92.81
408.673	91.81
408.896	81.81
409.12	106.81
409.344	86.81
409.567	99.81
409.791	90.81
410.014	93.81
410.238	95.81
410.461	84.81
410.685	84.81
410.908	95.81
411.132	97.81
411.355	86.81
411.578	97.81
411.802	75.81
412.025	76.81
412.249	83.81
412.472	84.81
412.695	73.81
412.919	84.81
413.142	100.81
413.365	85.81
413.589	101.81
413.812	95.81
414.035	96.81
414.258	90.81
414.482	93.81
414.705	87.81
414.928	88.81
415.151	85.81
415.374	86.81
415.597	67.81
415.821	68.81
416.044	77.81
416.267	86.81
416.49	79.81
416.713	79.81
416.936	82.81
417.159	93.81
417.382	81.81
417.605	87.81
417.828	88.81
418.051	81.81
418.274	89.81
418.497	84.81
418.72	85.81
418.943	88.81
419.166	102.81
419.389	99.81
419.611	85.81
419.834	83.81
420.057	77.81
420.28	83.81
420.503	94.81
420.726	90.81
420.948	88.81
421.171	83.81
421.394	96.81
421.617	87.81
421.839	89.81
422.062	89.81
422.285	91.81
422.507	104.81
422.73	92.81
422.953	102.81
423.175	86.81
423.398	89.81
423.621	96.81
423.843	88.81
424.066	78.81
424.288	91.81
424.511	82.81
424.733	90.81
424.956	94.81
425.178	91.81
425.401	93.81
425.623	106.81
425.846	87.81
426.068	91.81
426.291	83.81
426.513	89.81
426.735	105.81
426.958	85.81
427.18	99.81
427.402	135.81
427.625	149.81
427.847	121.81
428.069	86.81
428.292	95.81
428.514	90.81
428.736	90.81
428.958	83.81
429.181	95.81
429.403	81.81
429.625	86.81
429.847	87.81
430.069	91.81
430.292	90.81
430.514	82.81
430.736	74.81
430.958	71.81
431.18	88.81
431.402	88.81
431.624	82.81
431.846	85.81
432.068	74.81
432.29	81.81
432.512	84.81
432.734	93.81
432.956	97.81
433.178	97.81
433.4	99.81
433.622	88.81
433.844	83.81
434.066	85.81
434.287	91.81
434.509	95.81
434.731	88.81
434.953	81.81
435.175	84.81
435.397	75.81
435.618	80.81
435.84	96.81
436.062	124.81
436.284	103.81
436.505	100.81
436.727	101.81
436.949	90.81
437.17	85.81
437.392	83.81
437.614	77.81
437.835	90.81
438.057	116.81
438.278	103.81
438.5	87.81
438.721	97.81
438.943	102.81
439.165	89.81
439.386	69.81
439.608	80.81
439.829	108.81
440.05	124.81
440.272	119.81
440.493	98.81
440.715	99.81
440.936	88.81
441.158	84.81
441.379	86.81
441.6	91.81
441.822	90.81
442.043	97.81
442.264	83.81
442.486	91.81
442.707	103.81
442.928	115.81
443.149	113.81
443.371	112.81
443.592	97.81
443.813	91.81
444.034	87.81
444.255	86.81
444.476	87.81
444.698	88.81
444.919	82.81
445.14	122.81
445.361	104.81
445.582	108.81
445.803	111.81
446.024	129.81
446.245	131.81
446.466	84.81
446.687	78.81
446.908	79.81
447.129	81.81
447.35	77.81
447.571	91.81
447.792	89.81
448.013	97.81
448.234	99.81
448.455	93.81
448.675	99.81
448.896	104.81
449.117	89.81
449.338	95.81
449.559	113.81
449.779	133.81
450	95.81
450.221	84.81
450.442	95.81
450.662	93.81
450.883	93.81
451.104	107.81
451.324	107.81
451.545	88.81
451.766	84.81
451.986	98.81
452.207	84.81
452.428	83.81
452.648	79.81
452.869	104.81
453.089	121.81
453.31	101.81
453.53	85.81
453.751	91.81
453.971	92.81
454.192	120.81
454.412	98.81
454.633	85.81
454.853	93.81
455.073	93.81
455.294	81.81
455.514	92.81
455.734	85.81
455.955	78.81
456.175	80.81
456.395	79.81
456.616	76.81
456.836	81.81
457.056	75.81
457.276	82.81
457.497	77.81
457.717	91.81
457.937	76.81
458.157	105.81
458.377	85.81
458.598	69.81
458.818	145.81
459.038	132.81
459.258	115.81
459.478	95.81
459.698	77.81
459.918	79.81
460.138	83.81
460.358	82.81
460.578	88.81
460.798	77.81
461.018	71.81
461.238	85.81
461.458	85.81
461.678	90.81
461.898	81.81
462.118	85.81
462.338	78.81
462.558	77.81
462.777	85.81
462.997	78.81
463.217	83.81
463.437	83.81
463.657	78.81
463.876	78.81
464.096	78.81
464.316	101.81
464.536	88.81
464.755	84.81
464.975	106.81
465.195	137.81
465.414	141.81
465.634	92.81
465.854	76.81
466.073	87.81
466.293	82.81
466.512	64.81
466.732	84.81
466.951	98.81
467.171	94.81
467.391	82.81
467.61	107.81
467.829	89.81
468.049	81.81
468.268	74.81
468.488	71.81
468.707	79.81
468.927	84.81
469.146	80.81
469.365	90.81
469.585	92.81
469.804	85.81
470.023	105.81
470.243	92.81
470.462	78.81
470.681	113.81
470.901	91.81
471.12	85.81
471.339	97.81
471.558	106.81
471.777	100.81
471.997	77.81
472.216	108.81
472.435	93.81
472.654	80.81
472.873	75.81
473.092	89.81
473.311	72.81
473.53	73.81
473.749	70.81
473.968	90.81
474.187	98.81
474.406	84.81
474.625	84.81
474.844	86.81
475.063	93.81
475.282	99.81
475.501	80.81
475.72	93.81
475.939	84.81
476.158	80.81
476.377	91.81
476.596	91.81
476.814	84.81
477.033	92.81
477.252	82.81
477.471	73.81
477.69	75.81
477.908	89.81
478.127	93.81
478.346	84.81
478.564	87.81
478.783	98.81
479.002	80.81
479.22	85.81
479.439	99.81
479.658	75.81
479.876	85.81
480.095	83.81
480.313	92.81
480.532	85.81
480.751	79.81
480.969	85.81
481.188	95.81
481.406	83.81
481.624	78.81
481.843	100.81
482.061	72.81
482.28	83.81
482.498	81.81
482.717	85.81
482.935	88.81
483.153	71.81
483.372	81.81
483.59	90.81
483.808	93.81
484.027	93.81
484.245	94.81
484.463	93.81
484.681	96.81
484.9	88.81
485.118	98.81
485.336	96.81
485.554	86.81
485.772	101.81
485.99	103.81
486.209	88.81
486.427	121.81
486.645	103.81
486.863	108.81
487.081	90.81
487.299	91.81
487.517	79.81
487.735	83.81
487.953	80.81
488.171	92.81
488.389	90.81
488.607	100.81
488.825	74.81
489.043	88.81
489.261	85.81
489.479	84.81
489.696	103.81
489.914	79.81
490.132	90.81
490.35	91.81
490.568	83.81
490.786	79.81
491.003	91.81
491.221	84.81
491.439	85.81
491.657	90.81
491.874	90.81
492.092	74.81
492.31	97.81
492.527	92.81
492.745	77.81
492.963	73.81
493.18	87.81
493.398	103.81
493.615	84.81
493.833	97.81
494.05	89.81
494.268	101.81
494.485	84.81
494.703	94.81
494.92	87.81
495.138	102.81
495.355	84.81
495.573	88.81
495.79	88.81
496.008	88.81
496.225	82.81
496.442	87.81
496.66	79.81
496.877	89.81
497.094	96.81
497.312	95.81
497.529	104.81
497.746	82.81
497.963	89.81
498.181	77.81
498.398	93.81
498.615	106.81
498.832	94.81
499.049	78.81
499.267	92.81
499.484	84.81
499.701	98.81
499.918	94.81
500.135	94.81
500.352	90.81
500.569	99.81
500.786	91.81
501.003	78.81
501.22	85.81
501.437	89.81
501.654	87.81
501.871	103.81
502.088	85.81
502.305	96.81
502.522	91.81
502.739	98.81
502.956	85.81
503.172	77.81
503.389	98.81
503.606	108.81
503.823	81.81
504.04	88.81
504.256	100.81
504.473	87.81
504.69	93.81
504.907	82.81
505.123	85.81
505.34	88.81
505.557	86.81
505.773	93.81
505.99	104.81
506.207	82.81
506.423	105.81
506.64	89.81
506.856	108.81
507.073	85.81
507.289	91.81
507.506	97.81
507.722	101.81
507.939	102.81
508.155	92.81
508.372	92.81
508.588	86.81
508.805	79.81
509.021	96.81
509.238	100.81
509.454	103.81
509.67	85.81
509.887	96.81
510.103	129.81
510.319	197.81
510.536	706.81
510.752	2191.81
510.968	621.81
511.184	144.81
511.401	97.81
511.617	100.81
511.833	93.81
512.049	91.81
512.265	91.81
512.481	92.81
512.698	77.81
512.914	84.81
513.13	95.81
513.346	74.81
513.562	96.81
513.778	100.81
513.994	101.81
514.21	100.81
514.426	107.81
514.642	127.81
514.858	114.81
515.074	162.81
515.29	404.81
515.506	1316.81
515.721	484.81
515.937	143.81
516.153	110.81
516.369	116.81
516.585	94.81
516.801	69.81
