Data from Uncirc_2006_H10_HRD10591_00011.txt Node
Date: Wed Jan 03 10:24:57 EST 2024
User: Yrep
Spectrometer: HR+D1059
Trigger mode: 1
Integration Time (sec): 1.000000E-1
Scans to average: 1
Electric dark correction enabled: true
Nonlinearity correction enabled: false
Boxcar width: 0
XAxis mode: Wavelengths
Number of Pixels in Spectrum: 2048
>>>>>Begin Spectral Data<<<<<
223.165	-17
223.4	-17
223.635	-17
223.869	-14
224.104	-15
224.338	-17
224.573	-2
224.808	-6
225.042	-6
225.277	-7
225.511	-7
225.746	-3
225.98	4
226.215	14
226.449	-2
226.683	22
226.918	26
227.152	30
227.387	45
227.621	49
227.856	44
228.09	41
228.324	44
228.559	58
228.793	54
229.027	70
229.262	64
229.496	67
229.73	82
229.964	84
230.199	62
230.433	78
230.667	65
230.901	78
231.136	87
231.37	80
231.604	84
231.838	66
232.072	83
232.306	85
232.541	81
232.775	93
233.009	71
233.243	88
233.477	67
233.711	80
233.945	70
234.179	81
234.413	81
234.647	91
234.881	78
235.115	77
235.349	88
235.583	86
235.817	79
236.051	68
236.285	85
236.519	71
236.753	70
236.987	82
237.221	79
237.455	87
237.689	86
237.922	74
238.156	72
238.39	73
238.624	76
238.858	66
239.091	76
239.325	86
239.559	89
239.793	84
240.027	86
240.26	72
240.494	83
240.728	79
240.961	87
241.195	95
241.429	73
241.662	66
241.896	77
242.13	83
242.363	83
242.597	79
242.83	92
243.064	84
243.298	87
243.531	82
243.765	85
243.998	82
244.232	96
244.465	91
244.699	82
244.932	79
245.166	75
245.399	87
245.633	86
245.866	68
246.099	59
246.333	76
246.566	85
246.8	87
247.033	81
247.266	71
247.5	69
247.733	82
247.966	81
248.2	79
248.433	76
248.666	76
248.899	93
249.133	80
249.366	85
249.599	105
249.832	97
250.066	83
250.299	75
250.532	76
250.765	75
250.998	74
251.231	84
251.465	77
251.698	80
251.931	81
252.164	82
252.397	72
252.63	78
252.863	88
253.096	79
253.329	89
253.562	96
253.795	85
254.028	88
254.261	98
254.494	79
254.727	83
254.96	77
255.193	91
255.426	78
255.659	80
255.892	80
256.124	87
256.357	82
256.59	97
256.823	74
257.056	89
257.289	88
257.521	80
257.754	86
257.987	87
258.22	81
258.452	83
258.685	78
258.918	80
259.151	85
259.383	71
259.616	76
259.849	78
260.081	87
260.314	82
260.547	82
260.779	100
261.012	85
261.244	86
261.477	85
261.71	96
261.942	109
262.175	93
262.407	93
262.64	87
262.872	90
263.105	87
263.337	95
263.57	94
263.802	81
264.035	75
264.267	78
264.499	96
264.732	90
264.964	84
265.197	82
265.429	78
265.661	87
265.894	79
266.126	87
266.358	82
266.591	70
266.823	77
267.055	80
267.287	76
267.52	83
267.752	93
267.984	83
268.216	95
268.448	93
268.681	73
268.913	81
269.145	82
269.377	94
269.609	87
269.841	85
270.073	98
270.306	94
270.538	84
270.77	84
271.002	80
271.234	83
271.466	79
271.698	87
271.93	83
272.162	83
272.394	84
272.626	90
272.858	93
273.09	86
273.322	85
273.553	79
273.785	77
274.017	74
274.249	78
274.481	90
274.713	93
274.945	88
275.176	86
275.408	84
275.64	83
275.872	78
276.104	90
276.335	82
276.567	87
276.799	108
277.031	99
277.262	89
277.494	67
277.726	91
277.957	90
278.189	89
278.421	97
278.652	74
278.884	84
279.115	85
279.347	91
279.579	88
279.81	94
280.042	85
280.273	84
280.505	90
280.736	72
280.968	79
281.199	99
281.431	77
281.662	82
281.894	81
282.125	98
282.356	109
282.588	137
282.819	102
283.051	67
283.282	84
283.513	82
283.745	86
283.976	96
284.207	69
284.439	95
284.67	98
284.901	82
285.132	93
285.364	90
285.595	86
285.826	82
286.057	110
286.288	97
286.52	85
286.751	83
286.982	84
287.213	82
287.444	79
287.675	87
287.906	84
288.138	84
288.369	84
288.6	68
288.831	98
289.062	87
289.293	86
289.524	84
289.755	88
289.986	85
290.217	79
290.448	89
290.679	107
290.91	87
291.141	90
291.371	90
291.602	92
291.833	88
292.064	91
292.295	87
292.526	89
292.757	81
292.987	85
293.218	80
293.449	89
293.68	94
293.91	98
294.141	82
294.372	90
294.603	90
294.833	85
295.064	86
295.295	93
295.525	78
295.756	94
295.987	102
296.217	140
296.448	112
296.679	111
296.909	101
297.14	78
297.37	98
297.601	90
297.831	100
298.062	97
298.292	83
298.523	82
298.753	88
298.984	79
299.214	96
299.445	85
299.675	86
299.905	114
300.136	97
300.366	86
300.597	89
300.827	99
301.057	107
301.288	107
301.518	87
301.748	101
301.979	103
302.209	93
302.439	91
302.669	76
302.9	91
303.13	87
303.36	98
303.59	112
303.82	82
304.051	88
304.281	69
304.511	87
304.741	93
304.971	86
305.201	95
305.431	82
305.661	86
305.891	93
306.121	79
306.352	86
306.582	116
306.812	92
307.042	92
307.272	92
307.502	104
307.731	94
307.961	99
308.191	90
308.421	102
308.651	82
308.881	78
309.111	84
309.341	87
309.571	85
309.8	98
310.03	101
310.26	98
310.49	103
310.72	100
310.949	100
311.179	93
311.409	104
311.639	102
311.868	98
312.098	89
312.328	94
312.557	82
312.787	120
313.017	113
313.246	80
313.476	86
313.706	95
313.935	98
314.165	100
314.394	92
314.624	102
314.853	97
315.083	79
315.312	94
315.542	82
315.771	103
316.001	101
316.23	86
316.46	91
316.689	89
316.919	90
317.148	95
317.377	93
317.607	107
317.836	104
318.065	96
318.295	73
318.524	74
318.753	85
318.983	106
319.212	101
319.441	101
319.67	115
319.9	95
320.129	92
320.358	86
320.587	95
320.816	91
321.046	87
321.275	83
321.504	95
321.733	94
321.962	86
322.191	90
322.42	95
322.649	111
322.878	110
323.108	106
323.337	133
323.566	131
323.795	140
324.024	191
324.253	368
324.482	785
324.71	1600
324.939	2089
325.168	769
325.397	240
325.626	154
325.855	123
326.084	121
326.313	121
326.542	148
326.77	206
326.999	449
327.228	882
327.457	1673
327.686	1282
327.914	333
328.143	182
328.372	135
328.6	109
328.829	103
329.058	122
329.287	100
329.515	100
329.744	102
329.972	98
330.201	84
330.43	109
330.658	112
330.887	121
331.115	112
331.344	104
331.572	95
331.801	110
332.03	108
332.258	87
332.486	94
332.715	77
332.943	79
333.172	96
333.4	102
333.629	104
333.857	118
334.085	97
334.314	95
334.542	90
334.771	102
334.999	108
335.227	81
335.455	92
335.684	91
335.912	83
336.14	93
336.369	105
336.597	99
336.825	107
337.053	90
337.281	92
337.51	89
337.738	86
337.966	91
338.194	97
338.422	85
338.65	81
338.878	87
339.106	101
339.334	77
339.562	88
339.79	104
340.018	95
340.246	87
340.474	82
340.702	103
340.93	91
341.158	82
341.386	92
341.614	93
341.842	101
342.07	93
342.298	101
342.526	94
342.754	84
342.981	96
343.209	100
343.437	95
343.665	95
343.893	92
344.12	93
344.348	80
344.576	89
344.804	93
345.031	90
345.259	94
345.487	98
345.714	103
345.942	95
346.17	96
346.397	91
346.625	95
346.853	95
347.08	89
347.308	100
347.535	92
347.763	108
347.99	108
348.218	93
348.445	103
348.673	98
348.9	94
349.128	109
349.355	94
349.583	89
349.81	99
350.037	104
350.265	93
350.492	91
350.72	104
350.947	88
351.174	113
351.402	110
351.629	100
351.856	97
352.083	98
352.311	105
352.538	114
352.765	92
352.992	107
353.22	91
353.447	98
353.674	94
353.901	109
354.128	97
354.355	90
354.583	99
354.81	101
355.037	95
355.264	100
355.491	89
355.718	82
355.945	89
356.172	92
356.399	96
356.626	78
356.853	108
357.08	105
357.307	87
357.534	89
357.761	90
357.988	79
358.215	91
358.441	98
358.668	107
358.895	105
359.122	100
359.349	81
359.576	77
359.802	109
360.029	98
360.256	112
360.483	97
360.709	105
360.936	92
361.163	94
361.39	90
361.616	91
361.843	86
362.07	96
362.296	101
362.523	86
362.749	85
362.976	93
363.203	98
363.429	82
363.656	83
363.882	95
364.109	91
364.335	86
364.562	88
364.788	94
365.015	82
365.241	104
365.468	99
365.694	78
365.92	83
366.147	90
366.373	81
366.599	95
366.826	97
367.052	85
367.278	106
367.505	96
367.731	97
367.957	75
368.184	88
368.41	92
368.636	94
368.862	106
369.089	116
369.315	97
369.541	94
369.767	76
369.993	89
370.219	95
370.445	100
370.672	91
370.898	79
371.124	80
371.35	81
371.576	84
371.802	79
372.028	90
372.254	103
372.48	88
372.706	89
372.932	81
373.158	93
373.384	75
373.61	89
373.835	96
374.061	86
374.287	99
374.513	95
374.739	98
374.965	101
375.191	73
375.416	77
375.642	83
375.868	90
376.094	89
376.319	81
376.545	87
376.771	78
376.997	94
377.222	81
377.448	98
377.674	99
377.899	91
378.125	97
378.35	80
378.576	106
378.802	98
379.027	88
379.253	97
379.478	93
379.704	99
379.929	97
380.155	107
380.38	86
380.606	105
380.831	89
381.057	98
381.282	114
381.507	96
381.733	100
381.958	97
382.184	104
382.409	100
382.634	109
382.86	106
383.085	102
383.31	105
383.535	106
383.761	100
383.986	88
384.211	96
384.436	96
384.662	121
384.887	105
385.112	97
385.337	111
385.562	110
385.787	121
386.013	127
386.238	113
386.463	114
386.688	129
386.913	101
387.138	122
387.363	94
387.588	110
387.813	114
388.038	112
388.263	123
388.488	118
388.713	94
388.938	95
389.163	84
389.387	99
389.612	91
389.837	108
390.062	88
390.287	85
390.512	103
390.736	94
390.961	86
391.186	90
391.411	96
391.636	83
391.86	73
392.085	79
392.31	83
392.534	80
392.759	84
392.984	96
393.208	75
393.433	86
393.658	109
393.882	82
394.107	84
394.331	79
394.556	81
394.78	86
395.005	95
395.229	87
395.454	87
395.678	71
395.903	94
396.127	85
396.352	69
396.576	91
396.801	91
397.025	90
397.249	93
397.474	89
397.698	91
397.922	92
398.147	88
398.371	89
398.595	88
398.82	82
399.044	83
399.268	87
399.492	82
399.717	90
399.941	100
400.165	101
400.389	92
400.613	88
400.837	86
401.062	84
401.286	91
401.51	92
401.734	92
401.958	107
402.182	115
402.406	150
402.63	110
402.854	83
403.078	86
403.302	91
403.526	88
403.75	100
403.974	91
404.198	77
404.422	80
404.645	84
404.869	93
405.093	92
405.317	93
405.541	99
405.765	99
405.988	107
406.212	150
406.436	215
406.66	149
406.883	102
407.107	105
407.331	97
407.555	84
407.778	97
408.002	103
408.226	85
408.449	90
408.673	97
408.896	97
409.12	95
409.344	81
409.567	85
409.791	83
410.014	90
410.238	105
410.461	85
410.685	102
410.908	94
411.132	81
411.355	92
411.578	80
411.802	92
412.025	93
412.249	97
412.472	86
412.695	90
412.919	86
413.142	84
413.365	96
413.589	91
413.812	93
414.035	94
414.258	99
414.482	98
414.705	84
414.928	91
415.151	97
415.374	82
415.597	86
415.821	96
416.044	79
416.267	98
416.49	82
416.713	97
416.936	89
417.159	94
417.382	89
417.605	87
417.828	98
418.051	90
418.274	80
418.497	82
418.72	96
418.943	89
419.166	84
419.389	80
419.611	82
419.834	93
420.057	83
420.28	93
420.503	95
420.726	82
420.948	88
421.171	91
421.394	95
421.617	90
421.839	94
422.062	82
422.285	83
422.507	95
422.73	87
422.953	93
423.175	91
423.398	102
423.621	97
423.843	99
424.066	82
424.288	96
424.511	94
424.733	69
424.956	93
425.178	99
425.401	111
425.623	94
425.846	101
426.068	99
426.291	87
426.513	88
426.735	90
426.958	87
427.18	99
427.402	130
427.625	147
427.847	114
428.069	97
428.292	81
428.514	95
428.736	94
428.958	84
429.181	77
429.403	94
429.625	93
429.847	85
430.069	112
430.292	99
430.514	81
430.736	82
430.958	84
431.18	69
431.402	90
431.624	84
431.846	86
432.068	85
432.29	87
432.512	82
432.734	95
432.956	87
433.178	94
433.4	91
433.622	74
433.844	86
434.066	90
434.287	93
434.509	84
434.731	76
434.953	73
435.175	83
435.397	87
435.618	89
435.84	87
436.062	121
436.284	106
436.505	97
436.727	82
436.949	107
437.17	81
437.392	86
437.614	89
437.835	97
438.057	111
438.278	107
438.5	93
438.721	117
438.943	87
439.165	86
439.386	84
439.608	93
439.829	98
440.05	121
440.272	151
440.493	99
440.715	103
440.936	83
441.158	82
441.379	83
441.6	76
441.822	94
442.043	82
442.264	94
442.486	100
442.707	98
442.928	99
443.149	121
443.371	105
443.592	93
443.813	95
444.034	123
444.255	96
444.476	77
444.698	92
444.919	96
445.14	125
445.361	125
445.582	107
445.803	133
446.024	118
446.245	134
446.466	108
446.687	91
446.908	90
447.129	74
447.35	99
447.571	102
447.792	89
448.013	105
448.234	97
448.455	100
448.675	107
448.896	118
449.117	103
449.338	104
449.559	120
449.779	142
450	97
450.221	84
450.442	83
450.662	70
450.883	98
451.104	96
451.324	93
451.545	90
451.766	97
451.986	82
452.207	86
452.428	83
452.648	98
452.869	98
453.089	94
453.31	126
453.53	81
453.751	89
453.971	114
454.192	102
454.412	83
454.633	85
454.853	80
455.073	92
455.294	74
455.514	94
455.734	97
455.955	92
456.175	81
456.395	84
456.616	74
456.836	87
457.056	78
457.276	74
457.497	78
457.717	82
457.937	86
458.157	81
458.377	81
458.598	96
458.818	159
459.038	137
459.258	101
459.478	85
459.698	79
459.918	84
460.138	94
460.358	82
460.578	83
460.798	82
461.018	85
461.238	96
461.458	66
461.678	92
461.898	97
462.118	89
462.338	78
462.558	85
462.777	100
462.997	99
463.217	94
463.437	81
463.657	73
463.876	91
464.096	77
464.316	83
464.536	91
464.755	87
464.975	94
465.195	148
465.414	148
465.634	87
465.854	99
466.073	88
466.293	92
466.512	82
466.732	84
466.951	87
467.171	84
467.391	86
467.61	103
467.829	98
468.049	93
468.268	86
468.488	85
468.707	84
468.927	93
469.146	96
469.365	90
469.585	94
469.804	92
470.023	102
470.243	99
470.462	86
470.681	99
470.901	88
471.12	95
471.339	87
471.558	78
471.777	82
471.997	85
472.216	83
472.435	93
472.654	76
472.873	92
473.092	94
473.311	90
473.53	79
473.749	86
473.968	93
474.187	99
474.406	100
474.625	83
474.844	80
475.063	84
475.282	90
475.501	85
475.72	91
475.939	87
476.158	82
476.377	78
476.596	86
476.814	96
477.033	81
477.252	91
477.471	78
477.69	86
477.908	82
478.127	82
478.346	86
478.564	88
478.783	88
479.002	91
479.22	101
479.439	84
479.658	100
479.876	89
480.095	77
480.313	105
480.532	89
480.751	106
480.969	83
481.188	77
481.406	87
481.624	85
481.843	81
482.061	83
482.28	91
482.498	95
482.717	83
482.935	84
483.153	96
483.372	92
483.59	88
483.808	101
484.027	68
484.245	82
484.463	95
484.681	89
484.9	75
485.118	85
485.336	77
485.554	76
485.772	80
485.99	101
486.209	100
486.427	126
486.645	115
486.863	106
487.081	113
487.299	101
487.517	87
487.735	105
487.953	92
488.171	99
488.389	102
488.607	80
488.825	93
489.043	87
489.261	98
489.479	91
489.696	92
489.914	93
490.132	86
490.35	91
490.568	78
490.786	95
491.003	97
491.221	95
491.439	107
491.657	92
491.874	94
492.092	90
492.31	89
492.527	97
492.745	100
492.963	99
493.18	91
493.398	79
493.615	94
493.833	94
494.05	93
494.268	91
494.485	89
494.703	84
494.92	92
495.138	97
495.355	81
495.573	80
495.79	87
496.008	94
496.225	93
496.442	90
496.66	82
496.877	88
497.094	89
497.312	93
497.529	102
497.746	98
497.963	97
498.181	97
498.398	104
498.615	109
498.832	111
499.049	88
499.267	87
499.484	95
499.701	81
499.918	85
500.135	78
500.352	83
500.569	93
500.786	87
501.003	99
501.22	91
501.437	103
501.654	105
501.871	106
502.088	98
502.305	91
502.522	86
502.739	79
502.956	94
503.172	90
503.389	104
503.606	99
503.823	105
504.04	87
504.256	85
504.473	93
504.69	92
504.907	97
505.123	86
505.34	95
505.557	76
505.773	96
505.99	103
506.207	96
506.423	79
506.64	91
506.856	105
507.073	94
507.289	93
507.506	93
507.722	97
507.939	99
508.155	109
508.372	86
508.588	93
508.805	101
509.021	94
509.238	86
509.454	90
509.67	93
509.887	105
510.103	125
510.319	224
510.536	736
510.752	2236
510.968	655
511.184	151
511.401	104
511.617	100
511.833	80
512.049	96
512.265	74
512.481	80
512.698	100
512.914	87
513.13	94
513.346	85
513.562	93
513.778	101
513.994	98
514.21	112
514.426	117
514.642	135
514.858	106
515.074	149
515.29	426
515.506	1421
515.721	509
515.937	147
516.153	108
516.369	98
516.585	109
516.801	91
517.016	95
517.232	84
517.448	100
517.664	91
517.879	93
518.095	94
518.311	82
518.527	90
518.742	78
518.958	102
519.173	108
519.389	96
519.605	84
519.82	102
520.036	104
520.251	105
520.467	107
520.682	102
520.898	99
521.113	113
521.329	136
521.544	188
521.76	533
521.975	2256
522.19	1376
522.406	300
522.621	120
522.836	92
523.052	88
523.267	90
523.482	101
523.698	105
523.913	116
524.128	103
524.343	79
524.559	81
524.774	102
524.989	98
525.204	98
525.419	94
525.634	100
525.849	78
526.064	91
526.28	89
526.495	96
526.71	92
526.925	84
527.14	99
527.355	103
527.57	80
527.785	87
527.999	98
528.214	93
528.429	99
528.644	99
528.859	93
529.074	104
529.289	118
529.503	166
529.718	108
529.933	83
530.148	79
530.363	99
530.577	87
530.792	88
531.007	89
531.221	101
531.436	91
531.651	86
531.865	89
532.08	82
532.295	100
532.509	99
532.724	81
532.938	111
533.153	99
533.367	74
533.582	87
533.796	97
534.011	83
534.225	85
534.44	103
534.654	86
534.868	90
535.083	100
535.297	98
535.511	104
535.726	104
535.94	98
536.154	81
536.369	94
536.583	83
536.797	82
537.011	76
537.225	79
537.44	90
537.654	87
537.868	90
538.082	84
538.296	90
538.51	87
538.724	85
538.938	98
539.153	104
539.367	105
539.581	114
539.795	93
540.009	85
540.222	99
540.436	93
540.65	84
540.864	97
541.078	102
541.292	93
541.506	87
541.72	85
541.934	86
542.147	89
542.361	82
542.575	93
542.789	84
543.002	78
543.216	81
543.43	97
543.644	102
543.857	109
544.071	98
544.285	89
544.498	87
544.712	102
544.925	83
545.139	84
545.352	105
545.566	95
545.779	91
545.993	97
546.206	95
546.42	85
546.633	93
546.847	98
547.06	82
547.274	93
547.487	85
547.7	85
547.914	90
548.127	87
548.34	87
548.554	91
548.767	87
548.98	87
549.193	93
549.407	91
549.62	98
549.833	88
550.046	87
550.259	87
550.473	94
550.686	81
550.899	83
551.112	92
551.325	87
551.538	74
551.751	88
551.964	74
552.177	93
552.39	79
552.603	95
552.816	93
553.029	69
553.242	93
553.455	98
553.667	107
553.88	85
554.093	80
554.306	90
554.519	96
554.732	86
554.944	102
555.157	101
555.37	90
555.583	67
555.795	82
556.008	109
556.221	93
556.433	90
556.646	88
556.859	95
557.071	93
557.284	94
557.496	87
557.709	86
557.921	83
558.134	85
558.346	91
558.559	91
558.771	92
558.984	96
559.196	76
559.409	82
559.621	95
559.833	79
560.046	81
560.258	87
560.47	86
560.683	87
560.895	98
561.107	79
561.32	86
561.532	101
561.744	90
561.956	90
562.168	90
562.381	97
562.593	102
562.805	93
563.017	98
563.229	92
563.441	81
563.653	93
563.865	91
564.077	101
564.289	86
564.501	89
564.713	81
564.925	83
565.137	96
565.349	99
565.561	77
565.773	87
565.985	102
566.197	91
566.408	78
566.62	79
566.832	74
567.044	88
567.255	78
567.467	79
567.679	81
567.891	89
568.102	93
568.314	93
568.526	82
568.737	73
568.949	99
569.161	97
569.372	98
569.584	84
569.795	87
570.007	122
570.218	243
570.43	143
570.641	93
570.853	97
571.064	87
571.276	98
571.487	94
571.698	91
571.91	94
572.121	79
572.333	90
572.544	95
572.755	102
572.966	91
573.178	81
573.389	85
573.6	88
573.811	84
574.023	73
574.234	85
574.445	103
574.656	82
574.867	97
575.078	90
575.289	91
575.501	87
575.712	89
575.923	94
576.134	83
576.345	86
576.556	82
576.767	84
576.978	93
577.188	99
577.399	103
577.61	93
577.821	84
578.032	110
578.243	272
578.454	754
578.665	219
578.875	115
579.086	106
579.297	91
579.508	78
579.718	97
579.929	96
580.14	86
580.35	80
580.561	89
580.772	95
580.982	78
581.193	81
581.403	81
581.614	94
581.825	91
582.035	89
582.246	83
582.456	86
582.667	108
582.877	85
583.087	94
583.298	97
583.508	81
583.719	82
583.929	96
584.139	88
584.35	89
584.56	86
584.77	81
584.981	88
