Data from Uncirc_2006_H10_HRD10591_00070.txt Node
Date: Wed Jan 03 10:25:09 EST 2024
User: Yrep
Spectrometer: HR+D1059
Trigger mode: 1
Integration Time (sec): 1.000000E-1
Scans to average: 1
Electric dark correction enabled: true
Nonlinearity correction enabled: false
Boxcar width: 0
XAxis mode: Wavelengths
Number of Pixels in Spectrum: 2048
>>>>>Begin Spectral Data<<<<<
223.165	-13.94
223.4	-13.94
223.635	-13.94
223.869	-15.94
224.104	-13.94
224.338	-13.94
224.573	-21.94
224.808	-22.94
225.042	-0.94
225.277	-8.94
225.511	5.06
225.746	9.06
225.98	11.06
226.215	9.06
226.449	-2.94
226.683	21.06
226.918	31.06
227.152	29.06
227.387	38.06
227.621	23.06
227.856	55.06
228.09	56.06
228.324	56.06
228.559	76.06
228.793	59.06
229.027	77.06
229.262	68.06
229.496	78.06
229.73	67.06
229.964	82.06
230.199	79.06
230.433	73.06
230.667	84.06
230.901	83.06
231.136	74.06
231.37	63.06
231.604	76.06
231.838	86.06
232.072	84.06
232.306	91.06
232.541	84.06
232.775	85.06
233.009	74.06
233.243	76.06
233.477	73.06
233.711	81.06
233.945	83.06
234.179	83.06
234.413	85.06
234.647	92.06
234.881	81.06
235.115	84.06
235.349	77.06
235.583	82.06
235.817	88.06
236.051	78.06
236.285	85.06
236.519	80.06
236.753	63.06
236.987	80.06
237.221	73.06
237.455	69.06
237.689	88.06
237.922	95.06
238.156	77.06
238.39	72.06
238.624	71.06
238.858	71.06
239.091	72.06
239.325	81.06
239.559	82.06
239.793	88.06
240.027	87.06
240.26	89.06
240.494	68.06
240.728	83.06
240.961	82.06
241.195	91.06
241.429	79.06
241.662	73.06
241.896	80.06
242.13	65.06
242.363	83.06
242.597	72.06
242.83	82.06
243.064	88.06
243.298	84.06
243.531	78.06
243.765	88.06
243.998	86.06
244.232	86.06
244.465	81.06
244.699	80.06
244.932	68.06
245.166	79.06
245.399	76.06
245.633	72.06
245.866	88.06
246.099	80.06
246.333	88.06
246.566	80.06
246.8	89.06
247.033	87.06
247.266	65.06
247.5	83.06
247.733	87.06
247.966	81.06
248.2	92.06
248.433	75.06
248.666	83.06
248.899	96.06
249.133	87.06
249.366	99.06
249.599	98.06
249.832	94.06
250.066	75.06
250.299	94.06
250.532	88.06
250.765	78.06
250.998	61.06
251.231	75.06
251.465	79.06
251.698	100.06
251.931	84.06
252.164	84.06
252.397	92.06
252.63	88.06
252.863	87.06
253.096	91.06
253.329	76.06
253.562	85.06
253.795	90.06
254.028	89.06
254.261	90.06
254.494	92.06
254.727	97.06
254.96	89.06
255.193	81.06
255.426	75.06
255.659	90.06
255.892	91.06
256.124	75.06
256.357	83.06
256.59	83.06
256.823	75.06
257.056	90.06
257.289	76.06
257.521	75.06
257.754	83.06
257.987	73.06
258.22	86.06
258.452	82.06
258.685	95.06
258.918	86.06
259.151	80.06
259.383	85.06
259.616	78.06
259.849	80.06
260.081	89.06
260.314	80.06
260.547	89.06
260.779	79.06
261.012	89.06
261.244	87.06
261.477	95.06
261.71	98.06
261.942	107.06
262.175	99.06
262.407	79.06
262.64	67.06
262.872	90.06
263.105	86.06
263.337	88.06
263.57	77.06
263.802	91.06
264.035	70.06
264.267	91.06
264.499	81.06
264.732	105.06
264.964	82.06
265.197	92.06
265.429	78.06
265.661	87.06
265.894	96.06
266.126	88.06
266.358	97.06
266.591	77.06
266.823	79.06
267.055	79.06
267.287	87.06
267.52	95.06
267.752	89.06
267.984	84.06
268.216	75.06
268.448	87.06
268.681	89.06
268.913	87.06
269.145	89.06
269.377	92.06
269.609	79.06
269.841	105.06
270.073	91.06
270.306	87.06
270.538	94.06
270.77	82.06
271.002	94.06
271.234	82.06
271.466	77.06
271.698	86.06
271.93	96.06
272.162	97.06
272.394	72.06
272.626	79.06
272.858	90.06
273.09	95.06
273.322	88.06
273.553	93.06
273.785	92.06
274.017	89.06
274.249	97.06
274.481	84.06
274.713	82.06
274.945	86.06
275.176	94.06
275.408	93.06
275.64	87.06
275.872	101.06
276.104	76.06
276.335	96.06
276.567	91.06
276.799	95.06
277.031	88.06
277.262	84.06
277.494	97.06
277.726	98.06
277.957	93.06
278.189	84.06
278.421	90.06
278.652	102.06
278.884	92.06
279.115	73.06
279.347	88.06
279.579	84.06
279.81	94.06
280.042	90.06
280.273	98.06
280.505	77.06
280.736	93.06
280.968	85.06
281.199	85.06
281.431	79.06
281.662	94.06
281.894	95.06
282.125	99.06
282.356	115.06
282.588	127.06
282.819	110.06
283.051	89.06
283.282	85.06
283.513	85.06
283.745	92.06
283.976	78.06
284.207	92.06
284.439	83.06
284.67	87.06
284.901	92.06
285.132	94.06
285.364	83.06
285.595	84.06
285.826	89.06
286.057	83.06
286.288	84.06
286.52	84.06
286.751	83.06
286.982	95.06
287.213	93.06
287.444	100.06
287.675	88.06
287.906	89.06
288.138	95.06
288.369	96.06
288.6	92.06
288.831	83.06
289.062	98.06
289.293	96.06
289.524	84.06
289.755	92.06
289.986	88.06
290.217	83.06
290.448	90.06
290.679	87.06
290.91	67.06
291.141	88.06
291.371	81.06
291.602	97.06
291.833	74.06
292.064	73.06
292.295	84.06
292.526	89.06
292.757	105.06
292.987	88.06
293.218	77.06
293.449	87.06
293.68	92.06
293.91	89.06
294.141	96.06
294.372	84.06
294.603	108.06
294.833	96.06
295.064	86.06
295.295	91.06
295.525	95.06
295.756	117.06
295.987	116.06
296.217	129.06
296.448	114.06
296.679	84.06
296.909	91.06
297.14	71.06
297.37	83.06
297.601	84.06
297.831	80.06
298.062	96.06
298.292	103.06
298.523	83.06
298.753	80.06
298.984	86.06
299.214	80.06
299.445	87.06
299.675	88.06
299.905	102.06
300.136	93.06
300.366	86.06
300.597	93.06
300.827	79.06
301.057	98.06
301.288	104.06
301.518	95.06
301.748	93.06
301.979	118.06
302.209	102.06
302.439	92.06
302.669	85.06
302.9	87.06
303.13	92.06
303.36	93.06
303.59	86.06
303.82	104.06
304.051	97.06
304.281	90.06
304.511	95.06
304.741	101.06
304.971	85.06
305.201	100.06
305.431	96.06
305.661	91.06
305.891	96.06
306.121	78.06
306.352	93.06
306.582	107.06
306.812	104.06
307.042	97.06
307.272	104.06
307.502	94.06
307.731	88.06
307.961	85.06
308.191	98.06
308.421	87.06
308.651	89.06
308.881	85.06
309.111	89.06
309.341	99.06
309.571	94.06
309.8	102.06
310.03	116.06
310.26	105.06
310.49	91.06
310.72	101.06
310.949	105.06
311.179	89.06
311.409	91.06
311.639	98.06
311.868	103.06
312.098	88.06
312.328	107.06
312.557	93.06
312.787	111.06
313.017	102.06
313.246	93.06
313.476	84.06
313.706	88.06
313.935	91.06
314.165	105.06
314.394	96.06
314.624	97.06
314.853	86.06
315.083	90.06
315.312	99.06
315.542	89.06
315.771	91.06
316.001	89.06
316.23	96.06
316.46	80.06
316.689	92.06
316.919	79.06
317.148	108.06
317.377	89.06
317.607	90.06
317.836	100.06
318.065	90.06
318.295	98.06
318.524	83.06
318.753	85.06
318.983	84.06
319.212	95.06
319.441	108.06
319.67	128.06
319.9	101.06
320.129	87.06
320.358	99.06
320.587	76.06
320.816	103.06
321.046	99.06
321.275	94.06
321.504	109.06
321.733	97.06
321.962	93.06
322.191	93.06
322.42	101.06
322.649	90.06
322.878	105.06
323.108	120.06
323.337	113.06
323.566	128.06
323.795	163.06
324.024	208.06
324.253	372.06
324.482	760.06
324.71	1544.06
324.939	2027.06
325.168	741.06
325.397	222.06
325.626	140.06
325.855	125.06
326.084	128.06
326.313	138.06
326.542	151.06
326.77	214.06
326.999	437.06
327.228	880.06
327.457	1593.06
327.686	1236.06
327.914	328.06
328.143	176.06
328.372	141.06
328.6	123.06
328.829	105.06
329.058	119.06
329.287	111.06
329.515	100.06
329.744	94.06
329.972	89.06
330.201	87.06
330.43	101.06
330.658	105.06
330.887	118.06
331.115	112.06
331.344	99.06
331.572	95.06
331.801	92.06
332.03	92.06
332.258	117.06
332.486	92.06
332.715	93.06
332.943	84.06
333.172	87.06
333.4	105.06
333.629	104.06
333.857	106.06
334.085	104.06
334.314	79.06
334.542	86.06
334.771	94.06
334.999	91.06
335.227	87.06
335.455	89.06
335.684	95.06
335.912	91.06
336.14	84.06
336.369	102.06
336.597	90.06
336.825	93.06
337.053	90.06
337.281	107.06
337.51	89.06
337.738	87.06
337.966	93.06
338.194	84.06
338.422	95.06
338.65	95.06
338.878	90.06
339.106	96.06
339.334	93.06
339.562	96.06
339.79	95.06
340.018	83.06
340.246	93.06
340.474	94.06
340.702	86.06
340.93	94.06
341.158	102.06
341.386	98.06
341.614	95.06
341.842	87.06
342.07	100.06
342.298	80.06
342.526	104.06
342.754	104.06
342.981	95.06
343.209	93.06
343.437	107.06
343.665	75.06
343.893	95.06
344.12	83.06
344.348	88.06
344.576	86.06
344.804	94.06
345.031	89.06
345.259	86.06
345.487	90.06
345.714	101.06
345.942	98.06
346.17	77.06
346.397	99.06
346.625	100.06
346.853	86.06
347.08	84.06
347.308	101.06
347.535	87.06
347.763	96.06
347.99	96.06
348.218	101.06
348.445	111.06
348.673	93.06
348.9	83.06
349.128	96.06
349.355	81.06
349.583	79.06
349.81	73.06
350.037	93.06
350.265	101.06
350.492	92.06
350.72	95.06
350.947	96.06
351.174	107.06
351.402	101.06
351.629	95.06
351.856	101.06
352.083	91.06
352.311	103.06
352.538	95.06
352.765	108.06
352.992	111.06
353.22	104.06
353.447	94.06
353.674	105.06
353.901	102.06
354.128	88.06
354.355	105.06
354.583	85.06
354.81	89.06
355.037	91.06
355.264	110.06
355.491	98.06
355.718	89.06
355.945	97.06
356.172	88.06
356.399	104.06
356.626	93.06
356.853	83.06
357.08	88.06
357.307	81.06
357.534	96.06
357.761	92.06
357.988	107.06
358.215	102.06
358.441	97.06
358.668	85.06
358.895	99.06
359.122	91.06
359.349	92.06
359.576	104.06
359.802	94.06
360.029	109.06
360.256	106.06
360.483	99.06
360.709	99.06
360.936	95.06
361.163	81.06
361.39	87.06
361.616	88.06
361.843	99.06
362.07	96.06
362.296	105.06
362.523	93.06
362.749	85.06
362.976	96.06
363.203	91.06
363.429	72.06
363.656	84.06
363.882	87.06
364.109	93.06
364.335	91.06
364.562	94.06
364.788	95.06
365.015	93.06
365.241	89.06
365.468	105.06
365.694	101.06
365.92	100.06
366.147	89.06
366.373	94.06
366.599	84.06
366.826	96.06
367.052	78.06
367.278	104.06
367.505	99.06
367.731	107.06
367.957	74.06
368.184	95.06
368.41	85.06
368.636	98.06
368.862	115.06
369.089	102.06
369.315	84.06
369.541	87.06
369.767	91.06
369.993	94.06
370.219	81.06
370.445	77.06
370.672	82.06
370.898	82.06
371.124	95.06
371.35	77.06
371.576	85.06
371.802	82.06
372.028	85.06
372.254	84.06
372.48	86.06
372.706	85.06
372.932	94.06
373.158	81.06
373.384	83.06
373.61	95.06
373.835	91.06
374.061	91.06
374.287	98.06
374.513	93.06
374.739	85.06
374.965	96.06
375.191	102.06
375.416	94.06
375.642	86.06
375.868	96.06
376.094	94.06
376.319	89.06
376.545	97.06
376.771	91.06
376.997	89.06
377.222	91.06
377.448	100.06
377.674	84.06
377.899	84.06
378.125	95.06
378.35	95.06
378.576	82.06
378.802	87.06
379.027	92.06
379.253	99.06
379.478	97.06
379.704	82.06
379.929	101.06
380.155	94.06
380.38	101.06
380.606	99.06
380.831	94.06
381.057	109.06
381.282	91.06
381.507	102.06
381.733	94.06
381.958	77.06
382.184	78.06
382.409	99.06
382.634	99.06
382.86	107.06
383.085	95.06
383.31	91.06
383.535	101.06
383.761	102.06
383.986	90.06
384.211	96.06
384.436	87.06
384.662	103.06
384.887	99.06
385.112	102.06
385.337	91.06
385.562	93.06
385.787	109.06
386.013	112.06
386.238	109.06
386.463	104.06
386.688	107.06
386.913	109.06
387.138	96.06
387.363	100.06
387.588	93.06
387.813	103.06
388.038	94.06
388.263	106.06
388.488	119.06
388.713	92.06
388.938	100.06
389.163	97.06
389.387	100.06
389.612	104.06
389.837	92.06
390.062	111.06
390.287	94.06
390.512	101.06
390.736	95.06
390.961	96.06
391.186	85.06
391.411	95.06
391.636	99.06
391.86	95.06
392.085	99.06
392.31	81.06
392.534	95.06
392.759	84.06
392.984	91.06
393.208	84.06
393.433	90.06
393.658	87.06
393.882	76.06
394.107	93.06
394.331	89.06
394.556	93.06
394.78	87.06
395.005	88.06
395.229	81.06
395.454	92.06
395.678	82.06
395.903	87.06
396.127	85.06
396.352	92.06
396.576	89.06
396.801	94.06
397.025	103.06
397.249	93.06
397.474	98.06
397.698	78.06
397.922	98.06
398.147	94.06
398.371	70.06
398.595	86.06
398.82	84.06
399.044	79.06
399.268	86.06
399.492	95.06
399.717	83.06
399.941	83.06
400.165	102.06
400.389	92.06
400.613	91.06
400.837	87.06
401.062	88.06
401.286	89.06
401.51	103.06
401.734	93.06
401.958	103.06
402.182	128.06
402.406	130.06
402.63	114.06
402.854	91.06
403.078	81.06
403.302	86.06
403.526	82.06
403.75	94.06
403.974	86.06
404.198	121.06
404.422	104.06
404.645	84.06
404.869	90.06
405.093	99.06
405.317	84.06
405.541	103.06
405.765	83.06
405.988	112.06
406.212	158.06
406.436	204.06
406.66	118.06
406.883	86.06
407.107	87.06
407.331	94.06
407.555	88.06
407.778	93.06
408.002	89.06
408.226	101.06
408.449	92.06
408.673	85.06
408.896	95.06
409.12	87.06
409.344	95.06
409.567	94.06
409.791	100.06
410.014	100.06
410.238	100.06
410.461	94.06
410.685	82.06
410.908	101.06
411.132	97.06
411.355	110.06
411.578	89.06
411.802	77.06
412.025	88.06
412.249	86.06
412.472	87.06
412.695	91.06
412.919	93.06
413.142	85.06
413.365	70.06
413.589	93.06
413.812	85.06
414.035	100.06
414.258	98.06
414.482	99.06
414.705	72.06
414.928	93.06
415.151	87.06
415.374	89.06
415.597	113.06
415.821	89.06
416.044	81.06
416.267	87.06
416.49	103.06
416.713	90.06
416.936	91.06
417.159	98.06
417.382	88.06
417.605	71.06
417.828	107.06
418.051	94.06
418.274	86.06
418.497	86.06
418.72	82.06
418.943	82.06
419.166	100.06
419.389	95.06
419.611	95.06
419.834	94.06
420.057	77.06
420.28	86.06
420.503	96.06
420.726	81.06
420.948	95.06
421.171	101.06
421.394	94.06
421.617	83.06
421.839	95.06
422.062	95.06
422.285	86.06
422.507	92.06
422.73	102.06
422.953	76.06
423.175	95.06
423.398	90.06
423.621	100.06
423.843	80.06
424.066	78.06
424.288	81.06
424.511	84.06
424.733	95.06
424.956	100.06
425.178	97.06
425.401	89.06
425.623	96.06
425.846	93.06
426.068	76.06
426.291	83.06
426.513	93.06
426.735	102.06
426.958	87.06
427.18	100.06
427.402	133.06
427.625	148.06
427.847	112.06
428.069	102.06
428.292	85.06
428.514	94.06
428.736	84.06
428.958	97.06
429.181	89.06
429.403	87.06
429.625	81.06
429.847	85.06
430.069	88.06
430.292	88.06
430.514	71.06
430.736	86.06
430.958	97.06
431.18	102.06
431.402	85.06
431.624	80.06
431.846	87.06
432.068	76.06
432.29	98.06
432.512	92.06
432.734	79.06
432.956	94.06
433.178	103.06
433.4	98.06
433.622	96.06
433.844	104.06
434.066	96.06
434.287	103.06
434.509	103.06
434.731	88.06
434.953	92.06
435.175	79.06
435.397	91.06
435.618	89.06
435.84	101.06
436.062	123.06
436.284	104.06
436.505	100.06
436.727	97.06
436.949	93.06
437.17	91.06
437.392	82.06
437.614	89.06
437.835	93.06
438.057	111.06
438.278	103.06
438.5	96.06
438.721	101.06
438.943	100.06
439.165	100.06
439.386	85.06
439.608	73.06
439.829	110.06
440.05	111.06
440.272	130.06
440.493	93.06
440.715	106.06
440.936	82.06
441.158	84.06
441.379	71.06
441.6	94.06
441.822	95.06
442.043	87.06
442.264	93.06
442.486	82.06
442.707	87.06
442.928	108.06
443.149	112.06
443.371	129.06
443.592	110.06
443.813	119.06
444.034	120.06
444.255	96.06
444.476	94.06
444.698	84.06
444.919	89.06
445.14	117.06
445.361	110.06
445.582	120.06
445.803	115.06
446.024	119.06
446.245	117.06
446.466	124.06
446.687	88.06
446.908	97.06
447.129	82.06
447.35	88.06
447.571	89.06
447.792	90.06
448.013	95.06
448.234	111.06
448.455	111.06
448.675	110.06
448.896	111.06
449.117	92.06
449.338	97.06
449.559	117.06
449.779	124.06
450	94.06
450.221	91.06
450.442	99.06
450.662	96.06
450.883	92.06
451.104	108.06
451.324	105.06
451.545	62.06
451.766	80.06
451.986	87.06
452.207	84.06
452.428	96.06
452.648	107.06
452.869	104.06
453.089	104.06
453.31	101.06
453.53	93.06
453.751	83.06
453.971	91.06
454.192	104.06
454.412	84.06
454.633	79.06
454.853	95.06
455.073	80.06
455.294	83.06
455.514	87.06
455.734	93.06
455.955	80.06
456.175	79.06
456.395	84.06
456.616	79.06
456.836	82.06
457.056	73.06
457.276	80.06
457.497	80.06
457.717	78.06
457.937	96.06
458.157	78.06
458.377	79.06
458.598	114.06
458.818	137.06
459.038	153.06
459.258	107.06
459.478	91.06
459.698	93.06
459.918	91.06
460.138	103.06
460.358	84.06
460.578	91.06
460.798	83.06
461.018	92.06
461.238	92.06
461.458	88.06
461.678	96.06
461.898	95.06
462.118	86.06
462.338	80.06
462.558	91.06
462.777	91.06
462.997	87.06
463.217	84.06
463.437	84.06
463.657	110.06
463.876	87.06
464.096	80.06
464.316	69.06
464.536	96.06
464.755	100.06
464.975	92.06
465.195	135.06
465.414	147.06
465.634	106.06
465.854	83.06
466.073	88.06
466.293	90.06
466.512	91.06
466.732	99.06
466.951	96.06
467.171	90.06
467.391	83.06
467.61	96.06
467.829	98.06
468.049	102.06
468.268	93.06
468.488	101.06
468.707	94.06
468.927	84.06
469.146	87.06
469.365	93.06
469.585	94.06
469.804	75.06
470.023	91.06
470.243	83.06
470.462	87.06
470.681	85.06
470.901	88.06
471.12	85.06
471.339	82.06
471.558	87.06
471.777	80.06
471.997	92.06
472.216	77.06
472.435	93.06
472.654	85.06
472.873	85.06
473.092	92.06
473.311	85.06
473.53	83.06
473.749	90.06
473.968	88.06
474.187	90.06
474.406	82.06
474.625	78.06
474.844	100.06
475.063	81.06
475.282	80.06
475.501	83.06
475.72	85.06
475.939	94.06
476.158	82.06
476.377	86.06
476.596	101.06
476.814	99.06
477.033	113.06
477.252	97.06
477.471	82.06
477.69	72.06
477.908	91.06
478.127	89.06
478.346	90.06
478.564	91.06
478.783	100.06
479.002	102.06
479.22	89.06
479.439	109.06
479.658	103.06
479.876	96.06
480.095	89.06
480.313	104.06
480.532	84.06
480.751	85.06
480.969	86.06
481.188	91.06
481.406	102.06
481.624	84.06
481.843	86.06
482.061	91.06
482.28	94.06
482.498	94.06
482.717	89.06
482.935	95.06
483.153	82.06
483.372	94.06
483.59	88.06
483.808	91.06
484.027	105.06
484.245	86.06
484.463	94.06
484.681	82.06
484.9	102.06
485.118	107.06
485.336	87.06
485.554	99.06
485.772	93.06
485.99	105.06
486.209	97.06
486.427	100.06
486.645	92.06
486.863	99.06
487.081	101.06
487.299	94.06
487.517	100.06
487.735	89.06
487.953	88.06
488.171	99.06
488.389	88.06
488.607	100.06
488.825	80.06
489.043	91.06
489.261	96.06
489.479	86.06
489.696	83.06
489.914	87.06
490.132	92.06
490.35	86.06
490.568	96.06
490.786	101.06
491.003	99.06
491.221	81.06
491.439	92.06
491.657	90.06
491.874	88.06
492.092	91.06
492.31	99.06
492.527	85.06
492.745	100.06
492.963	106.06
493.18	96.06
493.398	90.06
493.615	90.06
493.833	96.06
494.05	94.06
494.268	93.06
494.485	88.06
494.703	99.06
494.92	88.06
495.138	92.06
495.355	92.06
495.573	81.06
495.79	102.06
496.008	94.06
496.225	85.06
496.442	92.06
496.66	95.06
496.877	76.06
497.094	81.06
497.312	99.06
497.529	85.06
497.746	95.06
497.963	91.06
498.181	108.06
498.398	79.06
498.615	100.06
498.832	100.06
499.049	83.06
499.267	96.06
499.484	88.06
499.701	84.06
499.918	82.06
500.135	101.06
500.352	82.06
500.569	86.06
500.786	95.06
501.003	87.06
501.22	79.06
501.437	80.06
501.654	89.06
501.871	102.06
502.088	93.06
502.305	85.06
502.522	95.06
502.739	104.06
502.956	102.06
503.172	98.06
503.389	105.06
503.606	104.06
503.823	100.06
504.04	93.06
504.256	102.06
504.473	90.06
504.69	83.06
504.907	85.06
505.123	97.06
505.34	86.06
505.557	93.06
505.773	102.06
505.99	93.06
506.207	88.06
506.423	105.06
506.64	106.06
506.856	91.06
507.073	95.06
507.289	99.06
507.506	94.06
507.722	103.06
507.939	116.06
508.155	93.06
508.372	100.06
508.588	102.06
508.805	102.06
509.021	84.06
509.238	102.06
509.454	101.06
509.67	101.06
509.887	102.06
510.103	120.06
510.319	184.06
510.536	614.06
510.752	1939.06
510.968	567.06
511.184	139.06
511.401	105.06
511.617	96.06
511.833	80.06
512.049	106.06
512.265	95.06
512.481	96.06
512.698	99.06
512.914	87.06
513.13	104.06
513.346	92.06
513.562	77.06
513.778	86.06
513.994	102.06
514.21	97.06
514.426	106.06
514.642	129.06
514.858	112.06
515.074	165.06
515.29	389.06
515.506	1202.06
515.721	447.06
