Data from Uncirc_2006_H10_HRD10591_00094.txt Node
Date: Wed Jan 03 10:25:13 EST 2024
User: Yrep
Spectrometer: HR+D1059
Trigger mode: 1
Integration Time (sec): 1.000000E-1
Scans to average: 1
Electric dark correction enabled: true
Nonlinearity correction enabled: false
Boxcar width: 0
XAxis mode: Wavelengths
Number of Pixels in Spectrum: 2048
>>>>>Begin Spectral Data<<<<<
223.165	-6.38
223.4	-6.38
223.635	-6.38
223.869	-20.38
224.104	-31.38
224.338	-15.38
224.573	-25.38
224.808	-13.38
225.042	-3.38
225.277	2.62
225.511	4.62
225.746	7.62
225.98	4.62
226.215	9.62
226.449	8.62
226.683	21.62
226.918	21.62
227.152	34.62
227.387	44.62
227.621	46.62
227.856	59.62
228.09	32.62
228.324	40.62
228.559	52.62
228.793	57.62
229.027	54.62
229.262	56.62
229.496	78.62
229.73	97.62
229.964	75.62
230.199	64.62
230.433	76.62
230.667	76.62
230.901	72.62
231.136	73.62
231.37	71.62
231.604	76.62
231.838	80.62
232.072	71.62
232.306	69.62
232.541	66.62
232.775	82.62
233.009	69.62
233.243	97.62
233.477	79.62
233.711	77.62
233.945	81.62
234.179	77.62
234.413	81.62
234.647	73.62
234.881	89.62
235.115	66.62
235.349	66.62
235.583	79.62
235.817	84.62
236.051	86.62
236.285	84.62
236.519	81.62
236.753	82.62
236.987	71.62
237.221	92.62
237.455	77.62
237.689	81.62
237.922	75.62
238.156	75.62
238.39	85.62
238.624	85.62
238.858	77.62
239.091	64.62
239.325	78.62
239.559	85.62
239.793	80.62
240.027	78.62
240.26	86.62
240.494	78.62
240.728	68.62
240.961	78.62
241.195	61.62
241.429	84.62
241.662	76.62
241.896	63.62
242.13	81.62
242.363	72.62
242.597	51.62
242.83	64.62
243.064	66.62
243.298	89.62
243.531	85.62
243.765	73.62
243.998	71.62
244.232	68.62
244.465	75.62
244.699	69.62
244.932	59.62
245.166	70.62
245.399	76.62
245.633	80.62
245.866	75.62
246.099	86.62
246.333	68.62
246.566	85.62
246.8	80.62
247.033	72.62
247.266	79.62
247.5	88.62
247.733	63.62
247.966	86.62
248.2	70.62
248.433	67.62
248.666	73.62
248.899	84.62
249.133	86.62
249.366	87.62
249.599	85.62
249.832	80.62
250.066	70.62
250.299	85.62
250.532	72.62
250.765	81.62
250.998	81.62
251.231	74.62
251.465	71.62
251.698	70.62
251.931	88.62
252.164	76.62
252.397	75.62
252.63	93.62
252.863	75.62
253.096	83.62
253.329	90.62
253.562	88.62
253.795	85.62
254.028	74.62
254.261	80.62
254.494	88.62
254.727	69.62
254.96	88.62
255.193	68.62
255.426	75.62
255.659	81.62
255.892	84.62
256.124	73.62
256.357	87.62
256.59	84.62
256.823	86.62
257.056	78.62
257.289	70.62
257.521	80.62
257.754	89.62
257.987	75.62
258.22	72.62
258.452	88.62
258.685	73.62
258.918	93.62
259.151	81.62
259.383	76.62
259.616	81.62
259.849	83.62
260.081	66.62
260.314	75.62
260.547	80.62
260.779	81.62
261.012	76.62
261.244	85.62
261.477	82.62
261.71	82.62
261.942	92.62
262.175	116.62
262.407	80.62
262.64	85.62
262.872	65.62
263.105	68.62
263.337	88.62
263.57	84.62
263.802	84.62
264.035	78.62
264.267	86.62
264.499	78.62
264.732	76.62
264.964	60.62
265.197	79.62
265.429	78.62
265.661	82.62
265.894	68.62
266.126	96.62
266.358	83.62
266.591	71.62
266.823	68.62
267.055	71.62
267.287	84.62
267.52	85.62
267.752	107.62
267.984	79.62
268.216	72.62
268.448	84.62
268.681	79.62
268.913	74.62
269.145	74.62
269.377	78.62
269.609	78.62
269.841	78.62
270.073	96.62
270.306	74.62
270.538	85.62
270.77	67.62
271.002	83.62
271.234	97.62
271.466	91.62
271.698	70.62
271.93	85.62
272.162	90.62
272.394	85.62
272.626	75.62
272.858	85.62
273.09	89.62
273.322	87.62
273.553	72.62
273.785	70.62
274.017	68.62
274.249	84.62
274.481	83.62
274.713	78.62
274.945	78.62
275.176	81.62
275.408	77.62
275.64	94.62
275.872	77.62
276.104	84.62
276.335	82.62
276.567	105.62
276.799	84.62
277.031	93.62
277.262	89.62
277.494	76.62
277.726	85.62
277.957	86.62
278.189	69.62
278.421	93.62
278.652	88.62
278.884	73.62
279.115	86.62
279.347	94.62
279.579	73.62
279.81	79.62
280.042	90.62
280.273	88.62
280.505	86.62
280.736	89.62
280.968	76.62
281.199	83.62
281.431	79.62
281.662	79.62
281.894	86.62
282.125	85.62
282.356	111.62
282.588	129.62
282.819	102.62
283.051	83.62
283.282	74.62
283.513	97.62
283.745	86.62
283.976	84.62
284.207	92.62
284.439	65.62
284.67	80.62
284.901	78.62
285.132	71.62
285.364	80.62
285.595	87.62
285.826	73.62
286.057	98.62
286.288	98.62
286.52	98.62
286.751	75.62
286.982	85.62
287.213	84.62
287.444	82.62
287.675	91.62
287.906	88.62
288.138	91.62
288.369	106.62
288.6	87.62
288.831	77.62
289.062	90.62
289.293	83.62
289.524	96.62
289.755	82.62
289.986	91.62
290.217	83.62
290.448	83.62
290.679	88.62
290.91	81.62
291.141	89.62
291.371	78.62
291.602	82.62
291.833	81.62
292.064	94.62
292.295	83.62
292.526	83.62
292.757	81.62
292.987	79.62
293.218	73.62
293.449	77.62
293.68	90.62
293.91	83.62
294.141	90.62
294.372	87.62
294.603	81.62
294.833	90.62
295.064	90.62
295.295	80.62
295.525	82.62
295.756	98.62
295.987	104.62
296.217	131.62
296.448	123.62
296.679	91.62
296.909	94.62
297.14	81.62
297.37	98.62
297.601	89.62
297.831	89.62
298.062	81.62
298.292	88.62
298.523	92.62
298.753	82.62
298.984	80.62
299.214	105.62
299.445	94.62
299.675	92.62
299.905	99.62
300.136	104.62
300.366	85.62
300.597	90.62
300.827	90.62
301.057	110.62
301.288	96.62
301.518	84.62
301.748	84.62
301.979	94.62
302.209	81.62
302.439	86.62
302.669	95.62
302.9	79.62
303.13	83.62
303.36	92.62
303.59	89.62
303.82	90.62
304.051	78.62
304.281	85.62
304.511	100.62
304.741	87.62
304.971	85.62
305.201	86.62
305.431	85.62
305.661	91.62
305.891	94.62
306.121	91.62
306.352	106.62
306.582	92.62
306.812	90.62
307.042	96.62
307.272	93.62
307.502	94.62
307.731	79.62
307.961	99.62
308.191	82.62
308.421	93.62
308.651	88.62
308.881	98.62
309.111	90.62
309.341	85.62
309.571	95.62
309.8	90.62
310.03	92.62
310.26	93.62
310.49	99.62
310.72	98.62
310.949	100.62
311.179	102.62
311.409	93.62
311.639	101.62
311.868	102.62
312.098	99.62
312.328	101.62
312.557	97.62
312.787	95.62
313.017	105.62
313.246	90.62
313.476	95.62
313.706	96.62
313.935	96.62
314.165	89.62
314.394	110.62
314.624	92.62
314.853	96.62
315.083	82.62
315.312	80.62
315.542	88.62
315.771	96.62
316.001	98.62
316.23	93.62
316.46	72.62
316.689	93.62
316.919	92.62
317.148	102.62
317.377	82.62
317.607	69.62
317.836	111.62
318.065	79.62
318.295	91.62
318.524	95.62
318.753	90.62
318.983	97.62
319.212	87.62
319.441	102.62
319.67	112.62
319.9	98.62
320.129	89.62
320.358	91.62
320.587	81.62
320.816	97.62
321.046	105.62
321.275	99.62
321.504	99.62
321.733	96.62
321.962	94.62
322.191	92.62
322.42	93.62
322.649	116.62
322.878	114.62
323.108	129.62
323.337	128.62
323.566	121.62
323.795	142.62
324.024	200.62
324.253	384.62
324.482	828.62
324.71	1702.62
324.939	2190.62
325.168	781.62
325.397	236.62
325.626	147.62
325.855	117.62
326.084	121.62
326.313	128.62
326.542	146.62
326.77	239.62
326.999	457.62
327.228	961.62
327.457	1707.62
327.686	1340.62
327.914	361.62
328.143	192.62
328.372	132.62
328.6	114.62
328.829	111.62
329.058	120.62
329.287	125.62
329.515	103.62
329.744	108.62
329.972	110.62
330.201	116.62
330.43	83.62
330.658	123.62
330.887	124.62
331.115	110.62
331.344	98.62
331.572	103.62
331.801	100.62
332.03	88.62
332.258	94.62
332.486	97.62
332.715	101.62
332.943	82.62
333.172	109.62
333.4	95.62
333.629	109.62
333.857	98.62
334.085	90.62
334.314	93.62
334.542	82.62
334.771	86.62
334.999	91.62
335.227	100.62
335.455	79.62
335.684	101.62
335.912	88.62
336.14	94.62
336.369	102.62
336.597	94.62
336.825	95.62
337.053	75.62
337.281	91.62
337.51	84.62
337.738	88.62
337.966	110.62
338.194	93.62
338.422	100.62
338.65	99.62
338.878	85.62
339.106	86.62
339.334	105.62
339.562	95.62
339.79	99.62
340.018	91.62
340.246	92.62
340.474	89.62
340.702	84.62
340.93	108.62
341.158	96.62
341.386	87.62
341.614	108.62
341.842	77.62
342.07	86.62
342.298	93.62
342.526	93.62
342.754	97.62
342.981	88.62
343.209	93.62
343.437	92.62
343.665	106.62
343.893	76.62
344.12	90.62
344.348	87.62
344.576	92.62
344.804	91.62
345.031	91.62
345.259	98.62
345.487	79.62
345.714	84.62
345.942	88.62
346.17	96.62
346.397	91.62
346.625	82.62
346.853	90.62
347.08	83.62
347.308	98.62
347.535	106.62
347.763	105.62
347.99	113.62
348.218	102.62
348.445	109.62
348.673	107.62
348.9	105.62
349.128	96.62
349.355	95.62
349.583	86.62
349.81	90.62
350.037	101.62
350.265	104.62
350.492	85.62
350.72	91.62
350.947	102.62
351.174	110.62
351.402	110.62
351.629	97.62
351.856	114.62
352.083	102.62
352.311	97.62
352.538	104.62
352.765	112.62
352.992	97.62
353.22	106.62
353.447	117.62
353.674	93.62
353.901	97.62
354.128	92.62
354.355	84.62
354.583	86.62
354.81	86.62
355.037	94.62
355.264	90.62
355.491	87.62
355.718	93.62
355.945	96.62
356.172	85.62
356.399	90.62
356.626	86.62
356.853	86.62
357.08	96.62
357.307	99.62
357.534	93.62
357.761	102.62
357.988	92.62
358.215	108.62
358.441	76.62
358.668	98.62
358.895	94.62
359.122	97.62
359.349	85.62
359.576	89.62
359.802	99.62
360.029	118.62
360.256	102.62
360.483	89.62
360.709	92.62
360.936	96.62
361.163	100.62
361.39	80.62
361.616	93.62
361.843	81.62
362.07	95.62
362.296	105.62
362.523	90.62
362.749	96.62
362.976	100.62
363.203	89.62
363.429	96.62
363.656	81.62
363.882	80.62
364.109	93.62
364.335	73.62
364.562	91.62
364.788	96.62
365.015	86.62
365.241	90.62
365.468	112.62
365.694	103.62
365.92	86.62
366.147	93.62
366.373	90.62
366.599	87.62
366.826	93.62
367.052	98.62
367.278	83.62
367.505	96.62
367.731	89.62
367.957	94.62
368.184	92.62
368.41	88.62
368.636	116.62
368.862	108.62
369.089	104.62
369.315	93.62
369.541	82.62
369.767	93.62
369.993	91.62
370.219	90.62
370.445	83.62
370.672	96.62
370.898	77.62
371.124	84.62
371.35	86.62
371.576	76.62
371.802	86.62
372.028	81.62
372.254	91.62
372.48	95.62
372.706	82.62
372.932	86.62
373.158	84.62
373.384	84.62
373.61	90.62
373.835	90.62
374.061	80.62
374.287	83.62
374.513	95.62
374.739	101.62
374.965	81.62
375.191	93.62
375.416	102.62
375.642	86.62
375.868	80.62
376.094	81.62
376.319	78.62
376.545	89.62
376.771	96.62
376.997	85.62
377.222	87.62
377.448	92.62
377.674	81.62
377.899	92.62
378.125	91.62
378.35	85.62
378.576	79.62
378.802	99.62
379.027	86.62
379.253	94.62
379.478	96.62
379.704	85.62
379.929	82.62
380.155	86.62
380.38	99.62
380.606	92.62
380.831	97.62
381.057	103.62
381.282	98.62
381.507	98.62
381.733	81.62
381.958	94.62
382.184	108.62
382.409	91.62
382.634	102.62
382.86	93.62
383.085	90.62
383.31	93.62
383.535	99.62
383.761	101.62
383.986	107.62
384.211	96.62
384.436	101.62
384.662	97.62
384.887	115.62
385.112	102.62
385.337	103.62
385.562	96.62
385.787	113.62
386.013	107.62
386.238	93.62
386.463	89.62
386.688	98.62
386.913	96.62
387.138	109.62
387.363	80.62
387.588	91.62
387.813	95.62
388.038	93.62
388.263	108.62
388.488	106.62
388.713	93.62
388.938	82.62
389.163	96.62
389.387	94.62
389.612	100.62
389.837	84.62
390.062	88.62
390.287	85.62
390.512	90.62
390.736	88.62
390.961	81.62
391.186	94.62
391.411	86.62
391.636	89.62
391.86	97.62
392.085	88.62
392.31	92.62
392.534	77.62
392.759	73.62
392.984	81.62
393.208	80.62
393.433	84.62
393.658	88.62
393.882	90.62
394.107	88.62
394.331	80.62
394.556	75.62
394.78	82.62
395.005	82.62
395.229	94.62
395.454	85.62
395.678	93.62
395.903	68.62
396.127	82.62
396.352	89.62
396.576	97.62
396.801	69.62
397.025	69.62
397.249	99.62
397.474	76.62
397.698	77.62
397.922	93.62
398.147	74.62
398.371	84.62
398.595	101.62
398.82	103.62
399.044	89.62
399.268	95.62
399.492	90.62
399.717	96.62
399.941	99.62
400.165	90.62
400.389	80.62
400.613	87.62
400.837	100.62
401.062	82.62
401.286	89.62
401.51	105.62
401.734	97.62
401.958	89.62
402.182	121.62
402.406	149.62
402.63	105.62
402.854	113.62
403.078	91.62
403.302	75.62
403.526	92.62
403.75	94.62
403.974	89.62
404.198	84.62
404.422	80.62
404.645	88.62
404.869	86.62
405.093	92.62
405.317	89.62
405.541	117.62
405.765	104.62
405.988	116.62
406.212	154.62
406.436	208.62
406.66	124.62
406.883	96.62
407.107	96.62
407.331	106.62
407.555	103.62
407.778	96.62
408.002	83.62
408.226	87.62
408.449	101.62
408.673	85.62
408.896	85.62
409.12	91.62
409.344	85.62
409.567	94.62
409.791	92.62
410.014	81.62
410.238	89.62
410.461	93.62
410.685	90.62
410.908	91.62
411.132	94.62
411.355	84.62
411.578	92.62
411.802	105.62
412.025	93.62
412.249	96.62
412.472	90.62
412.695	84.62
412.919	97.62
413.142	108.62
413.365	86.62
413.589	101.62
413.812	82.62
414.035	94.62
414.258	81.62
414.482	103.62
414.705	83.62
414.928	80.62
415.151	86.62
415.374	85.62
415.597	88.62
415.821	84.62
416.044	85.62
416.267	91.62
416.49	79.62
416.713	79.62
416.936	79.62
417.159	93.62
417.382	93.62
417.605	99.62
417.828	88.62
418.051	80.62
418.274	80.62
418.497	82.62
418.72	72.62
418.943	76.62
419.166	78.62
419.389	87.62
419.611	90.62
419.834	94.62
420.057	91.62
420.28	87.62
420.503	84.62
420.726	82.62
420.948	82.62
421.171	92.62
421.394	93.62
421.617	86.62
421.839	87.62
422.062	92.62
422.285	88.62
422.507	90.62
422.73	111.62
422.953	97.62
423.175	72.62
423.398	96.62
423.621	90.62
423.843	99.62
424.066	89.62
424.288	88.62
424.511	105.62
424.733	112.62
424.956	94.62
425.178	97.62
425.401	103.62
425.623	105.62
425.846	87.62
426.068	86.62
426.291	80.62
426.513	84.62
426.735	86.62
426.958	94.62
427.18	103.62
427.402	120.62
427.625	153.62
427.847	116.62
428.069	96.62
428.292	81.62
428.514	87.62
428.736	77.62
428.958	73.62
429.181	79.62
429.403	87.62
429.625	77.62
429.847	75.62
430.069	83.62
430.292	80.62
430.514	86.62
430.736	93.62
430.958	84.62
431.18	77.62
431.402	83.62
431.624	96.62
431.846	72.62
432.068	78.62
432.29	85.62
432.512	85.62
432.734	71.62
432.956	87.62
433.178	102.62
433.4	104.62
433.622	78.62
433.844	100.62
434.066	84.62
434.287	76.62
434.509	84.62
434.731	72.62
434.953	86.62
435.175	77.62
435.397	90.62
435.618	77.62
435.84	96.62
436.062	114.62
436.284	102.62
436.505	110.62
436.727	82.62
436.949	96.62
437.17	84.62
437.392	84.62
437.614	93.62
437.835	107.62
438.057	110.62
438.278	96.62
438.5	97.62
438.721	121.62
438.943	96.62
439.165	65.62
439.386	67.62
439.608	74.62
439.829	99.62
440.05	120.62
440.272	126.62
440.493	104.62
440.715	90.62
440.936	74.62
441.158	79.62
441.379	85.62
441.6	82.62
441.822	88.62
442.043	93.62
442.264	99.62
442.486	95.62
442.707	82.62
442.928	91.62
443.149	118.62
443.371	131.62
443.592	112.62
443.813	103.62
444.034	105.62
444.255	104.62
444.476	98.62
444.698	89.62
444.919	67.62
445.14	112.62
445.361	109.62
445.582	114.62
445.803	129.62
446.024	125.62
446.245	112.62
446.466	109.62
446.687	88.62
446.908	89.62
447.129	86.62
447.35	102.62
447.571	102.62
447.792	87.62
448.013	90.62
448.234	98.62
448.455	103.62
448.675	113.62
448.896	101.62
449.117	84.62
449.338	95.62
449.559	123.62
449.779	110.62
450	112.62
450.221	84.62
450.442	83.62
450.662	91.62
450.883	105.62
451.104	126.62
451.324	86.62
451.545	83.62
451.766	81.62
451.986	97.62
452.207	89.62
452.428	88.62
452.648	96.62
452.869	105.62
453.089	109.62
453.31	114.62
453.53	82.62
453.751	90.62
453.971	100.62
454.192	92.62
454.412	98.62
454.633	98.62
454.853	74.62
455.073	81.62
455.294	74.62
455.514	84.62
455.734	89.62
455.955	68.62
456.175	80.62
456.395	75.62
456.616	90.62
456.836	89.62
457.056	86.62
457.276	81.62
457.497	89.62
457.717	83.62
457.937	86.62
458.157	89.62
458.377	80.62
458.598	107.62
458.818	148.62
459.038	165.62
459.258	91.62
459.478	80.62
459.698	78.62
459.918	82.62
460.138	81.62
460.358	77.62
460.578	86.62
460.798	94.62
461.018	81.62
461.238	90.62
461.458	85.62
461.678	90.62
461.898	82.62
462.118	78.62
462.338	84.62
462.558	81.62
462.777	78.62
462.997	75.62
463.217	84.62
463.437	92.62
463.657	80.62
463.876	93.62
464.096	92.62
464.316	76.62
464.536	86.62
464.755	91.62
464.975	102.62
465.195	140.62
465.414	138.62
465.634	102.62
465.854	90.62
466.073	89.62
466.293	92.62
466.512	102.62
466.732	79.62
466.951	77.62
467.171	80.62
467.391	95.62
467.61	99.62
467.829	110.62
468.049	91.62
468.268	68.62
468.488	89.62
468.707	92.62
468.927	85.62
469.146	80.62
469.365	74.62
469.585	96.62
469.804	77.62
470.023	95.62
470.243	86.62
470.462	97.62
470.681	108.62
470.901	94.62
471.12	92.62
471.339	93.62
471.558	91.62
471.777	76.62
471.997	83.62
472.216	85.62
472.435	90.62
472.654	76.62
472.873	86.62
473.092	81.62
473.311	78.62
473.53	89.62
473.749	82.62
473.968	99.62
474.187	97.62
474.406	101.62
474.625	97.62
474.844	96.62
475.063	89.62
475.282	68.62
475.501	80.62
475.72	91.62
475.939	88.62
476.158	86.62
476.377	97.62
476.596	82.62
476.814	93.62
477.033	79.62
477.252	85.62
477.471	93.62
477.69	74.62
477.908	75.62
478.127	86.62
478.346	96.62
478.564	81.62
478.783	91.62
479.002	84.62
479.22	84.62
479.439	100.62
479.658	104.62
479.876	86.62
480.095	73.62
480.313	88.62
480.532	94.62
480.751	75.62
480.969	91.62
481.188	79.62
481.406	79.62
481.624	79.62
481.843	89.62
482.061	85.62
482.28	84.62
482.498	81.62
482.717	91.62
482.935	85.62
483.153	83.62
483.372	86.62
483.59	91.62
483.808	73.62
484.027	80.62
484.245	89.62
484.463	80.62
484.681	93.62
484.9	86.62
485.118	89.62
485.336	94.62
485.554	106.62
485.772	100.62
485.99	104.62
486.209	97.62
486.427	105.62
486.645	95.62
486.863	113.62
487.081	90.62
487.299	86.62
487.517	96.62
487.735	90.62
487.953	84.62
488.171	98.62
488.389	85.62
488.607	91.62
488.825	89.62
489.043	79.62
489.261	101.62
489.479	102.62
489.696	95.62
489.914	81.62
490.132	90.62
490.35	98.62
490.568	78.62
490.786	92.62
491.003	84.62
491.221	80.62
491.439	85.62
491.657	80.62
491.874	82.62
492.092	88.62
492.31	84.62
492.527	76.62
492.745	95.62
492.963	102.62
493.18	90.62
493.398	91.62
493.615	111.62
493.833	95.62
494.05	90.62
494.268	104.62
494.485	98.62
494.703	80.62
494.92	82.62
495.138	77.62
495.355	82.62
495.573	90.62
495.79	79.62
496.008	89.62
496.225	90.62
496.442	84.62
496.66	96.62
496.877	81.62
497.094	92.62
497.312	80.62
497.529	96.62
497.746	86.62
497.963	85.62
498.181	84.62
498.398	93.62
498.615	109.62
498.832	99.62
499.049	84.62
499.267	80.62
499.484	91.62
499.701	81.62
499.918	82.62
500.135	87.62
500.352	95.62
500.569	91.62
500.786	95.62
501.003	98.62
501.22	76.62
501.437	72.62
501.654	80.62
501.871	102.62
502.088	81.62
502.305	101.62
502.522	79.62
502.739	100.62
502.956	91.62
503.172	82.62
503.389	94.62
503.606	92.62
503.823	100.62
504.04	92.62
504.256	78.62
504.473	83.62
504.69	77.62
504.907	105.62
505.123	93.62
505.34	93.62
505.557	104.62
505.773	93.62
505.99	90.62
506.207	93.62
506.423	91.62
506.64	98.62
506.856	95.62
507.073	75.62
507.289	100.62
507.506	84.62
507.722	108.62
507.939	90.62
508.155	93.62
508.372	83.62
508.588	95.62
508.805	90.62
509.021	90.62
509.238	90.62
509.454	100.62
509.67	99.62
509.887	102.62
510.103	116.62
510.319	202.62
510.536	735.62
510.752	2184.62
510.968	624.62
511.184	164.62
511.401	104.62
511.617	88.62
511.833	102.62
512.049	90.62
512.265	89.62
512.481	84.62
512.698	93.62
512.914	89.62
513.13	78.62
513.346	80.62
513.562	92.62
513.778	96.62
513.994	86.62
514.21	100.62
514.426	114.62
514.642	134.62
514.858	121.62
515.074	156.62
515.29	412.62
515.506	1320.62
515.721	480.62
515.937	144.62
516.153	109.62
516.369	80.62
516.585	94.62
