Data from Uncirc_2006_H10_HRD10591_00057.txt Node
Date: Wed Jan 03 10:25:06 EST 2024
User: Yrep
Spectrometer: HR+D1059
Trigger mode: 1
Integration Time (sec): 1.000000E-1
Scans to average: 1
Electric dark correction enabled: true
Nonlinearity correction enabled: false
Boxcar width: 0
XAxis mode: Wavelengths
Number of Pixels in Spectrum: 2048
>>>>>Begin Spectral Data<<<<<
223.165	-17.12
223.4	-17.12
223.635	-17.12
223.869	-16.12
224.104	-13.12
224.338	-15.12
224.573	-28.12
224.808	-1.12
225.042	-1.12
225.277	-13.12
225.511	8.88
225.746	4.88
225.98	8.88
226.215	-6.12
226.449	16.88
226.683	15.88
226.918	29.88
227.152	25.88
227.387	36.88
227.621	42.88
227.856	52.88
228.09	50.88
228.324	49.88
228.559	77.88
228.793	50.88
229.027	86.88
229.262	86.88
229.496	95.88
229.73	70.88
229.964	70.88
230.199	78.88
230.433	86.88
230.667	81.88
230.901	76.88
231.136	86.88
231.37	72.88
231.604	92.88
231.838	88.88
232.072	94.88
232.306	84.88
232.541	81.88
232.775	85.88
233.009	79.88
233.243	81.88
233.477	90.88
233.711	91.88
233.945	82.88
234.179	74.88
234.413	75.88
234.647	94.88
234.881	88.88
235.115	86.88
235.349	90.88
235.583	71.88
235.817	80.88
236.051	79.88
236.285	91.88
236.519	96.88
236.753	76.88
236.987	91.88
237.221	82.88
237.455	72.88
237.689	73.88
237.922	82.88
238.156	86.88
238.39	89.88
238.624	78.88
238.858	79.88
239.091	82.88
239.325	84.88
239.559	84.88
239.793	85.88
240.027	85.88
240.26	80.88
240.494	80.88
240.728	85.88
240.961	90.88
241.195	90.88
241.429	83.88
241.662	78.88
241.896	65.88
242.13	72.88
242.363	90.88
242.597	77.88
242.83	79.88
243.064	73.88
243.298	80.88
243.531	85.88
243.765	84.88
243.998	76.88
244.232	75.88
244.465	81.88
244.699	89.88
244.932	85.88
245.166	62.88
245.399	84.88
245.633	66.88
245.866	81.88
246.099	74.88
246.333	80.88
246.566	75.88
246.8	99.88
247.033	79.88
247.266	90.88
247.5	90.88
247.733	81.88
247.966	69.88
248.2	93.88
248.433	89.88
248.666	87.88
248.899	90.88
249.133	89.88
249.366	88.88
249.599	86.88
249.832	73.88
250.066	81.88
250.299	87.88
250.532	86.88
250.765	78.88
250.998	82.88
251.231	74.88
251.465	76.88
251.698	70.88
251.931	86.88
252.164	76.88
252.397	76.88
252.63	85.88
252.863	73.88
253.096	82.88
253.329	84.88
253.562	73.88
253.795	90.88
254.028	84.88
254.261	90.88
254.494	89.88
254.727	101.88
254.96	97.88
255.193	83.88
255.426	76.88
255.659	95.88
255.892	96.88
256.124	100.88
256.357	90.88
256.59	100.88
256.823	99.88
257.056	80.88
257.289	88.88
257.521	56.88
257.754	89.88
257.987	91.88
258.22	87.88
258.452	92.88
258.685	66.88
258.918	90.88
259.151	95.88
259.383	79.88
259.616	85.88
259.849	86.88
260.081	79.88
260.314	80.88
260.547	77.88
260.779	80.88
261.012	73.88
261.244	88.88
261.477	86.88
261.71	101.88
261.942	104.88
262.175	121.88
262.407	90.88
262.64	97.88
262.872	95.88
263.105	86.88
263.337	87.88
263.57	87.88
263.802	75.88
264.035	81.88
264.267	79.88
264.499	91.88
264.732	87.88
264.964	78.88
265.197	84.88
265.429	87.88
265.661	77.88
265.894	67.88
266.126	94.88
266.358	82.88
266.591	85.88
266.823	80.88
267.055	85.88
267.287	94.88
267.52	93.88
267.752	80.88
267.984	93.88
268.216	84.88
268.448	100.88
268.681	86.88
268.913	82.88
269.145	86.88
269.377	87.88
269.609	90.88
269.841	98.88
270.073	81.88
270.306	79.88
270.538	72.88
270.77	78.88
271.002	87.88
271.234	86.88
271.466	87.88
271.698	69.88
271.93	94.88
272.162	87.88
272.394	94.88
272.626	86.88
272.858	82.88
273.09	83.88
273.322	80.88
273.553	67.88
273.785	79.88
274.017	93.88
274.249	87.88
274.481	84.88
274.713	92.88
274.945	85.88
275.176	94.88
275.408	94.88
275.64	77.88
275.872	89.88
276.104	86.88
276.335	97.88
276.567	88.88
276.799	100.88
277.031	111.88
277.262	100.88
277.494	87.88
277.726	91.88
277.957	82.88
278.189	85.88
278.421	80.88
278.652	86.88
278.884	98.88
279.115	82.88
279.347	87.88
279.579	85.88
279.81	96.88
280.042	73.88
280.273	86.88
280.505	83.88
280.736	78.88
280.968	76.88
281.199	82.88
281.431	83.88
281.662	76.88
281.894	89.88
282.125	93.88
282.356	124.88
282.588	146.88
282.819	109.88
283.051	88.88
283.282	98.88
283.513	86.88
283.745	86.88
283.976	75.88
284.207	85.88
284.439	87.88
284.67	82.88
284.901	80.88
285.132	83.88
285.364	96.88
285.595	84.88
285.826	66.88
286.057	90.88
286.288	92.88
286.52	89.88
286.751	83.88
286.982	89.88
287.213	101.88
287.444	91.88
287.675	89.88
287.906	94.88
288.138	93.88
288.369	82.88
288.6	99.88
288.831	92.88
289.062	90.88
289.293	84.88
289.524	91.88
289.755	91.88
289.986	88.88
290.217	97.88
290.448	99.88
290.679	85.88
290.91	90.88
291.141	95.88
291.371	94.88
291.602	93.88
291.833	88.88
292.064	89.88
292.295	75.88
292.526	105.88
292.757	90.88
292.987	99.88
293.218	101.88
293.449	98.88
293.68	88.88
293.91	91.88
294.141	92.88
294.372	93.88
294.603	101.88
294.833	87.88
295.064	93.88
295.295	106.88
295.525	92.88
295.756	108.88
295.987	105.88
296.217	125.88
296.448	133.88
296.679	95.88
296.909	104.88
297.14	86.88
297.37	82.88
297.601	85.88
297.831	97.88
298.062	91.88
298.292	87.88
298.523	84.88
298.753	101.88
298.984	84.88
299.214	93.88
299.445	101.88
299.675	94.88
299.905	90.88
300.136	101.88
300.366	90.88
300.597	84.88
300.827	95.88
301.057	97.88
301.288	115.88
301.518	104.88
301.748	89.88
301.979	101.88
302.209	93.88
302.439	97.88
302.669	96.88
302.9	62.88
303.13	108.88
303.36	95.88
303.59	105.88
303.82	113.88
304.051	103.88
304.281	103.88
304.511	97.88
304.741	94.88
304.971	87.88
305.201	95.88
305.431	82.88
305.661	88.88
305.891	105.88
306.121	99.88
306.352	96.88
306.582	101.88
306.812	95.88
307.042	96.88
307.272	103.88
307.502	85.88
307.731	91.88
307.961	94.88
308.191	85.88
308.421	74.88
308.651	77.88
308.881	92.88
309.111	102.88
309.341	101.88
309.571	97.88
309.8	86.88
310.03	89.88
310.26	103.88
310.49	101.88
310.72	92.88
310.949	93.88
311.179	97.88
311.409	95.88
311.639	94.88
311.868	97.88
312.098	98.88
312.328	104.88
312.557	102.88
312.787	116.88
313.017	104.88
313.246	99.88
313.476	90.88
313.706	86.88
313.935	81.88
314.165	94.88
314.394	89.88
314.624	98.88
314.853	95.88
315.083	103.88
315.312	81.88
315.542	90.88
315.771	96.88
316.001	100.88
316.23	99.88
316.46	91.88
316.689	88.88
316.919	96.88
317.148	86.88
317.377	102.88
317.607	84.88
317.836	104.88
318.065	90.88
318.295	90.88
318.524	91.88
318.753	106.88
318.983	95.88
319.212	101.88
319.441	87.88
319.67	99.88
319.9	98.88
320.129	103.88
320.358	110.88
320.587	106.88
320.816	99.88
321.046	99.88
321.275	89.88
321.504	85.88
321.733	101.88
321.962	106.88
322.191	111.88
322.42	105.88
322.649	117.88
322.878	118.88
323.108	107.88
323.337	108.88
323.566	131.88
323.795	142.88
324.024	195.88
324.253	392.88
324.482	799.88
324.71	1637.88
324.939	2128.88
325.168	784.88
325.397	260.88
325.626	159.88
325.855	126.88
326.084	123.88
326.313	129.88
326.542	154.88
326.77	227.88
326.999	450.88
327.228	939.88
327.457	1662.88
327.686	1326.88
327.914	372.88
328.143	192.88
328.372	130.88
328.6	115.88
328.829	128.88
329.058	136.88
329.287	118.88
329.515	112.88
329.744	104.88
329.972	97.88
330.201	109.88
330.43	102.88
330.658	105.88
330.887	124.88
331.115	112.88
331.344	101.88
331.572	108.88
331.801	116.88
332.03	101.88
332.258	109.88
332.486	114.88
332.715	106.88
332.943	96.88
333.172	110.88
333.4	105.88
333.629	95.88
333.857	113.88
334.085	97.88
334.314	90.88
334.542	77.88
334.771	85.88
334.999	89.88
335.227	104.88
335.455	93.88
335.684	110.88
335.912	105.88
336.14	112.88
336.369	92.88
336.597	98.88
336.825	81.88
337.053	95.88
337.281	96.88
337.51	101.88
337.738	82.88
337.966	90.88
338.194	101.88
338.422	87.88
338.65	96.88
338.878	90.88
339.106	87.88
339.334	96.88
339.562	89.88
339.79	100.88
340.018	87.88
340.246	88.88
340.474	72.88
340.702	90.88
340.93	101.88
341.158	94.88
341.386	109.88
341.614	108.88
341.842	90.88
342.07	85.88
342.298	98.88
342.526	90.88
342.754	101.88
342.981	95.88
343.209	92.88
343.437	104.88
343.665	96.88
343.893	104.88
344.12	104.88
344.348	96.88
344.576	93.88
344.804	89.88
345.031	95.88
345.259	95.88
345.487	95.88
345.714	106.88
345.942	101.88
346.17	94.88
346.397	94.88
346.625	95.88
346.853	95.88
347.08	95.88
347.308	89.88
347.535	96.88
347.763	100.88
347.99	106.88
348.218	96.88
348.445	91.88
348.673	107.88
348.9	107.88
349.128	109.88
349.355	95.88
349.583	90.88
349.81	96.88
350.037	89.88
350.265	99.88
350.492	89.88
350.72	96.88
350.947	108.88
351.174	122.88
351.402	109.88
351.629	109.88
351.856	113.88
352.083	108.88
352.311	122.88
352.538	102.88
352.765	114.88
352.992	118.88
353.22	124.88
353.447	118.88
353.674	107.88
353.901	87.88
354.128	88.88
354.355	89.88
354.583	105.88
354.81	97.88
355.037	106.88
355.264	86.88
355.491	98.88
355.718	95.88
355.945	90.88
356.172	105.88
356.399	98.88
356.626	108.88
356.853	93.88
357.08	92.88
357.307	80.88
357.534	82.88
357.761	102.88
357.988	92.88
358.215	101.88
358.441	100.88
358.668	90.88
358.895	96.88
359.122	93.88
359.349	84.88
359.576	97.88
359.802	99.88
360.029	100.88
360.256	110.88
360.483	90.88
360.709	95.88
360.936	106.88
361.163	97.88
361.39	106.88
361.616	102.88
361.843	92.88
362.07	83.88
362.296	106.88
362.523	100.88
362.749	94.88
362.976	93.88
363.203	104.88
363.429	98.88
363.656	81.88
363.882	90.88
364.109	87.88
364.335	108.88
364.562	84.88
364.788	97.88
365.015	98.88
365.241	91.88
365.468	110.88
365.694	108.88
365.92	98.88
366.147	101.88
366.373	91.88
366.599	95.88
366.826	96.88
367.052	88.88
367.278	95.88
367.505	89.88
367.731	99.88
367.957	95.88
368.184	88.88
368.41	96.88
368.636	102.88
368.862	125.88
369.089	80.88
369.315	96.88
369.541	90.88
369.767	96.88
369.993	95.88
370.219	84.88
370.445	95.88
370.672	80.88
370.898	94.88
371.124	94.88
371.35	87.88
371.576	96.88
371.802	94.88
372.028	81.88
372.254	99.88
372.48	74.88
372.706	86.88
372.932	85.88
373.158	92.88
373.384	103.88
373.61	88.88
373.835	77.88
374.061	81.88
374.287	97.88
374.513	99.88
374.739	90.88
374.965	96.88
375.191	94.88
375.416	72.88
375.642	89.88
375.868	89.88
376.094	106.88
376.319	103.88
376.545	96.88
376.771	93.88
376.997	91.88
377.222	95.88
377.448	102.88
377.674	89.88
377.899	101.88
378.125	99.88
378.35	97.88
378.576	92.88
378.802	87.88
379.027	92.88
379.253	92.88
379.478	99.88
379.704	88.88
379.929	101.88
380.155	93.88
380.38	89.88
380.606	98.88
380.831	85.88
381.057	96.88
381.282	97.88
381.507	102.88
381.733	112.88
381.958	90.88
382.184	100.88
382.409	99.88
382.634	108.88
382.86	93.88
383.085	99.88
383.31	102.88
383.535	106.88
383.761	84.88
383.986	88.88
384.211	100.88
384.436	92.88
384.662	87.88
384.887	105.88
385.112	110.88
385.337	125.88
385.562	106.88
385.787	99.88
386.013	119.88
386.238	101.88
386.463	116.88
386.688	100.88
386.913	100.88
387.138	108.88
387.363	113.88
387.588	115.88
387.813	86.88
388.038	102.88
388.263	113.88
388.488	108.88
388.713	100.88
388.938	104.88
389.163	98.88
389.387	88.88
389.612	92.88
389.837	106.88
390.062	113.88
390.287	93.88
390.512	98.88
390.736	101.88
390.961	102.88
391.186	101.88
391.411	87.88
391.636	88.88
391.86	70.88
392.085	90.88
392.31	101.88
392.534	82.88
392.759	94.88
392.984	85.88
393.208	85.88
393.433	97.88
393.658	85.88
393.882	75.88
394.107	82.88
394.331	93.88
394.556	78.88
394.78	92.88
395.005	81.88
395.229	79.88
395.454	73.88
395.678	106.88
395.903	79.88
396.127	89.88
396.352	93.88
396.576	86.88
396.801	94.88
397.025	96.88
397.249	82.88
397.474	97.88
397.698	79.88
397.922	98.88
398.147	76.88
398.371	89.88
398.595	90.88
398.82	82.88
399.044	90.88
399.268	88.88
399.492	104.88
399.717	98.88
399.941	97.88
400.165	80.88
400.389	96.88
400.613	93.88
400.837	82.88
401.062	105.88
401.286	89.88
401.51	88.88
401.734	89.88
401.958	92.88
402.182	110.88
402.406	154.88
402.63	121.88
402.854	105.88
403.078	88.88
403.302	80.88
403.526	81.88
403.75	100.88
403.974	85.88
404.198	87.88
404.422	87.88
404.645	89.88
404.869	80.88
405.093	92.88
405.317	106.88
405.541	88.88
405.765	97.88
405.988	123.88
406.212	150.88
406.436	206.88
406.66	140.88
406.883	96.88
407.107	88.88
407.331	97.88
407.555	91.88
407.778	89.88
408.002	99.88
408.226	95.88
408.449	87.88
408.673	92.88
408.896	104.88
409.12	96.88
409.344	90.88
409.567	95.88
409.791	87.88
410.014	89.88
410.238	104.88
410.461	104.88
410.685	107.88
410.908	96.88
411.132	108.88
411.355	95.88
411.578	102.88
411.802	100.88
412.025	90.88
412.249	96.88
412.472	78.88
412.695	92.88
412.919	104.88
413.142	93.88
413.365	90.88
413.589	93.88
413.812	92.88
414.035	91.88
414.258	97.88
414.482	104.88
414.705	78.88
414.928	96.88
415.151	98.88
415.374	81.88
415.597	86.88
415.821	90.88
416.044	99.88
416.267	88.88
416.49	92.88
416.713	101.88
416.936	77.88
417.159	89.88
417.382	82.88
417.605	88.88
417.828	98.88
418.051	101.88
418.274	87.88
418.497	92.88
418.72	91.88
418.943	74.88
419.166	99.88
419.389	94.88
419.611	82.88
419.834	93.88
420.057	91.88
420.28	82.88
420.503	95.88
420.726	88.88
420.948	84.88
421.171	95.88
421.394	113.88
421.617	93.88
421.839	88.88
422.062	96.88
422.285	86.88
422.507	103.88
422.73	89.88
422.953	76.88
423.175	97.88
423.398	100.88
423.621	95.88
423.843	83.88
424.066	72.88
424.288	87.88
424.511	101.88
424.733	97.88
424.956	102.88
425.178	100.88
425.401	87.88
425.623	90.88
425.846	85.88
426.068	90.88
426.291	93.88
426.513	106.88
426.735	96.88
426.958	103.88
427.18	101.88
427.402	127.88
427.625	140.88
427.847	130.88
428.069	98.88
428.292	88.88
428.514	86.88
428.736	80.88
428.958	81.88
429.181	88.88
429.403	82.88
429.625	95.88
429.847	94.88
430.069	89.88
430.292	94.88
430.514	100.88
430.736	92.88
430.958	95.88
431.18	84.88
431.402	93.88
431.624	81.88
431.846	88.88
432.068	95.88
432.29	77.88
432.512	82.88
432.734	72.88
432.956	104.88
433.178	105.88
433.4	98.88
433.622	94.88
433.844	91.88
434.066	103.88
434.287	94.88
434.509	97.88
434.731	85.88
434.953	98.88
435.175	80.88
435.397	100.88
435.618	96.88
435.84	90.88
436.062	105.88
436.284	116.88
436.505	96.88
436.727	100.88
436.949	101.88
437.17	86.88
437.392	103.88
437.614	93.88
437.835	96.88
438.057	113.88
438.278	87.88
438.5	86.88
438.721	127.88
438.943	90.88
439.165	86.88
439.386	91.88
439.608	87.88
439.829	100.88
440.05	127.88
440.272	127.88
440.493	84.88
440.715	79.88
440.936	89.88
441.158	98.88
441.379	89.88
441.6	90.88
441.822	97.88
442.043	87.88
442.264	99.88
442.486	93.88
442.707	90.88
442.928	101.88
443.149	127.88
443.371	126.88
443.592	93.88
443.813	105.88
444.034	102.88
444.255	91.88
444.476	89.88
444.698	95.88
444.919	89.88
445.14	128.88
445.361	132.88
445.582	102.88
445.803	128.88
446.024	130.88
446.245	124.88
446.466	98.88
446.687	86.88
446.908	98.88
447.129	80.88
447.35	86.88
447.571	103.88
447.792	94.88
448.013	97.88
448.234	108.88
448.455	108.88
448.675	104.88
448.896	112.88
449.117	106.88
449.338	96.88
449.559	129.88
449.779	135.88
450	98.88
450.221	81.88
450.442	92.88
450.662	89.88
450.883	106.88
451.104	115.88
451.324	101.88
451.545	86.88
451.766	95.88
451.986	89.88
452.207	92.88
452.428	96.88
452.648	93.88
452.869	113.88
453.089	135.88
453.31	100.88
453.53	103.88
453.751	96.88
453.971	100.88
454.192	113.88
454.412	96.88
454.633	84.88
454.853	88.88
455.073	97.88
455.294	105.88
455.514	89.88
455.734	87.88
455.955	88.88
456.175	89.88
456.395	83.88
456.616	82.88
456.836	96.88
457.056	95.88
457.276	94.88
457.497	93.88
457.717	82.88
457.937	77.88
458.157	86.88
458.377	87.88
458.598	110.88
458.818	136.88
459.038	145.88
459.258	115.88
459.478	94.88
459.698	95.88
459.918	96.88
460.138	82.88
460.358	90.88
460.578	97.88
460.798	90.88
461.018	87.88
461.238	88.88
461.458	89.88
461.678	92.88
461.898	98.88
462.118	75.88
462.338	82.88
462.558	80.88
462.777	96.88
462.997	82.88
463.217	79.88
463.437	73.88
463.657	95.88
463.876	76.88
464.096	78.88
464.316	91.88
464.536	90.88
464.755	101.88
464.975	103.88
465.195	132.88
465.414	132.88
465.634	109.88
465.854	108.88
466.073	89.88
466.293	89.88
466.512	90.88
466.732	86.88
466.951	95.88
467.171	81.88
467.391	95.88
467.61	91.88
467.829	96.88
468.049	97.88
468.268	90.88
468.488	88.88
468.707	82.88
468.927	89.88
469.146	77.88
469.365	94.88
469.585	87.88
469.804	92.88
470.023	85.88
470.243	96.88
470.462	111.88
470.681	90.88
470.901	87.88
471.12	96.88
471.339	85.88
471.558	76.88
471.777	86.88
471.997	83.88
472.216	96.88
472.435	101.88
472.654	96.88
472.873	85.88
473.092	87.88
473.311	86.88
473.53	74.88
473.749	84.88
473.968	86.88
474.187	105.88
474.406	97.88
474.625	82.88
474.844	86.88
475.063	83.88
475.282	96.88
475.501	89.88
475.72	98.88
475.939	81.88
476.158	84.88
476.377	94.88
476.596	88.88
476.814	86.88
477.033	98.88
477.252	97.88
477.471	88.88
477.69	92.88
477.908	81.88
478.127	82.88
478.346	85.88
478.564	94.88
478.783	95.88
479.002	91.88
479.22	89.88
479.439	88.88
479.658	101.88
479.876	94.88
480.095	80.88
480.313	97.88
480.532	89.88
480.751	99.88
480.969	101.88
481.188	95.88
481.406	88.88
481.624	98.88
481.843	95.88
482.061	98.88
482.28	97.88
482.498	89.88
482.717	65.88
482.935	79.88
483.153	89.88
483.372	90.88
483.59	83.88
483.808	93.88
484.027	84.88
484.245	88.88
484.463	91.88
484.681	86.88
484.9	85.88
485.118	92.88
485.336	84.88
485.554	89.88
485.772	101.88
485.99	102.88
486.209	104.88
486.427	99.88
486.645	107.88
486.863	112.88
487.081	103.88
487.299	103.88
487.517	97.88
487.735	101.88
487.953	88.88
488.171	78.88
488.389	102.88
488.607	99.88
488.825	99.88
489.043	88.88
489.261	102.88
489.479	88.88
489.696	104.88
489.914	92.88
490.132	72.88
490.35	89.88
490.568	97.88
490.786	102.88
491.003	76.88
491.221	73.88
491.439	86.88
491.657	99.88
491.874	90.88
492.092	89.88
492.31	89.88
492.527	85.88
492.745	88.88
492.963	92.88
493.18	95.88
493.398	95.88
493.615	91.88
493.833	85.88
494.05	76.88
494.268	95.88
494.485	84.88
494.703	102.88
494.92	89.88
495.138	90.88
495.355	76.88
495.573	94.88
495.79	80.88
496.008	80.88
496.225	88.88
496.442	95.88
496.66	97.88
496.877	87.88
497.094	102.88
497.312	101.88
497.529	81.88
497.746	108.88
497.963	98.88
498.181	104.88
498.398	97.88
498.615	104.88
498.832	99.88
499.049	96.88
499.267	89.88
499.484	94.88
499.701	92.88
499.918	99.88
500.135	84.88
500.352	106.88
500.569	85.88
500.786	85.88
501.003	88.88
501.22	82.88
501.437	94.88
501.654	87.88
501.871	101.88
502.088	90.88
502.305	71.88
502.522	80.88
502.739	79.88
502.956	88.88
503.172	87.88
503.389	101.88
503.606	99.88
503.823	107.88
504.04	103.88
504.256	85.88
504.473	88.88
504.69	84.88
504.907	87.88
505.123	97.88
505.34	109.88
505.557	95.88
505.773	108.88
505.99	96.88
506.207	103.88
506.423	98.88
506.64	90.88
506.856	86.88
507.073	98.88
507.289	87.88
507.506	89.88
507.722	111.88
507.939	119.88
508.155	83.88
508.372	86.88
508.588	100.88
508.805	88.88
509.021	99.88
509.238	101.88
509.454	103.88
509.67	118.88
509.887	101.88
510.103	127.88
510.319	204.88
510.536	721.88
510.752	2233.88
510.968	632.88
511.184	144.88
511.401	117.88
511.617	84.88
511.833	92.88
512.049	95.88
512.265	114.88
512.481	84.88
512.698	86.88
512.914	100.88
513.13	89.88
513.346	82.88
513.562	83.88
513.778	91.88
513.994	95.88
514.21	96.88
514.426	128.88
514.642	139.88
514.858	116.88
515.074	164.88
515.29	406.88
