Data from Uncirc_2006_H10_HRD10591_00083.txt Node
Date: Wed Jan 03 10:25:11 EST 2024
User: Yrep
Spectrometer: HR+D1059
Trigger mode: 1
Integration Time (sec): 1.000000E-1
Scans to average: 1
Electric dark correction enabled: true
Nonlinearity correction enabled: false
Boxcar width: 0
XAxis mode: Wavelengths
Number of Pixels in Spectrum: 2048
>>>>>Begin Spectral Data<<<<<
223.165	-3.38
223.4	-3.38
223.635	-3.38
223.869	-15.38
224.104	-25.38
224.338	-19.38
224.573	-22.38
224.808	-14.38
225.042	-5.38
225.277	-8.38
225.511	-4.38
225.746	15.62
225.98	6.62
226.215	4.62
226.449	16.62
226.683	24.62
226.918	17.62
227.152	32.62
227.387	24.62
227.621	28.62
227.856	46.62
228.09	29.62
228.324	44.62
228.559	56.62
228.793	57.62
229.027	72.62
229.262	77.62
229.496	85.62
229.73	69.62
229.964	79.62
230.199	64.62
230.433	66.62
230.667	76.62
230.901	73.62
231.136	68.62
231.37	80.62
231.604	72.62
231.838	72.62
232.072	82.62
232.306	74.62
232.541	83.62
232.775	76.62
233.009	80.62
233.243	75.62
233.477	82.62
233.711	91.62
233.945	88.62
234.179	84.62
234.413	67.62
234.647	64.62
234.881	88.62
235.115	80.62
235.349	72.62
235.583	83.62
235.817	82.62
236.051	81.62
236.285	78.62
236.519	84.62
236.753	77.62
236.987	72.62
237.221	66.62
237.455	78.62
237.689	80.62
237.922	80.62
238.156	68.62
238.39	74.62
238.624	75.62
238.858	65.62
239.091	66.62
239.325	74.62
239.559	85.62
239.793	86.62
240.027	70.62
240.26	78.62
240.494	83.62
240.728	62.62
240.961	70.62
241.195	84.62
241.429	77.62
241.662	67.62
241.896	65.62
242.13	63.62
242.363	84.62
242.597	81.62
242.83	74.62
243.064	68.62
243.298	78.62
243.531	79.62
243.765	61.62
243.998	82.62
244.232	75.62
244.465	87.62
244.699	83.62
244.932	76.62
245.166	77.62
245.399	71.62
245.633	72.62
245.866	71.62
246.099	66.62
246.333	75.62
246.566	64.62
246.8	73.62
247.033	81.62
247.266	70.62
247.5	63.62
247.733	76.62
247.966	70.62
248.2	64.62
248.433	47.62
248.666	77.62
248.899	90.62
249.133	75.62
249.366	103.62
249.599	84.62
249.832	62.62
250.066	72.62
250.299	83.62
250.532	86.62
250.765	85.62
250.998	68.62
251.231	64.62
251.465	75.62
251.698	70.62
251.931	87.62
252.164	80.62
252.397	81.62
252.63	72.62
252.863	74.62
253.096	74.62
253.329	82.62
253.562	82.62
253.795	67.62
254.028	66.62
254.261	74.62
254.494	62.62
254.727	61.62
254.96	69.62
255.193	79.62
255.426	64.62
255.659	74.62
255.892	87.62
256.124	81.62
256.357	96.62
256.59	66.62
256.823	87.62
257.056	82.62
257.289	71.62
257.521	72.62
257.754	81.62
257.987	79.62
258.22	91.62
258.452	73.62
258.685	94.62
258.918	78.62
259.151	74.62
259.383	70.62
259.616	74.62
259.849	75.62
260.081	73.62
260.314	66.62
260.547	75.62
260.779	81.62
261.012	73.62
261.244	81.62
261.477	82.62
261.71	76.62
261.942	94.62
262.175	107.62
262.407	92.62
262.64	78.62
262.872	82.62
263.105	75.62
263.337	85.62
263.57	78.62
263.802	71.62
264.035	86.62
264.267	88.62
264.499	82.62
264.732	84.62
264.964	67.62
265.197	90.62
265.429	71.62
265.661	78.62
265.894	92.62
266.126	90.62
266.358	81.62
266.591	70.62
266.823	81.62
267.055	80.62
267.287	66.62
267.52	66.62
267.752	83.62
267.984	84.62
268.216	91.62
268.448	89.62
268.681	90.62
268.913	80.62
269.145	91.62
269.377	72.62
269.609	74.62
269.841	78.62
270.073	83.62
270.306	89.62
270.538	79.62
270.77	98.62
271.002	79.62
271.234	71.62
271.466	78.62
271.698	87.62
271.93	84.62
272.162	82.62
272.394	98.62
272.626	93.62
272.858	81.62
273.09	74.62
273.322	72.62
273.553	82.62
273.785	74.62
274.017	90.62
274.249	75.62
274.481	78.62
274.713	81.62
274.945	72.62
275.176	83.62
275.408	93.62
275.64	77.62
275.872	86.62
276.104	93.62
276.335	78.62
276.567	98.62
276.799	86.62
277.031	87.62
277.262	74.62
277.494	86.62
277.726	82.62
277.957	84.62
278.189	91.62
278.421	68.62
278.652	80.62
278.884	75.62
279.115	73.62
279.347	79.62
279.579	87.62
279.81	91.62
280.042	83.62
280.273	93.62
280.505	95.62
280.736	60.62
280.968	75.62
281.199	84.62
281.431	87.62
281.662	89.62
281.894	84.62
282.125	92.62
282.356	113.62
282.588	138.62
282.819	111.62
283.051	87.62
283.282	90.62
283.513	97.62
283.745	61.62
283.976	75.62
284.207	80.62
284.439	83.62
284.67	98.62
284.901	81.62
285.132	81.62
285.364	74.62
285.595	79.62
285.826	82.62
286.057	91.62
286.288	83.62
286.52	90.62
286.751	67.62
286.982	94.62
287.213	80.62
287.444	79.62
287.675	96.62
287.906	75.62
288.138	81.62
288.369	83.62
288.6	91.62
288.831	86.62
289.062	78.62
289.293	70.62
289.524	71.62
289.755	86.62
289.986	102.62
290.217	83.62
290.448	83.62
290.679	68.62
290.91	92.62
291.141	94.62
291.371	87.62
291.602	95.62
291.833	94.62
292.064	78.62
292.295	88.62
292.526	81.62
292.757	87.62
292.987	83.62
293.218	80.62
293.449	84.62
293.68	83.62
293.91	90.62
294.141	77.62
294.372	83.62
294.603	89.62
294.833	87.62
295.064	80.62
295.295	84.62
295.525	87.62
295.756	88.62
295.987	111.62
296.217	142.62
296.448	116.62
296.679	91.62
296.909	84.62
297.14	83.62
297.37	83.62
297.601	86.62
297.831	78.62
298.062	83.62
298.292	84.62
298.523	86.62
298.753	70.62
298.984	82.62
299.214	75.62
299.445	86.62
299.675	86.62
299.905	67.62
300.136	88.62
300.366	81.62
300.597	88.62
300.827	94.62
301.057	99.62
301.288	103.62
301.518	82.62
301.748	85.62
301.979	110.62
302.209	73.62
302.439	97.62
302.669	93.62
302.9	82.62
303.13	81.62
303.36	82.62
303.59	88.62
303.82	100.62
304.051	90.62
304.281	91.62
304.511	83.62
304.741	90.62
304.971	100.62
305.201	86.62
305.431	93.62
305.661	68.62
305.891	75.62
306.121	87.62
306.352	104.62
306.582	99.62
306.812	81.62
307.042	92.62
307.272	86.62
307.502	84.62
307.731	78.62
307.961	78.62
308.191	91.62
308.421	82.62
308.651	79.62
308.881	92.62
309.111	91.62
309.341	90.62
309.571	85.62
309.8	87.62
310.03	99.62
310.26	95.62
310.49	88.62
310.72	82.62
310.949	85.62
311.179	79.62
311.409	71.62
311.639	87.62
311.868	82.62
312.098	93.62
312.328	87.62
312.557	94.62
312.787	93.62
313.017	111.62
313.246	86.62
313.476	83.62
313.706	92.62
313.935	79.62
314.165	93.62
314.394	88.62
314.624	100.62
314.853	90.62
315.083	91.62
315.312	71.62
315.542	88.62
315.771	83.62
316.001	89.62
316.23	93.62
316.46	98.62
316.689	97.62
316.919	81.62
317.148	102.62
317.377	90.62
317.607	98.62
317.836	87.62
318.065	83.62
318.295	64.62
318.524	80.62
318.753	86.62
318.983	87.62
319.212	103.62
319.441	93.62
319.67	102.62
319.9	89.62
320.129	103.62
320.358	100.62
320.587	91.62
320.816	95.62
321.046	83.62
321.275	87.62
321.504	94.62
321.733	87.62
321.962	86.62
322.191	90.62
322.42	94.62
322.649	114.62
322.878	105.62
323.108	112.62
323.337	111.62
323.566	136.62
323.795	146.62
324.024	201.62
324.253	392.62
324.482	864.62
324.71	1734.62
324.939	2273.62
325.168	835.62
325.397	260.62
325.626	154.62
325.855	120.62
326.084	112.62
326.313	136.62
326.542	160.62
326.77	222.62
326.999	463.62
327.228	966.62
327.457	1762.62
327.686	1374.62
327.914	362.62
328.143	177.62
328.372	142.62
328.6	116.62
328.829	104.62
329.058	111.62
329.287	115.62
329.515	112.62
329.744	88.62
329.972	98.62
330.201	99.62
330.43	94.62
330.658	117.62
330.887	108.62
331.115	103.62
331.344	87.62
331.572	91.62
331.801	91.62
332.03	98.62
332.258	91.62
332.486	91.62
332.715	86.62
332.943	88.62
333.172	90.62
333.4	107.62
333.629	106.62
333.857	99.62
334.085	106.62
334.314	92.62
334.542	88.62
334.771	95.62
334.999	88.62
335.227	108.62
335.455	84.62
335.684	88.62
335.912	88.62
336.14	95.62
336.369	86.62
336.597	94.62
336.825	94.62
337.053	93.62
337.281	74.62
337.51	83.62
337.738	85.62
337.966	89.62
338.194	79.62
338.422	78.62
338.65	90.62
338.878	84.62
339.106	102.62
339.334	78.62
339.562	84.62
339.79	102.62
340.018	87.62
340.246	81.62
340.474	93.62
340.702	98.62
340.93	85.62
341.158	87.62
341.386	76.62
341.614	88.62
341.842	84.62
342.07	84.62
342.298	98.62
342.526	97.62
342.754	89.62
342.981	83.62
343.209	89.62
343.437	93.62
343.665	100.62
343.893	79.62
344.12	95.62
344.348	90.62
344.576	88.62
344.804	102.62
345.031	89.62
345.259	106.62
345.487	88.62
345.714	84.62
345.942	78.62
346.17	91.62
346.397	88.62
346.625	94.62
346.853	96.62
347.08	83.62
347.308	97.62
347.535	114.62
347.763	83.62
347.99	84.62
348.218	97.62
348.445	99.62
348.673	112.62
348.9	85.62
349.128	91.62
349.355	97.62
349.583	96.62
349.81	102.62
350.037	102.62
350.265	97.62
350.492	107.62
350.72	90.62
350.947	96.62
351.174	96.62
351.402	113.62
351.629	81.62
351.856	95.62
352.083	99.62
352.311	89.62
352.538	88.62
352.765	98.62
352.992	112.62
353.22	95.62
353.447	97.62
353.674	108.62
353.901	90.62
354.128	104.62
354.355	88.62
354.583	98.62
354.81	92.62
355.037	107.62
355.264	81.62
355.491	84.62
355.718	91.62
355.945	88.62
356.172	87.62
356.399	90.62
356.626	85.62
356.853	84.62
357.08	91.62
357.307	78.62
357.534	92.62
357.761	82.62
357.988	92.62
358.215	96.62
358.441	97.62
358.668	78.62
358.895	83.62
359.122	95.62
359.349	84.62
359.576	91.62
359.802	105.62
360.029	105.62
360.256	95.62
360.483	88.62
360.709	81.62
360.936	87.62
361.163	94.62
361.39	88.62
361.616	87.62
361.843	82.62
362.07	83.62
362.296	87.62
362.523	83.62
362.749	83.62
362.976	75.62
363.203	84.62
363.429	92.62
363.656	83.62
363.882	89.62
364.109	82.62
364.335	82.62
364.562	85.62
364.788	86.62
365.015	95.62
365.241	71.62
365.468	99.62
365.694	106.62
365.92	81.62
366.147	87.62
366.373	87.62
366.599	89.62
366.826	100.62
367.052	92.62
367.278	91.62
367.505	87.62
367.731	83.62
367.957	78.62
368.184	108.62
368.41	103.62
368.636	116.62
368.862	118.62
369.089	112.62
369.315	106.62
369.541	103.62
369.767	90.62
369.993	88.62
370.219	96.62
370.445	88.62
370.672	83.62
370.898	89.62
371.124	83.62
371.35	75.62
371.576	76.62
371.802	78.62
372.028	76.62
372.254	82.62
372.48	89.62
372.706	86.62
372.932	88.62
373.158	88.62
373.384	64.62
373.61	88.62
373.835	82.62
374.061	92.62
374.287	93.62
374.513	81.62
374.739	92.62
374.965	76.62
375.191	80.62
375.416	87.62
375.642	93.62
375.868	79.62
376.094	80.62
376.319	77.62
376.545	84.62
376.771	83.62
376.997	90.62
377.222	90.62
377.448	90.62
377.674	92.62
377.899	88.62
378.125	87.62
378.35	89.62
378.576	84.62
378.802	83.62
379.027	84.62
379.253	89.62
379.478	84.62
379.704	85.62
379.929	101.62
380.155	91.62
380.38	90.62
380.606	88.62
380.831	88.62
381.057	97.62
381.282	80.62
381.507	86.62
381.733	93.62
381.958	90.62
382.184	86.62
382.409	93.62
382.634	94.62
382.86	79.62
383.085	101.62
383.31	98.62
383.535	80.62
383.761	93.62
383.986	95.62
384.211	94.62
384.436	82.62
384.662	83.62
384.887	92.62
385.112	96.62
385.337	97.62
385.562	97.62
385.787	103.62
386.013	102.62
386.238	105.62
386.463	102.62
386.688	94.62
386.913	102.62
387.138	96.62
387.363	94.62
387.588	99.62
387.813	102.62
388.038	107.62
388.263	108.62
388.488	95.62
388.713	76.62
388.938	87.62
389.163	94.62
389.387	97.62
389.612	106.62
389.837	89.62
390.062	86.62
390.287	81.62
390.512	87.62
390.736	78.62
390.961	82.62
391.186	82.62
391.411	89.62
391.636	82.62
391.86	93.62
392.085	89.62
392.31	79.62
392.534	76.62
392.759	76.62
392.984	91.62
393.208	88.62
393.433	80.62
393.658	92.62
393.882	86.62
394.107	71.62
394.331	85.62
394.556	85.62
394.78	80.62
395.005	88.62
395.229	74.62
395.454	80.62
395.678	71.62
395.903	79.62
396.127	80.62
396.352	84.62
396.576	86.62
396.801	87.62
397.025	78.62
397.249	88.62
397.474	87.62
397.698	87.62
397.922	94.62
398.147	76.62
398.371	86.62
398.595	84.62
398.82	84.62
399.044	82.62
399.268	81.62
399.492	80.62
399.717	73.62
399.941	78.62
400.165	82.62
400.389	81.62
400.613	90.62
400.837	80.62
401.062	86.62
401.286	80.62
401.51	91.62
401.734	78.62
401.958	88.62
402.182	132.62
402.406	154.62
402.63	115.62
402.854	93.62
403.078	92.62
403.302	78.62
403.526	84.62
403.75	75.62
403.974	83.62
404.198	82.62
404.422	77.62
404.645	92.62
404.869	81.62
405.093	80.62
405.317	80.62
405.541	91.62
405.765	90.62
405.988	108.62
406.212	165.62
406.436	206.62
406.66	135.62
406.883	107.62
407.107	89.62
407.331	74.62
407.555	83.62
407.778	82.62
408.002	89.62
408.226	70.62
408.449	75.62
408.673	77.62
408.896	80.62
409.12	74.62
409.344	99.62
409.567	83.62
409.791	81.62
410.014	96.62
410.238	93.62
410.461	101.62
410.685	79.62
410.908	85.62
411.132	98.62
411.355	102.62
411.578	101.62
411.802	84.62
412.025	80.62
412.249	79.62
412.472	93.62
412.695	98.62
412.919	87.62
413.142	86.62
413.365	76.62
413.589	80.62
413.812	86.62
414.035	92.62
414.258	86.62
414.482	81.62
414.705	79.62
414.928	98.62
415.151	86.62
415.374	99.62
415.597	90.62
415.821	79.62
416.044	83.62
416.267	90.62
416.49	98.62
416.713	96.62
416.936	105.62
417.159	85.62
417.382	59.62
417.605	69.62
417.828	78.62
418.051	83.62
418.274	84.62
418.497	72.62
418.72	82.62
418.943	71.62
419.166	80.62
419.389	96.62
419.611	70.62
419.834	79.62
420.057	76.62
420.28	83.62
420.503	76.62
420.726	83.62
420.948	83.62
421.171	88.62
421.394	102.62
421.617	87.62
421.839	79.62
422.062	83.62
422.285	104.62
422.507	83.62
422.73	89.62
422.953	81.62
423.175	80.62
423.398	77.62
423.621	85.62
423.843	100.62
424.066	82.62
424.288	81.62
424.511	96.62
424.733	94.62
424.956	92.62
425.178	101.62
425.401	92.62
425.623	97.62
425.846	76.62
426.068	90.62
426.291	91.62
426.513	82.62
426.735	76.62
426.958	74.62
427.18	88.62
427.402	114.62
427.625	136.62
427.847	120.62
428.069	93.62
428.292	86.62
428.514	81.62
428.736	79.62
428.958	78.62
429.181	68.62
429.403	97.62
429.625	78.62
429.847	72.62
430.069	102.62
430.292	95.62
430.514	84.62
430.736	77.62
430.958	79.62
431.18	81.62
431.402	91.62
431.624	74.62
431.846	83.62
432.068	71.62
432.29	88.62
432.512	84.62
432.734	78.62
432.956	78.62
433.178	100.62
433.4	95.62
433.622	86.62
433.844	83.62
434.066	78.62
434.287	98.62
434.509	89.62
434.731	69.62
434.953	93.62
435.175	87.62
435.397	78.62
435.618	78.62
435.84	100.62
436.062	108.62
436.284	105.62
436.505	76.62
436.727	104.62
436.949	94.62
437.17	79.62
437.392	76.62
437.614	81.62
437.835	103.62
438.057	106.62
438.278	100.62
438.5	107.62
438.721	103.62
438.943	111.62
439.165	86.62
439.386	81.62
439.608	80.62
439.829	107.62
440.05	113.62
440.272	134.62
440.493	94.62
440.715	88.62
440.936	83.62
441.158	83.62
441.379	86.62
441.6	88.62
441.822	86.62
442.043	84.62
442.264	94.62
442.486	87.62
442.707	71.62
442.928	105.62
443.149	116.62
443.371	126.62
443.592	96.62
443.813	110.62
444.034	97.62
444.255	85.62
444.476	83.62
444.698	76.62
444.919	81.62
445.14	121.62
445.361	126.62
445.582	96.62
445.803	119.62
446.024	135.62
446.245	133.62
446.466	95.62
446.687	106.62
446.908	89.62
447.129	88.62
447.35	85.62
447.571	94.62
447.792	64.62
448.013	95.62
448.234	97.62
448.455	105.62
448.675	102.62
448.896	109.62
449.117	81.62
449.338	92.62
449.559	121.62
449.779	134.62
450	92.62
450.221	84.62
450.442	90.62
450.662	90.62
450.883	104.62
451.104	112.62
451.324	86.62
451.545	93.62
451.766	88.62
451.986	70.62
452.207	84.62
452.428	94.62
452.648	78.62
452.869	89.62
453.089	104.62
453.31	100.62
453.53	70.62
453.751	91.62
453.971	83.62
454.192	99.62
454.412	91.62
454.633	84.62
454.853	81.62
455.073	87.62
455.294	78.62
455.514	89.62
455.734	83.62
455.955	79.62
456.175	81.62
456.395	78.62
456.616	92.62
456.836	84.62
457.056	76.62
457.276	80.62
457.497	86.62
457.717	84.62
457.937	80.62
458.157	74.62
458.377	87.62
458.598	110.62
458.818	127.62
459.038	144.62
459.258	114.62
459.478	90.62
459.698	85.62
459.918	78.62
460.138	79.62
460.358	79.62
460.578	89.62
460.798	90.62
461.018	89.62
461.238	83.62
461.458	79.62
461.678	87.62
461.898	99.62
462.118	78.62
462.338	83.62
462.558	96.62
462.777	61.62
462.997	84.62
463.217	83.62
463.437	76.62
463.657	84.62
463.876	83.62
464.096	89.62
464.316	90.62
464.536	88.62
464.755	90.62
464.975	101.62
465.195	137.62
465.414	129.62
465.634	88.62
465.854	91.62
466.073	78.62
466.293	69.62
466.512	87.62
466.732	84.62
466.951	85.62
467.171	104.62
467.391	106.62
467.61	95.62
467.829	88.62
468.049	91.62
468.268	82.62
468.488	87.62
468.707	81.62
468.927	83.62
469.146	92.62
469.365	92.62
469.585	92.62
469.804	87.62
470.023	94.62
470.243	95.62
470.462	91.62
470.681	111.62
470.901	82.62
471.12	80.62
471.339	92.62
471.558	84.62
471.777	87.62
471.997	88.62
472.216	73.62
472.435	84.62
472.654	84.62
472.873	84.62
473.092	78.62
473.311	101.62
473.53	77.62
473.749	91.62
473.968	80.62
474.187	102.62
474.406	85.62
474.625	87.62
474.844	81.62
475.063	88.62
475.282	83.62
475.501	80.62
475.72	93.62
475.939	92.62
476.158	79.62
476.377	85.62
476.596	83.62
476.814	83.62
477.033	79.62
477.252	94.62
477.471	77.62
477.69	83.62
477.908	72.62
478.127	81.62
478.346	67.62
478.564	83.62
478.783	91.62
479.002	80.62
479.22	92.62
479.439	103.62
479.658	105.62
479.876	98.62
480.095	88.62
480.313	77.62
480.532	85.62
480.751	80.62
480.969	70.62
481.188	88.62
481.406	103.62
481.624	84.62
481.843	70.62
482.061	73.62
482.28	94.62
482.498	76.62
482.717	75.62
482.935	83.62
483.153	80.62
483.372	103.62
483.59	81.62
483.808	78.62
484.027	95.62
484.245	85.62
484.463	85.62
484.681	104.62
484.9	85.62
485.118	80.62
485.336	86.62
485.554	77.62
485.772	92.62
485.99	97.62
486.209	95.62
486.427	95.62
486.645	111.62
486.863	98.62
487.081	91.62
487.299	95.62
487.517	96.62
487.735	91.62
487.953	90.62
488.171	89.62
488.389	87.62
488.607	84.62
488.825	107.62
489.043	79.62
489.261	92.62
489.479	90.62
489.696	89.62
489.914	84.62
490.132	80.62
490.35	89.62
490.568	90.62
490.786	82.62
491.003	83.62
491.221	83.62
491.439	98.62
491.657	92.62
491.874	92.62
492.092	87.62
492.31	96.62
492.527	78.62
492.745	97.62
492.963	91.62
493.18	100.62
493.398	97.62
493.615	95.62
493.833	93.62
494.05	94.62
494.268	86.62
494.485	78.62
494.703	85.62
494.92	73.62
495.138	78.62
495.355	87.62
495.573	92.62
495.79	91.62
496.008	91.62
496.225	77.62
496.442	84.62
496.66	120.62
496.877	83.62
497.094	82.62
497.312	91.62
497.529	86.62
497.746	85.62
497.963	79.62
498.181	76.62
498.398	94.62
498.615	105.62
498.832	108.62
499.049	89.62
499.267	94.62
499.484	96.62
499.701	82.62
499.918	103.62
500.135	99.62
500.352	113.62
500.569	85.62
500.786	91.62
501.003	90.62
501.22	79.62
501.437	96.62
501.654	75.62
501.871	102.62
502.088	91.62
502.305	79.62
502.522	91.62
502.739	79.62
502.956	79.62
503.172	95.62
503.389	99.62
503.606	102.62
503.823	88.62
504.04	93.62
504.256	95.62
504.473	90.62
504.69	103.62
504.907	90.62
505.123	83.62
505.34	94.62
505.557	90.62
505.773	75.62
505.99	94.62
506.207	82.62
506.423	99.62
506.64	91.62
506.856	95.62
507.073	87.62
507.289	81.62
507.506	82.62
507.722	119.62
507.939	115.62
508.155	94.62
508.372	98.62
508.588	97.62
508.805	91.62
509.021	90.62
509.238	105.62
509.454	107.62
509.67	100.62
509.887	106.62
510.103	124.62
510.319	202.62
510.536	700.62
510.752	2272.62
510.968	637.62
511.184	150.62
511.401	105.62
511.617	90.62
511.833	83.62
512.049	89.62
512.265	83.62
512.481	94.62
512.698	83.62
512.914	90.62
513.13	90.62
513.346	96.62
513.562	93.62
513.778	93.62
513.994	98.62
514.21	95.62
514.426	98.62
514.642	124.62
514.858	121.62
515.074	158.62
515.29	409.62
515.506	1360.62
515.721	491.62
515.937	147.62
516.153	107.62
516.369	96.62
516.585	88.62
516.801	97.62
517.016	92.62
517.232	96.62
