Data from Uncirc_2006_H10_HRD10591_00068.txt Node
Date: Wed Jan 03 10:25:08 EST 2024
User: Yrep
Spectrometer: HR+D1059
Trigger mode: 1
Integration Time (sec): 1.000000E-1
Scans to average: 1
Electric dark correction enabled: true
Nonlinearity correction enabled: false
Boxcar width: 0
XAxis mode: Wavelengths
Number of Pixels in Spectrum: 2048
>>>>>Begin Spectral Data<<<<<
223.165	-4.81
223.4	-4.81
223.635	-4.81
223.869	-16.81
224.104	-12.81
224.338	-6.81
224.573	-23.81
224.808	-29.81
225.042	-7.81
225.277	-1.81
225.511	-13.81
225.746	0.19
225.98	6.19
226.215	18.19
226.449	25.19
226.683	9.19
226.918	30.19
227.152	29.19
227.387	43.19
227.621	60.19
227.856	44.19
228.09	50.19
228.324	53.19
228.559	65.19
228.793	67.19
229.027	67.19
229.262	64.19
229.496	70.19
229.73	76.19
229.964	79.19
230.199	86.19
230.433	71.19
230.667	78.19
230.901	68.19
231.136	57.19
231.37	79.19
231.604	67.19
231.838	85.19
232.072	77.19
232.306	77.19
232.541	94.19
232.775	84.19
233.009	71.19
233.243	91.19
233.477	86.19
233.711	82.19
233.945	91.19
234.179	79.19
234.413	78.19
234.647	84.19
234.881	74.19
235.115	73.19
235.349	73.19
235.583	93.19
235.817	82.19
236.051	76.19
236.285	61.19
236.519	68.19
236.753	75.19
236.987	93.19
237.221	81.19
237.455	80.19
237.689	69.19
237.922	92.19
238.156	77.19
238.39	75.19
238.624	76.19
238.858	63.19
239.091	73.19
239.325	74.19
239.559	77.19
239.793	66.19
240.027	65.19
240.26	73.19
240.494	78.19
240.728	79.19
240.961	74.19
241.195	75.19
241.429	79.19
241.662	73.19
241.896	68.19
242.13	86.19
242.363	86.19
242.597	76.19
242.83	63.19
243.064	72.19
243.298	72.19
243.531	74.19
243.765	75.19
243.998	84.19
244.232	84.19
244.465	95.19
244.699	82.19
244.932	75.19
245.166	76.19
245.399	80.19
245.633	76.19
245.866	71.19
246.099	70.19
246.333	78.19
246.566	68.19
246.8	77.19
247.033	78.19
247.266	68.19
247.5	92.19
247.733	75.19
247.966	80.19
248.2	82.19
248.433	78.19
248.666	85.19
248.899	84.19
249.133	76.19
249.366	90.19
249.599	84.19
249.832	81.19
250.066	87.19
250.299	83.19
250.532	94.19
250.765	78.19
250.998	74.19
251.231	87.19
251.465	62.19
251.698	82.19
251.931	82.19
252.164	74.19
252.397	87.19
252.63	82.19
252.863	72.19
253.096	62.19
253.329	77.19
253.562	91.19
253.795	88.19
254.028	86.19
254.261	78.19
254.494	73.19
254.727	74.19
254.96	78.19
255.193	77.19
255.426	89.19
255.659	85.19
255.892	80.19
256.124	80.19
256.357	84.19
256.59	81.19
256.823	77.19
257.056	74.19
257.289	77.19
257.521	73.19
257.754	87.19
257.987	89.19
258.22	92.19
258.452	86.19
258.685	74.19
258.918	82.19
259.151	70.19
259.383	68.19
259.616	83.19
259.849	86.19
260.081	83.19
260.314	77.19
260.547	79.19
260.779	78.19
261.012	85.19
261.244	87.19
261.477	82.19
261.71	90.19
261.942	102.19
262.175	115.19
262.407	97.19
262.64	83.19
262.872	85.19
263.105	70.19
263.337	77.19
263.57	85.19
263.802	76.19
264.035	72.19
264.267	81.19
264.499	76.19
264.732	86.19
264.964	80.19
265.197	85.19
265.429	85.19
265.661	93.19
265.894	80.19
266.126	91.19
266.358	87.19
266.591	76.19
266.823	81.19
267.055	92.19
267.287	68.19
267.52	63.19
267.752	74.19
267.984	74.19
268.216	84.19
268.448	78.19
268.681	96.19
268.913	93.19
269.145	77.19
269.377	84.19
269.609	94.19
269.841	78.19
270.073	84.19
270.306	82.19
270.538	84.19
270.77	89.19
271.002	94.19
271.234	101.19
271.466	72.19
271.698	74.19
271.93	85.19
272.162	90.19
272.394	85.19
272.626	90.19
272.858	79.19
273.09	85.19
273.322	79.19
273.553	85.19
273.785	86.19
274.017	93.19
274.249	73.19
274.481	81.19
274.713	85.19
274.945	90.19
275.176	80.19
275.408	92.19
275.64	83.19
275.872	95.19
276.104	98.19
276.335	82.19
276.567	111.19
276.799	105.19
277.031	91.19
277.262	76.19
277.494	93.19
277.726	96.19
277.957	82.19
278.189	77.19
278.421	90.19
278.652	74.19
278.884	80.19
279.115	78.19
279.347	72.19
279.579	95.19
279.81	87.19
280.042	77.19
280.273	82.19
280.505	87.19
280.736	87.19
280.968	93.19
281.199	86.19
281.431	85.19
281.662	87.19
281.894	82.19
282.125	101.19
282.356	107.19
282.588	117.19
282.819	85.19
283.051	87.19
283.282	79.19
283.513	85.19
283.745	80.19
283.976	94.19
284.207	83.19
284.439	96.19
284.67	99.19
284.901	79.19
285.132	92.19
285.364	96.19
285.595	95.19
285.826	83.19
286.057	102.19
286.288	88.19
286.52	81.19
286.751	83.19
286.982	88.19
287.213	70.19
287.444	72.19
287.675	92.19
287.906	85.19
288.138	90.19
288.369	93.19
288.6	88.19
288.831	84.19
289.062	81.19
289.293	95.19
289.524	86.19
289.755	81.19
289.986	92.19
290.217	95.19
290.448	85.19
290.679	80.19
290.91	91.19
291.141	86.19
291.371	93.19
291.602	78.19
291.833	79.19
292.064	91.19
292.295	95.19
292.526	82.19
292.757	89.19
292.987	88.19
293.218	83.19
293.449	80.19
293.68	79.19
293.91	83.19
294.141	95.19
294.372	92.19
294.603	87.19
294.833	85.19
295.064	82.19
295.295	93.19
295.525	91.19
295.756	83.19
295.987	111.19
296.217	123.19
296.448	116.19
296.679	100.19
296.909	82.19
297.14	83.19
297.37	86.19
297.601	86.19
297.831	97.19
298.062	75.19
298.292	88.19
298.523	91.19
298.753	86.19
298.984	82.19
299.214	91.19
299.445	86.19
299.675	94.19
299.905	79.19
300.136	86.19
300.366	79.19
300.597	93.19
300.827	99.19
301.057	97.19
301.288	95.19
301.518	91.19
301.748	94.19
301.979	88.19
302.209	91.19
302.439	91.19
302.669	82.19
302.9	83.19
303.13	94.19
303.36	86.19
303.59	94.19
303.82	91.19
304.051	93.19
304.281	95.19
304.511	100.19
304.741	92.19
304.971	94.19
305.201	98.19
305.431	90.19
305.661	77.19
305.891	93.19
306.121	95.19
306.352	106.19
306.582	113.19
306.812	101.19
307.042	90.19
307.272	97.19
307.502	105.19
307.731	86.19
307.961	84.19
308.191	84.19
308.421	94.19
308.651	99.19
308.881	97.19
309.111	89.19
309.341	97.19
309.571	89.19
309.8	93.19
310.03	90.19
310.26	101.19
310.49	104.19
310.72	98.19
310.949	99.19
311.179	94.19
311.409	98.19
311.639	90.19
311.868	102.19
312.098	94.19
312.328	102.19
312.557	92.19
312.787	93.19
313.017	91.19
313.246	76.19
313.476	95.19
313.706	98.19
313.935	101.19
314.165	87.19
314.394	95.19
314.624	105.19
314.853	97.19
315.083	92.19
315.312	96.19
315.542	89.19
315.771	97.19
316.001	94.19
316.23	96.19
316.46	97.19
316.689	87.19
316.919	95.19
317.148	98.19
317.377	93.19
317.607	91.19
317.836	95.19
318.065	71.19
318.295	87.19
318.524	90.19
318.753	97.19
318.983	93.19
319.212	100.19
319.441	98.19
319.67	87.19
319.9	109.19
320.129	92.19
320.358	93.19
320.587	99.19
320.816	101.19
321.046	96.19
321.275	97.19
321.504	81.19
321.733	90.19
321.962	98.19
322.191	108.19
322.42	106.19
322.649	112.19
322.878	110.19
323.108	114.19
323.337	128.19
323.566	138.19
323.795	151.19
324.024	213.19
324.253	397.19
324.482	822.19
324.71	1671.19
324.939	2220.19
325.168	789.19
325.397	229.19
325.626	149.19
325.855	118.19
326.084	137.19
326.313	123.19
326.542	160.19
326.77	250.19
326.999	464.19
327.228	927.19
327.457	1732.19
327.686	1375.19
327.914	348.19
328.143	175.19
328.372	141.19
328.6	115.19
328.829	105.19
329.058	109.19
329.287	116.19
329.515	101.19
329.744	99.19
329.972	100.19
330.201	89.19
330.43	100.19
330.658	113.19
330.887	145.19
331.115	126.19
331.344	96.19
331.572	108.19
331.801	108.19
332.03	112.19
332.258	88.19
332.486	85.19
332.715	89.19
332.943	91.19
333.172	98.19
333.4	97.19
333.629	122.19
333.857	115.19
334.085	107.19
334.314	94.19
334.542	114.19
334.771	94.19
334.999	82.19
335.227	94.19
335.455	90.19
335.684	106.19
335.912	100.19
336.14	90.19
336.369	85.19
336.597	109.19
336.825	91.19
337.053	87.19
337.281	97.19
337.51	102.19
337.738	87.19
337.966	92.19
338.194	84.19
338.422	97.19
338.65	99.19
338.878	95.19
339.106	101.19
339.334	100.19
339.562	81.19
339.79	90.19
340.018	109.19
340.246	96.19
340.474	95.19
340.702	91.19
340.93	97.19
341.158	98.19
341.386	88.19
341.614	94.19
341.842	99.19
342.07	83.19
342.298	87.19
342.526	73.19
342.754	96.19
342.981	94.19
343.209	94.19
343.437	96.19
343.665	76.19
343.893	109.19
344.12	96.19
344.348	88.19
344.576	89.19
344.804	99.19
345.031	83.19
345.259	90.19
345.487	83.19
345.714	91.19
345.942	89.19
346.17	94.19
346.397	90.19
346.625	91.19
346.853	87.19
347.08	85.19
347.308	98.19
347.535	110.19
347.763	111.19
347.99	106.19
348.218	103.19
348.445	96.19
348.673	86.19
348.9	86.19
349.128	89.19
349.355	89.19
349.583	79.19
349.81	87.19
350.037	91.19
350.265	91.19
350.492	76.19
350.72	105.19
350.947	98.19
351.174	108.19
351.402	111.19
351.629	110.19
351.856	94.19
352.083	90.19
352.311	93.19
352.538	103.19
352.765	110.19
352.992	102.19
353.22	117.19
353.447	106.19
353.674	93.19
353.901	96.19
354.128	93.19
354.355	89.19
354.583	89.19
354.81	100.19
355.037	102.19
355.264	83.19
355.491	108.19
355.718	95.19
355.945	95.19
356.172	86.19
356.399	83.19
356.626	100.19
356.853	85.19
357.08	92.19
357.307	91.19
357.534	90.19
357.761	87.19
357.988	87.19
358.215	102.19
358.441	91.19
358.668	75.19
358.895	86.19
359.122	85.19
359.349	96.19
359.576	100.19
359.802	112.19
360.029	106.19
360.256	106.19
360.483	95.19
360.709	89.19
360.936	95.19
361.163	91.19
361.39	101.19
361.616	96.19
361.843	106.19
362.07	93.19
362.296	88.19
362.523	94.19
362.749	100.19
362.976	88.19
363.203	105.19
363.429	80.19
363.656	88.19
363.882	93.19
364.109	88.19
364.335	102.19
364.562	85.19
364.788	86.19
365.015	88.19
365.241	98.19
365.468	95.19
365.694	102.19
365.92	86.19
366.147	85.19
366.373	79.19
366.599	99.19
366.826	89.19
367.052	79.19
367.278	82.19
367.505	100.19
367.731	94.19
367.957	110.19
368.184	90.19
368.41	96.19
368.636	104.19
368.862	127.19
369.089	119.19
369.315	97.19
369.541	95.19
369.767	83.19
369.993	84.19
370.219	88.19
370.445	77.19
370.672	81.19
370.898	92.19
371.124	75.19
371.35	84.19
371.576	94.19
371.802	94.19
372.028	79.19
372.254	88.19
372.48	77.19
372.706	84.19
372.932	95.19
373.158	88.19
373.384	81.19
373.61	93.19
373.835	92.19
374.061	93.19
374.287	84.19
374.513	78.19
374.739	93.19
374.965	77.19
375.191	102.19
375.416	94.19
375.642	78.19
375.868	86.19
376.094	75.19
376.319	90.19
376.545	99.19
376.771	99.19
376.997	77.19
377.222	96.19
377.448	85.19
377.674	94.19
377.899	98.19
378.125	83.19
378.35	92.19
378.576	96.19
378.802	85.19
379.027	87.19
379.253	101.19
379.478	96.19
379.704	89.19
379.929	81.19
380.155	76.19
380.38	90.19
380.606	102.19
380.831	92.19
381.057	107.19
381.282	110.19
381.507	87.19
381.733	104.19
381.958	89.19
382.184	99.19
382.409	105.19
382.634	109.19
382.86	94.19
383.085	96.19
383.31	87.19
383.535	100.19
383.761	85.19
383.986	96.19
384.211	87.19
384.436	81.19
384.662	106.19
384.887	95.19
385.112	95.19
385.337	103.19
385.562	104.19
385.787	99.19
386.013	93.19
386.238	99.19
386.463	115.19
386.688	104.19
386.913	98.19
387.138	99.19
387.363	100.19
387.588	101.19
387.813	100.19
388.038	98.19
388.263	114.19
388.488	113.19
388.713	107.19
388.938	94.19
389.163	107.19
389.387	94.19
389.612	83.19
389.837	87.19
390.062	86.19
390.287	91.19
390.512	85.19
390.736	76.19
390.961	84.19
391.186	81.19
391.411	93.19
391.636	90.19
391.86	81.19
392.085	77.19
392.31	85.19
392.534	100.19
392.759	90.19
392.984	90.19
393.208	87.19
393.433	84.19
393.658	87.19
393.882	85.19
394.107	101.19
394.331	78.19
394.556	74.19
394.78	95.19
395.005	87.19
395.229	87.19
395.454	82.19
395.678	90.19
395.903	81.19
396.127	83.19
396.352	88.19
396.576	109.19
396.801	88.19
397.025	77.19
397.249	79.19
397.474	85.19
397.698	93.19
397.922	80.19
398.147	81.19
398.371	75.19
398.595	84.19
398.82	84.19
399.044	83.19
399.268	85.19
399.492	92.19
399.717	91.19
399.941	103.19
400.165	100.19
400.389	88.19
400.613	99.19
400.837	103.19
401.062	92.19
401.286	86.19
401.51	85.19
401.734	94.19
401.958	75.19
402.182	110.19
402.406	143.19
402.63	107.19
402.854	77.19
403.078	101.19
403.302	87.19
403.526	98.19
403.75	82.19
403.974	83.19
404.198	96.19
404.422	80.19
404.645	79.19
404.869	84.19
405.093	84.19
405.317	95.19
405.541	95.19
405.765	96.19
405.988	113.19
406.212	175.19
406.436	195.19
406.66	136.19
406.883	103.19
407.107	80.19
407.331	84.19
407.555	99.19
407.778	105.19
408.002	85.19
408.226	91.19
408.449	89.19
408.673	79.19
408.896	100.19
409.12	96.19
409.344	102.19
409.567	98.19
409.791	99.19
410.014	105.19
410.238	87.19
410.461	90.19
410.685	97.19
410.908	98.19
411.132	90.19
411.355	91.19
411.578	101.19
411.802	102.19
412.025	78.19
412.249	91.19
412.472	87.19
412.695	82.19
412.919	91.19
413.142	86.19
413.365	100.19
413.589	92.19
413.812	96.19
414.035	96.19
414.258	89.19
414.482	74.19
414.705	85.19
414.928	91.19
415.151	98.19
415.374	86.19
415.597	77.19
415.821	91.19
416.044	82.19
416.267	90.19
416.49	74.19
416.713	84.19
416.936	71.19
417.159	84.19
417.382	98.19
417.605	97.19
417.828	94.19
418.051	90.19
418.274	92.19
418.497	79.19
418.72	95.19
418.943	94.19
419.166	88.19
419.389	79.19
419.611	85.19
419.834	101.19
420.057	88.19
420.28	94.19
420.503	77.19
420.726	95.19
420.948	87.19
421.171	85.19
421.394	105.19
421.617	100.19
421.839	103.19
422.062	87.19
422.285	90.19
422.507	98.19
422.73	87.19
422.953	75.19
423.175	84.19
423.398	94.19
423.621	93.19
423.843	84.19
424.066	86.19
424.288	87.19
424.511	103.19
424.733	92.19
424.956	111.19
425.178	103.19
425.401	90.19
425.623	89.19
425.846	85.19
426.068	74.19
426.291	105.19
426.513	77.19
426.735	96.19
426.958	81.19
427.18	106.19
427.402	135.19
427.625	161.19
427.847	116.19
428.069	102.19
428.292	93.19
428.514	78.19
428.736	87.19
428.958	83.19
429.181	96.19
429.403	88.19
429.625	75.19
429.847	82.19
430.069	93.19
430.292	93.19
430.514	75.19
430.736	85.19
430.958	85.19
431.18	87.19
431.402	97.19
431.624	81.19
431.846	79.19
432.068	93.19
432.29	68.19
432.512	81.19
432.734	75.19
432.956	79.19
433.178	103.19
433.4	97.19
433.622	91.19
433.844	90.19
434.066	97.19
434.287	94.19
434.509	93.19
434.731	70.19
434.953	82.19
435.175	95.19
435.397	97.19
435.618	86.19
435.84	94.19
436.062	101.19
436.284	112.19
436.505	100.19
436.727	99.19
436.949	101.19
437.17	86.19
437.392	77.19
437.614	80.19
437.835	105.19
438.057	105.19
438.278	107.19
438.5	92.19
438.721	107.19
438.943	103.19
439.165	89.19
439.386	98.19
439.608	93.19
439.829	87.19
440.05	113.19
440.272	140.19
440.493	98.19
440.715	89.19
440.936	96.19
441.158	86.19
441.379	74.19
441.6	91.19
441.822	83.19
442.043	105.19
442.264	92.19
442.486	93.19
442.707	98.19
442.928	94.19
443.149	132.19
443.371	114.19
443.592	107.19
443.813	106.19
444.034	95.19
444.255	91.19
444.476	89.19
444.698	86.19
444.919	99.19
445.14	118.19
445.361	109.19
445.582	101.19
445.803	140.19
446.024	143.19
446.245	147.19
446.466	99.19
446.687	93.19
446.908	103.19
447.129	86.19
447.35	82.19
447.571	105.19
447.792	86.19
448.013	94.19
448.234	114.19
448.455	105.19
448.675	110.19
448.896	109.19
449.117	78.19
449.338	104.19
449.559	129.19
449.779	134.19
450	92.19
450.221	91.19
450.442	94.19
450.662	80.19
450.883	95.19
451.104	97.19
451.324	94.19
451.545	88.19
451.766	75.19
451.986	99.19
452.207	88.19
452.428	84.19
452.648	102.19
452.869	102.19
453.089	111.19
453.31	115.19
453.53	86.19
453.751	86.19
453.971	109.19
454.192	115.19
454.412	88.19
454.633	92.19
454.853	87.19
455.073	87.19
455.294	82.19
455.514	96.19
455.734	88.19
455.955	92.19
456.175	91.19
456.395	78.19
456.616	83.19
456.836	82.19
457.056	78.19
457.276	77.19
457.497	73.19
457.717	86.19
457.937	80.19
458.157	97.19
458.377	91.19
458.598	112.19
458.818	126.19
459.038	133.19
459.258	108.19
459.478	93.19
459.698	84.19
459.918	91.19
460.138	92.19
460.358	79.19
460.578	104.19
460.798	86.19
461.018	96.19
461.238	85.19
461.458	91.19
461.678	86.19
461.898	83.19
462.118	75.19
462.338	95.19
462.558	86.19
462.777	88.19
462.997	91.19
463.217	86.19
463.437	77.19
463.657	89.19
463.876	89.19
464.096	101.19
464.316	99.19
464.536	85.19
464.755	94.19
464.975	99.19
465.195	155.19
465.414	145.19
465.634	78.19
465.854	82.19
466.073	92.19
466.293	91.19
466.512	93.19
466.732	81.19
466.951	78.19
467.171	96.19
467.391	92.19
467.61	92.19
467.829	95.19
468.049	97.19
468.268	79.19
468.488	69.19
468.707	73.19
468.927	77.19
469.146	88.19
469.365	87.19
469.585	90.19
469.804	93.19
470.023	89.19
470.243	85.19
470.462	104.19
470.681	105.19
470.901	94.19
471.12	83.19
471.339	86.19
471.558	82.19
471.777	77.19
471.997	85.19
472.216	68.19
472.435	74.19
472.654	66.19
472.873	102.19
473.092	86.19
473.311	80.19
473.53	78.19
473.749	94.19
473.968	105.19
474.187	93.19
474.406	103.19
474.625	84.19
474.844	88.19
475.063	87.19
475.282	78.19
475.501	99.19
475.72	88.19
475.939	94.19
476.158	69.19
476.377	77.19
476.596	93.19
476.814	95.19
477.033	107.19
477.252	97.19
477.471	78.19
477.69	81.19
477.908	97.19
478.127	80.19
478.346	91.19
478.564	79.19
478.783	87.19
479.002	95.19
479.22	88.19
479.439	97.19
479.658	93.19
479.876	90.19
480.095	80.19
480.313	106.19
480.532	89.19
480.751	97.19
480.969	91.19
481.188	91.19
481.406	111.19
481.624	83.19
481.843	98.19
482.061	83.19
482.28	85.19
482.498	87.19
482.717	96.19
482.935	91.19
483.153	97.19
483.372	115.19
483.59	76.19
483.808	90.19
484.027	90.19
484.245	107.19
484.463	99.19
484.681	98.19
484.9	93.19
485.118	96.19
485.336	90.19
485.554	93.19
485.772	94.19
485.99	91.19
486.209	108.19
486.427	103.19
486.645	99.19
486.863	106.19
487.081	93.19
487.299	103.19
487.517	101.19
487.735	87.19
487.953	83.19
488.171	82.19
488.389	92.19
488.607	83.19
488.825	87.19
489.043	92.19
489.261	89.19
489.479	102.19
489.696	89.19
489.914	87.19
490.132	90.19
490.35	83.19
490.568	79.19
490.786	95.19
491.003	90.19
491.221	95.19
491.439	91.19
491.657	107.19
491.874	87.19
492.092	93.19
492.31	83.19
492.527	92.19
492.745	81.19
492.963	84.19
493.18	92.19
493.398	88.19
493.615	95.19
493.833	92.19
494.05	101.19
494.268	84.19
494.485	109.19
494.703	92.19
494.92	82.19
495.138	89.19
495.355	78.19
495.573	83.19
495.79	82.19
496.008	94.19
496.225	98.19
496.442	91.19
496.66	98.19
496.877	98.19
497.094	92.19
497.312	81.19
497.529	80.19
497.746	87.19
497.963	102.19
498.181	98.19
498.398	100.19
498.615	97.19
498.832	101.19
499.049	89.19
499.267	99.19
499.484	96.19
499.701	90.19
499.918	91.19
500.135	89.19
500.352	97.19
500.569	92.19
500.786	87.19
501.003	95.19
501.22	96.19
501.437	79.19
501.654	84.19
501.871	115.19
502.088	94.19
502.305	97.19
502.522	91.19
502.739	100.19
502.956	87.19
503.172	89.19
503.389	95.19
503.606	95.19
503.823	101.19
504.04	93.19
504.256	83.19
504.473	82.19
504.69	82.19
504.907	110.19
505.123	100.19
505.34	79.19
505.557	73.19
505.773	81.19
505.99	70.19
506.207	91.19
506.423	95.19
506.64	88.19
506.856	105.19
507.073	91.19
507.289	93.19
507.506	82.19
507.722	106.19
507.939	109.19
508.155	80.19
508.372	95.19
508.588	101.19
508.805	100.19
509.021	94.19
509.238	100.19
509.454	91.19
509.67	99.19
509.887	91.19
510.103	135.19
510.319	204.19
510.536	722.19
510.752	2276.19
510.968	647.19
511.184	142.19
511.401	105.19
511.617	113.19
511.833	90.19
512.049	83.19
512.265	94.19
512.481	98.19
512.698	84.19
512.914	91.19
513.13	91.19
513.346	92.19
513.562	93.19
513.778	108.19
513.994	89.19
514.21	93.19
514.426	110.19
514.642	127.19
514.858	122.19
515.074	160.19
515.29	429.19
515.506	1379.19
515.721	502.19
515.937	151.19
516.153	107.19
516.369	103.19
