Data from Uncirc_2006_H10_HRD10591_00099.txt Node
Date: Wed Jan 03 10:25:14 EST 2024
User: Yrep
Spectrometer: HR+D1059
Trigger mode: 1
Integration Time (sec): 1.000000E-1
Scans to average: 1
Electric dark correction enabled: true
Nonlinearity correction enabled: false
Boxcar width: 0
XAxis mode: Wavelengths
Number of Pixels in Spectrum: 2048
>>>>>Begin Spectral Data<<<<<
223.165	-26.5
223.4	-26.5
223.635	-26.5
223.869	-18.5
224.104	-11.5
224.338	-19.5
224.573	-12.5
224.808	-15.5
225.042	-12.5
225.277	-12.5
225.511	-2.5
225.746	-1.5
225.98	16.5
226.215	22.5
226.449	13.5
226.683	9.5
226.918	36.5
227.152	34.5
227.387	25.5
227.621	36.5
227.856	57.5
228.09	41.5
228.324	58.5
228.559	63.5
228.793	55.5
229.027	59.5
229.262	58.5
229.496	57.5
229.73	77.5
229.964	84.5
230.199	70.5
230.433	78.5
230.667	81.5
230.901	88.5
231.136	72.5
231.37	82.5
231.604	65.5
231.838	77.5
232.072	74.5
232.306	73.5
232.541	76.5
232.775	78.5
233.009	84.5
233.243	71.5
233.477	84.5
233.711	81.5
233.945	91.5
234.179	82.5
234.413	97.5
234.647	91.5
234.881	76.5
235.115	77.5
235.349	67.5
235.583	90.5
235.817	74.5
236.051	74.5
236.285	81.5
236.519	79.5
236.753	66.5
236.987	75.5
237.221	82.5
237.455	87.5
237.689	75.5
237.922	62.5
238.156	79.5
238.39	74.5
238.624	76.5
238.858	62.5
239.091	76.5
239.325	89.5
239.559	79.5
239.793	76.5
240.027	76.5
240.26	89.5
240.494	77.5
240.728	88.5
240.961	74.5
241.195	95.5
241.429	66.5
241.662	66.5
241.896	70.5
242.13	72.5
242.363	76.5
242.597	76.5
242.83	89.5
243.064	79.5
243.298	76.5
243.531	62.5
243.765	86.5
243.998	68.5
244.232	75.5
244.465	89.5
244.699	83.5
244.932	81.5
245.166	84.5
245.399	85.5
245.633	81.5
245.866	77.5
246.099	68.5
246.333	86.5
246.566	81.5
246.8	82.5
247.033	80.5
247.266	75.5
247.5	59.5
247.733	76.5
247.966	86.5
248.2	78.5
248.433	96.5
248.666	86.5
248.899	90.5
249.133	87.5
249.366	94.5
249.599	94.5
249.832	67.5
250.066	90.5
250.299	83.5
250.532	80.5
250.765	73.5
250.998	92.5
251.231	97.5
251.465	80.5
251.698	74.5
251.931	79.5
252.164	86.5
252.397	70.5
252.63	80.5
252.863	70.5
253.096	76.5
253.329	62.5
253.562	102.5
253.795	89.5
254.028	72.5
254.261	64.5
254.494	90.5
254.727	87.5
254.96	86.5
255.193	81.5
255.426	77.5
255.659	82.5
255.892	78.5
256.124	52.5
256.357	71.5
256.59	87.5
256.823	77.5
257.056	76.5
257.289	86.5
257.521	86.5
257.754	84.5
257.987	92.5
258.22	84.5
258.452	80.5
258.685	78.5
258.918	98.5
259.151	83.5
259.383	74.5
259.616	80.5
259.849	87.5
260.081	85.5
260.314	85.5
260.547	73.5
260.779	94.5
261.012	91.5
261.244	71.5
261.477	77.5
261.71	82.5
261.942	106.5
262.175	96.5
262.407	92.5
262.64	93.5
262.872	78.5
263.105	82.5
263.337	82.5
263.57	78.5
263.802	66.5
264.035	75.5
264.267	84.5
264.499	79.5
264.732	92.5
264.964	90.5
265.197	76.5
265.429	74.5
265.661	80.5
265.894	90.5
266.126	89.5
266.358	79.5
266.591	85.5
266.823	92.5
267.055	88.5
267.287	99.5
267.52	79.5
267.752	83.5
267.984	68.5
268.216	67.5
268.448	79.5
268.681	79.5
268.913	93.5
269.145	94.5
269.377	82.5
269.609	88.5
269.841	82.5
270.073	78.5
270.306	90.5
270.538	95.5
270.77	93.5
271.002	90.5
271.234	92.5
271.466	83.5
271.698	78.5
271.93	70.5
272.162	86.5
272.394	85.5
272.626	85.5
272.858	83.5
273.09	88.5
273.322	88.5
273.553	84.5
273.785	96.5
274.017	93.5
274.249	95.5
274.481	83.5
274.713	82.5
274.945	80.5
275.176	76.5
275.408	84.5
275.64	70.5
275.872	73.5
276.104	94.5
276.335	88.5
276.567	102.5
276.799	87.5
277.031	96.5
277.262	88.5
277.494	88.5
277.726	92.5
277.957	77.5
278.189	85.5
278.421	78.5
278.652	70.5
278.884	92.5
279.115	78.5
279.347	83.5
279.579	92.5
279.81	74.5
280.042	81.5
280.273	87.5
280.505	80.5
280.736	76.5
280.968	96.5
281.199	83.5
281.431	87.5
281.662	83.5
281.894	90.5
282.125	100.5
282.356	114.5
282.588	142.5
282.819	107.5
283.051	91.5
283.282	86.5
283.513	82.5
283.745	80.5
283.976	87.5
284.207	90.5
284.439	84.5
284.67	94.5
284.901	79.5
285.132	78.5
285.364	78.5
285.595	92.5
285.826	81.5
286.057	89.5
286.288	77.5
286.52	97.5
286.751	87.5
286.982	97.5
287.213	86.5
287.444	81.5
287.675	72.5
287.906	83.5
288.138	95.5
288.369	83.5
288.6	90.5
288.831	66.5
289.062	81.5
289.293	90.5
289.524	82.5
289.755	81.5
289.986	79.5
290.217	82.5
290.448	84.5
290.679	70.5
290.91	93.5
291.141	84.5
291.371	94.5
291.602	86.5
291.833	83.5
292.064	91.5
292.295	89.5
292.526	92.5
292.757	82.5
292.987	86.5
293.218	86.5
293.449	89.5
293.68	77.5
293.91	79.5
294.141	86.5
294.372	106.5
294.603	93.5
294.833	95.5
295.064	88.5
295.295	94.5
295.525	89.5
295.756	98.5
295.987	100.5
296.217	113.5
296.448	106.5
296.679	95.5
296.909	85.5
297.14	87.5
297.37	87.5
297.601	96.5
297.831	77.5
298.062	85.5
298.292	81.5
298.523	91.5
298.753	92.5
298.984	83.5
299.214	97.5
299.445	95.5
299.675	80.5
299.905	80.5
300.136	79.5
300.366	74.5
300.597	81.5
300.827	88.5
301.057	92.5
301.288	95.5
301.518	90.5
301.748	83.5
301.979	92.5
302.209	90.5
302.439	83.5
302.669	81.5
302.9	84.5
303.13	95.5
303.36	86.5
303.59	91.5
303.82	87.5
304.051	85.5
304.281	84.5
304.511	94.5
304.741	85.5
304.971	77.5
305.201	89.5
305.431	92.5
305.661	92.5
305.891	78.5
306.121	101.5
306.352	92.5
306.582	108.5
306.812	97.5
307.042	90.5
307.272	86.5
307.502	93.5
307.731	87.5
307.961	80.5
308.191	85.5
308.421	94.5
308.651	88.5
308.881	101.5
309.111	96.5
309.341	89.5
309.571	89.5
309.8	88.5
310.03	88.5
310.26	98.5
310.49	86.5
310.72	95.5
310.949	105.5
311.179	89.5
311.409	86.5
311.639	99.5
311.868	87.5
312.098	101.5
312.328	92.5
312.557	100.5
312.787	97.5
313.017	98.5
313.246	96.5
313.476	74.5
313.706	91.5
313.935	92.5
314.165	97.5
314.394	90.5
314.624	99.5
314.853	100.5
315.083	92.5
315.312	89.5
315.542	93.5
315.771	86.5
316.001	104.5
316.23	86.5
316.46	110.5
316.689	96.5
316.919	96.5
317.148	79.5
317.377	86.5
317.607	88.5
317.836	92.5
318.065	91.5
318.295	101.5
318.524	99.5
318.753	104.5
318.983	89.5
319.212	96.5
319.441	110.5
319.67	105.5
319.9	96.5
320.129	87.5
320.358	83.5
320.587	84.5
320.816	92.5
321.046	102.5
321.275	99.5
321.504	90.5
321.733	85.5
321.962	109.5
322.191	101.5
322.42	100.5
322.649	121.5
322.878	99.5
323.108	116.5
323.337	120.5
323.566	133.5
323.795	141.5
324.024	182.5
324.253	351.5
324.482	795.5
324.71	1562.5
324.939	2036.5
325.168	768.5
325.397	223.5
325.626	144.5
325.855	128.5
326.084	123.5
326.313	124.5
326.542	141.5
326.77	216.5
326.999	420.5
327.228	886.5
327.457	1594.5
327.686	1261.5
327.914	349.5
328.143	175.5
328.372	140.5
328.6	128.5
328.829	107.5
329.058	113.5
329.287	103.5
329.515	107.5
329.744	97.5
329.972	101.5
330.201	97.5
330.43	103.5
330.658	121.5
330.887	127.5
331.115	121.5
331.344	95.5
331.572	107.5
331.801	104.5
332.03	94.5
332.258	87.5
332.486	91.5
332.715	95.5
332.943	83.5
333.172	98.5
333.4	101.5
333.629	104.5
333.857	102.5
334.085	104.5
334.314	104.5
334.542	80.5
334.771	94.5
334.999	97.5
335.227	92.5
335.455	101.5
335.684	82.5
335.912	84.5
336.14	94.5
336.369	102.5
336.597	92.5
336.825	94.5
337.053	90.5
337.281	100.5
337.51	85.5
337.738	83.5
337.966	89.5
338.194	100.5
338.422	100.5
338.65	91.5
338.878	99.5
339.106	104.5
339.334	95.5
339.562	85.5
339.79	86.5
340.018	105.5
340.246	102.5
340.474	91.5
340.702	100.5
340.93	88.5
341.158	83.5
341.386	89.5
341.614	84.5
341.842	80.5
342.07	85.5
342.298	81.5
342.526	85.5
342.754	83.5
342.981	88.5
343.209	83.5
343.437	100.5
343.665	77.5
343.893	99.5
344.12	90.5
344.348	105.5
344.576	97.5
344.804	76.5
345.031	82.5
345.259	88.5
345.487	98.5
345.714	75.5
345.942	90.5
346.17	92.5
346.397	84.5
346.625	93.5
346.853	83.5
347.08	89.5
347.308	88.5
347.535	97.5
347.763	97.5
347.99	100.5
348.218	108.5
348.445	105.5
348.673	101.5
348.9	100.5
349.128	85.5
349.355	92.5
349.583	89.5
349.81	83.5
350.037	100.5
350.265	95.5
350.492	90.5
350.72	102.5
350.947	101.5
351.174	101.5
351.402	94.5
351.629	102.5
351.856	91.5
352.083	98.5
352.311	106.5
352.538	106.5
352.765	111.5
352.992	106.5
353.22	100.5
353.447	85.5
353.674	107.5
353.901	120.5
354.128	101.5
354.355	89.5
354.583	101.5
354.81	86.5
355.037	94.5
355.264	97.5
355.491	104.5
355.718	96.5
355.945	106.5
356.172	81.5
356.399	90.5
356.626	93.5
356.853	85.5
357.08	84.5
357.307	86.5
357.534	82.5
357.761	91.5
357.988	92.5
358.215	104.5
358.441	98.5
358.668	92.5
358.895	70.5
359.122	85.5
359.349	89.5
359.576	94.5
359.802	115.5
360.029	93.5
360.256	105.5
360.483	87.5
360.709	83.5
360.936	78.5
361.163	94.5
361.39	98.5
361.616	110.5
361.843	109.5
362.07	108.5
362.296	84.5
362.523	97.5
362.749	96.5
362.976	89.5
363.203	89.5
363.429	91.5
363.656	92.5
363.882	98.5
364.109	101.5
364.335	93.5
364.562	77.5
364.788	94.5
365.015	93.5
365.241	91.5
365.468	113.5
365.694	96.5
365.92	107.5
366.147	94.5
366.373	84.5
366.599	80.5
366.826	89.5
367.052	90.5
367.278	102.5
367.505	91.5
367.731	85.5
367.957	84.5
368.184	80.5
368.41	94.5
368.636	114.5
368.862	117.5
369.089	105.5
369.315	84.5
369.541	94.5
369.767	89.5
369.993	82.5
370.219	73.5
370.445	87.5
370.672	85.5
370.898	90.5
371.124	85.5
371.35	82.5
371.576	80.5
371.802	86.5
372.028	82.5
372.254	87.5
372.48	98.5
372.706	86.5
372.932	82.5
373.158	80.5
373.384	83.5
373.61	77.5
373.835	93.5
374.061	90.5
374.287	76.5
374.513	101.5
374.739	98.5
374.965	85.5
375.191	98.5
375.416	86.5
375.642	86.5
375.868	103.5
376.094	80.5
376.319	77.5
376.545	76.5
376.771	86.5
376.997	93.5
377.222	90.5
377.448	94.5
377.674	89.5
377.899	85.5
378.125	84.5
378.35	78.5
378.576	96.5
378.802	96.5
379.027	77.5
379.253	76.5
379.478	93.5
379.704	93.5
379.929	81.5
380.155	91.5
380.38	74.5
380.606	99.5
380.831	82.5
381.057	95.5
381.282	85.5
381.507	94.5
381.733	104.5
381.958	101.5
382.184	91.5
382.409	86.5
382.634	104.5
382.86	100.5
383.085	106.5
383.31	77.5
383.535	73.5
383.761	97.5
383.986	92.5
384.211	99.5
384.436	89.5
384.662	88.5
384.887	99.5
385.112	92.5
385.337	88.5
385.562	98.5
385.787	92.5
386.013	121.5
386.238	110.5
386.463	114.5
386.688	98.5
386.913	97.5
387.138	97.5
387.363	86.5
387.588	98.5
387.813	110.5
388.038	111.5
388.263	118.5
388.488	110.5
388.713	109.5
388.938	101.5
389.163	97.5
389.387	90.5
389.612	105.5
389.837	82.5
390.062	96.5
390.287	83.5
390.512	80.5
390.736	93.5
390.961	80.5
391.186	101.5
391.411	94.5
391.636	101.5
391.86	84.5
392.085	88.5
392.31	95.5
392.534	77.5
392.759	81.5
392.984	76.5
393.208	99.5
393.433	82.5
393.658	83.5
393.882	89.5
394.107	63.5
394.331	86.5
394.556	81.5
394.78	81.5
395.005	97.5
395.229	86.5
395.454	85.5
395.678	72.5
395.903	70.5
396.127	89.5
396.352	72.5
396.576	74.5
396.801	91.5
397.025	93.5
397.249	97.5
397.474	89.5
397.698	90.5
397.922	103.5
398.147	80.5
398.371	75.5
398.595	88.5
398.82	81.5
399.044	98.5
399.268	96.5
399.492	83.5
399.717	81.5
399.941	101.5
400.165	85.5
400.389	83.5
400.613	80.5
400.837	95.5
401.062	83.5
401.286	80.5
401.51	85.5
401.734	75.5
401.958	78.5
402.182	111.5
402.406	144.5
402.63	108.5
402.854	86.5
403.078	88.5
403.302	94.5
403.526	85.5
403.75	77.5
403.974	84.5
404.198	90.5
404.422	76.5
404.645	80.5
404.869	84.5
405.093	96.5
405.317	98.5
405.541	83.5
405.765	100.5
405.988	113.5
406.212	149.5
406.436	214.5
406.66	132.5
406.883	104.5
407.107	93.5
407.331	85.5
407.555	100.5
407.778	91.5
408.002	73.5
408.226	93.5
408.449	92.5
408.673	93.5
408.896	79.5
409.12	89.5
409.344	85.5
409.567	79.5
409.791	106.5
410.014	105.5
410.238	92.5
410.461	99.5
410.685	106.5
410.908	96.5
411.132	99.5
411.355	109.5
411.578	94.5
411.802	84.5
412.025	91.5
412.249	82.5
412.472	92.5
412.695	84.5
412.919	98.5
413.142	82.5
413.365	83.5
413.589	94.5
413.812	101.5
414.035	93.5
414.258	86.5
414.482	82.5
414.705	73.5
414.928	66.5
415.151	91.5
415.374	91.5
415.597	89.5
415.821	94.5
416.044	81.5
416.267	91.5
416.49	90.5
416.713	98.5
416.936	90.5
417.159	88.5
417.382	78.5
417.605	85.5
417.828	96.5
418.051	80.5
418.274	108.5
418.497	102.5
418.72	81.5
418.943	80.5
419.166	77.5
419.389	88.5
419.611	90.5
419.834	98.5
420.057	81.5
420.28	77.5
420.503	89.5
420.726	76.5
420.948	98.5
421.171	86.5
421.394	84.5
421.617	87.5
421.839	98.5
422.062	84.5
422.285	85.5
422.507	105.5
422.73	96.5
422.953	91.5
423.175	86.5
423.398	87.5
423.621	101.5
423.843	79.5
424.066	95.5
424.288	96.5
424.511	88.5
424.733	93.5
424.956	97.5
425.178	107.5
425.401	94.5
425.623	95.5
425.846	93.5
426.068	105.5
426.291	86.5
426.513	82.5
426.735	83.5
426.958	73.5
427.18	92.5
427.402	124.5
427.625	147.5
427.847	122.5
428.069	100.5
428.292	92.5
428.514	81.5
428.736	88.5
428.958	81.5
429.181	81.5
429.403	75.5
429.625	74.5
429.847	86.5
430.069	100.5
430.292	96.5
430.514	78.5
430.736	82.5
430.958	87.5
431.18	90.5
431.402	103.5
431.624	80.5
431.846	69.5
432.068	85.5
432.29	83.5
432.512	100.5
432.734	94.5
432.956	80.5
433.178	108.5
433.4	103.5
433.622	96.5
433.844	82.5
434.066	88.5
434.287	90.5
434.509	94.5
434.731	82.5
434.953	82.5
435.175	83.5
435.397	81.5
435.618	86.5
435.84	105.5
436.062	119.5
436.284	114.5
436.505	82.5
436.727	108.5
436.949	95.5
437.17	86.5
437.392	89.5
437.614	94.5
437.835	109.5
438.057	102.5
438.278	117.5
438.5	86.5
438.721	123.5
438.943	96.5
439.165	91.5
439.386	95.5
439.608	96.5
439.829	92.5
440.05	110.5
440.272	130.5
440.493	93.5
440.715	76.5
440.936	79.5
441.158	73.5
441.379	85.5
441.6	91.5
441.822	101.5
442.043	85.5
442.264	102.5
442.486	90.5
442.707	100.5
442.928	93.5
443.149	121.5
443.371	111.5
443.592	115.5
443.813	95.5
444.034	106.5
444.255	82.5
444.476	96.5
444.698	88.5
444.919	78.5
445.14	127.5
445.361	112.5
445.582	107.5
445.803	113.5
446.024	113.5
446.245	124.5
446.466	106.5
446.687	78.5
446.908	82.5
447.129	100.5
447.35	79.5
447.571	82.5
447.792	80.5
448.013	84.5
448.234	108.5
448.455	100.5
448.675	102.5
448.896	120.5
449.117	104.5
449.338	96.5
449.559	116.5
449.779	119.5
450	95.5
450.221	90.5
450.442	89.5
450.662	97.5
450.883	107.5
451.104	96.5
451.324	105.5
451.545	99.5
451.766	85.5
451.986	96.5
452.207	83.5
452.428	90.5
452.648	98.5
452.869	96.5
453.089	104.5
453.31	99.5
453.53	77.5
453.751	93.5
453.971	105.5
454.192	108.5
454.412	95.5
454.633	96.5
454.853	87.5
455.073	94.5
455.294	95.5
455.514	91.5
455.734	84.5
455.955	78.5
456.175	94.5
456.395	84.5
456.616	81.5
456.836	77.5
457.056	81.5
457.276	95.5
457.497	72.5
457.717	94.5
457.937	77.5
458.157	92.5
458.377	82.5
458.598	95.5
458.818	136.5
459.038	134.5
459.258	107.5
459.478	80.5
459.698	86.5
459.918	86.5
460.138	91.5
460.358	73.5
460.578	69.5
460.798	85.5
461.018	88.5
461.238	78.5
461.458	93.5
461.678	82.5
461.898	69.5
462.118	86.5
462.338	79.5
462.558	89.5
462.777	80.5
462.997	92.5
463.217	84.5
463.437	91.5
463.657	82.5
463.876	86.5
464.096	69.5
464.316	84.5
464.536	86.5
464.755	84.5
464.975	88.5
465.195	142.5
465.414	134.5
465.634	104.5
465.854	93.5
466.073	86.5
466.293	101.5
466.512	89.5
466.732	94.5
466.951	90.5
467.171	84.5
467.391	89.5
467.61	85.5
467.829	90.5
468.049	92.5
468.268	92.5
468.488	87.5
468.707	73.5
468.927	79.5
469.146	75.5
469.365	72.5
469.585	83.5
469.804	86.5
470.023	89.5
470.243	86.5
470.462	91.5
470.681	115.5
470.901	83.5
471.12	87.5
471.339	69.5
471.558	73.5
471.777	78.5
471.997	98.5
472.216	99.5
472.435	84.5
472.654	80.5
472.873	89.5
473.092	85.5
473.311	90.5
473.53	84.5
473.749	89.5
473.968	86.5
474.187	93.5
474.406	95.5
474.625	88.5
474.844	89.5
475.063	88.5
475.282	93.5
475.501	91.5
475.72	78.5
475.939	74.5
476.158	86.5
476.377	88.5
476.596	98.5
476.814	88.5
477.033	85.5
477.252	79.5
477.471	100.5
477.69	101.5
477.908	91.5
478.127	90.5
478.346	78.5
478.564	93.5
478.783	92.5
479.002	81.5
479.22	100.5
479.439	92.5
479.658	94.5
479.876	95.5
480.095	91.5
480.313	81.5
480.532	92.5
480.751	74.5
480.969	86.5
481.188	100.5
481.406	78.5
481.624	90.5
481.843	85.5
482.061	86.5
482.28	90.5
482.498	86.5
482.717	83.5
482.935	89.5
483.153	81.5
483.372	105.5
483.59	101.5
483.808	70.5
484.027	82.5
484.245	93.5
484.463	88.5
484.681	91.5
484.9	101.5
485.118	89.5
485.336	86.5
485.554	95.5
485.772	104.5
485.99	103.5
486.209	107.5
486.427	104.5
486.645	90.5
486.863	107.5
487.081	103.5
487.299	115.5
487.517	88.5
487.735	98.5
487.953	84.5
488.171	91.5
488.389	84.5
488.607	105.5
488.825	88.5
489.043	87.5
489.261	92.5
489.479	89.5
489.696	84.5
489.914	79.5
490.132	101.5
490.35	78.5
490.568	86.5
490.786	94.5
491.003	85.5
491.221	93.5
491.439	103.5
491.657	90.5
491.874	94.5
492.092	63.5
492.31	80.5
492.527	90.5
492.745	81.5
492.963	81.5
493.18	84.5
493.398	87.5
493.615	84.5
493.833	83.5
494.05	92.5
494.268	90.5
494.485	85.5
494.703	99.5
494.92	88.5
495.138	99.5
495.355	85.5
495.573	83.5
495.79	85.5
496.008	102.5
496.225	97.5
496.442	89.5
496.66	96.5
496.877	87.5
497.094	76.5
497.312	81.5
497.529	91.5
497.746	89.5
497.963	85.5
498.181	93.5
498.398	85.5
498.615	111.5
498.832	91.5
499.049	74.5
499.267	94.5
499.484	103.5
499.701	93.5
499.918	86.5
500.135	79.5
500.352	95.5
500.569	85.5
500.786	89.5
501.003	91.5
501.22	85.5
501.437	84.5
501.654	86.5
501.871	83.5
502.088	91.5
502.305	82.5
502.522	90.5
502.739	85.5
502.956	89.5
503.172	90.5
503.389	94.5
503.606	92.5
503.823	91.5
504.04	94.5
504.256	91.5
504.473	74.5
504.69	84.5
504.907	77.5
505.123	92.5
505.34	96.5
505.557	84.5
505.773	93.5
505.99	89.5
506.207	86.5
506.423	75.5
506.64	102.5
506.856	78.5
507.073	90.5
507.289	90.5
507.506	85.5
507.722	89.5
507.939	95.5
508.155	97.5
508.372	93.5
508.588	85.5
508.805	103.5
509.021	92.5
509.238	86.5
509.454	99.5
509.67	93.5
509.887	108.5
510.103	127.5
510.319	225.5
510.536	702.5
510.752	2114.5
510.968	590.5
511.184	159.5
511.401	120.5
511.617	99.5
511.833	101.5
512.049	97.5
512.265	91.5
512.481	101.5
512.698	84.5
512.914	83.5
513.13	85.5
513.346	94.5
513.562	94.5
513.778	103.5
513.994	86.5
514.21	108.5
514.426	108.5
514.642	136.5
514.858	107.5
515.074	162.5
515.29	396.5
515.506	1310.5
515.721	485.5
515.937	152.5
516.153	97.5
516.369	102.5
516.585	92.5
516.801	90.5
517.016	86.5
517.232	109.5
517.448	96.5
517.664	78.5
517.879	88.5
518.095	92.5
518.311	96.5
518.527	104.5
518.742	79.5
518.958	90.5
519.173	98.5
519.389	96.5
519.605	94.5
519.82	97.5
520.036	91.5
520.251	120.5
520.467	106.5
520.682	92.5
520.898	107.5
521.113	113.5
521.329	120.5
521.544	178.5
521.76	494.5
521.975	2145.5
522.19	1264.5
522.406	270.5
522.621	122.5
522.836	113.5
523.052	100.5
523.267	96.5
523.482	93.5
523.698	108.5
523.913	109.5
524.128	126.5
524.343	110.5
524.559	102.5
524.774	84.5
524.989	89.5
525.204	98.5
525.419	106.5
525.634	81.5
525.849	91.5
526.064	96.5
526.28	88.5
526.495	101.5
526.71	89.5
526.925	83.5
527.14	90.5
527.355	91.5
527.57	91.5
527.785	89.5
527.999	96.5
528.214	85.5
528.429	93.5
528.644	83.5
528.859	73.5
529.074	101.5
529.289	93.5
529.503	152.5
529.718	108.5
529.933	100.5
530.148	94.5
530.363	80.5
530.577	75.5
530.792	90.5
531.007	87.5
531.221	92.5
531.436	81.5
531.651	85.5
531.865	98.5
532.08	89.5
532.295	80.5
532.509	97.5
532.724	64.5
532.938	95.5
533.153	92.5
533.367	88.5
533.582	97.5
533.796	112.5
534.011	76.5
534.225	98.5
534.44	76.5
534.654	89.5
534.868	87.5
535.083	90.5
535.297	97.5
535.511	88.5
535.726	95.5
535.94	89.5
536.154	94.5
