Data from Uncirc_2006_H10_HRD10591_00095.txt Node
Date: Wed Jan 03 10:25:14 EST 2024
User: Yrep
Spectrometer: HR+D1059
Trigger mode: 1
Integration Time (sec): 1.000000E-1
Scans to average: 1
Electric dark correction enabled: true
Nonlinearity correction enabled: false
Boxcar width: 0
XAxis mode: Wavelengths
Number of Pixels in Spectrum: 2048
>>>>>Begin Spectral Data<<<<<
223.165	-17
223.4	-17
223.635	-17
223.869	-21
224.104	-21
224.338	-12
224.573	-17
224.808	-15
225.042	-16
225.277	7
225.511	16
225.746	-4
225.98	12
226.215	4
226.449	23
226.683	9
226.918	24
227.152	28
227.387	3
227.621	53
227.856	49
228.09	48
228.324	54
228.559	60
228.793	38
229.027	75
229.262	72
229.496	61
229.73	68
229.964	89
230.199	74
230.433	71
230.667	82
230.901	64
231.136	66
231.37	71
231.604	85
231.838	80
232.072	68
232.306	63
232.541	84
232.775	100
233.009	78
233.243	87
233.477	75
233.711	77
233.945	70
234.179	72
234.413	74
234.647	71
234.881	81
235.115	60
235.349	61
235.583	70
235.817	79
236.051	76
236.285	70
236.519	73
236.753	78
236.987	80
237.221	72
237.455	81
237.689	74
237.922	65
238.156	61
238.39	70
238.624	70
238.858	79
239.091	78
239.325	65
239.559	72
239.793	78
240.027	80
240.26	73
240.494	72
240.728	76
240.961	66
241.195	76
241.429	73
241.662	72
241.896	69
242.13	80
242.363	68
242.597	77
242.83	81
243.064	82
243.298	70
243.531	82
243.765	69
243.998	85
244.232	84
244.465	75
244.699	80
244.932	76
245.166	67
245.399	68
245.633	70
245.866	69
246.099	72
246.333	71
246.566	83
246.8	81
247.033	86
247.266	85
247.5	79
247.733	84
247.966	74
248.2	89
248.433	72
248.666	70
248.899	77
249.133	82
249.366	101
249.599	97
249.832	76
250.066	76
250.299	74
250.532	84
250.765	66
250.998	91
251.231	84
251.465	85
251.698	65
251.931	76
252.164	62
252.397	71
252.63	73
252.863	78
253.096	76
253.329	81
253.562	77
253.795	63
254.028	75
254.261	85
254.494	75
254.727	79
254.96	74
255.193	66
255.426	84
255.659	75
255.892	76
256.124	73
256.357	69
256.59	95
256.823	76
257.056	84
257.289	80
257.521	78
257.754	77
257.987	77
258.22	96
258.452	72
258.685	78
258.918	84
259.151	76
259.383	89
259.616	78
259.849	83
260.081	84
260.314	89
260.547	93
260.779	100
261.012	84
261.244	85
261.477	76
261.71	85
261.942	99
262.175	99
262.407	75
262.64	83
262.872	81
263.105	90
263.337	82
263.57	98
263.802	77
264.035	72
264.267	92
264.499	76
264.732	76
264.964	88
265.197	92
265.429	79
265.661	88
265.894	83
266.126	79
266.358	75
266.591	100
266.823	81
267.055	80
267.287	82
267.52	65
267.752	89
267.984	81
268.216	76
268.448	94
268.681	75
268.913	85
269.145	97
269.377	83
269.609	86
269.841	83
270.073	81
270.306	65
270.538	91
270.77	81
271.002	79
271.234	70
271.466	94
271.698	74
271.93	82
272.162	94
272.394	73
272.626	92
272.858	81
273.09	83
273.322	90
273.553	69
273.785	73
274.017	83
274.249	87
274.481	68
274.713	85
274.945	96
275.176	68
275.408	80
275.64	78
275.872	80
276.104	88
276.335	89
276.567	77
276.799	92
277.031	93
277.262	85
277.494	87
277.726	83
277.957	77
278.189	85
278.421	84
278.652	87
278.884	73
279.115	73
279.347	93
279.579	94
279.81	92
280.042	90
280.273	71
280.505	82
280.736	77
280.968	91
281.199	77
281.431	89
281.662	95
281.894	102
282.125	93
282.356	109
282.588	120
282.819	111
283.051	81
283.282	91
283.513	84
283.745	83
283.976	93
284.207	91
284.439	94
284.67	75
284.901	87
285.132	83
285.364	79
285.595	94
285.826	83
286.057	92
286.288	82
286.52	89
286.751	84
286.982	87
287.213	74
287.444	83
287.675	81
287.906	87
288.138	93
288.369	91
288.6	104
288.831	81
289.062	80
289.293	83
289.524	85
289.755	92
289.986	83
290.217	82
290.448	97
290.679	77
290.91	101
291.141	95
291.371	76
291.602	78
291.833	86
292.064	74
292.295	84
292.526	83
292.757	80
292.987	90
293.218	89
293.449	68
293.68	81
293.91	85
294.141	86
294.372	82
294.603	88
294.833	92
295.064	87
295.295	86
295.525	106
295.756	81
295.987	104
296.217	121
296.448	132
296.679	97
296.909	92
297.14	76
297.37	93
297.601	87
297.831	85
298.062	104
298.292	87
298.523	85
298.753	93
298.984	79
299.214	103
299.445	85
299.675	96
299.905	99
300.136	76
300.366	80
300.597	79
300.827	79
301.057	93
301.288	97
301.518	101
301.748	84
301.979	96
302.209	93
302.439	100
302.669	86
302.9	91
303.13	96
303.36	86
303.59	87
303.82	101
304.051	112
304.281	90
304.511	96
304.741	73
304.971	98
305.201	79
305.431	79
305.661	67
305.891	92
306.121	90
306.352	105
306.582	99
306.812	97
307.042	106
307.272	90
307.502	101
307.731	90
307.961	90
308.191	89
308.421	83
308.651	86
308.881	102
309.111	83
309.341	90
309.571	109
309.8	96
310.03	82
310.26	93
310.49	84
310.72	101
310.949	102
311.179	101
311.409	89
311.639	91
311.868	87
312.098	98
312.328	86
312.557	101
312.787	108
313.017	99
313.246	92
313.476	90
313.706	99
313.935	94
314.165	80
314.394	101
314.624	109
314.853	109
315.083	89
315.312	84
315.542	80
315.771	86
316.001	111
316.23	84
316.46	98
316.689	93
316.919	86
317.148	96
317.377	81
317.607	90
317.836	89
318.065	99
318.295	91
318.524	90
318.753	92
318.983	98
319.212	99
319.441	91
319.67	98
319.9	93
320.129	93
320.358	91
320.587	100
320.816	85
321.046	94
321.275	94
321.504	101
321.733	94
321.962	102
322.191	90
322.42	92
322.649	103
322.878	101
323.108	113
323.337	123
323.566	133
323.795	147
324.024	190
324.253	401
324.482	833
324.71	1723
324.939	2160
325.168	770
325.397	238
325.626	152
325.855	131
326.084	120
326.313	122
326.542	151
326.77	237
326.999	478
327.228	974
327.457	1733
327.686	1344
327.914	352
328.143	172
328.372	129
328.6	126
328.829	110
329.058	108
329.287	120
329.515	127
329.744	94
329.972	93
330.201	100
330.43	100
330.658	114
330.887	133
331.115	109
331.344	112
331.572	97
331.801	122
332.03	107
332.258	96
332.486	85
332.715	94
332.943	82
333.172	80
333.4	99
333.629	105
333.857	98
334.085	126
334.314	92
334.542	88
334.771	88
334.999	107
335.227	103
335.455	109
335.684	89
335.912	97
336.14	106
336.369	103
336.597	83
336.825	90
337.053	90
337.281	80
337.51	93
337.738	93
337.966	100
338.194	112
338.422	98
338.65	88
338.878	85
339.106	96
339.334	84
339.562	94
339.79	98
340.018	110
340.246	98
340.474	92
340.702	98
340.93	88
341.158	101
341.386	77
341.614	105
341.842	97
342.07	96
342.298	85
342.526	82
342.754	85
342.981	85
343.209	86
343.437	83
343.665	92
343.893	94
344.12	83
344.348	91
344.576	93
344.804	97
345.031	108
345.259	96
345.487	88
345.714	91
345.942	89
346.17	84
346.397	96
346.625	94
346.853	90
347.08	74
347.308	93
347.535	91
347.763	104
347.99	106
348.218	99
348.445	98
348.673	90
348.9	99
349.128	80
349.355	96
349.583	95
349.81	90
350.037	91
350.265	95
350.492	93
350.72	98
350.947	113
351.174	90
351.402	113
351.629	104
351.856	93
352.083	100
352.311	108
352.538	116
352.765	117
352.992	110
353.22	97
353.447	105
353.674	100
353.901	101
354.128	116
354.355	119
354.583	82
354.81	95
355.037	107
355.264	94
355.491	100
355.718	102
355.945	99
356.172	91
356.399	94
356.626	102
356.853	96
357.08	98
357.307	102
357.534	86
357.761	94
357.988	94
358.215	93
358.441	100
358.668	92
358.895	87
359.122	92
359.349	81
359.576	94
359.802	88
360.029	115
360.256	95
360.483	90
360.709	83
360.936	94
361.163	106
361.39	98
361.616	100
361.843	81
362.07	94
362.296	89
362.523	110
362.749	106
362.976	92
363.203	74
363.429	82
363.656	83
363.882	90
364.109	96
364.335	83
364.562	93
364.788	86
365.015	87
365.241	94
365.468	96
365.694	102
365.92	83
366.147	91
366.373	90
366.599	83
366.826	80
367.052	109
367.278	101
367.505	104
367.731	100
367.957	95
368.184	92
368.41	106
368.636	106
368.862	113
369.089	92
369.315	88
369.541	80
369.767	86
369.993	86
370.219	99
370.445	93
370.672	81
370.898	85
371.124	82
371.35	78
371.576	91
371.802	94
372.028	82
372.254	80
372.48	82
372.706	70
372.932	94
373.158	96
373.384	96
373.61	89
373.835	90
374.061	87
374.287	84
374.513	84
374.739	89
374.965	100
375.191	89
375.416	81
375.642	95
375.868	95
376.094	94
376.319	95
376.545	83
376.771	81
376.997	93
377.222	76
377.448	104
377.674	91
377.899	96
378.125	94
378.35	78
378.576	79
378.802	86
379.027	80
379.253	86
379.478	80
379.704	95
379.929	90
380.155	89
380.38	109
380.606	81
380.831	94
381.057	99
381.282	91
381.507	81
381.733	83
381.958	97
382.184	97
382.409	85
382.634	101
382.86	96
383.085	101
383.31	112
383.535	116
383.761	112
383.986	105
384.211	97
384.436	89
384.662	84
384.887	110
385.112	95
385.337	93
385.562	103
385.787	92
386.013	94
386.238	112
386.463	98
386.688	98
386.913	98
387.138	89
387.363	102
387.588	95
387.813	90
388.038	106
388.263	110
388.488	108
388.713	88
388.938	79
389.163	92
389.387	91
389.612	88
389.837	92
390.062	96
390.287	81
390.512	89
390.736	94
390.961	85
391.186	97
391.411	107
391.636	96
391.86	88
392.085	92
392.31	89
392.534	77
392.759	92
392.984	96
393.208	91
393.433	103
393.658	84
393.882	91
394.107	89
394.331	92
394.556	95
394.78	84
395.005	97
395.229	86
395.454	77
395.678	78
395.903	76
396.127	77
396.352	81
396.576	81
396.801	99
397.025	88
397.249	92
397.474	81
397.698	98
397.922	91
398.147	95
398.371	89
398.595	75
398.82	78
399.044	91
399.268	80
399.492	74
399.717	99
399.941	94
400.165	79
400.389	82
400.613	105
400.837	82
401.062	72
401.286	99
401.51	74
401.734	84
401.958	100
402.182	119
402.406	145
402.63	109
402.854	73
403.078	74
403.302	96
403.526	97
403.75	92
403.974	99
404.198	100
404.422	107
404.645	73
404.869	90
405.093	91
405.317	92
405.541	107
405.765	94
405.988	85
406.212	146
406.436	204
406.66	130
406.883	92
407.107	92
407.331	83
407.555	93
407.778	99
408.002	92
408.226	77
408.449	90
408.673	90
408.896	99
409.12	90
409.344	88
409.567	88
409.791	84
410.014	99
410.238	89
410.461	83
410.685	92
410.908	109
411.132	106
411.355	92
411.578	100
411.802	99
412.025	80
412.249	84
412.472	93
412.695	90
412.919	86
413.142	88
413.365	83
413.589	91
413.812	92
414.035	85
414.258	82
414.482	84
414.705	97
414.928	81
415.151	79
415.374	79
415.597	89
415.821	78
416.044	84
416.267	82
416.49	93
416.713	86
416.936	89
417.159	80
417.382	90
417.605	87
417.828	83
418.051	85
418.274	93
418.497	88
418.72	80
418.943	83
419.166	92
419.389	90
419.611	84
419.834	86
420.057	88
420.28	88
420.503	86
420.726	83
420.948	84
421.171	92
421.394	87
421.617	76
421.839	84
422.062	79
422.285	100
422.507	89
422.73	102
422.953	98
423.175	97
423.398	90
423.621	88
423.843	86
424.066	85
424.288	94
424.511	100
424.733	92
424.956	86
425.178	102
425.401	81
425.623	88
425.846	81
426.068	86
426.291	97
426.513	75
426.735	88
426.958	98
427.18	93
427.402	123
427.625	145
427.847	115
428.069	84
428.292	99
428.514	88
428.736	87
428.958	81
429.181	91
429.403	75
429.625	85
429.847	85
430.069	110
430.292	82
430.514	68
430.736	72
430.958	92
431.18	83
431.402	78
431.624	84
431.846	86
432.068	91
432.29	80
432.512	84
432.734	81
432.956	86
433.178	92
433.4	97
433.622	83
433.844	92
434.066	81
434.287	102
434.509	76
434.731	88
434.953	82
435.175	93
435.397	91
435.618	85
435.84	94
436.062	120
436.284	111
436.505	83
436.727	91
436.949	85
437.17	98
437.392	91
437.614	87
437.835	94
438.057	112
438.278	98
438.5	97
438.721	108
438.943	103
439.165	85
439.386	73
439.608	88
439.829	79
440.05	113
440.272	129
440.493	92
440.715	92
440.936	80
441.158	86
441.379	79
441.6	100
441.822	104
442.043	108
442.264	93
442.486	82
442.707	95
442.928	99
443.149	118
443.371	134
443.592	107
443.813	98
444.034	91
444.255	81
444.476	88
444.698	90
444.919	93
445.14	121
445.361	128
445.582	117
445.803	116
446.024	126
446.245	117
446.466	98
446.687	84
446.908	85
447.129	79
447.35	86
447.571	93
447.792	85
448.013	92
448.234	98
448.455	93
448.675	99
448.896	109
449.117	103
449.338	93
449.559	131
449.779	140
450	89
450.221	70
450.442	84
450.662	85
450.883	117
451.104	99
451.324	103
451.545	89
451.766	84
451.986	101
452.207	100
452.428	89
452.648	77
452.869	108
453.089	101
453.31	98
453.53	91
453.751	90
453.971	87
454.192	118
454.412	91
454.633	69
454.853	84
455.073	84
455.294	95
455.514	84
455.734	87
455.955	88
456.175	85
456.395	86
456.616	77
456.836	92
457.056	83
457.276	81
457.497	73
457.717	87
457.937	81
458.157	88
458.377	95
458.598	94
458.818	123
459.038	128
459.258	100
459.478	96
459.698	96
459.918	83
460.138	84
460.358	83
460.578	95
460.798	100
461.018	83
461.238	70
461.458	81
461.678	80
461.898	83
462.118	82
462.338	84
462.558	84
462.777	77
462.997	78
463.217	95
463.437	81
463.657	78
463.876	101
464.096	93
464.316	82
464.536	95
464.755	92
464.975	87
465.195	130
465.414	138
465.634	93
465.854	91
466.073	96
466.293	104
466.512	85
466.732	77
466.951	89
467.171	87
467.391	97
467.61	87
467.829	95
468.049	96
468.268	85
468.488	87
468.707	84
468.927	76
469.146	76
469.365	86
469.585	79
469.804	91
470.023	107
470.243	95
470.462	81
470.681	93
470.901	95
471.12	80
471.339	84
471.558	73
471.777	91
471.997	82
472.216	78
472.435	80
472.654	82
472.873	79
473.092	82
473.311	92
473.53	92
473.749	80
473.968	95
474.187	100
474.406	85
474.625	82
474.844	77
475.063	69
475.282	80
475.501	87
475.72	84
475.939	90
476.158	76
476.377	72
476.596	94
476.814	89
477.033	90
477.252	74
477.471	94
477.69	95
477.908	78
478.127	90
478.346	84
478.564	93
478.783	95
479.002	91
479.22	84
479.439	81
479.658	98
479.876	94
480.095	85
480.313	81
480.532	78
480.751	77
480.969	77
481.188	82
481.406	96
481.624	79
481.843	92
482.061	88
482.28	81
482.498	91
482.717	75
482.935	80
483.153	88
483.372	91
483.59	88
483.808	82
484.027	104
484.245	111
484.463	84
484.681	81
484.9	85
485.118	84
485.336	102
485.554	90
485.772	81
485.99	102
486.209	99
486.427	107
486.645	94
486.863	97
487.081	96
487.299	99
487.517	98
487.735	93
487.953	96
488.171	95
488.389	84
488.607	89
488.825	89
489.043	99
489.261	96
489.479	78
489.696	82
489.914	77
490.132	88
490.35	90
490.568	88
490.786	92
491.003	98
491.221	84
491.439	84
491.657	92
491.874	87
492.092	91
492.31	77
492.527	83
492.745	95
492.963	90
493.18	98
493.398	101
493.615	91
493.833	83
494.05	70
494.268	90
494.485	76
494.703	84
494.92	89
495.138	92
495.355	88
495.573	95
495.79	84
496.008	106
496.225	66
496.442	73
496.66	91
496.877	102
497.094	86
497.312	90
497.529	83
497.746	92
497.963	87
498.181	101
498.398	86
498.615	96
498.832	80
499.049	71
499.267	82
499.484	89
499.701	89
499.918	95
500.135	94
500.352	98
500.569	106
500.786	86
501.003	83
501.22	89
501.437	88
501.654	90
501.871	91
502.088	80
502.305	101
502.522	86
502.739	86
502.956	78
503.172	105
503.389	104
503.606	98
503.823	93
504.04	85
504.256	92
504.473	90
504.69	96
504.907	85
505.123	95
505.34	94
505.557	88
505.773	94
505.99	85
506.207	87
506.423	93
506.64	92
506.856	93
507.073	78
507.289	101
507.506	113
507.722	96
507.939	97
508.155	87
508.372	76
508.588	98
508.805	82
509.021	93
509.238	107
509.454	108
509.67	99
509.887	103
510.103	119
510.319	198
510.536	710
510.752	2161
510.968	613
511.184	145
511.401	94
511.617	100
511.833	97
512.049	83
512.265	80
512.481	101
512.698	93
512.914	86
513.13	83
513.346	97
513.562	88
513.778	102
513.994	100
514.21	102
514.426	118
514.642	127
514.858	101
515.074	152
515.29	421
515.506	1288
515.721	492
515.937	145
516.153	100
516.369	101
516.585	94
516.801	97
517.016	92
517.232	90
517.448	120
517.664	89
517.879	80
518.095	86
518.311	90
518.527	96
518.742	72
518.958	78
519.173	110
519.389	104
519.605	86
519.82	94
520.036	102
520.251	101
520.467	95
520.682	98
520.898	102
521.113	115
521.329	115
521.544	174
521.76	506
521.975	2111
522.19	1308
522.406	285
522.621	115
522.836	92
523.052	92
523.267	85
523.482	99
523.698	91
523.913	121
524.128	106
524.343	96
524.559	102
524.774	83
524.989	82
525.204	94
525.419	95
525.634	94
525.849	90
526.064	83
526.28	79
526.495	81
526.71	91
526.925	88
527.14	90
527.355	92
527.57	85
527.785	104
527.999	85
528.214	73
528.429	93
528.644	101
528.859	86
529.074	85
529.289	107
529.503	147
529.718	109
529.933	90
530.148	85
530.363	73
530.577	72
530.792	82
531.007	93
531.221	94
531.436	90
531.651	86
531.865	80
532.08	96
532.295	102
532.509	82
532.724	80
532.938	88
533.153	92
533.367	94
533.582	82
533.796	80
534.011	101
534.225	99
534.44	90
534.654	100
534.868	90
535.083	95
535.297	83
535.511	95
535.726	99
535.94	98
536.154	94
536.369	78
536.583	73
536.797	87
537.011	98
537.225	85
537.44	90
537.654	93
537.868	83
538.082	83
538.296	81
538.51	79
538.724	78
538.938	94
539.153	101
539.367	117
539.581	95
539.795	84
540.009	83
540.222	85
540.436	89
540.65	98
540.864	88
541.078	94
541.292	81
541.506	91
541.72	102
541.934	77
542.147	86
542.361	80
542.575	83
542.789	73
543.002	87
543.216	78
543.43	93
543.644	82
543.857	99
544.071	90
544.285	97
544.498	80
544.712	78
544.925	97
545.139	90
545.352	95
545.566	87
545.779	77
545.993	84
546.206	94
546.42	84
546.633	88
546.847	90
547.06	81
547.274	94
547.487	77
547.7	93
547.914	99
548.127	84
548.34	93
548.554	97
548.767	100
548.98	79
549.193	93
549.407	78
549.62	81
549.833	94
550.046	78
550.259	94
550.473	89
550.686	81
550.899	83
551.112	70
551.325	93
551.538	86
551.751	87
551.964	73
552.177	82
552.39	94
552.603	93
552.816	100
553.029	83
553.242	93
553.455	93
553.667	98
553.88	98
554.093	84
554.306	76
554.519	95
554.732	95
554.944	87
555.157	84
555.37	91
555.583	76
555.795	90
556.008	92
556.221	88
556.433	96
556.646	98
556.859	93
557.071	92
557.284	83
557.496	89
557.709	86
557.921	85
558.134	88
558.346	94
558.559	109
558.771	99
558.984	92
559.196	94
559.409	79
559.621	85
559.833	77
560.046	75
560.258	80
560.47	70
560.683	85
560.895	84
561.107	77
561.32	79
561.532	97
561.744	83
561.956	80
562.168	83
562.381	95
562.593	89
562.805	109
563.017	88
563.229	94
563.441	80
563.653	86
563.865	80
564.077	81
564.289	81
564.501	87
564.713	102
564.925	99
565.137	104
565.349	83
565.561	85
565.773	91
565.985	92
566.197	74
566.408	73
566.62	78
566.832	82
567.044	93
567.255	91
567.467	75
567.679	97
567.891	83
568.102	91
568.314	80
568.526	94
568.737	86
568.949	94
569.161	81
569.372	78
569.584	79
569.795	83
570.007	112
570.218	242
570.43	143
570.641	86
570.853	83
571.064	84
571.276	81
571.487	74
571.698	86
571.91	84
572.121	88
572.333	84
572.544	99
572.755	91
572.966	82
573.178	86
573.389	93
573.6	84
573.811	92
574.023	100
574.234	92
574.445	81
574.656	93
574.867	83
575.078	93
575.289	93
575.501	85
575.712	78
575.923	81
576.134	82
576.345	78
576.556	84
576.767	92
576.978	84
577.188	93
577.399	86
577.61	100
577.821	94
578.032	114
578.243	254
578.454	705
578.665	194
578.875	109
579.086	90
579.297	92
579.508	82
579.718	91
579.929	90
580.14	89
580.35	92
580.561	89
580.772	92
580.982	86
581.193	87
581.403	97
581.614	86
581.825	91
582.035	94
582.246	78
582.456	89
582.667	90
582.877	89
583.087	98
583.298	82
583.508	78
583.719	69
583.929	83
584.139	83
584.35	94
584.56	83
584.77	87
584.981	97
585.191	86
585.401	77
585.611	93
585.821	85
