Data from Uncirc_2006_H10_HRD10591_00065.txt Node
Date: Wed Jan 03 10:25:08 EST 2024
User: Yrep
Spectrometer: HR+D1059
Trigger mode: 1
Integration Time (sec): 1.000000E-1
Scans to average: 1
Electric dark correction enabled: true
Nonlinearity correction enabled: false
Boxcar width: 0
XAxis mode: Wavelengths
Number of Pixels in Spectrum: 2048
>>>>>Begin Spectral Data<<<<<
223.165	-16.81
223.4	-16.81
223.635	-16.81
223.869	-15.81
224.104	-22.81
224.338	-16.81
224.573	-13.81
224.808	-3.81
225.042	-12.81
225.277	-9.81
225.511	3.19
225.746	-1.81
225.98	14.19
226.215	12.19
226.449	9.19
226.683	10.19
226.918	22.19
227.152	43.19
227.387	31.19
227.621	36.19
227.856	44.19
228.09	37.19
228.324	43.19
228.559	44.19
228.793	67.19
229.027	75.19
229.262	56.19
229.496	75.19
229.73	82.19
229.964	75.19
230.199	70.19
230.433	75.19
230.667	71.19
230.901	77.19
231.136	68.19
231.37	75.19
231.604	72.19
231.838	97.19
232.072	67.19
232.306	66.19
232.541	80.19
232.775	83.19
233.009	74.19
233.243	79.19
233.477	92.19
233.711	75.19
233.945	74.19
234.179	71.19
234.413	71.19
234.647	84.19
234.881	94.19
235.115	89.19
235.349	69.19
235.583	90.19
235.817	83.19
236.051	88.19
236.285	75.19
236.519	76.19
236.753	75.19
236.987	79.19
237.221	92.19
237.455	88.19
237.689	58.19
237.922	69.19
238.156	81.19
238.39	74.19
238.624	63.19
238.858	80.19
239.091	65.19
239.325	76.19
239.559	90.19
239.793	81.19
240.027	80.19
240.26	75.19
240.494	80.19
240.728	75.19
240.961	90.19
241.195	67.19
241.429	78.19
241.662	66.19
241.896	74.19
242.13	58.19
242.363	78.19
242.597	92.19
242.83	72.19
243.064	73.19
243.298	83.19
243.531	76.19
243.765	65.19
243.998	77.19
244.232	74.19
244.465	86.19
244.699	83.19
244.932	69.19
245.166	84.19
245.399	71.19
245.633	86.19
245.866	74.19
246.099	71.19
246.333	80.19
246.566	71.19
246.8	76.19
247.033	67.19
247.266	69.19
247.5	78.19
247.733	85.19
247.966	73.19
248.2	65.19
248.433	87.19
248.666	80.19
248.899	88.19
249.133	84.19
249.366	85.19
249.599	93.19
249.832	75.19
250.066	85.19
250.299	74.19
250.532	75.19
250.765	62.19
250.998	80.19
251.231	83.19
251.465	79.19
251.698	82.19
251.931	86.19
252.164	70.19
252.397	83.19
252.63	88.19
252.863	59.19
253.096	78.19
253.329	80.19
253.562	84.19
253.795	86.19
254.028	75.19
254.261	74.19
254.494	76.19
254.727	72.19
254.96	76.19
255.193	71.19
255.426	78.19
255.659	76.19
255.892	91.19
256.124	74.19
256.357	86.19
256.59	82.19
256.823	87.19
257.056	69.19
257.289	82.19
257.521	86.19
257.754	71.19
257.987	85.19
258.22	80.19
258.452	85.19
258.685	77.19
258.918	100.19
259.151	87.19
259.383	78.19
259.616	79.19
259.849	74.19
260.081	77.19
260.314	87.19
260.547	78.19
260.779	71.19
261.012	103.19
261.244	72.19
261.477	90.19
261.71	87.19
261.942	91.19
262.175	108.19
262.407	92.19
262.64	76.19
262.872	84.19
263.105	88.19
263.337	84.19
263.57	75.19
263.802	81.19
264.035	83.19
264.267	68.19
264.499	77.19
264.732	73.19
264.964	69.19
265.197	90.19
265.429	80.19
265.661	91.19
265.894	85.19
266.126	100.19
266.358	68.19
266.591	77.19
266.823	79.19
267.055	59.19
267.287	84.19
267.52	90.19
267.752	78.19
267.984	76.19
268.216	83.19
268.448	86.19
268.681	98.19
268.913	67.19
269.145	90.19
269.377	77.19
269.609	68.19
269.841	92.19
270.073	85.19
270.306	83.19
270.538	87.19
270.77	85.19
271.002	84.19
271.234	64.19
271.466	90.19
271.698	81.19
271.93	90.19
272.162	83.19
272.394	96.19
272.626	103.19
272.858	78.19
273.09	80.19
273.322	79.19
273.553	83.19
273.785	86.19
274.017	94.19
274.249	76.19
274.481	86.19
274.713	86.19
274.945	88.19
275.176	83.19
275.408	83.19
275.64	90.19
275.872	86.19
276.104	81.19
276.335	94.19
276.567	94.19
276.799	100.19
277.031	90.19
277.262	84.19
277.494	85.19
277.726	78.19
277.957	88.19
278.189	78.19
278.421	80.19
278.652	89.19
278.884	67.19
279.115	98.19
279.347	87.19
279.579	93.19
279.81	85.19
280.042	67.19
280.273	92.19
280.505	75.19
280.736	92.19
280.968	88.19
281.199	93.19
281.431	68.19
281.662	76.19
281.894	83.19
282.125	81.19
282.356	118.19
282.588	113.19
282.819	112.19
283.051	76.19
283.282	78.19
283.513	99.19
283.745	93.19
283.976	86.19
284.207	95.19
284.439	92.19
284.67	94.19
284.901	71.19
285.132	84.19
285.364	87.19
285.595	78.19
285.826	95.19
286.057	91.19
286.288	84.19
286.52	97.19
286.751	81.19
286.982	88.19
287.213	88.19
287.444	84.19
287.675	86.19
287.906	86.19
288.138	86.19
288.369	87.19
288.6	84.19
288.831	94.19
289.062	87.19
289.293	86.19
289.524	80.19
289.755	75.19
289.986	90.19
290.217	82.19
290.448	95.19
290.679	82.19
290.91	82.19
291.141	92.19
291.371	96.19
291.602	89.19
291.833	87.19
292.064	76.19
292.295	93.19
292.526	90.19
292.757	79.19
292.987	81.19
293.218	95.19
293.449	74.19
293.68	71.19
293.91	73.19
294.141	98.19
294.372	100.19
294.603	71.19
294.833	83.19
295.064	86.19
295.295	93.19
295.525	106.19
295.756	102.19
295.987	115.19
296.217	124.19
296.448	122.19
296.679	105.19
296.909	83.19
297.14	82.19
297.37	96.19
297.601	83.19
297.831	82.19
298.062	81.19
298.292	83.19
298.523	80.19
298.753	90.19
298.984	82.19
299.214	90.19
299.445	83.19
299.675	88.19
299.905	95.19
300.136	88.19
300.366	84.19
300.597	81.19
300.827	99.19
301.057	96.19
301.288	102.19
301.518	93.19
301.748	87.19
301.979	100.19
302.209	88.19
302.439	86.19
302.669	82.19
302.9	74.19
303.13	91.19
303.36	95.19
303.59	106.19
303.82	99.19
304.051	99.19
304.281	94.19
304.511	88.19
304.741	99.19
304.971	82.19
305.201	80.19
305.431	90.19
305.661	106.19
305.891	97.19
306.121	93.19
306.352	99.19
306.582	102.19
306.812	89.19
307.042	73.19
307.272	106.19
307.502	99.19
307.731	101.19
307.961	90.19
308.191	84.19
308.421	91.19
308.651	103.19
308.881	99.19
309.111	102.19
309.341	94.19
309.571	96.19
309.8	104.19
310.03	104.19
310.26	91.19
310.49	83.19
310.72	96.19
310.949	103.19
311.179	91.19
311.409	101.19
311.639	99.19
311.868	82.19
312.098	84.19
312.328	92.19
312.557	99.19
312.787	110.19
313.017	94.19
313.246	98.19
313.476	95.19
313.706	99.19
313.935	98.19
314.165	94.19
314.394	101.19
314.624	88.19
314.853	92.19
315.083	88.19
315.312	100.19
315.542	99.19
315.771	95.19
316.001	73.19
316.23	80.19
316.46	93.19
316.689	96.19
316.919	95.19
317.148	100.19
317.377	90.19
317.607	107.19
317.836	85.19
318.065	81.19
318.295	101.19
318.524	82.19
318.753	74.19
318.983	99.19
319.212	95.19
319.441	97.19
319.67	118.19
319.9	105.19
320.129	104.19
320.358	90.19
320.587	92.19
320.816	96.19
321.046	101.19
321.275	102.19
321.504	117.19
321.733	92.19
321.962	99.19
322.191	94.19
322.42	111.19
322.649	102.19
322.878	95.19
323.108	109.19
323.337	127.19
323.566	125.19
323.795	136.19
324.024	188.19
324.253	348.19
324.482	751.19
324.71	1551.19
324.939	2031.19
325.168	764.19
325.397	221.19
325.626	148.19
325.855	108.19
326.084	121.19
326.313	142.19
326.542	153.19
326.77	222.19
326.999	445.19
327.228	898.19
327.457	1650.19
327.686	1286.19
327.914	347.19
328.143	177.19
328.372	132.19
328.6	115.19
328.829	122.19
329.058	116.19
329.287	115.19
329.515	125.19
329.744	90.19
329.972	95.19
330.201	78.19
330.43	103.19
330.658	119.19
330.887	139.19
331.115	116.19
331.344	84.19
331.572	111.19
331.801	84.19
332.03	96.19
332.258	88.19
332.486	93.19
332.715	88.19
332.943	106.19
333.172	95.19
333.4	82.19
333.629	92.19
333.857	124.19
334.085	101.19
334.314	97.19
334.542	79.19
334.771	87.19
334.999	93.19
335.227	96.19
335.455	87.19
335.684	94.19
335.912	99.19
336.14	94.19
336.369	94.19
336.597	101.19
336.825	107.19
337.053	76.19
337.281	98.19
337.51	78.19
337.738	88.19
337.966	87.19
338.194	100.19
338.422	83.19
338.65	90.19
338.878	90.19
339.106	96.19
339.334	94.19
339.562	98.19
339.79	84.19
340.018	84.19
340.246	102.19
340.474	96.19
340.702	93.19
340.93	85.19
341.158	98.19
341.386	94.19
341.614	108.19
341.842	106.19
342.07	88.19
342.298	81.19
342.526	85.19
342.754	99.19
342.981	94.19
343.209	92.19
343.437	110.19
343.665	82.19
343.893	76.19
344.12	84.19
344.348	81.19
344.576	93.19
344.804	94.19
345.031	95.19
345.259	107.19
345.487	100.19
345.714	90.19
345.942	91.19
346.17	90.19
346.397	86.19
346.625	95.19
346.853	85.19
347.08	83.19
347.308	96.19
347.535	95.19
347.763	101.19
347.99	89.19
348.218	89.19
348.445	106.19
348.673	100.19
348.9	98.19
349.128	102.19
349.355	95.19
349.583	92.19
349.81	100.19
350.037	99.19
350.265	78.19
350.492	88.19
350.72	90.19
350.947	105.19
351.174	99.19
351.402	103.19
351.629	93.19
351.856	98.19
352.083	95.19
352.311	98.19
352.538	110.19
352.765	111.19
352.992	119.19
353.22	127.19
353.447	117.19
353.674	93.19
353.901	84.19
354.128	103.19
354.355	82.19
354.583	86.19
354.81	96.19
355.037	88.19
355.264	89.19
355.491	101.19
355.718	90.19
355.945	104.19
356.172	87.19
356.399	89.19
356.626	87.19
356.853	86.19
357.08	92.19
357.307	76.19
357.534	94.19
357.761	86.19
357.988	78.19
358.215	101.19
358.441	97.19
358.668	112.19
358.895	84.19
359.122	79.19
359.349	96.19
359.576	93.19
359.802	111.19
360.029	105.19
360.256	116.19
360.483	95.19
360.709	92.19
360.936	97.19
361.163	94.19
361.39	94.19
361.616	94.19
361.843	102.19
362.07	96.19
362.296	87.19
362.523	85.19
362.749	100.19
362.976	91.19
363.203	94.19
363.429	82.19
363.656	100.19
363.882	88.19
364.109	79.19
364.335	103.19
364.562	104.19
364.788	93.19
365.015	80.19
365.241	105.19
365.468	97.19
365.694	107.19
365.92	97.19
366.147	102.19
366.373	83.19
366.599	78.19
366.826	82.19
367.052	99.19
367.278	101.19
367.505	88.19
367.731	98.19
367.957	92.19
368.184	95.19
368.41	103.19
368.636	103.19
368.862	108.19
369.089	100.19
369.315	100.19
369.541	87.19
369.767	92.19
369.993	84.19
370.219	87.19
370.445	83.19
370.672	84.19
370.898	101.19
371.124	100.19
371.35	93.19
371.576	86.19
371.802	73.19
372.028	92.19
372.254	88.19
372.48	93.19
372.706	101.19
372.932	92.19
373.158	89.19
373.384	93.19
373.61	90.19
373.835	95.19
374.061	79.19
374.287	95.19
374.513	80.19
374.739	92.19
374.965	102.19
375.191	96.19
375.416	90.19
375.642	97.19
375.868	96.19
376.094	99.19
376.319	97.19
376.545	86.19
376.771	92.19
376.997	85.19
377.222	88.19
377.448	101.19
377.674	94.19
377.899	91.19
378.125	94.19
378.35	98.19
378.576	102.19
378.802	82.19
379.027	99.19
379.253	101.19
379.478	81.19
379.704	80.19
379.929	87.19
380.155	95.19
380.38	104.19
380.606	107.19
380.831	93.19
381.057	104.19
381.282	97.19
381.507	80.19
381.733	97.19
381.958	98.19
382.184	95.19
382.409	101.19
382.634	95.19
382.86	122.19
383.085	108.19
383.31	82.19
383.535	101.19
383.761	109.19
383.986	98.19
384.211	98.19
384.436	103.19
384.662	96.19
384.887	97.19
385.112	109.19
385.337	93.19
385.562	102.19
385.787	100.19
386.013	103.19
386.238	103.19
386.463	108.19
386.688	107.19
386.913	98.19
387.138	108.19
387.363	96.19
387.588	107.19
387.813	98.19
388.038	101.19
388.263	99.19
388.488	107.19
388.713	104.19
388.938	100.19
389.163	110.19
389.387	104.19
389.612	91.19
389.837	90.19
390.062	90.19
390.287	93.19
390.512	85.19
390.736	87.19
390.961	93.19
391.186	95.19
391.411	92.19
391.636	90.19
391.86	86.19
392.085	96.19
392.31	80.19
392.534	90.19
392.759	88.19
392.984	98.19
393.208	89.19
393.433	94.19
393.658	72.19
393.882	89.19
394.107	87.19
394.331	84.19
394.556	89.19
394.78	99.19
395.005	106.19
395.229	97.19
395.454	96.19
395.678	92.19
395.903	95.19
396.127	88.19
396.352	88.19
396.576	73.19
396.801	91.19
397.025	95.19
397.249	87.19
397.474	86.19
397.698	98.19
397.922	76.19
398.147	90.19
398.371	90.19
398.595	78.19
398.82	87.19
399.044	91.19
399.268	88.19
399.492	86.19
399.717	97.19
399.941	88.19
400.165	94.19
400.389	88.19
400.613	94.19
400.837	79.19
401.062	79.19
401.286	86.19
401.51	93.19
401.734	90.19
401.958	84.19
402.182	110.19
402.406	137.19
402.63	113.19
402.854	109.19
403.078	98.19
403.302	83.19
403.526	97.19
403.75	90.19
403.974	90.19
404.198	103.19
404.422	89.19
404.645	75.19
404.869	89.19
405.093	85.19
405.317	102.19
405.541	91.19
405.765	103.19
405.988	122.19
406.212	143.19
406.436	191.19
406.66	151.19
406.883	99.19
407.107	105.19
407.331	94.19
407.555	86.19
407.778	88.19
408.002	92.19
408.226	88.19
408.449	87.19
408.673	102.19
408.896	98.19
409.12	95.19
409.344	98.19
409.567	89.19
409.791	85.19
410.014	102.19
410.238	89.19
410.461	85.19
410.685	91.19
410.908	102.19
411.132	87.19
411.355	108.19
411.578	92.19
411.802	94.19
412.025	85.19
412.249	81.19
412.472	83.19
412.695	103.19
412.919	83.19
413.142	82.19
413.365	84.19
413.589	102.19
413.812	88.19
414.035	96.19
414.258	93.19
414.482	81.19
414.705	76.19
414.928	88.19
415.151	97.19
415.374	102.19
415.597	85.19
415.821	79.19
416.044	86.19
416.267	85.19
416.49	96.19
416.713	87.19
416.936	87.19
417.159	103.19
417.382	91.19
417.605	87.19
417.828	87.19
418.051	76.19
418.274	94.19
418.497	92.19
418.72	95.19
418.943	81.19
419.166	94.19
419.389	92.19
419.611	105.19
419.834	98.19
420.057	97.19
420.28	90.19
420.503	87.19
420.726	85.19
420.948	95.19
421.171	94.19
421.394	106.19
421.617	111.19
421.839	80.19
422.062	92.19
422.285	92.19
422.507	91.19
422.73	100.19
422.953	97.19
423.175	82.19
423.398	85.19
423.621	79.19
423.843	86.19
424.066	86.19
424.288	95.19
424.511	90.19
424.733	100.19
424.956	106.19
425.178	95.19
425.401	95.19
425.623	92.19
425.846	89.19
426.068	108.19
426.291	90.19
426.513	98.19
426.735	88.19
426.958	97.19
427.18	98.19
427.402	141.19
427.625	154.19
427.847	118.19
428.069	98.19
428.292	83.19
428.514	83.19
428.736	79.19
428.958	95.19
429.181	88.19
429.403	81.19
429.625	86.19
429.847	88.19
430.069	95.19
430.292	91.19
430.514	112.19
430.736	96.19
430.958	82.19
431.18	87.19
431.402	92.19
431.624	90.19
431.846	91.19
432.068	86.19
432.29	87.19
432.512	98.19
432.734	93.19
432.956	100.19
433.178	98.19
433.4	94.19
433.622	74.19
433.844	90.19
434.066	80.19
434.287	101.19
434.509	93.19
434.731	102.19
434.953	83.19
435.175	78.19
435.397	86.19
435.618	84.19
435.84	90.19
436.062	112.19
436.284	103.19
436.505	115.19
436.727	96.19
436.949	80.19
437.17	93.19
437.392	94.19
437.614	96.19
437.835	74.19
438.057	102.19
438.278	94.19
438.5	94.19
438.721	133.19
438.943	98.19
439.165	90.19
439.386	91.19
439.608	92.19
439.829	106.19
440.05	112.19
440.272	119.19
440.493	97.19
440.715	87.19
440.936	98.19
441.158	86.19
441.379	78.19
441.6	86.19
441.822	103.19
442.043	91.19
442.264	85.19
442.486	116.19
442.707	89.19
442.928	113.19
443.149	109.19
443.371	111.19
443.592	105.19
443.813	100.19
444.034	91.19
444.255	94.19
444.476	89.19
444.698	84.19
444.919	83.19
445.14	113.19
445.361	119.19
445.582	104.19
445.803	133.19
446.024	126.19
446.245	124.19
446.466	108.19
446.687	90.19
446.908	80.19
447.129	75.19
447.35	79.19
447.571	99.19
447.792	89.19
448.013	99.19
448.234	95.19
448.455	104.19
448.675	104.19
448.896	118.19
449.117	84.19
449.338	102.19
449.559	122.19
449.779	132.19
450	82.19
450.221	85.19
450.442	88.19
450.662	92.19
450.883	93.19
451.104	104.19
451.324	95.19
451.545	86.19
451.766	80.19
451.986	78.19
452.207	97.19
452.428	97.19
452.648	99.19
452.869	102.19
453.089	114.19
453.31	111.19
453.53	90.19
453.751	98.19
453.971	99.19
454.192	98.19
454.412	94.19
454.633	90.19
454.853	104.19
455.073	78.19
455.294	87.19
455.514	89.19
455.734	103.19
455.955	89.19
456.175	92.19
456.395	100.19
456.616	82.19
456.836	87.19
457.056	95.19
457.276	84.19
457.497	88.19
457.717	97.19
457.937	92.19
458.157	84.19
458.377	89.19
458.598	95.19
458.818	115.19
459.038	137.19
459.258	107.19
459.478	98.19
459.698	85.19
459.918	84.19
460.138	91.19
460.358	66.19
460.578	79.19
460.798	82.19
461.018	96.19
461.238	98.19
461.458	98.19
461.678	97.19
461.898	97.19
462.118	86.19
462.338	84.19
462.558	79.19
462.777	86.19
462.997	83.19
463.217	86.19
463.437	86.19
463.657	83.19
463.876	90.19
464.096	96.19
464.316	94.19
464.536	100.19
464.755	95.19
464.975	94.19
465.195	146.19
465.414	138.19
465.634	91.19
465.854	86.19
466.073	93.19
466.293	92.19
466.512	88.19
466.732	85.19
466.951	107.19
467.171	90.19
467.391	92.19
467.61	91.19
467.829	94.19
468.049	94.19
468.268	95.19
468.488	87.19
468.707	87.19
468.927	91.19
469.146	83.19
469.365	82.19
469.585	82.19
469.804	95.19
470.023	86.19
470.243	92.19
470.462	95.19
470.681	98.19
470.901	96.19
471.12	85.19
471.339	83.19
471.558	85.19
471.777	87.19
471.997	75.19
472.216	88.19
472.435	82.19
472.654	85.19
472.873	97.19
473.092	98.19
473.311	95.19
473.53	81.19
473.749	80.19
473.968	97.19
474.187	99.19
474.406	77.19
474.625	88.19
474.844	69.19
475.063	94.19
475.282	81.19
475.501	70.19
475.72	85.19
475.939	89.19
476.158	85.19
476.377	86.19
476.596	70.19
476.814	96.19
477.033	91.19
477.252	84.19
477.471	73.19
477.69	101.19
477.908	82.19
478.127	88.19
478.346	92.19
478.564	92.19
478.783	92.19
479.002	77.19
479.22	98.19
479.439	94.19
479.658	96.19
479.876	93.19
480.095	94.19
480.313	80.19
480.532	81.19
480.751	80.19
480.969	78.19
481.188	85.19
481.406	75.19
481.624	88.19
481.843	76.19
482.061	88.19
482.28	76.19
482.498	108.19
482.717	104.19
482.935	97.19
483.153	96.19
483.372	95.19
483.59	94.19
483.808	103.19
484.027	85.19
484.245	106.19
484.463	100.19
484.681	105.19
484.9	82.19
485.118	102.19
485.336	106.19
485.554	93.19
485.772	108.19
485.99	112.19
486.209	109.19
486.427	96.19
486.645	94.19
486.863	94.19
487.081	95.19
487.299	99.19
487.517	100.19
487.735	84.19
487.953	97.19
488.171	98.19
488.389	101.19
488.607	104.19
488.825	88.19
489.043	90.19
489.261	94.19
489.479	86.19
489.696	94.19
489.914	92.19
490.132	76.19
490.35	86.19
490.568	84.19
490.786	74.19
491.003	89.19
491.221	83.19
491.439	71.19
491.657	81.19
491.874	84.19
492.092	84.19
492.31	78.19
492.527	106.19
492.745	91.19
492.963	86.19
493.18	92.19
493.398	83.19
493.615	99.19
493.833	105.19
494.05	98.19
494.268	96.19
494.485	95.19
494.703	98.19
494.92	79.19
495.138	92.19
495.355	85.19
495.573	85.19
495.79	86.19
496.008	91.19
496.225	101.19
496.442	75.19
496.66	88.19
496.877	95.19
497.094	88.19
497.312	82.19
497.529	68.19
497.746	79.19
497.963	94.19
498.181	85.19
498.398	90.19
498.615	95.19
498.832	91.19
499.049	83.19
499.267	104.19
499.484	88.19
499.701	83.19
499.918	103.19
500.135	87.19
500.352	88.19
500.569	100.19
500.786	96.19
501.003	104.19
501.22	80.19
501.437	97.19
501.654	87.19
501.871	101.19
502.088	92.19
502.305	86.19
502.522	101.19
502.739	97.19
502.956	101.19
503.172	89.19
503.389	95.19
503.606	98.19
503.823	103.19
504.04	81.19
504.256	100.19
504.473	92.19
504.69	84.19
504.907	84.19
505.123	93.19
505.34	88.19
505.557	87.19
505.773	88.19
505.99	85.19
506.207	90.19
506.423	72.19
506.64	97.19
506.856	83.19
507.073	90.19
507.289	92.19
507.506	91.19
507.722	101.19
507.939	119.19
508.155	99.19
508.372	98.19
508.588	101.19
508.805	89.19
509.021	102.19
509.238	113.19
509.454	99.19
509.67	97.19
509.887	115.19
510.103	118.19
510.319	202.19
510.536	705.19
510.752	2097.19
510.968	609.19
511.184	154.19
511.401	111.19
511.617	106.19
511.833	94.19
512.049	91.19
512.265	89.19
512.481	93.19
512.698	94.19
512.914	99.19
513.13	98.19
513.346	100.19
513.562	88.19
513.778	80.19
513.994	90.19
514.21	88.19
514.426	118.19
514.642	132.19
514.858	119.19
515.074	144.19
515.29	398.19
515.506	1292.19
515.721	493.19
515.937	149.19
