Data from Uncirc_2006_H10_HRD10591_00050.txt Node
Date: Wed Jan 03 10:25:05 EST 2024
User: Yrep
Spectrometer: HR+D1059
Trigger mode: 1
Integration Time (sec): 1.000000E-1
Scans to average: 1
Electric dark correction enabled: true
Nonlinearity correction enabled: false
Boxcar width: 0
XAxis mode: Wavelengths
Number of Pixels in Spectrum: 2048
>>>>>Begin Spectral Data<<<<<
223.165	-19.69
223.4	-19.69
223.635	-19.69
223.869	-20.69
224.104	-16.69
224.338	-13.69
224.573	-5.69
224.808	-19.69
225.042	3.31
225.277	-22.69
225.511	6.31
225.746	-3.69
225.98	19.31
226.215	6.31
226.449	16.31
226.683	18.31
226.918	24.31
227.152	28.31
227.387	32.31
227.621	36.31
227.856	37.31
228.09	51.31
228.324	38.31
228.559	45.31
228.793	56.31
229.027	57.31
229.262	70.31
229.496	72.31
229.73	95.31
229.964	73.31
230.199	68.31
230.433	85.31
230.667	79.31
230.901	77.31
231.136	70.31
231.37	78.31
231.604	84.31
231.838	79.31
232.072	71.31
232.306	84.31
232.541	64.31
232.775	92.31
233.009	81.31
233.243	92.31
233.477	80.31
233.711	79.31
233.945	71.31
234.179	78.31
234.413	77.31
234.647	76.31
234.881	81.31
235.115	73.31
235.349	67.31
235.583	83.31
235.817	92.31
236.051	80.31
236.285	75.31
236.519	85.31
236.753	92.31
236.987	76.31
237.221	78.31
237.455	81.31
237.689	72.31
237.922	70.31
238.156	73.31
238.39	70.31
238.624	82.31
238.858	78.31
239.091	69.31
239.325	68.31
239.559	69.31
239.793	69.31
240.027	81.31
240.26	80.31
240.494	81.31
240.728	89.31
240.961	86.31
241.195	86.31
241.429	70.31
241.662	61.31
241.896	84.31
242.13	84.31
242.363	59.31
242.597	66.31
242.83	78.31
243.064	79.31
243.298	80.31
243.531	77.31
243.765	70.31
243.998	83.31
244.232	72.31
244.465	71.31
244.699	81.31
244.932	86.31
245.166	87.31
245.399	68.31
245.633	69.31
245.866	67.31
246.099	84.31
246.333	85.31
246.566	90.31
246.8	74.31
247.033	80.31
247.266	78.31
247.5	87.31
247.733	90.31
247.966	84.31
248.2	85.31
248.433	90.31
248.666	83.31
248.899	70.31
249.133	91.31
249.366	87.31
249.599	92.31
249.832	79.31
250.066	72.31
250.299	86.31
250.532	96.31
250.765	80.31
250.998	86.31
251.231	80.31
251.465	77.31
251.698	84.31
251.931	90.31
252.164	94.31
252.397	80.31
252.63	72.31
252.863	75.31
253.096	92.31
253.329	76.31
253.562	86.31
253.795	84.31
254.028	85.31
254.261	84.31
254.494	82.31
254.727	78.31
254.96	82.31
255.193	80.31
255.426	64.31
255.659	75.31
255.892	73.31
256.124	87.31
256.357	88.31
256.59	85.31
256.823	77.31
257.056	86.31
257.289	76.31
257.521	69.31
257.754	94.31
257.987	86.31
258.22	70.31
258.452	81.31
258.685	80.31
258.918	80.31
259.151	75.31
259.383	79.31
259.616	73.31
259.849	72.31
260.081	80.31
260.314	96.31
260.547	74.31
260.779	78.31
261.012	80.31
261.244	88.31
261.477	91.31
261.71	79.31
261.942	112.31
262.175	112.31
262.407	89.31
262.64	79.31
262.872	67.31
263.105	87.31
263.337	93.31
263.57	87.31
263.802	99.31
264.035	95.31
264.267	105.31
264.499	85.31
264.732	86.31
264.964	87.31
265.197	76.31
265.429	86.31
265.661	92.31
265.894	80.31
266.126	94.31
266.358	82.31
266.591	90.31
266.823	94.31
267.055	82.31
267.287	81.31
267.52	80.31
267.752	78.31
267.984	78.31
268.216	68.31
268.448	86.31
268.681	88.31
268.913	80.31
269.145	87.31
269.377	96.31
269.609	84.31
269.841	96.31
270.073	80.31
270.306	90.31
270.538	99.31
270.77	85.31
271.002	93.31
271.234	91.31
271.466	89.31
271.698	90.31
271.93	87.31
272.162	82.31
272.394	80.31
272.626	84.31
272.858	91.31
273.09	94.31
273.322	82.31
273.553	75.31
273.785	83.31
274.017	74.31
274.249	100.31
274.481	94.31
274.713	91.31
274.945	92.31
275.176	80.31
275.408	72.31
275.64	89.31
275.872	80.31
276.104	94.31
276.335	82.31
276.567	80.31
276.799	99.31
277.031	94.31
277.262	92.31
277.494	91.31
277.726	89.31
277.957	80.31
278.189	81.31
278.421	84.31
278.652	85.31
278.884	86.31
279.115	90.31
279.347	98.31
279.579	69.31
279.81	80.31
280.042	82.31
280.273	81.31
280.505	92.31
280.736	81.31
280.968	96.31
281.199	93.31
281.431	75.31
281.662	98.31
281.894	81.31
282.125	96.31
282.356	84.31
282.588	124.31
282.819	113.31
283.051	104.31
283.282	91.31
283.513	75.31
283.745	85.31
283.976	86.31
284.207	83.31
284.439	91.31
284.67	94.31
284.901	80.31
285.132	78.31
285.364	95.31
285.595	86.31
285.826	88.31
286.057	104.31
286.288	89.31
286.52	97.31
286.751	86.31
286.982	101.31
287.213	80.31
287.444	85.31
287.675	93.31
287.906	90.31
288.138	89.31
288.369	90.31
288.6	95.31
288.831	91.31
289.062	94.31
289.293	89.31
289.524	74.31
289.755	81.31
289.986	72.31
290.217	94.31
290.448	86.31
290.679	88.31
290.91	94.31
291.141	84.31
291.371	86.31
291.602	89.31
291.833	90.31
292.064	91.31
292.295	78.31
292.526	87.31
292.757	93.31
292.987	88.31
293.218	86.31
293.449	77.31
293.68	88.31
293.91	77.31
294.141	94.31
294.372	98.31
294.603	89.31
294.833	89.31
295.064	93.31
295.295	73.31
295.525	86.31
295.756	93.31
295.987	120.31
296.217	133.31
296.448	114.31
296.679	81.31
296.909	94.31
297.14	72.31
297.37	100.31
297.601	72.31
297.831	68.31
298.062	80.31
298.292	91.31
298.523	92.31
298.753	75.31
298.984	94.31
299.214	86.31
299.445	78.31
299.675	103.31
299.905	95.31
300.136	89.31
300.366	98.31
300.597	95.31
300.827	97.31
301.057	97.31
301.288	89.31
301.518	84.31
301.748	83.31
301.979	95.31
302.209	81.31
302.439	80.31
302.669	83.31
302.9	91.31
303.13	82.31
303.36	101.31
303.59	97.31
303.82	102.31
304.051	97.31
304.281	90.31
304.511	99.31
304.741	81.31
304.971	82.31
305.201	94.31
305.431	80.31
305.661	78.31
305.891	92.31
306.121	84.31
306.352	95.31
306.582	93.31
306.812	102.31
307.042	94.31
307.272	64.31
307.502	100.31
307.731	97.31
307.961	69.31
308.191	93.31
308.421	90.31
308.651	91.31
308.881	94.31
309.111	86.31
309.341	110.31
309.571	99.31
309.8	92.31
310.03	96.31
310.26	96.31
310.49	93.31
310.72	93.31
310.949	98.31
311.179	97.31
311.409	83.31
311.639	83.31
311.868	93.31
312.098	92.31
312.328	99.31
312.557	96.31
312.787	100.31
313.017	81.31
313.246	93.31
313.476	82.31
313.706	93.31
313.935	107.31
314.165	99.31
314.394	96.31
314.624	93.31
314.853	83.31
315.083	84.31
315.312	86.31
315.542	78.31
315.771	93.31
316.001	94.31
316.23	85.31
316.46	97.31
316.689	102.31
316.919	100.31
317.148	94.31
317.377	99.31
317.607	90.31
317.836	85.31
318.065	97.31
318.295	81.31
318.524	98.31
318.753	97.31
318.983	88.31
319.212	88.31
319.441	101.31
319.67	103.31
319.9	81.31
320.129	94.31
320.358	100.31
320.587	105.31
320.816	102.31
321.046	96.31
321.275	93.31
321.504	83.31
321.733	91.31
321.962	94.31
322.191	101.31
322.42	83.31
322.649	106.31
322.878	101.31
323.108	121.31
323.337	122.31
323.566	130.31
323.795	153.31
324.024	187.31
324.253	378.31
324.482	812.31
324.71	1636.31
324.939	2172.31
325.168	795.31
325.397	223.31
325.626	146.31
325.855	127.31
326.084	134.31
326.313	135.31
326.542	132.31
326.77	237.31
326.999	449.31
327.228	924.31
327.457	1680.31
327.686	1330.31
327.914	352.31
328.143	174.31
328.372	135.31
328.6	120.31
328.829	119.31
329.058	110.31
329.287	112.31
329.515	104.31
329.744	93.31
329.972	89.31
330.201	103.31
330.43	101.31
330.658	126.31
330.887	123.31
331.115	104.31
331.344	93.31
331.572	94.31
331.801	107.31
332.03	92.31
332.258	99.31
332.486	97.31
332.715	103.31
332.943	106.31
333.172	87.31
333.4	94.31
333.629	124.31
333.857	108.31
334.085	108.31
334.314	89.31
334.542	104.31
334.771	92.31
334.999	96.31
335.227	86.31
335.455	84.31
335.684	97.31
335.912	86.31
336.14	101.31
336.369	78.31
336.597	92.31
336.825	80.31
337.053	108.31
337.281	94.31
337.51	93.31
337.738	94.31
337.966	85.31
338.194	97.31
338.422	91.31
338.65	103.31
338.878	82.31
339.106	77.31
339.334	99.31
339.562	77.31
339.79	84.31
340.018	99.31
340.246	83.31
340.474	91.31
340.702	96.31
340.93	87.31
341.158	88.31
341.386	91.31
341.614	82.31
341.842	92.31
342.07	86.31
342.298	89.31
342.526	85.31
342.754	88.31
342.981	80.31
343.209	86.31
343.437	98.31
343.665	87.31
343.893	80.31
344.12	86.31
344.348	84.31
344.576	92.31
344.804	95.31
345.031	94.31
345.259	98.31
345.487	93.31
345.714	94.31
345.942	92.31
346.17	90.31
346.397	99.31
346.625	73.31
346.853	86.31
347.08	99.31
347.308	76.31
347.535	89.31
347.763	105.31
347.99	102.31
348.218	109.31
348.445	114.31
348.673	81.31
348.9	91.31
349.128	93.31
349.355	104.31
349.583	83.31
349.81	88.31
350.037	92.31
350.265	97.31
350.492	91.31
350.72	84.31
350.947	86.31
351.174	102.31
351.402	100.31
351.629	112.31
351.856	103.31
352.083	94.31
352.311	108.31
352.538	98.31
352.765	96.31
352.992	103.31
353.22	115.31
353.447	108.31
353.674	99.31
353.901	100.31
354.128	89.31
354.355	79.31
354.583	108.31
354.81	107.31
355.037	101.31
355.264	84.31
355.491	90.31
355.718	90.31
355.945	85.31
356.172	83.31
356.399	103.31
356.626	94.31
356.853	81.31
357.08	78.31
357.307	87.31
357.534	86.31
357.761	95.31
357.988	90.31
358.215	87.31
358.441	93.31
358.668	93.31
358.895	92.31
359.122	89.31
359.349	99.31
359.576	83.31
359.802	105.31
360.029	99.31
360.256	109.31
360.483	89.31
360.709	75.31
360.936	82.31
361.163	85.31
361.39	94.31
361.616	89.31
361.843	84.31
362.07	95.31
362.296	85.31
362.523	89.31
362.749	90.31
362.976	103.31
363.203	86.31
363.429	97.31
363.656	81.31
363.882	93.31
364.109	92.31
364.335	92.31
364.562	84.31
364.788	84.31
365.015	94.31
365.241	105.31
365.468	101.31
365.694	101.31
365.92	89.31
366.147	80.31
366.373	89.31
366.599	92.31
366.826	79.31
367.052	88.31
367.278	96.31
367.505	97.31
367.731	100.31
367.957	72.31
368.184	85.31
368.41	94.31
368.636	113.31
368.862	108.31
369.089	109.31
369.315	98.31
369.541	101.31
369.767	97.31
369.993	99.31
370.219	89.31
370.445	96.31
370.672	86.31
370.898	85.31
371.124	77.31
371.35	84.31
371.576	92.31
371.802	88.31
372.028	91.31
372.254	89.31
372.48	99.31
372.706	89.31
372.932	82.31
373.158	91.31
373.384	97.31
373.61	89.31
373.835	98.31
374.061	97.31
374.287	84.31
374.513	77.31
374.739	87.31
374.965	93.31
375.191	93.31
375.416	88.31
375.642	96.31
375.868	93.31
376.094	79.31
376.319	74.31
376.545	106.31
376.771	88.31
376.997	83.31
377.222	92.31
377.448	97.31
377.674	84.31
377.899	94.31
378.125	85.31
378.35	81.31
378.576	93.31
378.802	94.31
379.027	98.31
379.253	89.31
379.478	99.31
379.704	91.31
379.929	102.31
380.155	88.31
380.38	89.31
380.606	86.31
380.831	97.31
381.057	90.31
381.282	94.31
381.507	94.31
381.733	87.31
381.958	85.31
382.184	85.31
382.409	103.31
382.634	97.31
382.86	91.31
383.085	103.31
383.31	113.31
383.535	91.31
383.761	98.31
383.986	88.31
384.211	77.31
384.436	93.31
384.662	88.31
384.887	93.31
385.112	106.31
385.337	105.31
385.562	99.31
385.787	101.31
386.013	96.31
386.238	103.31
386.463	96.31
386.688	102.31
386.913	92.31
387.138	99.31
387.363	94.31
387.588	90.31
387.813	86.31
388.038	106.31
388.263	120.31
388.488	109.31
388.713	94.31
388.938	87.31
389.163	96.31
389.387	90.31
389.612	80.31
389.837	100.31
390.062	85.31
390.287	97.31
390.512	84.31
390.736	102.31
390.961	92.31
391.186	94.31
391.411	99.31
391.636	94.31
391.86	88.31
392.085	84.31
392.31	90.31
392.534	90.31
392.759	78.31
392.984	94.31
393.208	96.31
393.433	87.31
393.658	74.31
393.882	79.31
394.107	78.31
394.331	85.31
394.556	99.31
394.78	98.31
395.005	91.31
395.229	93.31
395.454	84.31
395.678	69.31
395.903	76.31
396.127	83.31
396.352	98.31
396.576	85.31
396.801	83.31
397.025	91.31
397.249	73.31
397.474	86.31
397.698	72.31
397.922	98.31
398.147	87.31
398.371	65.31
398.595	80.31
398.82	68.31
399.044	92.31
399.268	81.31
399.492	84.31
399.717	95.31
399.941	90.31
400.165	81.31
400.389	87.31
400.613	72.31
400.837	85.31
401.062	92.31
401.286	83.31
401.51	92.31
401.734	83.31
401.958	103.31
402.182	114.31
402.406	132.31
402.63	92.31
402.854	81.31
403.078	84.31
403.302	83.31
403.526	82.31
403.75	70.31
403.974	76.31
404.198	91.31
404.422	88.31
404.645	98.31
404.869	91.31
405.093	87.31
405.317	94.31
405.541	107.31
405.765	96.31
405.988	114.31
406.212	161.31
406.436	214.31
406.66	144.31
406.883	100.31
407.107	93.31
407.331	96.31
407.555	94.31
407.778	101.31
408.002	97.31
408.226	91.31
408.449	82.31
408.673	82.31
408.896	93.31
409.12	93.31
409.344	86.31
409.567	82.31
409.791	94.31
410.014	104.31
410.238	98.31
410.461	97.31
410.685	81.31
410.908	82.31
411.132	99.31
411.355	91.31
411.578	89.31
411.802	82.31
412.025	87.31
412.249	91.31
412.472	85.31
412.695	68.31
412.919	91.31
413.142	90.31
413.365	86.31
413.589	92.31
413.812	79.31
414.035	78.31
414.258	96.31
414.482	108.31
414.705	90.31
414.928	87.31
415.151	81.31
415.374	92.31
415.597	88.31
415.821	83.31
416.044	65.31
416.267	91.31
416.49	95.31
416.713	89.31
416.936	89.31
417.159	76.31
417.382	86.31
417.605	92.31
417.828	82.31
418.051	83.31
418.274	77.31
418.497	85.31
418.72	79.31
418.943	57.31
419.166	86.31
419.389	78.31
419.611	84.31
419.834	80.31
420.057	90.31
420.28	81.31
420.503	87.31
420.726	83.31
420.948	78.31
421.171	77.31
421.394	94.31
421.617	82.31
421.839	88.31
422.062	98.31
422.285	81.31
422.507	97.31
422.73	96.31
422.953	94.31
423.175	77.31
423.398	94.31
423.621	86.31
423.843	96.31
424.066	77.31
424.288	78.31
424.511	93.31
424.733	102.31
424.956	100.31
425.178	101.31
425.401	82.31
425.623	100.31
425.846	93.31
426.068	96.31
426.291	91.31
426.513	100.31
426.735	98.31
426.958	101.31
427.18	90.31
427.402	133.31
427.625	148.31
427.847	105.31
428.069	95.31
428.292	97.31
428.514	83.31
428.736	82.31
428.958	76.31
429.181	86.31
429.403	98.31
429.625	77.31
429.847	84.31
430.069	106.31
430.292	87.31
430.514	89.31
430.736	88.31
430.958	81.31
431.18	83.31
431.402	100.31
431.624	85.31
431.846	90.31
432.068	77.31
432.29	82.31
432.512	95.31
432.734	96.31
432.956	82.31
433.178	100.31
433.4	84.31
433.622	77.31
433.844	96.31
434.066	90.31
434.287	108.31
434.509	83.31
434.731	82.31
434.953	82.31
435.175	84.31
435.397	84.31
435.618	85.31
435.84	102.31
436.062	104.31
436.284	106.31
436.505	96.31
436.727	88.31
436.949	94.31
437.17	84.31
437.392	82.31
437.614	112.31
437.835	93.31
438.057	102.31
438.278	104.31
438.5	106.31
438.721	106.31
438.943	91.31
439.165	96.31
439.386	96.31
439.608	80.31
439.829	96.31
440.05	102.31
440.272	136.31
440.493	92.31
440.715	85.31
440.936	85.31
441.158	84.31
441.379	92.31
441.6	97.31
441.822	78.31
442.043	93.31
442.264	88.31
442.486	96.31
442.707	102.31
442.928	101.31
443.149	126.31
443.371	106.31
443.592	99.31
443.813	91.31
444.034	100.31
444.255	89.31
444.476	94.31
444.698	85.31
444.919	71.31
445.14	136.31
445.361	129.31
445.582	108.31
445.803	110.31
446.024	102.31
446.245	142.31
446.466	101.31
446.687	80.31
446.908	81.31
447.129	85.31
447.35	90.31
447.571	79.31
447.792	75.31
448.013	95.31
448.234	96.31
448.455	90.31
448.675	101.31
448.896	104.31
449.117	97.31
449.338	105.31
449.559	124.31
449.779	105.31
450	85.31
450.221	77.31
450.442	89.31
450.662	92.31
450.883	101.31
451.104	99.31
451.324	85.31
451.545	57.31
451.766	93.31
451.986	82.31
452.207	97.31
452.428	75.31
452.648	76.31
452.869	106.31
453.089	99.31
453.31	97.31
453.53	92.31
453.751	95.31
453.971	105.31
454.192	102.31
454.412	77.31
454.633	93.31
454.853	83.31
455.073	92.31
455.294	84.31
455.514	104.31
455.734	74.31
455.955	85.31
456.175	81.31
456.395	80.31
456.616	75.31
456.836	72.31
457.056	80.31
457.276	87.31
457.497	88.31
457.717	82.31
457.937	88.31
458.157	81.31
458.377	84.31
458.598	99.31
458.818	139.31
459.038	152.31
459.258	100.31
459.478	80.31
459.698	86.31
459.918	96.31
460.138	86.31
460.358	101.31
460.578	79.31
460.798	81.31
461.018	70.31
461.238	88.31
461.458	89.31
461.678	73.31
461.898	76.31
462.118	78.31
462.338	89.31
462.558	80.31
462.777	82.31
462.997	89.31
463.217	91.31
463.437	83.31
463.657	86.31
463.876	101.31
464.096	80.31
464.316	92.31
464.536	92.31
464.755	95.31
464.975	93.31
465.195	149.31
465.414	138.31
465.634	90.31
465.854	80.31
466.073	97.31
466.293	77.31
466.512	85.31
466.732	80.31
466.951	73.31
467.171	93.31
467.391	91.31
467.61	86.31
467.829	86.31
468.049	89.31
468.268	77.31
468.488	77.31
468.707	90.31
468.927	71.31
469.146	78.31
469.365	104.31
469.585	85.31
469.804	96.31
470.023	83.31
470.243	93.31
470.462	84.31
470.681	98.31
470.901	84.31
471.12	94.31
471.339	81.31
471.558	69.31
471.777	90.31
471.997	90.31
472.216	91.31
472.435	74.31
472.654	83.31
472.873	85.31
473.092	80.31
473.311	88.31
473.53	93.31
473.749	83.31
473.968	76.31
474.187	90.31
474.406	92.31
474.625	84.31
474.844	93.31
475.063	86.31
475.282	80.31
475.501	89.31
475.72	80.31
475.939	85.31
476.158	101.31
476.377	83.31
476.596	98.31
476.814	101.31
477.033	97.31
477.252	85.31
477.471	86.31
477.69	90.31
477.908	78.31
478.127	97.31
478.346	69.31
478.564	85.31
478.783	95.31
479.002	92.31
479.22	81.31
479.439	94.31
479.658	107.31
479.876	77.31
480.095	76.31
480.313	85.31
480.532	97.31
480.751	84.31
480.969	86.31
481.188	91.31
481.406	91.31
481.624	88.31
481.843	91.31
482.061	68.31
482.28	85.31
482.498	89.31
482.717	85.31
482.935	84.31
483.153	88.31
483.372	92.31
483.59	88.31
483.808	88.31
484.027	79.31
484.245	91.31
484.463	97.31
484.681	89.31
484.9	78.31
485.118	76.31
485.336	96.31
485.554	84.31
485.772	80.31
485.99	90.31
486.209	106.31
486.427	104.31
486.645	94.31
486.863	109.31
487.081	99.31
487.299	74.31
487.517	94.31
487.735	91.31
487.953	98.31
488.171	103.31
488.389	84.31
488.607	100.31
488.825	98.31
489.043	100.31
489.261	74.31
489.479	86.31
489.696	94.31
489.914	94.31
490.132	91.31
490.35	80.31
490.568	86.31
490.786	85.31
491.003	102.31
491.221	88.31
491.439	90.31
491.657	82.31
491.874	93.31
492.092	84.31
492.31	94.31
492.527	99.31
492.745	87.31
492.963	81.31
493.18	92.31
493.398	85.31
493.615	99.31
493.833	91.31
494.05	98.31
494.268	92.31
494.485	107.31
494.703	94.31
494.92	93.31
495.138	87.31
495.355	98.31
495.573	98.31
495.79	99.31
496.008	79.31
496.225	96.31
496.442	103.31
496.66	93.31
496.877	82.31
497.094	89.31
497.312	93.31
497.529	87.31
497.746	93.31
497.963	87.31
498.181	92.31
498.398	89.31
498.615	102.31
498.832	101.31
499.049	85.31
499.267	89.31
499.484	85.31
499.701	93.31
499.918	71.31
500.135	96.31
500.352	80.31
500.569	80.31
500.786	92.31
501.003	98.31
501.22	98.31
501.437	101.31
501.654	86.31
501.871	99.31
502.088	98.31
502.305	96.31
502.522	89.31
502.739	84.31
502.956	100.31
503.172	101.31
503.389	95.31
503.606	94.31
503.823	106.31
504.04	98.31
504.256	83.31
504.473	81.31
504.69	93.31
504.907	102.31
505.123	96.31
505.34	92.31
505.557	98.31
505.773	81.31
505.99	102.31
506.207	104.31
506.423	102.31
506.64	80.31
506.856	87.31
507.073	86.31
507.289	85.31
507.506	114.31
507.722	95.31
507.939	124.31
508.155	96.31
508.372	81.31
508.588	94.31
508.805	112.31
509.021	100.31
509.238	92.31
509.454	92.31
509.67	97.31
509.887	107.31
510.103	139.31
510.319	221.31
510.536	696.31
510.752	2112.31
510.968	604.31
511.184	148.31
511.401	112.31
511.617	97.31
511.833	95.31
512.049	84.31
512.265	82.31
512.481	100.31
512.698	91.31
512.914	101.31
513.13	90.31
513.346	94.31
513.562	100.31
513.778	96.31
513.994	103.31
514.21	105.31
514.426	107.31
514.642	127.31
514.858	123.31
515.074	143.31
515.29	393.31
515.506	1284.31
515.721	495.31
515.937	146.31
516.153	107.31
516.369	100.31
516.585	92.31
516.801	90.31
