Data from Uncirc_2006_H10_HRD10591_00074.txt Node
Date: Wed Jan 03 10:25:09 EST 2024
User: Yrep
Spectrometer: HR+D1059
Trigger mode: 1
Integration Time (sec): 1.000000E-1
Scans to average: 1
Electric dark correction enabled: true
Nonlinearity correction enabled: false
Boxcar width: 0
XAxis mode: Wavelengths
Number of Pixels in Spectrum: 2048
>>>>>Begin Spectral Data<<<<<
223.165	-30.06
223.4	-30.06
223.635	-30.06
223.869	-29.06
224.104	-17.06
224.338	-11.06
224.573	-7.06
224.808	-8.06
225.042	6.94
225.277	-13.06
225.511	3.94
225.746	3.94
225.98	-1.06
226.215	2.94
226.449	16.94
226.683	26.94
226.918	15.94
227.152	38.94
227.387	25.94
227.621	43.94
227.856	47.94
228.09	29.94
228.324	44.94
228.559	47.94
228.793	47.94
229.027	52.94
229.262	55.94
229.496	79.94
229.73	83.94
229.964	70.94
230.199	67.94
230.433	59.94
230.667	74.94
230.901	83.94
231.136	71.94
231.37	63.94
231.604	80.94
231.838	85.94
232.072	83.94
232.306	79.94
232.541	75.94
232.775	66.94
233.009	85.94
233.243	69.94
233.477	89.94
233.711	75.94
233.945	72.94
234.179	85.94
234.413	74.94
234.647	79.94
234.881	65.94
235.115	69.94
235.349	66.94
235.583	93.94
235.817	89.94
236.051	78.94
236.285	67.94
236.519	78.94
236.753	80.94
236.987	92.94
237.221	93.94
237.455	68.94
237.689	89.94
237.922	70.94
238.156	65.94
238.39	77.94
238.624	75.94
238.858	78.94
239.091	72.94
239.325	79.94
239.559	74.94
239.793	68.94
240.027	73.94
240.26	58.94
240.494	76.94
240.728	67.94
240.961	62.94
241.195	57.94
241.429	70.94
241.662	81.94
241.896	67.94
242.13	67.94
242.363	76.94
242.597	76.94
242.83	83.94
243.064	63.94
243.298	74.94
243.531	81.94
243.765	72.94
243.998	72.94
244.232	91.94
244.465	74.94
244.699	69.94
244.932	77.94
245.166	72.94
245.399	76.94
245.633	84.94
245.866	76.94
246.099	81.94
246.333	75.94
246.566	82.94
246.8	79.94
247.033	68.94
247.266	64.94
247.5	81.94
247.733	69.94
247.966	81.94
248.2	79.94
248.433	68.94
248.666	77.94
248.899	74.94
249.133	81.94
249.366	96.94
249.599	101.94
249.832	92.94
250.066	74.94
250.299	59.94
250.532	87.94
250.765	71.94
250.998	85.94
251.231	82.94
251.465	80.94
251.698	66.94
251.931	83.94
252.164	88.94
252.397	69.94
252.63	75.94
252.863	76.94
253.096	85.94
253.329	64.94
253.562	71.94
253.795	77.94
254.028	76.94
254.261	59.94
254.494	72.94
254.727	85.94
254.96	76.94
255.193	82.94
255.426	84.94
255.659	63.94
255.892	77.94
256.124	74.94
256.357	81.94
256.59	84.94
256.823	72.94
257.056	91.94
257.289	87.94
257.521	83.94
257.754	80.94
257.987	93.94
258.22	76.94
258.452	89.94
258.685	83.94
258.918	74.94
259.151	86.94
259.383	86.94
259.616	81.94
259.849	77.94
260.081	72.94
260.314	77.94
260.547	74.94
260.779	81.94
261.012	88.94
261.244	76.94
261.477	82.94
261.71	85.94
261.942	101.94
262.175	96.94
262.407	77.94
262.64	85.94
262.872	76.94
263.105	85.94
263.337	89.94
263.57	92.94
263.802	68.94
264.035	92.94
264.267	71.94
264.499	71.94
264.732	71.94
264.964	89.94
265.197	75.94
265.429	69.94
265.661	80.94
265.894	82.94
266.126	90.94
266.358	89.94
266.591	77.94
266.823	80.94
267.055	87.94
267.287	91.94
267.52	80.94
267.752	79.94
267.984	74.94
268.216	79.94
268.448	91.94
268.681	79.94
268.913	71.94
269.145	75.94
269.377	76.94
269.609	72.94
269.841	76.94
270.073	81.94
270.306	87.94
270.538	85.94
270.77	71.94
271.002	79.94
271.234	83.94
271.466	91.94
271.698	65.94
271.93	83.94
272.162	71.94
272.394	74.94
272.626	74.94
272.858	77.94
273.09	102.94
273.322	81.94
273.553	75.94
273.785	83.94
274.017	79.94
274.249	96.94
274.481	88.94
274.713	90.94
274.945	91.94
275.176	76.94
275.408	80.94
275.64	99.94
275.872	78.94
276.104	83.94
276.335	94.94
276.567	92.94
276.799	93.94
277.031	98.94
277.262	84.94
277.494	104.94
277.726	86.94
277.957	82.94
278.189	82.94
278.421	75.94
278.652	85.94
278.884	77.94
279.115	79.94
279.347	95.94
279.579	73.94
279.81	73.94
280.042	67.94
280.273	93.94
280.505	98.94
280.736	74.94
280.968	91.94
281.199	68.94
281.431	76.94
281.662	74.94
281.894	89.94
282.125	92.94
282.356	99.94
282.588	118.94
282.819	99.94
283.051	80.94
283.282	86.94
283.513	85.94
283.745	74.94
283.976	81.94
284.207	70.94
284.439	76.94
284.67	88.94
284.901	89.94
285.132	88.94
285.364	71.94
285.595	80.94
285.826	79.94
286.057	100.94
286.288	89.94
286.52	85.94
286.751	76.94
286.982	79.94
287.213	82.94
287.444	88.94
287.675	96.94
287.906	80.94
288.138	72.94
288.369	80.94
288.6	83.94
288.831	89.94
289.062	85.94
289.293	85.94
289.524	77.94
289.755	82.94
289.986	87.94
290.217	94.94
290.448	87.94
290.679	84.94
290.91	84.94
291.141	86.94
291.371	74.94
291.602	91.94
291.833	91.94
292.064	88.94
292.295	80.94
292.526	84.94
292.757	77.94
292.987	85.94
293.218	90.94
293.449	75.94
293.68	78.94
293.91	96.94
294.141	84.94
294.372	77.94
294.603	83.94
294.833	87.94
295.064	85.94
295.295	86.94
295.525	88.94
295.756	94.94
295.987	116.94
296.217	127.94
296.448	121.94
296.679	98.94
296.909	84.94
297.14	82.94
297.37	95.94
297.601	84.94
297.831	78.94
298.062	83.94
298.292	97.94
298.523	91.94
298.753	73.94
298.984	80.94
299.214	104.94
299.445	88.94
299.675	86.94
299.905	99.94
300.136	101.94
300.366	89.94
300.597	93.94
300.827	101.94
301.057	85.94
301.288	91.94
301.518	94.94
301.748	94.94
301.979	103.94
302.209	72.94
302.439	91.94
302.669	93.94
302.9	78.94
303.13	84.94
303.36	99.94
303.59	91.94
303.82	84.94
304.051	97.94
304.281	90.94
304.511	80.94
304.741	82.94
304.971	88.94
305.201	77.94
305.431	69.94
305.661	103.94
305.891	92.94
306.121	103.94
306.352	90.94
306.582	98.94
306.812	81.94
307.042	98.94
307.272	84.94
307.502	92.94
307.731	69.94
307.961	93.94
308.191	96.94
308.421	80.94
308.651	82.94
308.881	92.94
309.111	97.94
309.341	89.94
309.571	94.94
309.8	79.94
310.03	87.94
310.26	91.94
310.49	94.94
310.72	74.94
310.949	97.94
311.179	83.94
311.409	86.94
311.639	90.94
311.868	91.94
312.098	86.94
312.328	90.94
312.557	103.94
312.787	87.94
313.017	104.94
313.246	78.94
313.476	83.94
313.706	91.94
313.935	97.94
314.165	94.94
314.394	95.94
314.624	92.94
314.853	100.94
315.083	107.94
315.312	89.94
315.542	106.94
315.771	88.94
316.001	89.94
316.23	78.94
316.46	85.94
316.689	91.94
316.919	90.94
317.148	101.94
317.377	95.94
317.607	99.94
317.836	96.94
318.065	92.94
318.295	92.94
318.524	92.94
318.753	91.94
318.983	95.94
319.212	94.94
319.441	104.94
319.67	106.94
319.9	100.94
320.129	94.94
320.358	79.94
320.587	76.94
320.816	95.94
321.046	101.94
321.275	100.94
321.504	94.94
321.733	99.94
321.962	108.94
322.191	104.94
322.42	106.94
322.649	111.94
322.878	113.94
323.108	101.94
323.337	123.94
323.566	138.94
323.795	149.94
324.024	190.94
324.253	403.94
324.482	829.94
324.71	1726.94
324.939	2299.94
325.168	821.94
325.397	255.94
325.626	162.94
325.855	117.94
326.084	122.94
326.313	131.94
326.542	143.94
326.77	232.94
326.999	482.94
327.228	1002.94
327.457	1787.94
327.686	1403.94
327.914	380.94
328.143	183.94
328.372	135.94
328.6	116.94
328.829	106.94
329.058	116.94
329.287	111.94
329.515	92.94
329.744	106.94
329.972	96.94
330.201	81.94
330.43	97.94
330.658	97.94
330.887	132.94
331.115	132.94
331.344	88.94
331.572	92.94
331.801	108.94
332.03	107.94
332.258	91.94
332.486	84.94
332.715	96.94
332.943	82.94
333.172	80.94
333.4	91.94
333.629	97.94
333.857	99.94
334.085	103.94
334.314	104.94
334.542	88.94
334.771	90.94
334.999	101.94
335.227	88.94
335.455	101.94
335.684	94.94
335.912	80.94
336.14	107.94
336.369	85.94
336.597	89.94
336.825	90.94
337.053	91.94
337.281	89.94
337.51	93.94
337.738	91.94
337.966	73.94
338.194	85.94
338.422	96.94
338.65	86.94
338.878	76.94
339.106	103.94
339.334	88.94
339.562	88.94
339.79	86.94
340.018	98.94
340.246	92.94
340.474	92.94
340.702	83.94
340.93	90.94
341.158	98.94
341.386	85.94
341.614	87.94
341.842	88.94
342.07	91.94
342.298	98.94
342.526	85.94
342.754	92.94
342.981	85.94
343.209	91.94
343.437	91.94
343.665	81.94
343.893	83.94
344.12	86.94
344.348	89.94
344.576	106.94
344.804	90.94
345.031	78.94
345.259	104.94
345.487	98.94
345.714	81.94
345.942	104.94
346.17	85.94
346.397	82.94
346.625	91.94
346.853	87.94
347.08	89.94
347.308	98.94
347.535	95.94
347.763	92.94
347.99	93.94
348.218	103.94
348.445	97.94
348.673	90.94
348.9	87.94
349.128	94.94
349.355	81.94
349.583	97.94
349.81	87.94
350.037	96.94
350.265	91.94
350.492	90.94
350.72	96.94
350.947	103.94
351.174	115.94
351.402	90.94
351.629	97.94
351.856	99.94
352.083	91.94
352.311	107.94
352.538	106.94
352.765	94.94
352.992	112.94
353.22	101.94
353.447	106.94
353.674	100.94
353.901	92.94
354.128	92.94
354.355	87.94
354.583	85.94
354.81	86.94
355.037	96.94
355.264	95.94
355.491	84.94
355.718	79.94
355.945	83.94
356.172	78.94
356.399	86.94
356.626	87.94
356.853	87.94
357.08	67.94
357.307	83.94
357.534	84.94
357.761	84.94
357.988	88.94
358.215	100.94
358.441	97.94
358.668	90.94
358.895	93.94
359.122	76.94
359.349	91.94
359.576	82.94
359.802	100.94
360.029	104.94
360.256	94.94
360.483	94.94
360.709	87.94
360.936	77.94
361.163	92.94
361.39	90.94
361.616	81.94
361.843	95.94
362.07	87.94
362.296	92.94
362.523	89.94
362.749	74.94
362.976	94.94
363.203	96.94
363.429	76.94
363.656	90.94
363.882	72.94
364.109	88.94
364.335	93.94
364.562	89.94
364.788	84.94
365.015	81.94
365.241	95.94
365.468	114.94
365.694	93.94
365.92	102.94
366.147	89.94
366.373	88.94
366.599	95.94
366.826	89.94
367.052	78.94
367.278	85.94
367.505	96.94
367.731	83.94
367.957	85.94
368.184	87.94
368.41	87.94
368.636	97.94
368.862	121.94
369.089	96.94
369.315	85.94
369.541	89.94
369.767	84.94
369.993	95.94
370.219	94.94
370.445	81.94
370.672	83.94
370.898	83.94
371.124	95.94
371.35	83.94
371.576	85.94
371.802	90.94
372.028	86.94
372.254	84.94
372.48	100.94
372.706	101.94
372.932	92.94
373.158	89.94
373.384	90.94
373.61	97.94
373.835	88.94
374.061	102.94
374.287	94.94
374.513	85.94
374.739	98.94
374.965	87.94
375.191	79.94
375.416	81.94
375.642	83.94
375.868	86.94
376.094	82.94
376.319	73.94
376.545	98.94
376.771	87.94
376.997	100.94
377.222	94.94
377.448	87.94
377.674	85.94
377.899	81.94
378.125	88.94
378.35	93.94
378.576	90.94
378.802	79.94
379.027	86.94
379.253	95.94
379.478	84.94
379.704	87.94
379.929	109.94
380.155	89.94
380.38	91.94
380.606	85.94
380.831	96.94
381.057	79.94
381.282	80.94
381.507	98.94
381.733	95.94
381.958	88.94
382.184	80.94
382.409	89.94
382.634	94.94
382.86	81.94
383.085	88.94
383.31	94.94
383.535	98.94
383.761	108.94
383.986	102.94
384.211	95.94
384.436	84.94
384.662	101.94
384.887	102.94
385.112	88.94
385.337	98.94
385.562	100.94
385.787	114.94
386.013	106.94
386.238	104.94
386.463	105.94
386.688	89.94
386.913	82.94
387.138	99.94
387.363	113.94
387.588	120.94
387.813	102.94
388.038	106.94
388.263	115.94
388.488	112.94
388.713	93.94
388.938	91.94
389.163	88.94
389.387	100.94
389.612	88.94
389.837	97.94
390.062	91.94
390.287	103.94
390.512	81.94
390.736	92.94
390.961	97.94
391.186	96.94
391.411	85.94
391.636	94.94
391.86	87.94
392.085	78.94
392.31	96.94
392.534	82.94
392.759	78.94
392.984	80.94
393.208	81.94
393.433	90.94
393.658	79.94
393.882	83.94
394.107	85.94
394.331	77.94
394.556	79.94
394.78	79.94
395.005	76.94
395.229	85.94
395.454	91.94
395.678	82.94
395.903	78.94
396.127	85.94
396.352	89.94
396.576	93.94
396.801	85.94
397.025	88.94
397.249	84.94
397.474	76.94
397.698	88.94
397.922	95.94
398.147	101.94
398.371	70.94
398.595	87.94
398.82	80.94
399.044	78.94
399.268	94.94
399.492	81.94
399.717	91.94
399.941	79.94
400.165	87.94
400.389	89.94
400.613	79.94
400.837	87.94
401.062	87.94
401.286	96.94
401.51	89.94
401.734	84.94
401.958	90.94
402.182	109.94
402.406	151.94
402.63	124.94
402.854	100.94
403.078	68.94
403.302	77.94
403.526	94.94
403.75	101.94
403.974	89.94
404.198	94.94
404.422	73.94
404.645	79.94
404.869	80.94
405.093	82.94
405.317	98.94
405.541	89.94
405.765	84.94
405.988	105.94
406.212	152.94
406.436	211.94
406.66	125.94
406.883	100.94
407.107	66.94
407.331	89.94
407.555	99.94
407.778	93.94
408.002	86.94
408.226	84.94
408.449	89.94
408.673	93.94
408.896	89.94
409.12	92.94
409.344	84.94
409.567	92.94
409.791	100.94
410.014	99.94
410.238	95.94
410.461	93.94
410.685	96.94
410.908	87.94
411.132	82.94
411.355	87.94
411.578	79.94
411.802	73.94
412.025	80.94
412.249	81.94
412.472	88.94
412.695	73.94
412.919	80.94
413.142	73.94
413.365	88.94
413.589	104.94
413.812	84.94
414.035	77.94
414.258	97.94
414.482	89.94
414.705	94.94
414.928	88.94
415.151	89.94
415.374	92.94
415.597	93.94
415.821	76.94
416.044	88.94
416.267	95.94
416.49	88.94
416.713	91.94
416.936	98.94
417.159	82.94
417.382	84.94
417.605	82.94
417.828	95.94
418.051	79.94
418.274	91.94
418.497	77.94
418.72	90.94
418.943	82.94
419.166	97.94
419.389	85.94
419.611	92.94
419.834	80.94
420.057	89.94
420.28	77.94
420.503	84.94
420.726	92.94
420.948	92.94
421.171	76.94
421.394	79.94
421.617	75.94
421.839	83.94
422.062	81.94
422.285	107.94
422.507	89.94
422.73	103.94
422.953	90.94
423.175	89.94
423.398	82.94
423.621	95.94
423.843	69.94
424.066	91.94
424.288	82.94
424.511	103.94
424.733	94.94
424.956	107.94
425.178	109.94
425.401	108.94
425.623	92.94
425.846	95.94
426.068	97.94
426.291	82.94
426.513	97.94
426.735	79.94
426.958	92.94
427.18	103.94
427.402	124.94
427.625	134.94
427.847	115.94
428.069	93.94
428.292	84.94
428.514	82.94
428.736	92.94
428.958	80.94
429.181	82.94
429.403	90.94
429.625	88.94
429.847	102.94
430.069	85.94
430.292	97.94
430.514	85.94
430.736	77.94
430.958	76.94
431.18	70.94
431.402	76.94
431.624	79.94
431.846	92.94
432.068	74.94
432.29	79.94
432.512	93.94
432.734	74.94
432.956	85.94
433.178	107.94
433.4	85.94
433.622	85.94
433.844	89.94
434.066	81.94
434.287	94.94
434.509	77.94
434.731	80.94
434.953	79.94
435.175	84.94
435.397	83.94
435.618	72.94
435.84	99.94
436.062	114.94
436.284	127.94
436.505	101.94
436.727	98.94
436.949	81.94
437.17	87.94
437.392	71.94
437.614	81.94
437.835	107.94
438.057	100.94
438.278	100.94
438.5	104.94
438.721	104.94
438.943	98.94
439.165	90.94
439.386	86.94
439.608	85.94
439.829	80.94
440.05	102.94
440.272	126.94
440.493	90.94
440.715	80.94
440.936	67.94
441.158	82.94
441.379	88.94
441.6	92.94
441.822	77.94
442.043	74.94
442.264	100.94
442.486	91.94
442.707	88.94
442.928	92.94
443.149	121.94
443.371	129.94
443.592	103.94
443.813	106.94
444.034	99.94
444.255	75.94
444.476	78.94
444.698	75.94
444.919	78.94
445.14	133.94
445.361	128.94
445.582	89.94
445.803	121.94
446.024	135.94
446.245	112.94
446.466	105.94
446.687	81.94
446.908	85.94
447.129	77.94
447.35	87.94
447.571	86.94
447.792	95.94
448.013	99.94
448.234	101.94
448.455	96.94
448.675	113.94
448.896	124.94
449.117	99.94
449.338	99.94
449.559	121.94
449.779	129.94
450	102.94
450.221	81.94
450.442	84.94
450.662	83.94
450.883	98.94
451.104	94.94
451.324	97.94
451.545	81.94
451.766	91.94
451.986	80.94
452.207	84.94
452.428	99.94
452.648	94.94
452.869	102.94
453.089	104.94
453.31	104.94
453.53	76.94
453.751	85.94
453.971	99.94
454.192	99.94
454.412	85.94
454.633	92.94
454.853	84.94
455.073	89.94
455.294	92.94
455.514	90.94
455.734	78.94
455.955	76.94
456.175	66.94
456.395	82.94
456.616	78.94
456.836	76.94
457.056	71.94
457.276	87.94
457.497	76.94
457.717	91.94
457.937	78.94
458.157	87.94
458.377	87.94
458.598	97.94
458.818	140.94
459.038	149.94
459.258	106.94
459.478	89.94
459.698	80.94
459.918	89.94
460.138	77.94
460.358	77.94
460.578	89.94
460.798	83.94
461.018	95.94
461.238	80.94
461.458	89.94
461.678	84.94
461.898	81.94
462.118	73.94
462.338	81.94
462.558	78.94
462.777	86.94
462.997	88.94
463.217	82.94
463.437	84.94
463.657	74.94
463.876	82.94
464.096	78.94
464.316	85.94
464.536	88.94
464.755	80.94
464.975	111.94
465.195	150.94
465.414	137.94
465.634	93.94
465.854	83.94
466.073	94.94
466.293	76.94
466.512	80.94
466.732	85.94
466.951	84.94
467.171	92.94
467.391	88.94
467.61	81.94
467.829	84.94
468.049	94.94
468.268	78.94
468.488	87.94
468.707	86.94
468.927	80.94
469.146	83.94
469.365	73.94
469.585	80.94
469.804	89.94
470.023	92.94
470.243	87.94
470.462	97.94
470.681	123.94
470.901	89.94
471.12	89.94
471.339	86.94
471.558	85.94
471.777	92.94
471.997	91.94
472.216	88.94
472.435	84.94
472.654	81.94
472.873	98.94
473.092	62.94
473.311	86.94
473.53	78.94
473.749	89.94
473.968	99.94
474.187	94.94
474.406	107.94
474.625	82.94
474.844	83.94
475.063	81.94
475.282	90.94
475.501	79.94
475.72	85.94
475.939	71.94
476.158	90.94
476.377	75.94
476.596	80.94
476.814	91.94
477.033	100.94
477.252	88.94
477.471	82.94
477.69	90.94
477.908	101.94
478.127	71.94
478.346	75.94
478.564	85.94
478.783	96.94
479.002	83.94
479.22	95.94
479.439	93.94
479.658	99.94
479.876	87.94
480.095	105.94
480.313	85.94
480.532	90.94
480.751	92.94
480.969	79.94
481.188	95.94
481.406	85.94
481.624	92.94
481.843	83.94
482.061	95.94
482.28	74.94
482.498	87.94
482.717	81.94
482.935	90.94
483.153	98.94
483.372	91.94
483.59	76.94
483.808	73.94
484.027	81.94
484.245	91.94
484.463	97.94
484.681	93.94
484.9	82.94
485.118	89.94
485.336	90.94
485.554	89.94
485.772	91.94
485.99	83.94
486.209	91.94
486.427	93.94
486.645	95.94
486.863	93.94
487.081	95.94
487.299	89.94
487.517	91.94
487.735	86.94
487.953	89.94
488.171	100.94
488.389	83.94
488.607	100.94
488.825	99.94
489.043	80.94
489.261	91.94
489.479	83.94
489.696	79.94
489.914	81.94
490.132	89.94
490.35	89.94
490.568	79.94
490.786	94.94
491.003	77.94
491.221	75.94
491.439	85.94
491.657	93.94
491.874	90.94
492.092	83.94
492.31	91.94
492.527	70.94
492.745	96.94
492.963	113.94
493.18	77.94
493.398	84.94
493.615	99.94
493.833	94.94
494.05	105.94
494.268	93.94
494.485	92.94
494.703	88.94
494.92	76.94
495.138	89.94
495.355	80.94
495.573	87.94
495.79	77.94
496.008	96.94
496.225	73.94
496.442	66.94
496.66	92.94
496.877	90.94
497.094	104.94
497.312	97.94
497.529	81.94
497.746	67.94
497.963	84.94
498.181	82.94
498.398	72.94
498.615	94.94
498.832	112.94
499.049	93.94
499.267	79.94
499.484	92.94
499.701	92.94
499.918	72.94
500.135	87.94
500.352	90.94
500.569	87.94
500.786	97.94
501.003	83.94
501.22	84.94
501.437	89.94
501.654	85.94
501.871	107.94
502.088	81.94
502.305	76.94
502.522	78.94
502.739	88.94
502.956	87.94
503.172	87.94
503.389	86.94
503.606	106.94
503.823	84.94
504.04	83.94
504.256	90.94
504.473	86.94
504.69	82.94
504.907	98.94
505.123	72.94
505.34	101.94
505.557	93.94
505.773	88.94
505.99	96.94
506.207	80.94
506.423	91.94
506.64	100.94
506.856	101.94
507.073	83.94
507.289	100.94
507.506	94.94
507.722	101.94
507.939	99.94
508.155	104.94
508.372	98.94
508.588	84.94
508.805	92.94
509.021	90.94
509.238	101.94
509.454	94.94
509.67	85.94
509.887	97.94
510.103	129.94
510.319	212.94
510.536	736.94
510.752	2239.94
510.968	641.94
511.184	143.94
511.401	108.94
511.617	89.94
511.833	83.94
512.049	91.94
512.265	89.94
512.481	93.94
512.698	90.94
512.914	93.94
513.13	95.94
513.346	95.94
513.562	96.94
513.778	84.94
513.994	95.94
514.21	97.94
514.426	105.94
514.642	115.94
514.858	125.94
515.074	144.94
515.29	426.94
515.506	1363.94
515.721	527.94
515.937	155.94
516.153	109.94
516.369	98.94
516.585	86.94
516.801	99.94
517.016	79.94
517.232	88.94
