Data from Uncirc_2006_H10_HRD10591_00087.txt Node
Date: Wed Jan 03 10:25:12 EST 2024
User: Yrep
Spectrometer: HR+D1059
Trigger mode: 1
Integration Time (sec): 1.000000E-1
Scans to average: 1
Electric dark correction enabled: true
Nonlinearity correction enabled: false
Boxcar width: 0
XAxis mode: Wavelengths
Number of Pixels in Spectrum: 2048
>>>>>Begin Spectral Data<<<<<
223.165	-2.75
223.4	-2.75
223.635	-2.75
223.869	-17.75
224.104	-23.75
224.338	-11.75
224.573	-5.75
224.808	-28.75
225.042	-8.75
225.277	-0.75
225.511	2.25
225.746	3.25
225.98	2.25
226.215	4.25
226.449	4.25
226.683	17.25
226.918	31.25
227.152	35.25
227.387	23.25
227.621	44.25
227.856	32.25
228.09	41.25
228.324	42.25
228.559	47.25
228.793	50.25
229.027	71.25
229.262	53.25
229.496	68.25
229.73	73.25
229.964	67.25
230.199	64.25
230.433	70.25
230.667	92.25
230.901	75.25
231.136	84.25
231.37	83.25
231.604	77.25
231.838	74.25
232.072	65.25
232.306	65.25
232.541	60.25
232.775	85.25
233.009	95.25
233.243	68.25
233.477	65.25
233.711	90.25
233.945	77.25
234.179	85.25
234.413	73.25
234.647	69.25
234.881	71.25
235.115	71.25
235.349	79.25
235.583	75.25
235.817	77.25
236.051	61.25
236.285	68.25
236.519	65.25
236.753	67.25
236.987	79.25
237.221	75.25
237.455	85.25
237.689	82.25
237.922	83.25
238.156	69.25
238.39	79.25
238.624	66.25
238.858	69.25
239.091	88.25
239.325	91.25
239.559	84.25
239.793	76.25
240.027	80.25
240.26	90.25
240.494	74.25
240.728	73.25
240.961	78.25
241.195	74.25
241.429	63.25
241.662	78.25
241.896	78.25
242.13	76.25
242.363	65.25
242.597	78.25
242.83	88.25
243.064	79.25
243.298	59.25
243.531	84.25
243.765	84.25
243.998	72.25
244.232	82.25
244.465	80.25
244.699	88.25
244.932	80.25
245.166	68.25
245.399	85.25
245.633	63.25
245.866	80.25
246.099	72.25
246.333	63.25
246.566	76.25
246.8	75.25
247.033	71.25
247.266	67.25
247.5	65.25
247.733	75.25
247.966	93.25
248.2	91.25
248.433	78.25
248.666	93.25
248.899	77.25
249.133	85.25
249.366	83.25
249.599	89.25
249.832	77.25
250.066	81.25
250.299	80.25
250.532	78.25
250.765	78.25
250.998	79.25
251.231	63.25
251.465	85.25
251.698	72.25
251.931	64.25
252.164	66.25
252.397	73.25
252.63	71.25
252.863	85.25
253.096	84.25
253.329	84.25
253.562	77.25
253.795	78.25
254.028	84.25
254.261	85.25
254.494	75.25
254.727	90.25
254.96	97.25
255.193	82.25
255.426	83.25
255.659	91.25
255.892	99.25
256.124	81.25
256.357	62.25
256.59	87.25
256.823	69.25
257.056	92.25
257.289	79.25
257.521	68.25
257.754	82.25
257.987	91.25
258.22	81.25
258.452	83.25
258.685	85.25
258.918	91.25
259.151	91.25
259.383	83.25
259.616	83.25
259.849	95.25
260.081	76.25
260.314	89.25
260.547	79.25
260.779	70.25
261.012	85.25
261.244	83.25
261.477	72.25
261.71	100.25
261.942	101.25
262.175	113.25
262.407	78.25
262.64	67.25
262.872	92.25
263.105	80.25
263.337	72.25
263.57	73.25
263.802	77.25
264.035	82.25
264.267	81.25
264.499	73.25
264.732	75.25
264.964	77.25
265.197	83.25
265.429	85.25
265.661	87.25
265.894	81.25
266.126	56.25
266.358	76.25
266.591	78.25
266.823	85.25
267.055	75.25
267.287	76.25
267.52	78.25
267.752	82.25
267.984	85.25
268.216	62.25
268.448	83.25
268.681	91.25
268.913	89.25
269.145	72.25
269.377	76.25
269.609	85.25
269.841	77.25
270.073	76.25
270.306	76.25
270.538	76.25
270.77	91.25
271.002	85.25
271.234	77.25
271.466	91.25
271.698	85.25
271.93	87.25
272.162	89.25
272.394	97.25
272.626	89.25
272.858	83.25
273.09	94.25
273.322	80.25
273.553	81.25
273.785	86.25
274.017	71.25
274.249	89.25
274.481	76.25
274.713	73.25
274.945	92.25
275.176	82.25
275.408	84.25
275.64	77.25
275.872	93.25
276.104	84.25
276.335	93.25
276.567	104.25
276.799	100.25
277.031	81.25
277.262	89.25
277.494	74.25
277.726	84.25
277.957	88.25
278.189	103.25
278.421	82.25
278.652	84.25
278.884	85.25
279.115	80.25
279.347	82.25
279.579	95.25
279.81	72.25
280.042	99.25
280.273	79.25
280.505	81.25
280.736	97.25
280.968	82.25
281.199	82.25
281.431	87.25
281.662	73.25
281.894	80.25
282.125	81.25
282.356	103.25
282.588	133.25
282.819	100.25
283.051	83.25
283.282	77.25
283.513	80.25
283.745	87.25
283.976	85.25
284.207	97.25
284.439	96.25
284.67	86.25
284.901	80.25
285.132	87.25
285.364	82.25
285.595	72.25
285.826	79.25
286.057	78.25
286.288	89.25
286.52	93.25
286.751	83.25
286.982	79.25
287.213	91.25
287.444	84.25
287.675	80.25
287.906	77.25
288.138	90.25
288.369	79.25
288.6	86.25
288.831	76.25
289.062	84.25
289.293	97.25
289.524	73.25
289.755	92.25
289.986	75.25
290.217	91.25
290.448	77.25
290.679	81.25
290.91	80.25
291.141	92.25
291.371	79.25
291.602	71.25
291.833	93.25
292.064	77.25
292.295	90.25
292.526	67.25
292.757	93.25
292.987	87.25
293.218	104.25
293.449	88.25
293.68	79.25
293.91	83.25
294.141	85.25
294.372	80.25
294.603	82.25
294.833	79.25
295.064	68.25
295.295	83.25
295.525	88.25
295.756	94.25
295.987	104.25
296.217	110.25
296.448	97.25
296.679	80.25
296.909	85.25
297.14	85.25
297.37	78.25
297.601	81.25
297.831	80.25
298.062	74.25
298.292	85.25
298.523	71.25
298.753	68.25
298.984	66.25
299.214	84.25
299.445	91.25
299.675	90.25
299.905	91.25
300.136	89.25
300.366	89.25
300.597	96.25
300.827	84.25
301.057	92.25
301.288	86.25
301.518	82.25
301.748	80.25
301.979	89.25
302.209	88.25
302.439	90.25
302.669	96.25
302.9	87.25
303.13	101.25
303.36	92.25
303.59	81.25
303.82	101.25
304.051	96.25
304.281	76.25
304.511	98.25
304.741	78.25
304.971	78.25
305.201	95.25
305.431	95.25
305.661	96.25
305.891	73.25
306.121	87.25
306.352	92.25
306.582	83.25
306.812	81.25
307.042	88.25
307.272	89.25
307.502	80.25
307.731	91.25
307.961	81.25
308.191	89.25
308.421	106.25
308.651	88.25
308.881	93.25
309.111	93.25
309.341	91.25
309.571	88.25
309.8	74.25
310.03	94.25
310.26	72.25
310.49	95.25
310.72	108.25
310.949	101.25
311.179	99.25
311.409	86.25
311.639	78.25
311.868	87.25
312.098	98.25
312.328	79.25
312.557	98.25
312.787	94.25
313.017	82.25
313.246	101.25
313.476	78.25
313.706	98.25
313.935	86.25
314.165	98.25
314.394	103.25
314.624	92.25
314.853	95.25
315.083	101.25
315.312	82.25
315.542	72.25
315.771	90.25
316.001	98.25
316.23	73.25
316.46	91.25
316.689	85.25
316.919	99.25
317.148	73.25
317.377	78.25
317.607	80.25
317.836	85.25
318.065	90.25
318.295	94.25
318.524	82.25
318.753	87.25
318.983	84.25
319.212	92.25
319.441	88.25
319.67	103.25
319.9	100.25
320.129	72.25
320.358	88.25
320.587	92.25
320.816	103.25
321.046	96.25
321.275	85.25
321.504	93.25
321.733	78.25
321.962	89.25
322.191	84.25
322.42	97.25
322.649	94.25
322.878	101.25
323.108	103.25
323.337	119.25
323.566	135.25
323.795	151.25
324.024	208.25
324.253	377.25
324.482	787.25
324.71	1582.25
324.939	2087.25
325.168	739.25
325.397	235.25
325.626	145.25
325.855	125.25
326.084	108.25
326.313	120.25
326.542	158.25
326.77	239.25
326.999	459.25
327.228	908.25
327.457	1644.25
327.686	1292.25
327.914	352.25
328.143	172.25
328.372	143.25
328.6	116.25
328.829	115.25
329.058	132.25
329.287	120.25
329.515	103.25
329.744	99.25
329.972	96.25
330.201	99.25
330.43	107.25
330.658	111.25
330.887	122.25
331.115	110.25
331.344	89.25
331.572	106.25
331.801	103.25
332.03	103.25
332.258	93.25
332.486	85.25
332.715	104.25
332.943	103.25
333.172	101.25
333.4	95.25
333.629	93.25
333.857	102.25
334.085	77.25
334.314	89.25
334.542	89.25
334.771	92.25
334.999	102.25
335.227	93.25
335.455	76.25
335.684	102.25
335.912	87.25
336.14	107.25
336.369	94.25
336.597	98.25
336.825	98.25
337.053	100.25
337.281	99.25
337.51	69.25
337.738	90.25
337.966	88.25
338.194	89.25
338.422	92.25
338.65	96.25
338.878	89.25
339.106	85.25
339.334	106.25
339.562	88.25
339.79	91.25
340.018	95.25
340.246	85.25
340.474	92.25
340.702	84.25
340.93	83.25
341.158	90.25
341.386	96.25
341.614	96.25
341.842	94.25
342.07	98.25
342.298	86.25
342.526	77.25
342.754	91.25
342.981	99.25
343.209	80.25
343.437	101.25
343.665	91.25
343.893	81.25
344.12	84.25
344.348	87.25
344.576	90.25
344.804	85.25
345.031	86.25
345.259	87.25
345.487	104.25
345.714	99.25
345.942	73.25
346.17	76.25
346.397	103.25
346.625	99.25
346.853	95.25
347.08	87.25
347.308	87.25
347.535	80.25
347.763	99.25
347.99	84.25
348.218	86.25
348.445	89.25
348.673	98.25
348.9	89.25
349.128	94.25
349.355	82.25
349.583	103.25
349.81	88.25
350.037	91.25
350.265	82.25
350.492	101.25
350.72	79.25
350.947	100.25
351.174	98.25
351.402	91.25
351.629	106.25
351.856	95.25
352.083	89.25
352.311	111.25
352.538	95.25
352.765	103.25
352.992	115.25
353.22	115.25
353.447	99.25
353.674	96.25
353.901	85.25
354.128	86.25
354.355	85.25
354.583	91.25
354.81	101.25
355.037	96.25
355.264	94.25
355.491	93.25
355.718	92.25
355.945	99.25
356.172	109.25
356.399	81.25
356.626	93.25
356.853	95.25
357.08	91.25
357.307	92.25
357.534	90.25
357.761	79.25
357.988	92.25
358.215	84.25
358.441	94.25
358.668	92.25
358.895	84.25
359.122	85.25
359.349	84.25
359.576	91.25
359.802	87.25
360.029	105.25
360.256	97.25
360.483	100.25
360.709	88.25
360.936	98.25
361.163	96.25
361.39	86.25
361.616	94.25
361.843	87.25
362.07	91.25
362.296	94.25
362.523	78.25
362.749	92.25
362.976	87.25
363.203	78.25
363.429	90.25
363.656	89.25
363.882	85.25
364.109	90.25
364.335	100.25
364.562	80.25
364.788	83.25
365.015	92.25
365.241	98.25
365.468	99.25
365.694	98.25
365.92	82.25
366.147	82.25
366.373	85.25
366.599	94.25
366.826	88.25
367.052	87.25
367.278	90.25
367.505	77.25
367.731	91.25
367.957	91.25
368.184	77.25
368.41	95.25
368.636	112.25
368.862	100.25
369.089	108.25
369.315	92.25
369.541	77.25
369.767	94.25
369.993	92.25
370.219	89.25
370.445	97.25
370.672	80.25
370.898	86.25
371.124	97.25
371.35	96.25
371.576	64.25
371.802	94.25
372.028	95.25
372.254	91.25
372.48	74.25
372.706	90.25
372.932	91.25
373.158	94.25
373.384	87.25
373.61	84.25
373.835	88.25
374.061	89.25
374.287	90.25
374.513	96.25
374.739	85.25
374.965	77.25
375.191	104.25
375.416	76.25
375.642	80.25
375.868	73.25
376.094	97.25
376.319	94.25
376.545	84.25
376.771	74.25
376.997	84.25
377.222	73.25
377.448	82.25
377.674	99.25
377.899	86.25
378.125	75.25
378.35	80.25
378.576	92.25
378.802	89.25
379.027	85.25
379.253	94.25
379.478	96.25
379.704	89.25
379.929	84.25
380.155	87.25
380.38	87.25
380.606	87.25
380.831	88.25
381.057	88.25
381.282	82.25
381.507	92.25
381.733	89.25
381.958	79.25
382.184	109.25
382.409	101.25
382.634	106.25
382.86	89.25
383.085	84.25
383.31	103.25
383.535	87.25
383.761	105.25
383.986	92.25
384.211	99.25
384.436	86.25
384.662	98.25
384.887	105.25
385.112	95.25
385.337	102.25
385.562	98.25
385.787	105.25
386.013	88.25
386.238	93.25
386.463	94.25
386.688	99.25
386.913	91.25
387.138	95.25
387.363	88.25
387.588	97.25
387.813	97.25
388.038	97.25
388.263	97.25
388.488	113.25
388.713	96.25
388.938	86.25
389.163	97.25
389.387	101.25
389.612	82.25
389.837	97.25
390.062	87.25
390.287	85.25
390.512	83.25
390.736	82.25
390.961	90.25
391.186	92.25
391.411	91.25
391.636	93.25
391.86	83.25
392.085	77.25
392.31	78.25
392.534	87.25
392.759	98.25
392.984	81.25
393.208	90.25
393.433	76.25
393.658	84.25
393.882	84.25
394.107	99.25
394.331	83.25
394.556	62.25
394.78	75.25
395.005	83.25
395.229	84.25
395.454	87.25
395.678	82.25
395.903	86.25
396.127	104.25
396.352	81.25
396.576	89.25
396.801	92.25
397.025	75.25
397.249	96.25
397.474	83.25
397.698	79.25
397.922	79.25
398.147	73.25
398.371	83.25
398.595	74.25
398.82	84.25
399.044	81.25
399.268	85.25
399.492	85.25
399.717	90.25
399.941	79.25
400.165	84.25
400.389	81.25
400.613	70.25
400.837	82.25
401.062	80.25
401.286	95.25
401.51	94.25
401.734	72.25
401.958	106.25
402.182	113.25
402.406	153.25
402.63	107.25
402.854	76.25
403.078	89.25
403.302	81.25
403.526	85.25
403.75	72.25
403.974	82.25
404.198	75.25
404.422	78.25
404.645	69.25
404.869	84.25
405.093	95.25
405.317	93.25
405.541	95.25
405.765	95.25
405.988	104.25
406.212	159.25
406.436	203.25
406.66	135.25
406.883	98.25
407.107	99.25
407.331	107.25
407.555	86.25
407.778	97.25
408.002	90.25
408.226	83.25
408.449	92.25
408.673	93.25
408.896	71.25
409.12	94.25
409.344	89.25
409.567	89.25
409.791	85.25
410.014	101.25
410.238	99.25
410.461	103.25
410.685	91.25
410.908	81.25
411.132	97.25
411.355	85.25
411.578	100.25
411.802	93.25
412.025	76.25
412.249	87.25
412.472	81.25
412.695	68.25
412.919	78.25
413.142	92.25
413.365	91.25
413.589	85.25
413.812	88.25
414.035	91.25
414.258	88.25
414.482	89.25
414.705	86.25
414.928	89.25
415.151	98.25
415.374	91.25
415.597	95.25
415.821	92.25
416.044	82.25
416.267	83.25
416.49	72.25
416.713	78.25
416.936	78.25
417.159	72.25
417.382	71.25
417.605	81.25
417.828	82.25
418.051	87.25
418.274	86.25
418.497	78.25
418.72	90.25
418.943	96.25
419.166	108.25
419.389	83.25
419.611	79.25
419.834	64.25
420.057	82.25
420.28	88.25
420.503	94.25
420.726	85.25
420.948	100.25
421.171	93.25
421.394	104.25
421.617	81.25
421.839	94.25
422.062	91.25
422.285	92.25
422.507	98.25
422.73	108.25
422.953	95.25
423.175	95.25
423.398	89.25
423.621	102.25
423.843	79.25
424.066	76.25
424.288	81.25
424.511	91.25
424.733	100.25
424.956	106.25
425.178	95.25
425.401	91.25
425.623	85.25
425.846	68.25
426.068	90.25
426.291	105.25
426.513	90.25
426.735	77.25
426.958	88.25
427.18	103.25
427.402	109.25
427.625	154.25
427.847	111.25
428.069	94.25
428.292	92.25
428.514	86.25
428.736	94.25
428.958	89.25
429.181	82.25
429.403	72.25
429.625	74.25
429.847	92.25
430.069	94.25
430.292	76.25
430.514	81.25
430.736	81.25
430.958	74.25
431.18	83.25
431.402	85.25
431.624	84.25
431.846	102.25
432.068	87.25
432.29	83.25
432.512	85.25
432.734	83.25
432.956	87.25
433.178	87.25
433.4	73.25
433.622	85.25
433.844	90.25
434.066	88.25
434.287	86.25
434.509	88.25
434.731	84.25
434.953	69.25
435.175	74.25
435.397	89.25
435.618	99.25
435.84	101.25
436.062	123.25
436.284	100.25
436.505	108.25
436.727	95.25
436.949	77.25
437.17	96.25
437.392	93.25
437.614	80.25
437.835	95.25
438.057	118.25
438.278	92.25
438.5	95.25
438.721	105.25
438.943	88.25
439.165	91.25
439.386	93.25
439.608	84.25
439.829	93.25
440.05	115.25
440.272	127.25
440.493	96.25
440.715	87.25
440.936	86.25
441.158	76.25
441.379	108.25
441.6	92.25
441.822	90.25
442.043	98.25
442.264	97.25
442.486	98.25
442.707	84.25
442.928	98.25
443.149	118.25
443.371	121.25
443.592	100.25
443.813	93.25
444.034	103.25
444.255	86.25
444.476	87.25
444.698	92.25
444.919	85.25
445.14	108.25
445.361	120.25
445.582	91.25
445.803	113.25
446.024	120.25
446.245	127.25
446.466	94.25
446.687	86.25
446.908	80.25
447.129	85.25
447.35	66.25
447.571	88.25
447.792	82.25
448.013	95.25
448.234	96.25
448.455	96.25
448.675	110.25
448.896	109.25
449.117	101.25
449.338	94.25
449.559	117.25
449.779	127.25
450	92.25
450.221	97.25
450.442	92.25
450.662	80.25
450.883	105.25
451.104	91.25
451.324	94.25
451.545	80.25
451.766	95.25
451.986	74.25
452.207	83.25
452.428	75.25
452.648	90.25
452.869	97.25
453.089	101.25
453.31	120.25
453.53	83.25
453.751	89.25
453.971	100.25
454.192	103.25
454.412	93.25
454.633	77.25
454.853	96.25
455.073	91.25
455.294	87.25
455.514	81.25
455.734	87.25
455.955	93.25
456.175	92.25
456.395	87.25
456.616	70.25
456.836	86.25
457.056	89.25
457.276	98.25
457.497	76.25
457.717	72.25
457.937	92.25
458.157	75.25
458.377	103.25
458.598	106.25
458.818	132.25
459.038	144.25
459.258	98.25
459.478	95.25
459.698	80.25
459.918	75.25
460.138	86.25
460.358	77.25
460.578	83.25
460.798	79.25
461.018	77.25
461.238	84.25
461.458	93.25
461.678	72.25
461.898	83.25
462.118	67.25
462.338	74.25
462.558	80.25
462.777	84.25
462.997	95.25
463.217	76.25
463.437	68.25
463.657	86.25
463.876	65.25
464.096	87.25
464.316	90.25
464.536	84.25
464.755	75.25
464.975	104.25
465.195	151.25
465.414	147.25
465.634	103.25
465.854	95.25
466.073	66.25
466.293	83.25
466.512	82.25
466.732	88.25
466.951	84.25
467.171	83.25
467.391	85.25
467.61	106.25
467.829	84.25
468.049	93.25
468.268	94.25
468.488	81.25
468.707	71.25
468.927	95.25
469.146	96.25
469.365	87.25
469.585	91.25
469.804	93.25
470.023	84.25
470.243	90.25
470.462	92.25
470.681	92.25
470.901	93.25
471.12	87.25
471.339	83.25
471.558	76.25
471.777	75.25
471.997	91.25
472.216	85.25
472.435	93.25
472.654	71.25
472.873	67.25
473.092	90.25
473.311	84.25
473.53	84.25
473.749	90.25
473.968	82.25
474.187	107.25
474.406	113.25
474.625	87.25
474.844	83.25
475.063	90.25
475.282	79.25
475.501	78.25
475.72	79.25
475.939	79.25
476.158	78.25
476.377	81.25
476.596	82.25
476.814	91.25
477.033	84.25
477.252	107.25
477.471	94.25
477.69	88.25
477.908	87.25
478.127	88.25
478.346	93.25
478.564	85.25
478.783	85.25
479.002	92.25
479.22	104.25
479.439	103.25
479.658	102.25
479.876	103.25
480.095	83.25
480.313	82.25
480.532	84.25
480.751	80.25
480.969	96.25
481.188	90.25
481.406	90.25
481.624	82.25
481.843	83.25
482.061	81.25
482.28	90.25
482.498	83.25
482.717	77.25
482.935	76.25
483.153	79.25
483.372	83.25
483.59	83.25
483.808	83.25
484.027	90.25
484.245	88.25
484.463	93.25
484.681	91.25
484.9	96.25
485.118	97.25
485.336	89.25
485.554	89.25
485.772	88.25
485.99	97.25
486.209	92.25
486.427	94.25
486.645	88.25
486.863	111.25
487.081	104.25
487.299	92.25
487.517	100.25
487.735	107.25
487.953	96.25
488.171	96.25
488.389	85.25
488.607	91.25
488.825	76.25
489.043	82.25
489.261	96.25
489.479	84.25
489.696	91.25
489.914	92.25
490.132	63.25
490.35	94.25
490.568	93.25
490.786	79.25
491.003	87.25
491.221	92.25
491.439	86.25
491.657	84.25
491.874	75.25
492.092	95.25
492.31	81.25
492.527	82.25
492.745	88.25
492.963	68.25
493.18	84.25
493.398	107.25
493.615	85.25
493.833	99.25
494.05	79.25
494.268	92.25
494.485	85.25
494.703	90.25
494.92	82.25
495.138	95.25
495.355	89.25
495.573	95.25
495.79	92.25
496.008	102.25
496.225	90.25
496.442	97.25
496.66	92.25
496.877	92.25
497.094	88.25
497.312	84.25
497.529	95.25
497.746	84.25
497.963	76.25
498.181	91.25
498.398	77.25
498.615	105.25
498.832	96.25
499.049	86.25
499.267	75.25
499.484	83.25
499.701	99.25
499.918	77.25
500.135	85.25
500.352	84.25
500.569	106.25
500.786	79.25
501.003	100.25
501.22	88.25
501.437	85.25
501.654	89.25
501.871	103.25
502.088	85.25
502.305	84.25
502.522	90.25
502.739	91.25
502.956	89.25
503.172	108.25
503.389	85.25
503.606	97.25
503.823	98.25
504.04	100.25
504.256	94.25
504.473	99.25
504.69	90.25
504.907	94.25
505.123	90.25
505.34	87.25
505.557	80.25
505.773	97.25
505.99	82.25
506.207	85.25
506.423	96.25
506.64	87.25
506.856	82.25
507.073	101.25
507.289	94.25
507.506	82.25
507.722	99.25
507.939	103.25
508.155	93.25
508.372	101.25
508.588	90.25
508.805	84.25
509.021	93.25
509.238	87.25
509.454	93.25
509.67	100.25
509.887	92.25
510.103	116.25
510.319	215.25
510.536	709.25
510.752	2212.25
510.968	638.25
511.184	156.25
511.401	107.25
511.617	111.25
511.833	84.25
512.049	84.25
512.265	97.25
512.481	82.25
512.698	74.25
512.914	82.25
513.13	91.25
513.346	87.25
513.562	93.25
513.778	89.25
513.994	79.25
514.21	89.25
514.426	122.25
514.642	121.25
514.858	121.25
515.074	147.25
515.29	414.25
515.506	1345.25
515.721	481.25
515.937	145.25
516.153	98.25
516.369	88.25
516.585	94.25
516.801	98.25
517.016	77.25
517.232	103.25
