Data from Uncirc_2006_H10_HRD10591_00039.txt Node
Date: Wed Jan 03 10:25:02 EST 2024
User: Yrep
Spectrometer: HR+D1059
Trigger mode: 1
Integration Time (sec): 1.000000E-1
Scans to average: 1
Electric dark correction enabled: true
Nonlinearity correction enabled: false
Boxcar width: 0
XAxis mode: Wavelengths
Number of Pixels in Spectrum: 2048
>>>>>Begin Spectral Data<<<<<
223.165	-9.19
223.4	-9.19
223.635	-9.19
223.869	-20.19
224.104	-21.19
224.338	-9.19
224.573	-3.19
224.808	-16.19
225.042	-21.19
225.277	-5.19
225.511	-5.19
225.746	4.81
225.98	2.81
226.215	-5.19
226.449	28.81
226.683	18.81
226.918	25.81
227.152	34.81
227.387	47.81
227.621	47.81
227.856	47.81
228.09	39.81
228.324	38.81
228.559	61.81
228.793	60.81
229.027	63.81
229.262	62.81
229.496	55.81
229.73	82.81
229.964	67.81
230.199	75.81
230.433	68.81
230.667	73.81
230.901	61.81
231.136	74.81
231.37	70.81
231.604	70.81
231.838	82.81
232.072	77.81
232.306	77.81
232.541	74.81
232.775	74.81
233.009	76.81
233.243	68.81
233.477	78.81
233.711	76.81
233.945	75.81
234.179	79.81
234.413	77.81
234.647	83.81
234.881	73.81
235.115	81.81
235.349	96.81
235.583	89.81
235.817	88.81
236.051	86.81
236.285	78.81
236.519	62.81
236.753	84.81
236.987	90.81
237.221	72.81
237.455	84.81
237.689	60.81
237.922	85.81
238.156	67.81
238.39	72.81
238.624	63.81
238.858	68.81
239.091	63.81
239.325	75.81
239.559	83.81
239.793	86.81
240.027	85.81
240.26	73.81
240.494	80.81
240.728	74.81
240.961	76.81
241.195	69.81
241.429	88.81
241.662	63.81
241.896	59.81
242.13	65.81
242.363	73.81
242.597	64.81
242.83	73.81
243.064	71.81
243.298	88.81
243.531	77.81
243.765	74.81
243.998	75.81
244.232	80.81
244.465	72.81
244.699	81.81
244.932	90.81
245.166	92.81
245.399	77.81
245.633	94.81
245.866	66.81
246.099	82.81
246.333	79.81
246.566	66.81
246.8	77.81
247.033	73.81
247.266	81.81
247.5	70.81
247.733	84.81
247.966	77.81
248.2	78.81
248.433	83.81
248.666	70.81
248.899	73.81
249.133	85.81
249.366	87.81
249.599	100.81
249.832	92.81
250.066	82.81
250.299	75.81
250.532	73.81
250.765	74.81
250.998	90.81
251.231	81.81
251.465	77.81
251.698	70.81
251.931	73.81
252.164	73.81
252.397	79.81
252.63	82.81
252.863	71.81
253.096	75.81
253.329	85.81
253.562	86.81
253.795	67.81
254.028	84.81
254.261	78.81
254.494	86.81
254.727	82.81
254.96	71.81
255.193	76.81
255.426	66.81
255.659	75.81
255.892	86.81
256.124	73.81
256.357	69.81
256.59	89.81
256.823	87.81
257.056	85.81
257.289	76.81
257.521	78.81
257.754	67.81
257.987	78.81
258.22	98.81
258.452	80.81
258.685	81.81
258.918	81.81
259.151	65.81
259.383	81.81
259.616	72.81
259.849	72.81
260.081	90.81
260.314	71.81
260.547	74.81
260.779	78.81
261.012	81.81
261.244	84.81
261.477	91.81
261.71	87.81
261.942	105.81
262.175	100.81
262.407	93.81
262.64	70.81
262.872	78.81
263.105	69.81
263.337	85.81
263.57	81.81
263.802	82.81
264.035	85.81
264.267	79.81
264.499	79.81
264.732	82.81
264.964	86.81
265.197	85.81
265.429	92.81
265.661	83.81
265.894	70.81
266.126	79.81
266.358	90.81
266.591	87.81
266.823	64.81
267.055	67.81
267.287	79.81
267.52	90.81
267.752	79.81
267.984	80.81
268.216	81.81
268.448	73.81
268.681	84.81
268.913	77.81
269.145	82.81
269.377	86.81
269.609	75.81
269.841	77.81
270.073	89.81
270.306	63.81
270.538	78.81
270.77	71.81
271.002	87.81
271.234	88.81
271.466	90.81
271.698	86.81
271.93	75.81
272.162	84.81
272.394	93.81
272.626	87.81
272.858	86.81
273.09	94.81
273.322	79.81
273.553	98.81
273.785	85.81
274.017	86.81
274.249	84.81
274.481	99.81
274.713	89.81
274.945	88.81
275.176	84.81
275.408	82.81
275.64	94.81
275.872	74.81
276.104	81.81
276.335	61.81
276.567	97.81
276.799	101.81
277.031	111.81
277.262	97.81
277.494	92.81
277.726	77.81
277.957	92.81
278.189	78.81
278.421	97.81
278.652	87.81
278.884	78.81
279.115	84.81
279.347	79.81
279.579	96.81
279.81	64.81
280.042	80.81
280.273	80.81
280.505	89.81
280.736	76.81
280.968	97.81
281.199	92.81
281.431	85.81
281.662	85.81
281.894	83.81
282.125	86.81
282.356	106.81
282.588	128.81
282.819	108.81
283.051	77.81
283.282	93.81
283.513	90.81
283.745	87.81
283.976	94.81
284.207	74.81
284.439	84.81
284.67	80.81
284.901	86.81
285.132	86.81
285.364	75.81
285.595	101.81
285.826	84.81
286.057	76.81
286.288	81.81
286.52	85.81
286.751	87.81
286.982	91.81
287.213	81.81
287.444	79.81
287.675	91.81
287.906	90.81
288.138	86.81
288.369	83.81
288.6	97.81
288.831	75.81
289.062	82.81
289.293	78.81
289.524	80.81
289.755	85.81
289.986	78.81
290.217	77.81
290.448	73.81
290.679	82.81
290.91	67.81
291.141	86.81
291.371	90.81
291.602	93.81
291.833	89.81
292.064	75.81
292.295	83.81
292.526	78.81
292.757	95.81
292.987	83.81
293.218	96.81
293.449	69.81
293.68	99.81
293.91	81.81
294.141	95.81
294.372	85.81
294.603	87.81
294.833	77.81
295.064	90.81
295.295	91.81
295.525	81.81
295.756	82.81
295.987	114.81
296.217	116.81
296.448	116.81
296.679	91.81
296.909	95.81
297.14	91.81
297.37	89.81
297.601	82.81
297.831	95.81
298.062	92.81
298.292	96.81
298.523	87.81
298.753	98.81
298.984	87.81
299.214	94.81
299.445	95.81
299.675	94.81
299.905	99.81
300.136	81.81
300.366	84.81
300.597	91.81
300.827	100.81
301.057	94.81
301.288	88.81
301.518	89.81
301.748	89.81
301.979	115.81
302.209	90.81
302.439	73.81
302.669	97.81
302.9	94.81
303.13	105.81
303.36	101.81
303.59	106.81
303.82	121.81
304.051	96.81
304.281	82.81
304.511	89.81
304.741	91.81
304.971	91.81
305.201	87.81
305.431	105.81
305.661	75.81
305.891	85.81
306.121	92.81
306.352	100.81
306.582	101.81
306.812	79.81
307.042	90.81
307.272	95.81
307.502	93.81
307.731	82.81
307.961	93.81
308.191	73.81
308.421	84.81
308.651	86.81
308.881	81.81
309.111	100.81
309.341	102.81
309.571	98.81
309.8	86.81
310.03	89.81
310.26	85.81
310.49	100.81
310.72	85.81
310.949	85.81
311.179	94.81
311.409	87.81
311.639	73.81
311.868	87.81
312.098	103.81
312.328	74.81
312.557	98.81
312.787	102.81
313.017	98.81
313.246	94.81
313.476	101.81
313.706	77.81
313.935	86.81
314.165	97.81
314.394	105.81
314.624	85.81
314.853	98.81
315.083	86.81
315.312	94.81
315.542	97.81
315.771	92.81
316.001	90.81
316.23	93.81
316.46	97.81
316.689	102.81
316.919	104.81
317.148	81.81
317.377	106.81
317.607	103.81
317.836	96.81
318.065	92.81
318.295	97.81
318.524	92.81
318.753	92.81
318.983	86.81
319.212	97.81
319.441	100.81
319.67	102.81
319.9	85.81
320.129	85.81
320.358	86.81
320.587	94.81
320.816	102.81
321.046	93.81
321.275	101.81
321.504	84.81
321.733	99.81
321.962	102.81
322.191	94.81
322.42	82.81
322.649	111.81
322.878	108.81
323.108	112.81
323.337	122.81
323.566	119.81
323.795	141.81
324.024	201.81
324.253	385.81
324.482	797.81
324.71	1630.81
324.939	2166.81
325.168	796.81
325.397	232.81
325.626	147.81
325.855	118.81
326.084	125.81
326.313	120.81
326.542	157.81
326.77	225.81
326.999	451.81
327.228	927.81
327.457	1679.81
327.686	1349.81
327.914	346.81
328.143	180.81
328.372	117.81
328.6	106.81
328.829	122.81
329.058	129.81
329.287	130.81
329.515	107.81
329.744	96.81
329.972	69.81
330.201	86.81
330.43	100.81
330.658	112.81
330.887	131.81
331.115	129.81
331.344	118.81
331.572	107.81
331.801	91.81
332.03	96.81
332.258	82.81
332.486	87.81
332.715	94.81
332.943	91.81
333.172	91.81
333.4	87.81
333.629	103.81
333.857	99.81
334.085	113.81
334.314	95.81
334.542	82.81
334.771	91.81
334.999	94.81
335.227	94.81
335.455	84.81
335.684	94.81
335.912	93.81
336.14	100.81
336.369	101.81
336.597	89.81
336.825	85.81
337.053	94.81
337.281	95.81
337.51	93.81
337.738	86.81
337.966	86.81
338.194	97.81
338.422	95.81
338.65	92.81
338.878	93.81
339.106	99.81
339.334	89.81
339.562	82.81
339.79	89.81
340.018	87.81
340.246	101.81
340.474	91.81
340.702	105.81
340.93	85.81
341.158	94.81
341.386	99.81
341.614	80.81
341.842	79.81
342.07	93.81
342.298	91.81
342.526	73.81
342.754	69.81
342.981	93.81
343.209	77.81
343.437	95.81
343.665	92.81
343.893	89.81
344.12	90.81
344.348	92.81
344.576	83.81
344.804	99.81
345.031	94.81
345.259	79.81
345.487	95.81
345.714	97.81
345.942	79.81
346.17	103.81
346.397	83.81
346.625	84.81
346.853	86.81
347.08	101.81
347.308	107.81
347.535	94.81
347.763	108.81
347.99	91.81
348.218	102.81
348.445	94.81
348.673	98.81
348.9	107.81
349.128	106.81
349.355	95.81
349.583	90.81
349.81	97.81
350.037	85.81
350.265	108.81
350.492	95.81
350.72	102.81
350.947	99.81
351.174	121.81
351.402	109.81
351.629	98.81
351.856	96.81
352.083	90.81
352.311	97.81
352.538	106.81
352.765	101.81
352.992	116.81
353.22	106.81
353.447	111.81
353.674	90.81
353.901	93.81
354.128	74.81
354.355	94.81
354.583	108.81
354.81	99.81
355.037	109.81
355.264	100.81
355.491	96.81
355.718	93.81
355.945	85.81
356.172	103.81
356.399	111.81
356.626	84.81
356.853	108.81
357.08	90.81
357.307	99.81
357.534	94.81
357.761	92.81
357.988	91.81
358.215	103.81
358.441	112.81
358.668	91.81
358.895	99.81
359.122	92.81
359.349	88.81
359.576	97.81
359.802	105.81
360.029	106.81
360.256	121.81
360.483	94.81
360.709	90.81
360.936	108.81
361.163	80.81
361.39	77.81
361.616	94.81
361.843	103.81
362.07	83.81
362.296	92.81
362.523	94.81
362.749	107.81
362.976	84.81
363.203	84.81
363.429	78.81
363.656	101.81
363.882	88.81
364.109	111.81
364.335	93.81
364.562	98.81
364.788	91.81
365.015	93.81
365.241	90.81
365.468	92.81
365.694	90.81
365.92	84.81
366.147	100.81
366.373	78.81
366.599	88.81
366.826	87.81
367.052	88.81
367.278	94.81
367.505	81.81
367.731	100.81
367.957	110.81
368.184	90.81
368.41	104.81
368.636	101.81
368.862	103.81
369.089	111.81
369.315	104.81
369.541	98.81
369.767	91.81
369.993	102.81
370.219	104.81
370.445	83.81
370.672	68.81
370.898	82.81
371.124	84.81
371.35	89.81
371.576	86.81
371.802	93.81
372.028	92.81
372.254	97.81
372.48	87.81
372.706	98.81
372.932	75.81
373.158	90.81
373.384	95.81
373.61	80.81
373.835	99.81
374.061	85.81
374.287	85.81
374.513	89.81
374.739	82.81
374.965	87.81
375.191	106.81
375.416	90.81
375.642	85.81
375.868	94.81
376.094	94.81
376.319	93.81
376.545	89.81
376.771	101.81
376.997	104.81
377.222	84.81
377.448	85.81
377.674	91.81
377.899	95.81
378.125	94.81
378.35	93.81
378.576	90.81
378.802	80.81
379.027	94.81
379.253	102.81
379.478	102.81
379.704	103.81
379.929	104.81
380.155	93.81
380.38	92.81
380.606	92.81
380.831	100.81
381.057	105.81
381.282	94.81
381.507	88.81
381.733	97.81
381.958	97.81
382.184	102.81
382.409	102.81
382.634	85.81
382.86	98.81
383.085	102.81
383.31	91.81
383.535	111.81
383.761	79.81
383.986	87.81
384.211	80.81
384.436	83.81
384.662	101.81
384.887	110.81
385.112	101.81
385.337	109.81
385.562	101.81
385.787	103.81
386.013	115.81
386.238	115.81
386.463	98.81
386.688	105.81
386.913	92.81
387.138	114.81
387.363	95.81
387.588	101.81
387.813	92.81
388.038	96.81
388.263	98.81
388.488	107.81
388.713	93.81
388.938	87.81
389.163	85.81
389.387	101.81
389.612	100.81
389.837	94.81
390.062	101.81
390.287	101.81
390.512	93.81
390.736	96.81
390.961	99.81
391.186	99.81
391.411	105.81
391.636	84.81
391.86	82.81
392.085	90.81
392.31	89.81
392.534	77.81
392.759	91.81
392.984	90.81
393.208	81.81
393.433	93.81
393.658	93.81
393.882	86.81
394.107	83.81
394.331	83.81
394.556	87.81
394.78	91.81
395.005	91.81
395.229	102.81
395.454	86.81
395.678	89.81
395.903	90.81
396.127	89.81
396.352	90.81
396.576	82.81
396.801	93.81
397.025	82.81
397.249	84.81
397.474	95.81
397.698	85.81
397.922	90.81
398.147	79.81
398.371	85.81
398.595	78.81
398.82	100.81
399.044	99.81
399.268	72.81
399.492	85.81
399.717	102.81
399.941	91.81
400.165	92.81
400.389	83.81
400.613	93.81
400.837	80.81
401.062	84.81
401.286	90.81
401.51	86.81
401.734	96.81
401.958	92.81
402.182	97.81
402.406	149.81
402.63	118.81
402.854	88.81
403.078	84.81
403.302	93.81
403.526	96.81
403.75	84.81
403.974	86.81
404.198	84.81
404.422	99.81
404.645	81.81
404.869	80.81
405.093	97.81
405.317	84.81
405.541	89.81
405.765	89.81
405.988	112.81
406.212	143.81
406.436	201.81
406.66	118.81
406.883	110.81
407.107	109.81
407.331	92.81
407.555	90.81
407.778	97.81
408.002	92.81
408.226	83.81
408.449	81.81
408.673	92.81
408.896	79.81
409.12	94.81
409.344	93.81
409.567	86.81
409.791	99.81
410.014	108.81
410.238	86.81
410.461	86.81
410.685	107.81
410.908	94.81
411.132	104.81
411.355	103.81
411.578	88.81
411.802	85.81
412.025	88.81
412.249	85.81
412.472	84.81
412.695	85.81
412.919	87.81
413.142	89.81
413.365	93.81
413.589	79.81
413.812	79.81
414.035	94.81
414.258	74.81
414.482	97.81
414.705	92.81
414.928	84.81
415.151	95.81
415.374	94.81
415.597	84.81
415.821	79.81
416.044	80.81
416.267	87.81
416.49	93.81
416.713	84.81
416.936	85.81
417.159	84.81
417.382	89.81
417.605	91.81
417.828	90.81
418.051	91.81
418.274	89.81
418.497	85.81
418.72	87.81
418.943	94.81
419.166	91.81
419.389	88.81
419.611	79.81
419.834	81.81
420.057	91.81
420.28	91.81
420.503	95.81
420.726	78.81
420.948	90.81
421.171	89.81
421.394	86.81
421.617	98.81
421.839	81.81
422.062	84.81
422.285	90.81
422.507	104.81
422.73	91.81
422.953	83.81
423.175	86.81
423.398	91.81
423.621	86.81
423.843	76.81
424.066	78.81
424.288	112.81
424.511	87.81
424.733	92.81
424.956	119.81
425.178	102.81
425.401	104.81
425.623	93.81
425.846	75.81
426.068	89.81
426.291	94.81
426.513	101.81
426.735	100.81
426.958	90.81
427.18	114.81
427.402	128.81
427.625	146.81
427.847	121.81
428.069	83.81
428.292	81.81
428.514	87.81
428.736	86.81
428.958	87.81
429.181	86.81
429.403	69.81
429.625	78.81
429.847	99.81
430.069	93.81
430.292	86.81
430.514	87.81
430.736	65.81
430.958	76.81
431.18	79.81
431.402	87.81
431.624	104.81
431.846	103.81
432.068	95.81
432.29	86.81
432.512	87.81
432.734	95.81
432.956	112.81
433.178	86.81
433.4	102.81
433.622	93.81
433.844	82.81
434.066	98.81
434.287	93.81
434.509	93.81
434.731	91.81
434.953	82.81
435.175	86.81
435.397	80.81
435.618	93.81
435.84	108.81
436.062	101.81
436.284	112.81
436.505	110.81
436.727	98.81
436.949	89.81
437.17	94.81
437.392	83.81
437.614	87.81
437.835	98.81
438.057	108.81
438.278	114.81
438.5	95.81
438.721	106.81
438.943	78.81
439.165	89.81
439.386	87.81
439.608	97.81
439.829	105.81
440.05	107.81
440.272	134.81
440.493	100.81
440.715	83.81
440.936	99.81
441.158	96.81
441.379	82.81
441.6	98.81
441.822	94.81
442.043	93.81
442.264	98.81
442.486	94.81
442.707	91.81
442.928	102.81
443.149	113.81
443.371	107.81
443.592	115.81
443.813	116.81
444.034	114.81
444.255	85.81
444.476	81.81
444.698	93.81
444.919	91.81
445.14	134.81
445.361	110.81
445.582	111.81
445.803	125.81
446.024	124.81
446.245	125.81
446.466	112.81
446.687	84.81
446.908	84.81
447.129	92.81
447.35	82.81
447.571	95.81
447.792	92.81
448.013	86.81
448.234	101.81
448.455	82.81
448.675	108.81
448.896	101.81
449.117	114.81
449.338	97.81
449.559	115.81
449.779	129.81
450	103.81
450.221	74.81
450.442	96.81
450.662	89.81
450.883	100.81
451.104	111.81
451.324	82.81
451.545	90.81
451.766	87.81
451.986	87.81
452.207	96.81
452.428	93.81
452.648	94.81
452.869	118.81
453.089	111.81
453.31	121.81
453.53	87.81
453.751	89.81
453.971	91.81
454.192	105.81
454.412	84.81
454.633	92.81
454.853	91.81
455.073	69.81
455.294	82.81
455.514	101.81
455.734	82.81
455.955	95.81
456.175	86.81
456.395	82.81
456.616	95.81
456.836	100.81
457.056	90.81
457.276	86.81
457.497	84.81
457.717	88.81
457.937	87.81
458.157	85.81
458.377	90.81
458.598	101.81
458.818	131.81
459.038	131.81
459.258	83.81
459.478	88.81
459.698	83.81
459.918	77.81
460.138	104.81
460.358	90.81
460.578	94.81
460.798	88.81
461.018	97.81
461.238	93.81
461.458	59.81
461.678	85.81
461.898	86.81
462.118	70.81
462.338	82.81
462.558	96.81
462.777	99.81
462.997	84.81
463.217	85.81
463.437	95.81
463.657	81.81
463.876	90.81
464.096	87.81
464.316	95.81
464.536	86.81
464.755	84.81
464.975	102.81
465.195	148.81
465.414	158.81
465.634	105.81
465.854	84.81
466.073	96.81
466.293	83.81
466.512	88.81
466.732	80.81
466.951	83.81
467.171	101.81
467.391	94.81
467.61	85.81
467.829	98.81
468.049	85.81
468.268	80.81
468.488	83.81
468.707	77.81
468.927	89.81
469.146	82.81
469.365	98.81
469.585	94.81
469.804	97.81
470.023	90.81
470.243	87.81
470.462	101.81
470.681	93.81
470.901	101.81
471.12	81.81
471.339	76.81
471.558	84.81
471.777	84.81
471.997	92.81
472.216	86.81
472.435	93.81
472.654	54.81
472.873	86.81
473.092	83.81
473.311	86.81
473.53	93.81
473.749	81.81
473.968	98.81
474.187	98.81
474.406	100.81
474.625	92.81
474.844	83.81
475.063	83.81
475.282	93.81
475.501	85.81
475.72	92.81
475.939	92.81
476.158	85.81
476.377	91.81
476.596	77.81
476.814	96.81
477.033	99.81
477.252	98.81
477.471	90.81
477.69	92.81
477.908	82.81
478.127	93.81
478.346	81.81
478.564	96.81
478.783	89.81
479.002	89.81
479.22	78.81
479.439	86.81
479.658	108.81
479.876	96.81
480.095	104.81
480.313	88.81
480.532	80.81
480.751	90.81
480.969	80.81
481.188	81.81
481.406	91.81
481.624	88.81
481.843	98.81
482.061	87.81
482.28	96.81
482.498	85.81
482.717	79.81
482.935	92.81
483.153	85.81
483.372	84.81
483.59	89.81
483.808	92.81
484.027	80.81
484.245	89.81
484.463	98.81
484.681	99.81
484.9	96.81
485.118	92.81
485.336	92.81
485.554	91.81
485.772	106.81
485.99	101.81
486.209	95.81
486.427	110.81
486.645	97.81
486.863	102.81
487.081	95.81
487.299	83.81
487.517	83.81
487.735	95.81
487.953	85.81
488.171	101.81
488.389	110.81
488.607	103.81
488.825	96.81
489.043	101.81
489.261	96.81
489.479	73.81
489.696	95.81
489.914	88.81
490.132	81.81
490.35	104.81
490.568	83.81
490.786	96.81
491.003	89.81
491.221	82.81
491.439	106.81
491.657	102.81
491.874	78.81
492.092	81.81
492.31	103.81
492.527	83.81
492.745	99.81
492.963	89.81
493.18	93.81
493.398	99.81
493.615	86.81
493.833	91.81
494.05	76.81
494.268	83.81
494.485	95.81
494.703	87.81
494.92	101.81
495.138	94.81
495.355	98.81
495.573	89.81
495.79	100.81
496.008	80.81
496.225	94.81
496.442	96.81
496.66	80.81
496.877	95.81
497.094	85.81
497.312	86.81
497.529	87.81
497.746	87.81
497.963	96.81
498.181	89.81
498.398	80.81
498.615	95.81
498.832	97.81
499.049	82.81
499.267	81.81
499.484	91.81
499.701	94.81
499.918	84.81
500.135	94.81
500.352	74.81
500.569	82.81
500.786	84.81
501.003	104.81
501.22	92.81
501.437	81.81
501.654	107.81
501.871	94.81
502.088	90.81
502.305	87.81
502.522	91.81
502.739	94.81
502.956	91.81
503.172	76.81
503.389	86.81
503.606	88.81
503.823	97.81
504.04	84.81
504.256	98.81
504.473	82.81
504.69	85.81
504.907	90.81
505.123	85.81
505.34	94.81
505.557	94.81
505.773	96.81
505.99	101.81
506.207	91.81
506.423	100.81
506.64	94.81
506.856	89.81
507.073	98.81
507.289	92.81
507.506	92.81
507.722	85.81
507.939	95.81
508.155	93.81
508.372	95.81
508.588	98.81
508.805	97.81
509.021	96.81
509.238	84.81
509.454	84.81
509.67	93.81
509.887	112.81
510.103	128.81
510.319	204.81
510.536	658.81
510.752	2038.81
510.968	610.81
511.184	148.81
511.401	117.81
511.617	102.81
511.833	93.81
512.049	88.81
512.265	95.81
512.481	82.81
512.698	61.81
512.914	86.81
513.13	88.81
513.346	81.81
513.562	87.81
513.778	92.81
513.994	107.81
514.21	110.81
514.426	112.81
514.642	125.81
514.858	128.81
515.074	162.81
515.29	386.81
515.506	1226.81
515.721	481.81
515.937	150.81
516.153	121.81
