Data from Uncirc_2006_H10_HRD10591_00071.txt Node
Date: Wed Jan 03 10:25:09 EST 2024
User: Yrep
Spectrometer: HR+D1059
Trigger mode: 1
Integration Time (sec): 1.000000E-1
Scans to average: 1
Electric dark correction enabled: true
Nonlinearity correction enabled: false
Boxcar width: 0
XAxis mode: Wavelengths
Number of Pixels in Spectrum: 2048
>>>>>Begin Spectral Data<<<<<
223.165	-21.06
223.4	-21.06
223.635	-21.06
223.869	-30.06
224.104	-10.06
224.338	-10.06
224.573	-15.06
224.808	-14.06
225.042	-0.06
225.277	-11.06
225.511	23.94
225.746	16.94
225.98	4.94
226.215	5.94
226.449	0.94
226.683	4.94
226.918	18.94
227.152	34.94
227.387	28.94
227.621	29.94
227.856	40.94
228.09	50.94
228.324	47.94
228.559	40.94
228.793	34.94
229.027	60.94
229.262	40.94
229.496	72.94
229.73	83.94
229.964	69.94
230.199	70.94
230.433	64.94
230.667	86.94
230.901	84.94
231.136	73.94
231.37	69.94
231.604	72.94
231.838	75.94
232.072	77.94
232.306	80.94
232.541	78.94
232.775	70.94
233.009	67.94
233.243	85.94
233.477	86.94
233.711	84.94
233.945	82.94
234.179	91.94
234.413	74.94
234.647	76.94
234.881	64.94
235.115	74.94
235.349	72.94
235.583	71.94
235.817	84.94
236.051	67.94
236.285	76.94
236.519	66.94
236.753	67.94
236.987	68.94
237.221	84.94
237.455	85.94
237.689	84.94
237.922	69.94
238.156	69.94
238.39	74.94
238.624	76.94
238.858	78.94
239.091	70.94
239.325	87.94
239.559	77.94
239.793	83.94
240.027	69.94
240.26	59.94
240.494	73.94
240.728	81.94
240.961	76.94
241.195	58.94
241.429	65.94
241.662	81.94
241.896	85.94
242.13	79.94
242.363	72.94
242.597	68.94
242.83	78.94
243.064	61.94
243.298	74.94
243.531	79.94
243.765	65.94
243.998	86.94
244.232	66.94
244.465	80.94
244.699	76.94
244.932	78.94
245.166	65.94
245.399	86.94
245.633	97.94
245.866	74.94
246.099	76.94
246.333	82.94
246.566	72.94
246.8	79.94
247.033	72.94
247.266	59.94
247.5	70.94
247.733	77.94
247.966	90.94
248.2	88.94
248.433	69.94
248.666	88.94
248.899	79.94
249.133	89.94
249.366	86.94
249.599	105.94
249.832	82.94
250.066	85.94
250.299	79.94
250.532	82.94
250.765	76.94
250.998	85.94
251.231	74.94
251.465	80.94
251.698	90.94
251.931	86.94
252.164	77.94
252.397	73.94
252.63	80.94
252.863	74.94
253.096	73.94
253.329	77.94
253.562	98.94
253.795	90.94
254.028	75.94
254.261	84.94
254.494	88.94
254.727	73.94
254.96	83.94
255.193	87.94
255.426	69.94
255.659	83.94
255.892	81.94
256.124	74.94
256.357	75.94
256.59	66.94
256.823	79.94
257.056	85.94
257.289	85.94
257.521	91.94
257.754	79.94
257.987	91.94
258.22	74.94
258.452	78.94
258.685	85.94
258.918	76.94
259.151	74.94
259.383	82.94
259.616	80.94
259.849	83.94
260.081	92.94
260.314	86.94
260.547	85.94
260.779	60.94
261.012	84.94
261.244	78.94
261.477	79.94
261.71	81.94
261.942	112.94
262.175	103.94
262.407	89.94
262.64	66.94
262.872	83.94
263.105	90.94
263.337	82.94
263.57	70.94
263.802	75.94
264.035	85.94
264.267	62.94
264.499	88.94
264.732	76.94
264.964	82.94
265.197	81.94
265.429	79.94
265.661	65.94
265.894	70.94
266.126	79.94
266.358	82.94
266.591	90.94
266.823	86.94
267.055	79.94
267.287	84.94
267.52	56.94
267.752	90.94
267.984	85.94
268.216	69.94
268.448	85.94
268.681	74.94
268.913	77.94
269.145	82.94
269.377	87.94
269.609	82.94
269.841	69.94
270.073	89.94
270.306	98.94
270.538	77.94
270.77	79.94
271.002	96.94
271.234	91.94
271.466	88.94
271.698	92.94
271.93	86.94
272.162	97.94
272.394	96.94
272.626	81.94
272.858	65.94
273.09	77.94
273.322	70.94
273.553	88.94
273.785	86.94
274.017	85.94
274.249	94.94
274.481	82.94
274.713	76.94
274.945	91.94
275.176	89.94
275.408	95.94
275.64	79.94
275.872	85.94
276.104	80.94
276.335	84.94
276.567	84.94
276.799	103.94
277.031	78.94
277.262	81.94
277.494	69.94
277.726	90.94
277.957	88.94
278.189	78.94
278.421	86.94
278.652	76.94
278.884	75.94
279.115	78.94
279.347	90.94
279.579	82.94
279.81	63.94
280.042	81.94
280.273	83.94
280.505	75.94
280.736	94.94
280.968	85.94
281.199	88.94
281.431	90.94
281.662	69.94
281.894	86.94
282.125	89.94
282.356	118.94
282.588	131.94
282.819	88.94
283.051	90.94
283.282	86.94
283.513	84.94
283.745	92.94
283.976	93.94
284.207	84.94
284.439	89.94
284.67	93.94
284.901	76.94
285.132	95.94
285.364	80.94
285.595	76.94
285.826	86.94
286.057	79.94
286.288	87.94
286.52	76.94
286.751	89.94
286.982	104.94
287.213	86.94
287.444	78.94
287.675	86.94
287.906	92.94
288.138	81.94
288.369	82.94
288.6	81.94
288.831	86.94
289.062	95.94
289.293	79.94
289.524	91.94
289.755	88.94
289.986	71.94
290.217	76.94
290.448	83.94
290.679	93.94
290.91	69.94
291.141	76.94
291.371	76.94
291.602	76.94
291.833	90.94
292.064	84.94
292.295	93.94
292.526	74.94
292.757	97.94
292.987	69.94
293.218	93.94
293.449	91.94
293.68	98.94
293.91	72.94
294.141	73.94
294.372	78.94
294.603	80.94
294.833	100.94
295.064	86.94
295.295	94.94
295.525	90.94
295.756	101.94
295.987	122.94
296.217	134.94
296.448	116.94
296.679	76.94
296.909	78.94
297.14	91.94
297.37	97.94
297.601	90.94
297.831	83.94
298.062	75.94
298.292	71.94
298.523	73.94
298.753	92.94
298.984	86.94
299.214	73.94
299.445	97.94
299.675	98.94
299.905	99.94
300.136	95.94
300.366	90.94
300.597	94.94
300.827	97.94
301.057	96.94
301.288	105.94
301.518	74.94
301.748	93.94
301.979	100.94
302.209	102.94
302.439	94.94
302.669	86.94
302.9	83.94
303.13	81.94
303.36	107.94
303.59	94.94
303.82	89.94
304.051	82.94
304.281	90.94
304.511	96.94
304.741	89.94
304.971	79.94
305.201	95.94
305.431	81.94
305.661	96.94
305.891	86.94
306.121	97.94
306.352	88.94
306.582	97.94
306.812	92.94
307.042	97.94
307.272	85.94
307.502	100.94
307.731	94.94
307.961	81.94
308.191	83.94
308.421	92.94
308.651	84.94
308.881	84.94
309.111	95.94
309.341	93.94
309.571	99.94
309.8	89.94
310.03	94.94
310.26	98.94
310.49	92.94
310.72	83.94
310.949	82.94
311.179	89.94
311.409	85.94
311.639	78.94
311.868	101.94
312.098	85.94
312.328	97.94
312.557	95.94
312.787	91.94
313.017	93.94
313.246	79.94
313.476	98.94
313.706	96.94
313.935	77.94
314.165	99.94
314.394	96.94
314.624	88.94
314.853	88.94
315.083	103.94
315.312	96.94
315.542	85.94
315.771	100.94
316.001	93.94
316.23	79.94
316.46	86.94
316.689	84.94
316.919	77.94
317.148	88.94
317.377	94.94
317.607	89.94
317.836	107.94
318.065	100.94
318.295	96.94
318.524	95.94
318.753	92.94
318.983	90.94
319.212	101.94
319.441	112.94
319.67	114.94
319.9	92.94
320.129	92.94
320.358	88.94
320.587	84.94
320.816	92.94
321.046	89.94
321.275	101.94
321.504	84.94
321.733	89.94
321.962	91.94
322.191	82.94
322.42	101.94
322.649	107.94
322.878	92.94
323.108	109.94
323.337	108.94
323.566	127.94
323.795	141.94
324.024	192.94
324.253	399.94
324.482	780.94
324.71	1655.94
324.939	2130.94
325.168	774.94
325.397	228.94
325.626	162.94
325.855	138.94
326.084	110.94
326.313	120.94
326.542	145.94
326.77	224.94
326.999	446.94
327.228	933.94
327.457	1679.94
327.686	1323.94
327.914	360.94
328.143	172.94
328.372	128.94
328.6	110.94
328.829	117.94
329.058	114.94
329.287	131.94
329.515	102.94
329.744	101.94
329.972	98.94
330.201	105.94
330.43	92.94
330.658	113.94
330.887	134.94
331.115	118.94
331.344	99.94
331.572	103.94
331.801	117.94
332.03	108.94
332.258	102.94
332.486	101.94
332.715	84.94
332.943	99.94
333.172	88.94
333.4	81.94
333.629	101.94
333.857	103.94
334.085	83.94
334.314	82.94
334.542	89.94
334.771	83.94
334.999	96.94
335.227	85.94
335.455	98.94
335.684	101.94
335.912	104.94
336.14	83.94
336.369	101.94
336.597	86.94
336.825	93.94
337.053	86.94
337.281	98.94
337.51	100.94
337.738	82.94
337.966	89.94
338.194	95.94
338.422	68.94
338.65	86.94
338.878	86.94
339.106	91.94
339.334	88.94
339.562	92.94
339.79	82.94
340.018	89.94
340.246	81.94
340.474	88.94
340.702	94.94
340.93	88.94
341.158	85.94
341.386	97.94
341.614	96.94
341.842	89.94
342.07	90.94
342.298	99.94
342.526	106.94
342.754	83.94
342.981	78.94
343.209	84.94
343.437	99.94
343.665	92.94
343.893	93.94
344.12	92.94
344.348	92.94
344.576	95.94
344.804	80.94
345.031	105.94
345.259	103.94
345.487	92.94
345.714	91.94
345.942	96.94
346.17	93.94
346.397	91.94
346.625	97.94
346.853	92.94
347.08	83.94
347.308	101.94
347.535	108.94
347.763	102.94
347.99	81.94
348.218	94.94
348.445	105.94
348.673	89.94
348.9	89.94
349.128	89.94
349.355	99.94
349.583	94.94
349.81	86.94
350.037	92.94
350.265	94.94
350.492	92.94
350.72	92.94
350.947	91.94
351.174	104.94
351.402	110.94
351.629	105.94
351.856	103.94
352.083	106.94
352.311	102.94
352.538	101.94
352.765	116.94
352.992	114.94
353.22	107.94
353.447	97.94
353.674	98.94
353.901	95.94
354.128	95.94
354.355	100.94
354.583	108.94
354.81	108.94
355.037	91.94
355.264	93.94
355.491	96.94
355.718	99.94
355.945	95.94
356.172	101.94
356.399	96.94
356.626	84.94
356.853	84.94
357.08	89.94
357.307	90.94
357.534	95.94
357.761	93.94
357.988	85.94
358.215	93.94
358.441	105.94
358.668	90.94
358.895	71.94
359.122	90.94
359.349	93.94
359.576	78.94
359.802	99.94
360.029	114.94
360.256	110.94
360.483	89.94
360.709	96.94
360.936	83.94
361.163	89.94
361.39	83.94
361.616	85.94
361.843	84.94
362.07	95.94
362.296	92.94
362.523	91.94
362.749	86.94
362.976	90.94
363.203	90.94
363.429	96.94
363.656	97.94
363.882	80.94
364.109	105.94
364.335	83.94
364.562	98.94
364.788	80.94
365.015	95.94
365.241	88.94
365.468	108.94
365.694	94.94
365.92	93.94
366.147	100.94
366.373	85.94
366.599	80.94
366.826	85.94
367.052	95.94
367.278	86.94
367.505	94.94
367.731	83.94
367.957	90.94
368.184	85.94
368.41	83.94
368.636	105.94
368.862	116.94
369.089	101.94
369.315	81.94
369.541	83.94
369.767	76.94
369.993	78.94
370.219	88.94
370.445	93.94
370.672	94.94
370.898	98.94
371.124	86.94
371.35	91.94
371.576	68.94
371.802	85.94
372.028	78.94
372.254	94.94
372.48	98.94
372.706	82.94
372.932	76.94
373.158	86.94
373.384	81.94
373.61	83.94
373.835	79.94
374.061	78.94
374.287	100.94
374.513	90.94
374.739	93.94
374.965	84.94
375.191	102.94
375.416	105.94
375.642	84.94
375.868	80.94
376.094	97.94
376.319	88.94
376.545	94.94
376.771	93.94
376.997	93.94
377.222	92.94
377.448	91.94
377.674	81.94
377.899	97.94
378.125	93.94
378.35	90.94
378.576	84.94
378.802	78.94
379.027	85.94
379.253	93.94
379.478	89.94
379.704	93.94
379.929	107.94
380.155	90.94
380.38	83.94
380.606	90.94
380.831	84.94
381.057	99.94
381.282	93.94
381.507	94.94
381.733	97.94
381.958	85.94
382.184	85.94
382.409	83.94
382.634	96.94
382.86	87.94
383.085	93.94
383.31	101.94
383.535	98.94
383.761	97.94
383.986	92.94
384.211	90.94
384.436	100.94
384.662	89.94
384.887	112.94
385.112	114.94
385.337	102.94
385.562	108.94
385.787	110.94
386.013	113.94
386.238	106.94
386.463	101.94
386.688	125.94
386.913	108.94
387.138	110.94
387.363	90.94
387.588	105.94
387.813	101.94
388.038	106.94
388.263	99.94
388.488	109.94
388.713	91.94
388.938	84.94
389.163	96.94
389.387	99.94
389.612	89.94
389.837	81.94
390.062	86.94
390.287	83.94
390.512	105.94
390.736	79.94
390.961	91.94
391.186	93.94
391.411	105.94
391.636	82.94
391.86	82.94
392.085	77.94
392.31	82.94
392.534	79.94
392.759	80.94
392.984	82.94
393.208	85.94
393.433	98.94
393.658	73.94
393.882	76.94
394.107	84.94
394.331	87.94
394.556	94.94
394.78	93.94
395.005	91.94
395.229	90.94
395.454	95.94
395.678	90.94
395.903	95.94
396.127	91.94
396.352	91.94
396.576	100.94
396.801	89.94
397.025	89.94
397.249	80.94
397.474	107.94
397.698	86.94
397.922	78.94
398.147	91.94
398.371	68.94
398.595	97.94
398.82	98.94
399.044	77.94
399.268	87.94
399.492	94.94
399.717	89.94
399.941	88.94
400.165	85.94
400.389	88.94
400.613	71.94
400.837	78.94
401.062	83.94
401.286	85.94
401.51	98.94
401.734	89.94
401.958	99.94
402.182	126.94
402.406	149.94
402.63	114.94
402.854	86.94
403.078	92.94
403.302	96.94
403.526	92.94
403.75	94.94
403.974	77.94
404.198	78.94
404.422	95.94
404.645	87.94
404.869	88.94
405.093	83.94
405.317	81.94
405.541	89.94
405.765	74.94
405.988	115.94
406.212	152.94
406.436	204.94
406.66	126.94
406.883	100.94
407.107	86.94
407.331	97.94
407.555	92.94
407.778	92.94
408.002	86.94
408.226	77.94
408.449	87.94
408.673	84.94
408.896	77.94
409.12	103.94
409.344	92.94
409.567	97.94
409.791	79.94
410.014	84.94
410.238	89.94
410.461	95.94
410.685	90.94
410.908	89.94
411.132	94.94
411.355	95.94
411.578	96.94
411.802	105.94
412.025	82.94
412.249	85.94
412.472	84.94
412.695	77.94
412.919	80.94
413.142	88.94
413.365	88.94
413.589	77.94
413.812	89.94
414.035	72.94
414.258	89.94
414.482	84.94
414.705	76.94
414.928	95.94
415.151	85.94
415.374	89.94
415.597	81.94
415.821	84.94
416.044	95.94
416.267	94.94
416.49	94.94
416.713	83.94
416.936	92.94
417.159	86.94
417.382	100.94
417.605	84.94
417.828	88.94
418.051	92.94
418.274	95.94
418.497	94.94
418.72	81.94
418.943	75.94
419.166	85.94
419.389	89.94
419.611	70.94
419.834	91.94
420.057	92.94
420.28	72.94
420.503	77.94
420.726	77.94
420.948	82.94
421.171	96.94
421.394	104.94
421.617	97.94
421.839	102.94
422.062	86.94
422.285	88.94
422.507	108.94
422.73	101.94
422.953	90.94
423.175	89.94
423.398	92.94
423.621	72.94
423.843	80.94
424.066	90.94
424.288	93.94
424.511	85.94
424.733	89.94
424.956	92.94
425.178	94.94
425.401	91.94
425.623	91.94
425.846	88.94
426.068	88.94
426.291	84.94
426.513	93.94
426.735	106.94
426.958	95.94
427.18	107.94
427.402	131.94
427.625	149.94
427.847	121.94
428.069	84.94
428.292	78.94
428.514	92.94
428.736	83.94
428.958	89.94
429.181	77.94
429.403	80.94
429.625	92.94
429.847	78.94
430.069	91.94
430.292	75.94
430.514	91.94
430.736	95.94
430.958	84.94
431.18	80.94
431.402	70.94
431.624	80.94
431.846	72.94
432.068	101.94
432.29	96.94
432.512	90.94
432.734	89.94
432.956	84.94
433.178	113.94
433.4	82.94
433.622	88.94
433.844	82.94
434.066	83.94
434.287	77.94
434.509	95.94
434.731	94.94
434.953	87.94
435.175	93.94
435.397	85.94
435.618	86.94
435.84	93.94
436.062	127.94
436.284	100.94
436.505	104.94
436.727	85.94
436.949	90.94
437.17	97.94
437.392	83.94
437.614	80.94
437.835	114.94
438.057	123.94
438.278	96.94
438.5	99.94
438.721	114.94
438.943	96.94
439.165	77.94
439.386	81.94
439.608	88.94
439.829	105.94
440.05	105.94
440.272	136.94
440.493	100.94
440.715	88.94
440.936	86.94
441.158	89.94
441.379	86.94
441.6	102.94
441.822	93.94
442.043	96.94
442.264	90.94
442.486	96.94
442.707	92.94
442.928	82.94
443.149	110.94
443.371	128.94
443.592	99.94
443.813	111.94
444.034	106.94
444.255	98.94
444.476	83.94
444.698	82.94
444.919	80.94
445.14	143.94
445.361	113.94
445.582	106.94
445.803	113.94
446.024	125.94
446.245	136.94
446.466	107.94
446.687	81.94
446.908	87.94
447.129	93.94
447.35	91.94
447.571	92.94
447.792	82.94
448.013	106.94
448.234	96.94
448.455	95.94
448.675	106.94
448.896	99.94
449.117	88.94
449.338	94.94
449.559	116.94
449.779	123.94
450	105.94
450.221	93.94
450.442	92.94
450.662	83.94
450.883	93.94
451.104	113.94
451.324	88.94
451.545	97.94
451.766	87.94
451.986	83.94
452.207	99.94
452.428	81.94
452.648	68.94
452.869	77.94
453.089	99.94
453.31	111.94
453.53	70.94
453.751	79.94
453.971	111.94
454.192	97.94
454.412	90.94
454.633	87.94
454.853	85.94
455.073	76.94
455.294	97.94
455.514	94.94
455.734	92.94
455.955	92.94
456.175	84.94
456.395	83.94
456.616	94.94
456.836	109.94
457.056	67.94
457.276	78.94
457.497	71.94
457.717	84.94
457.937	84.94
458.157	94.94
458.377	88.94
458.598	103.94
458.818	134.94
459.038	152.94
459.258	109.94
459.478	82.94
459.698	85.94
459.918	92.94
460.138	81.94
460.358	82.94
460.578	89.94
460.798	85.94
461.018	78.94
461.238	85.94
461.458	78.94
461.678	83.94
461.898	75.94
462.118	85.94
462.338	78.94
462.558	91.94
462.777	93.94
462.997	81.94
463.217	92.94
463.437	76.94
463.657	84.94
463.876	97.94
464.096	97.94
464.316	93.94
464.536	90.94
464.755	86.94
464.975	101.94
465.195	163.94
465.414	152.94
465.634	89.94
465.854	86.94
466.073	88.94
466.293	97.94
466.512	79.94
466.732	101.94
466.951	86.94
467.171	91.94
467.391	93.94
467.61	101.94
467.829	83.94
468.049	64.94
468.268	90.94
468.488	81.94
468.707	84.94
468.927	83.94
469.146	100.94
469.365	95.94
469.585	94.94
469.804	82.94
470.023	94.94
470.243	93.94
470.462	85.94
470.681	88.94
470.901	90.94
471.12	87.94
471.339	87.94
471.558	84.94
471.777	63.94
471.997	97.94
472.216	97.94
472.435	78.94
472.654	80.94
472.873	97.94
473.092	82.94
473.311	85.94
473.53	74.94
473.749	83.94
473.968	75.94
474.187	101.94
474.406	88.94
474.625	90.94
474.844	77.94
475.063	81.94
475.282	77.94
475.501	83.94
475.72	81.94
475.939	95.94
476.158	101.94
476.377	96.94
476.596	72.94
476.814	84.94
477.033	87.94
477.252	90.94
477.471	91.94
477.69	76.94
477.908	85.94
478.127	86.94
478.346	92.94
478.564	100.94
478.783	96.94
479.002	77.94
479.22	94.94
479.439	107.94
479.658	102.94
479.876	96.94
480.095	79.94
480.313	101.94
480.532	77.94
480.751	82.94
480.969	82.94
481.188	93.94
481.406	93.94
481.624	85.94
481.843	98.94
482.061	90.94
482.28	90.94
482.498	87.94
482.717	94.94
482.935	93.94
483.153	98.94
483.372	83.94
483.59	81.94
483.808	90.94
484.027	86.94
484.245	87.94
484.463	92.94
484.681	84.94
484.9	92.94
485.118	97.94
485.336	89.94
485.554	101.94
485.772	110.94
485.99	94.94
486.209	95.94
486.427	90.94
486.645	105.94
486.863	101.94
487.081	93.94
487.299	99.94
487.517	92.94
487.735	77.94
487.953	91.94
488.171	112.94
488.389	86.94
488.607	92.94
488.825	89.94
489.043	79.94
489.261	90.94
489.479	85.94
489.696	94.94
489.914	95.94
490.132	88.94
490.35	93.94
490.568	88.94
490.786	92.94
491.003	80.94
491.221	85.94
491.439	92.94
491.657	92.94
491.874	82.94
492.092	82.94
492.31	85.94
492.527	88.94
492.745	94.94
492.963	95.94
493.18	83.94
493.398	101.94
493.615	93.94
493.833	92.94
494.05	82.94
494.268	85.94
494.485	82.94
494.703	78.94
494.92	86.94
495.138	82.94
495.355	70.94
495.573	76.94
495.79	96.94
496.008	94.94
496.225	81.94
496.442	93.94
496.66	80.94
496.877	75.94
497.094	77.94
497.312	93.94
497.529	92.94
497.746	89.94
497.963	104.94
498.181	84.94
498.398	85.94
498.615	114.94
498.832	105.94
499.049	83.94
499.267	92.94
499.484	84.94
499.701	93.94
499.918	89.94
500.135	95.94
500.352	78.94
500.569	82.94
500.786	93.94
501.003	85.94
501.22	91.94
501.437	84.94
501.654	93.94
501.871	87.94
502.088	72.94
502.305	80.94
502.522	95.94
502.739	85.94
502.956	92.94
503.172	95.94
503.389	76.94
503.606	107.94
503.823	87.94
504.04	105.94
504.256	80.94
504.473	74.94
504.69	86.94
504.907	94.94
505.123	94.94
505.34	87.94
505.557	83.94
505.773	100.94
505.99	85.94
506.207	80.94
506.423	77.94
506.64	95.94
506.856	92.94
507.073	88.94
507.289	73.94
507.506	89.94
507.722	90.94
507.939	85.94
508.155	82.94
508.372	103.94
508.588	88.94
508.805	91.94
509.021	91.94
509.238	91.94
509.454	81.94
509.67	102.94
509.887	112.94
510.103	122.94
510.319	195.94
510.536	734.94
510.752	2274.94
510.968	643.94
511.184	150.94
511.401	104.94
511.617	93.94
511.833	78.94
512.049	86.94
512.265	78.94
512.481	80.94
512.698	109.94
512.914	92.94
513.13	91.94
513.346	96.94
513.562	89.94
513.778	85.94
513.994	92.94
514.21	109.94
514.426	116.94
514.642	138.94
514.858	128.94
515.074	150.94
515.29	430.94
515.506	1371.94
515.721	518.94
515.937	139.94
516.153	111.94
516.369	99.94
516.585	79.94
516.801	87.94
