Data from Uncirc_2006_H10_HRD10591_00093.txt Node
Date: Wed Jan 03 10:25:13 EST 2024
User: Yrep
Spectrometer: HR+D1059
Trigger mode: 1
Integration Time (sec): 1.000000E-1
Scans to average: 1
Electric dark correction enabled: true
Nonlinearity correction enabled: false
Boxcar width: 0
XAxis mode: Wavelengths
Number of Pixels in Spectrum: 2048
>>>>>Begin Spectral Data<<<<<
223.165	-12.94
223.4	-12.94
223.635	-12.94
223.869	-16.94
224.104	-27.94
224.338	-21.94
224.573	-4.94
224.808	-17.94
225.042	-9.94
225.277	0.06
225.511	-0.94
225.746	-5.94
225.98	-2.94
226.215	24.06
226.449	18.06
226.683	19.06
226.918	31.06
227.152	30.06
227.387	34.06
227.621	22.06
227.856	34.06
228.09	36.06
228.324	48.06
228.559	54.06
228.793	70.06
229.027	50.06
229.262	62.06
229.496	74.06
229.73	65.06
229.964	78.06
230.199	67.06
230.433	85.06
230.667	88.06
230.901	71.06
231.136	78.06
231.37	84.06
231.604	77.06
231.838	80.06
232.072	84.06
232.306	73.06
232.541	71.06
232.775	83.06
233.009	78.06
233.243	74.06
233.477	82.06
233.711	91.06
233.945	82.06
234.179	83.06
234.413	79.06
234.647	71.06
234.881	79.06
235.115	84.06
235.349	82.06
235.583	65.06
235.817	64.06
236.051	64.06
236.285	71.06
236.519	82.06
236.753	82.06
236.987	80.06
237.221	89.06
237.455	83.06
237.689	75.06
237.922	77.06
238.156	71.06
238.39	80.06
238.624	74.06
238.858	82.06
239.091	82.06
239.325	84.06
239.559	71.06
239.793	69.06
240.027	79.06
240.26	84.06
240.494	58.06
240.728	62.06
240.961	66.06
241.195	67.06
241.429	91.06
241.662	71.06
241.896	67.06
242.13	74.06
242.363	77.06
242.597	66.06
242.83	84.06
243.064	78.06
243.298	65.06
243.531	64.06
243.765	74.06
243.998	78.06
244.232	79.06
244.465	73.06
244.699	75.06
244.932	70.06
245.166	82.06
245.399	83.06
245.633	74.06
245.866	75.06
246.099	73.06
246.333	79.06
246.566	74.06
246.8	72.06
247.033	77.06
247.266	92.06
247.5	87.06
247.733	71.06
247.966	83.06
248.2	71.06
248.433	67.06
248.666	63.06
248.899	72.06
249.133	67.06
249.366	83.06
249.599	91.06
249.832	90.06
250.066	105.06
250.299	79.06
250.532	89.06
250.765	77.06
250.998	80.06
251.231	65.06
251.465	79.06
251.698	82.06
251.931	77.06
252.164	81.06
252.397	69.06
252.63	87.06
252.863	74.06
253.096	66.06
253.329	81.06
253.562	75.06
253.795	71.06
254.028	69.06
254.261	65.06
254.494	70.06
254.727	69.06
254.96	81.06
255.193	81.06
255.426	77.06
255.659	72.06
255.892	79.06
256.124	84.06
256.357	79.06
256.59	81.06
256.823	80.06
257.056	88.06
257.289	76.06
257.521	84.06
257.754	75.06
257.987	81.06
258.22	77.06
258.452	81.06
258.685	88.06
258.918	84.06
259.151	85.06
259.383	93.06
259.616	84.06
259.849	76.06
260.081	72.06
260.314	74.06
260.547	83.06
260.779	76.06
261.012	83.06
261.244	82.06
261.477	94.06
261.71	96.06
261.942	94.06
262.175	115.06
262.407	77.06
262.64	80.06
262.872	65.06
263.105	91.06
263.337	80.06
263.57	80.06
263.802	71.06
264.035	78.06
264.267	73.06
264.499	85.06
264.732	79.06
264.964	75.06
265.197	81.06
265.429	76.06
265.661	65.06
265.894	76.06
266.126	71.06
266.358	78.06
266.591	71.06
266.823	81.06
267.055	73.06
267.287	89.06
267.52	74.06
267.752	74.06
267.984	78.06
268.216	78.06
268.448	77.06
268.681	87.06
268.913	65.06
269.145	76.06
269.377	90.06
269.609	102.06
269.841	90.06
270.073	84.06
270.306	59.06
270.538	76.06
270.77	82.06
271.002	74.06
271.234	87.06
271.466	93.06
271.698	68.06
271.93	84.06
272.162	68.06
272.394	84.06
272.626	76.06
272.858	83.06
273.09	85.06
273.322	83.06
273.553	69.06
273.785	88.06
274.017	82.06
274.249	91.06
274.481	93.06
274.713	82.06
274.945	86.06
275.176	72.06
275.408	68.06
275.64	82.06
275.872	79.06
276.104	99.06
276.335	91.06
276.567	78.06
276.799	91.06
277.031	90.06
277.262	78.06
277.494	96.06
277.726	90.06
277.957	82.06
278.189	79.06
278.421	97.06
278.652	75.06
278.884	86.06
279.115	78.06
279.347	75.06
279.579	91.06
279.81	72.06
280.042	91.06
280.273	80.06
280.505	97.06
280.736	94.06
280.968	78.06
281.199	82.06
281.431	95.06
281.662	78.06
281.894	87.06
282.125	81.06
282.356	109.06
282.588	109.06
282.819	100.06
283.051	88.06
283.282	83.06
283.513	77.06
283.745	95.06
283.976	91.06
284.207	79.06
284.439	83.06
284.67	79.06
284.901	83.06
285.132	85.06
285.364	89.06
285.595	105.06
285.826	73.06
286.057	78.06
286.288	74.06
286.52	80.06
286.751	75.06
286.982	87.06
287.213	84.06
287.444	78.06
287.675	83.06
287.906	95.06
288.138	83.06
288.369	91.06
288.6	83.06
288.831	89.06
289.062	94.06
289.293	82.06
289.524	89.06
289.755	78.06
289.986	93.06
290.217	97.06
290.448	88.06
290.679	78.06
290.91	81.06
291.141	95.06
291.371	77.06
291.602	71.06
291.833	81.06
292.064	79.06
292.295	80.06
292.526	76.06
292.757	84.06
292.987	79.06
293.218	81.06
293.449	92.06
293.68	99.06
293.91	86.06
294.141	97.06
294.372	66.06
294.603	79.06
294.833	86.06
295.064	86.06
295.295	68.06
295.525	75.06
295.756	81.06
295.987	90.06
296.217	122.06
296.448	109.06
296.679	82.06
296.909	74.06
297.14	80.06
297.37	87.06
297.601	82.06
297.831	85.06
298.062	80.06
298.292	74.06
298.523	86.06
298.753	89.06
298.984	96.06
299.214	79.06
299.445	83.06
299.675	89.06
299.905	76.06
300.136	83.06
300.366	95.06
300.597	90.06
300.827	88.06
301.057	103.06
301.288	96.06
301.518	93.06
301.748	95.06
301.979	92.06
302.209	80.06
302.439	84.06
302.669	96.06
302.9	82.06
303.13	91.06
303.36	83.06
303.59	91.06
303.82	102.06
304.051	94.06
304.281	82.06
304.511	89.06
304.741	89.06
304.971	88.06
305.201	94.06
305.431	87.06
305.661	100.06
305.891	94.06
306.121	94.06
306.352	83.06
306.582	99.06
306.812	77.06
307.042	84.06
307.272	87.06
307.502	86.06
307.731	95.06
307.961	100.06
308.191	88.06
308.421	84.06
308.651	86.06
308.881	84.06
309.111	87.06
309.341	90.06
309.571	88.06
309.8	89.06
310.03	89.06
310.26	100.06
310.49	112.06
310.72	114.06
310.949	84.06
311.179	87.06
311.409	88.06
311.639	91.06
311.868	87.06
312.098	90.06
312.328	90.06
312.557	97.06
312.787	91.06
313.017	94.06
313.246	94.06
313.476	92.06
313.706	89.06
313.935	91.06
314.165	102.06
314.394	98.06
314.624	91.06
314.853	84.06
315.083	88.06
315.312	80.06
315.542	81.06
315.771	98.06
316.001	87.06
316.23	81.06
316.46	80.06
316.689	98.06
316.919	69.06
317.148	86.06
317.377	84.06
317.607	74.06
317.836	92.06
318.065	91.06
318.295	63.06
318.524	84.06
318.753	89.06
318.983	88.06
319.212	98.06
319.441	103.06
319.67	98.06
319.9	87.06
320.129	88.06
320.358	87.06
320.587	84.06
320.816	107.06
321.046	102.06
321.275	94.06
321.504	87.06
321.733	80.06
321.962	97.06
322.191	97.06
322.42	109.06
322.649	109.06
322.878	103.06
323.108	105.06
323.337	127.06
323.566	112.06
323.795	129.06
324.024	182.06
324.253	379.06
324.482	765.06
324.71	1541.06
324.939	1991.06
325.168	735.06
325.397	224.06
325.626	138.06
325.855	134.06
326.084	113.06
326.313	134.06
326.542	149.06
326.77	206.06
326.999	431.06
327.228	884.06
327.457	1607.06
327.686	1267.06
327.914	330.06
328.143	154.06
328.372	138.06
328.6	121.06
328.829	106.06
329.058	114.06
329.287	122.06
329.515	109.06
329.744	69.06
329.972	103.06
330.201	92.06
330.43	102.06
330.658	114.06
330.887	115.06
331.115	94.06
331.344	97.06
331.572	94.06
331.801	88.06
332.03	110.06
332.258	84.06
332.486	90.06
332.715	77.06
332.943	99.06
333.172	84.06
333.4	99.06
333.629	105.06
333.857	98.06
334.085	95.06
334.314	81.06
334.542	94.06
334.771	109.06
334.999	87.06
335.227	94.06
335.455	102.06
335.684	97.06
335.912	94.06
336.14	91.06
336.369	102.06
336.597	86.06
336.825	102.06
337.053	98.06
337.281	68.06
337.51	94.06
337.738	95.06
337.966	96.06
338.194	71.06
338.422	90.06
338.65	91.06
338.878	95.06
339.106	86.06
339.334	76.06
339.562	82.06
339.79	100.06
340.018	97.06
340.246	91.06
340.474	95.06
340.702	89.06
340.93	84.06
341.158	98.06
341.386	84.06
341.614	100.06
341.842	80.06
342.07	96.06
342.298	84.06
342.526	81.06
342.754	81.06
342.981	80.06
343.209	86.06
343.437	92.06
343.665	88.06
343.893	82.06
344.12	98.06
344.348	93.06
344.576	70.06
344.804	82.06
345.031	77.06
345.259	95.06
345.487	89.06
345.714	68.06
345.942	94.06
346.17	94.06
346.397	78.06
346.625	93.06
346.853	92.06
347.08	97.06
347.308	93.06
347.535	102.06
347.763	108.06
347.99	89.06
348.218	92.06
348.445	90.06
348.673	90.06
348.9	93.06
349.128	92.06
349.355	87.06
349.583	88.06
349.81	91.06
350.037	78.06
350.265	81.06
350.492	75.06
350.72	77.06
350.947	88.06
351.174	94.06
351.402	110.06
351.629	96.06
351.856	94.06
352.083	93.06
352.311	87.06
352.538	105.06
352.765	111.06
352.992	98.06
353.22	111.06
353.447	94.06
353.674	104.06
353.901	89.06
354.128	100.06
354.355	95.06
354.583	96.06
354.81	95.06
355.037	80.06
355.264	99.06
355.491	84.06
355.718	74.06
355.945	84.06
356.172	96.06
356.399	90.06
356.626	105.06
356.853	83.06
357.08	90.06
357.307	90.06
357.534	92.06
357.761	90.06
357.988	87.06
358.215	100.06
358.441	78.06
358.668	83.06
358.895	90.06
359.122	78.06
359.349	96.06
359.576	93.06
359.802	88.06
360.029	119.06
360.256	103.06
360.483	82.06
360.709	84.06
360.936	113.06
361.163	81.06
361.39	94.06
361.616	79.06
361.843	82.06
362.07	95.06
362.296	103.06
362.523	93.06
362.749	90.06
362.976	82.06
363.203	96.06
363.429	92.06
363.656	86.06
363.882	79.06
364.109	98.06
364.335	93.06
364.562	77.06
364.788	74.06
365.015	90.06
365.241	69.06
365.468	101.06
365.694	89.06
365.92	90.06
366.147	68.06
366.373	91.06
366.599	80.06
366.826	98.06
367.052	90.06
367.278	89.06
367.505	78.06
367.731	74.06
367.957	75.06
368.184	90.06
368.41	112.06
368.636	113.06
368.862	115.06
369.089	102.06
369.315	93.06
369.541	95.06
369.767	88.06
369.993	88.06
370.219	83.06
370.445	89.06
370.672	84.06
370.898	92.06
371.124	84.06
371.35	87.06
371.576	84.06
371.802	80.06
372.028	77.06
372.254	81.06
372.48	78.06
372.706	70.06
372.932	80.06
373.158	91.06
373.384	85.06
373.61	79.06
373.835	88.06
374.061	86.06
374.287	81.06
374.513	79.06
374.739	81.06
374.965	82.06
375.191	76.06
375.416	89.06
375.642	92.06
375.868	90.06
376.094	79.06
376.319	83.06
376.545	70.06
376.771	91.06
376.997	70.06
377.222	83.06
377.448	79.06
377.674	90.06
377.899	84.06
378.125	85.06
378.35	84.06
378.576	82.06
378.802	86.06
379.027	88.06
379.253	85.06
379.478	87.06
379.704	91.06
379.929	94.06
380.155	90.06
380.38	88.06
380.606	99.06
380.831	93.06
381.057	102.06
381.282	92.06
381.507	87.06
381.733	94.06
381.958	79.06
382.184	92.06
382.409	83.06
382.634	86.06
382.86	82.06
383.085	95.06
383.31	103.06
383.535	94.06
383.761	97.06
383.986	94.06
384.211	90.06
384.436	99.06
384.662	96.06
384.887	94.06
385.112	97.06
385.337	100.06
385.562	96.06
385.787	85.06
386.013	95.06
386.238	114.06
386.463	106.06
386.688	98.06
386.913	105.06
387.138	97.06
387.363	109.06
387.588	104.06
387.813	107.06
388.038	94.06
388.263	99.06
388.488	96.06
388.713	101.06
388.938	113.06
389.163	74.06
389.387	74.06
389.612	93.06
389.837	83.06
390.062	79.06
390.287	102.06
390.512	97.06
390.736	86.06
390.961	84.06
391.186	83.06
391.411	95.06
391.636	86.06
391.86	70.06
392.085	75.06
392.31	84.06
392.534	85.06
392.759	94.06
392.984	85.06
393.208	88.06
393.433	80.06
393.658	95.06
393.882	80.06
394.107	75.06
394.331	82.06
394.556	74.06
394.78	85.06
395.005	83.06
395.229	86.06
395.454	86.06
395.678	87.06
395.903	77.06
396.127	78.06
396.352	102.06
396.576	87.06
396.801	101.06
397.025	85.06
397.249	90.06
397.474	65.06
397.698	68.06
397.922	73.06
398.147	90.06
398.371	84.06
398.595	88.06
398.82	75.06
399.044	84.06
399.268	91.06
399.492	70.06
399.717	89.06
399.941	101.06
400.165	89.06
400.389	87.06
400.613	68.06
400.837	81.06
401.062	83.06
401.286	65.06
401.51	87.06
401.734	87.06
401.958	98.06
402.182	109.06
402.406	141.06
402.63	98.06
402.854	72.06
403.078	88.06
403.302	89.06
403.526	80.06
403.75	86.06
403.974	93.06
404.198	80.06
404.422	76.06
404.645	81.06
404.869	74.06
405.093	86.06
405.317	82.06
405.541	93.06
405.765	82.06
405.988	99.06
406.212	149.06
406.436	195.06
406.66	140.06
406.883	80.06
407.107	93.06
407.331	89.06
407.555	94.06
407.778	90.06
408.002	75.06
408.226	86.06
408.449	89.06
408.673	99.06
408.896	97.06
409.12	93.06
409.344	95.06
409.567	92.06
409.791	99.06
410.014	86.06
410.238	95.06
410.461	83.06
410.685	87.06
410.908	109.06
411.132	100.06
411.355	82.06
411.578	81.06
411.802	87.06
412.025	88.06
412.249	97.06
412.472	69.06
412.695	84.06
412.919	86.06
413.142	96.06
413.365	88.06
413.589	95.06
413.812	96.06
414.035	96.06
414.258	71.06
414.482	81.06
414.705	79.06
414.928	79.06
415.151	98.06
415.374	83.06
415.597	88.06
415.821	76.06
416.044	77.06
416.267	82.06
416.49	75.06
416.713	96.06
416.936	74.06
417.159	88.06
417.382	69.06
417.605	87.06
417.828	91.06
418.051	82.06
418.274	74.06
418.497	84.06
418.72	82.06
418.943	90.06
419.166	91.06
419.389	79.06
419.611	83.06
419.834	87.06
420.057	88.06
420.28	75.06
420.503	93.06
420.726	91.06
420.948	76.06
421.171	80.06
421.394	88.06
421.617	86.06
421.839	95.06
422.062	91.06
422.285	93.06
422.507	83.06
422.73	95.06
422.953	92.06
423.175	91.06
423.398	73.06
423.621	90.06
423.843	95.06
424.066	76.06
424.288	93.06
424.511	95.06
424.733	90.06
424.956	107.06
425.178	97.06
425.401	96.06
425.623	85.06
425.846	87.06
426.068	77.06
426.291	84.06
426.513	67.06
426.735	95.06
426.958	91.06
427.18	89.06
427.402	113.06
427.625	131.06
427.847	102.06
428.069	89.06
428.292	82.06
428.514	80.06
428.736	84.06
428.958	84.06
429.181	89.06
429.403	84.06
429.625	90.06
429.847	76.06
430.069	70.06
430.292	79.06
430.514	75.06
430.736	94.06
430.958	75.06
431.18	72.06
431.402	81.06
431.624	78.06
431.846	87.06
432.068	79.06
432.29	78.06
432.512	81.06
432.734	91.06
432.956	86.06
433.178	86.06
433.4	87.06
433.622	73.06
433.844	81.06
434.066	96.06
434.287	89.06
434.509	90.06
434.731	93.06
434.953	87.06
435.175	82.06
435.397	82.06
435.618	98.06
435.84	98.06
436.062	125.06
436.284	113.06
436.505	77.06
436.727	112.06
436.949	89.06
437.17	74.06
437.392	79.06
437.614	88.06
437.835	103.06
438.057	96.06
438.278	109.06
438.5	98.06
438.721	119.06
438.943	80.06
439.165	88.06
439.386	70.06
439.608	86.06
439.829	92.06
440.05	109.06
440.272	122.06
440.493	90.06
440.715	80.06
440.936	84.06
441.158	72.06
441.379	75.06
441.6	78.06
441.822	99.06
442.043	80.06
442.264	109.06
442.486	92.06
442.707	87.06
442.928	100.06
443.149	119.06
443.371	111.06
443.592	105.06
443.813	100.06
444.034	94.06
444.255	96.06
444.476	87.06
444.698	88.06
444.919	97.06
445.14	112.06
445.361	115.06
445.582	115.06
445.803	123.06
446.024	122.06
446.245	135.06
446.466	104.06
446.687	91.06
446.908	78.06
447.129	84.06
447.35	83.06
447.571	79.06
447.792	87.06
448.013	99.06
448.234	94.06
448.455	96.06
448.675	117.06
448.896	114.06
449.117	91.06
449.338	97.06
449.559	130.06
449.779	107.06
450	82.06
450.221	72.06
450.442	85.06
450.662	74.06
450.883	94.06
451.104	100.06
451.324	95.06
451.545	80.06
451.766	79.06
451.986	76.06
452.207	102.06
452.428	98.06
452.648	86.06
452.869	93.06
453.089	95.06
453.31	118.06
453.53	83.06
453.751	83.06
453.971	83.06
454.192	103.06
454.412	86.06
454.633	84.06
454.853	87.06
455.073	87.06
455.294	94.06
455.514	91.06
455.734	78.06
455.955	84.06
456.175	68.06
456.395	80.06
456.616	93.06
456.836	75.06
457.056	84.06
457.276	66.06
457.497	72.06
457.717	88.06
457.937	84.06
458.157	88.06
458.377	94.06
458.598	83.06
458.818	124.06
459.038	133.06
459.258	111.06
459.478	84.06
459.698	86.06
459.918	92.06
460.138	64.06
460.358	83.06
460.578	85.06
460.798	81.06
461.018	86.06
461.238	95.06
461.458	84.06
461.678	79.06
461.898	81.06
462.118	98.06
462.338	81.06
462.558	85.06
462.777	78.06
462.997	76.06
463.217	95.06
463.437	82.06
463.657	90.06
463.876	87.06
464.096	80.06
464.316	85.06
464.536	71.06
464.755	92.06
464.975	107.06
465.195	142.06
465.414	135.06
465.634	84.06
465.854	82.06
466.073	86.06
466.293	82.06
466.512	65.06
466.732	81.06
466.951	82.06
467.171	97.06
467.391	78.06
467.61	77.06
467.829	91.06
468.049	91.06
468.268	78.06
468.488	81.06
468.707	82.06
468.927	76.06
469.146	75.06
469.365	73.06
469.585	87.06
469.804	102.06
470.023	86.06
470.243	83.06
470.462	89.06
470.681	89.06
470.901	82.06
471.12	83.06
471.339	92.06
471.558	90.06
471.777	85.06
471.997	79.06
472.216	76.06
472.435	78.06
472.654	75.06
472.873	93.06
473.092	84.06
473.311	98.06
473.53	99.06
473.749	81.06
473.968	95.06
474.187	104.06
474.406	104.06
474.625	90.06
474.844	71.06
475.063	92.06
475.282	92.06
475.501	90.06
475.72	72.06
475.939	72.06
476.158	75.06
476.377	81.06
476.596	82.06
476.814	90.06
477.033	89.06
477.252	79.06
477.471	83.06
477.69	83.06
477.908	86.06
478.127	92.06
478.346	90.06
478.564	74.06
478.783	96.06
479.002	88.06
479.22	81.06
479.439	82.06
479.658	87.06
479.876	95.06
480.095	88.06
480.313	76.06
480.532	88.06
480.751	98.06
480.969	82.06
481.188	91.06
481.406	80.06
481.624	88.06
481.843	84.06
482.061	83.06
482.28	86.06
482.498	83.06
482.717	75.06
482.935	78.06
483.153	76.06
483.372	91.06
483.59	84.06
483.808	88.06
484.027	83.06
484.245	79.06
484.463	95.06
484.681	87.06
484.9	88.06
485.118	85.06
485.336	85.06
485.554	89.06
485.772	93.06
485.99	104.06
486.209	103.06
486.427	103.06
486.645	97.06
486.863	97.06
487.081	91.06
487.299	93.06
487.517	84.06
487.735	93.06
487.953	91.06
488.171	88.06
488.389	100.06
488.607	81.06
488.825	93.06
489.043	87.06
489.261	79.06
489.479	74.06
489.696	91.06
489.914	87.06
490.132	90.06
490.35	91.06
490.568	87.06
490.786	88.06
491.003	88.06
491.221	80.06
491.439	97.06
491.657	90.06
491.874	81.06
492.092	92.06
492.31	76.06
492.527	89.06
492.745	93.06
492.963	89.06
493.18	93.06
493.398	84.06
493.615	106.06
493.833	82.06
494.05	83.06
494.268	95.06
494.485	93.06
494.703	79.06
494.92	98.06
495.138	89.06
495.355	92.06
495.573	96.06
495.79	94.06
496.008	85.06
496.225	66.06
496.442	83.06
496.66	96.06
496.877	86.06
497.094	87.06
497.312	97.06
497.529	79.06
497.746	100.06
497.963	90.06
498.181	88.06
498.398	85.06
498.615	118.06
498.832	88.06
499.049	105.06
499.267	94.06
499.484	89.06
499.701	83.06
499.918	90.06
500.135	99.06
500.352	90.06
500.569	102.06
500.786	85.06
501.003	102.06
501.22	91.06
501.437	90.06
501.654	94.06
501.871	89.06
502.088	87.06
502.305	95.06
502.522	99.06
502.739	95.06
502.956	90.06
503.172	90.06
503.389	94.06
503.606	101.06
503.823	99.06
504.04	90.06
504.256	81.06
504.473	86.06
504.69	89.06
504.907	90.06
505.123	82.06
505.34	94.06
505.557	66.06
505.773	93.06
505.99	87.06
506.207	93.06
506.423	94.06
506.64	82.06
506.856	72.06
507.073	84.06
507.289	94.06
507.506	106.06
507.722	97.06
507.939	110.06
508.155	78.06
508.372	85.06
508.588	95.06
508.805	103.06
509.021	95.06
509.238	80.06
509.454	100.06
509.67	94.06
509.887	97.06
510.103	125.06
510.319	200.06
510.536	691.06
510.752	2050.06
510.968	555.06
511.184	129.06
511.401	93.06
511.617	101.06
511.833	87.06
512.049	106.06
512.265	82.06
512.481	89.06
512.698	78.06
512.914	86.06
513.13	89.06
513.346	89.06
513.562	90.06
513.778	84.06
513.994	88.06
514.21	92.06
514.426	102.06
514.642	124.06
514.858	119.06
515.074	151.06
515.29	385.06
515.506	1202.06
515.721	471.06
515.937	136.06
516.153	105.06
516.369	101.06
516.585	79.06
516.801	94.06
517.016	99.06
517.232	82.06
517.448	96.06
