Data from Uncirc_2006_H10_HRD10591_00007.txt Node
Date: Wed Jan 03 10:24:56 EST 2024
User: Yrep
Spectrometer: HR+D1059
Trigger mode: 1
Integration Time (sec): 1.000000E-1
Scans to average: 1
Electric dark correction enabled: true
Nonlinearity correction enabled: false
Boxcar width: 0
XAxis mode: Wavelengths
Number of Pixels in Spectrum: 2048
>>>>>Begin Spectral Data<<<<<
223.165	-4.12
223.4	-4.12
223.635	-4.12
223.869	-13.12
224.104	-7.12
224.338	-7.12
224.573	-27.12
224.808	-20.12
225.042	5.88
225.277	-13.12
225.511	-9.12
225.746	-11.12
225.98	5.88
226.215	5.88
226.449	19.88
226.683	17.88
226.918	19.88
227.152	36.88
227.387	34.88
227.621	31.88
227.856	50.88
228.09	43.88
228.324	46.88
228.559	48.88
228.793	61.88
229.027	62.88
229.262	53.88
229.496	60.88
229.73	82.88
229.964	82.88
230.199	75.88
230.433	76.88
230.667	83.88
230.901	92.88
231.136	68.88
231.37	63.88
231.604	90.88
231.838	90.88
232.072	82.88
232.306	85.88
232.541	75.88
232.775	67.88
233.009	90.88
233.243	73.88
233.477	87.88
233.711	93.88
233.945	77.88
234.179	81.88
234.413	76.88
234.647	82.88
234.881	95.88
235.115	78.88
235.349	81.88
235.583	76.88
235.817	72.88
236.051	73.88
236.285	75.88
236.519	96.88
236.753	94.88
236.987	76.88
237.221	71.88
237.455	93.88
237.689	65.88
237.922	76.88
238.156	76.88
238.39	79.88
238.624	85.88
238.858	80.88
239.091	65.88
239.325	82.88
239.559	82.88
239.793	70.88
240.027	69.88
240.26	63.88
240.494	76.88
240.728	80.88
240.961	80.88
241.195	75.88
241.429	80.88
241.662	78.88
241.896	79.88
242.13	77.88
242.363	77.88
242.597	78.88
242.83	62.88
243.064	90.88
243.298	83.88
243.531	79.88
243.765	70.88
243.998	71.88
244.232	68.88
244.465	76.88
244.699	76.88
244.932	79.88
245.166	92.88
245.399	79.88
245.633	80.88
245.866	81.88
246.099	69.88
246.333	101.88
246.566	72.88
246.8	74.88
247.033	87.88
247.266	88.88
247.5	82.88
247.733	77.88
247.966	81.88
248.2	76.88
248.433	85.88
248.666	82.88
248.899	71.88
249.133	88.88
249.366	95.88
249.599	87.88
249.832	87.88
250.066	70.88
250.299	78.88
250.532	82.88
250.765	80.88
250.998	77.88
251.231	86.88
251.465	77.88
251.698	86.88
251.931	75.88
252.164	83.88
252.397	97.88
252.63	71.88
252.863	66.88
253.096	66.88
253.329	78.88
253.562	87.88
253.795	86.88
254.028	87.88
254.261	78.88
254.494	83.88
254.727	77.88
254.96	75.88
255.193	77.88
255.426	75.88
255.659	75.88
255.892	90.88
256.124	79.88
256.357	93.88
256.59	91.88
256.823	81.88
257.056	73.88
257.289	85.88
257.521	81.88
257.754	73.88
257.987	87.88
258.22	91.88
258.452	75.88
258.685	91.88
258.918	90.88
259.151	87.88
259.383	79.88
259.616	86.88
259.849	92.88
260.081	89.88
260.314	68.88
260.547	88.88
260.779	76.88
261.012	82.88
261.244	88.88
261.477	96.88
261.71	99.88
261.942	91.88
262.175	99.88
262.407	92.88
262.64	96.88
262.872	91.88
263.105	95.88
263.337	80.88
263.57	79.88
263.802	100.88
264.035	69.88
264.267	79.88
264.499	89.88
264.732	97.88
264.964	95.88
265.197	96.88
265.429	86.88
265.661	80.88
265.894	80.88
266.126	82.88
266.358	75.88
266.591	87.88
266.823	83.88
267.055	91.88
267.287	86.88
267.52	97.88
267.752	96.88
267.984	84.88
268.216	65.88
268.448	85.88
268.681	82.88
268.913	80.88
269.145	96.88
269.377	92.88
269.609	86.88
269.841	94.88
270.073	82.88
270.306	82.88
270.538	81.88
270.77	78.88
271.002	76.88
271.234	87.88
271.466	96.88
271.698	84.88
271.93	83.88
272.162	80.88
272.394	82.88
272.626	92.88
272.858	95.88
273.09	85.88
273.322	87.88
273.553	90.88
273.785	76.88
274.017	67.88
274.249	79.88
274.481	81.88
274.713	81.88
274.945	79.88
275.176	94.88
275.408	88.88
275.64	91.88
275.872	78.88
276.104	98.88
276.335	96.88
276.567	103.88
276.799	90.88
277.031	104.88
277.262	86.88
277.494	83.88
277.726	96.88
277.957	97.88
278.189	78.88
278.421	71.88
278.652	82.88
278.884	73.88
279.115	95.88
279.347	89.88
279.579	73.88
279.81	85.88
280.042	96.88
280.273	78.88
280.505	93.88
280.736	90.88
280.968	81.88
281.199	84.88
281.431	81.88
281.662	86.88
281.894	101.88
282.125	83.88
282.356	113.88
282.588	117.88
282.819	100.88
283.051	98.88
283.282	101.88
283.513	93.88
283.745	77.88
283.976	75.88
284.207	84.88
284.439	71.88
284.67	87.88
284.901	92.88
285.132	83.88
285.364	97.88
285.595	98.88
285.826	77.88
286.057	92.88
286.288	75.88
286.52	84.88
286.751	79.88
286.982	84.88
287.213	86.88
287.444	87.88
287.675	86.88
287.906	88.88
288.138	79.88
288.369	85.88
288.6	80.88
288.831	85.88
289.062	97.88
289.293	87.88
289.524	86.88
289.755	82.88
289.986	71.88
290.217	83.88
290.448	86.88
290.679	91.88
290.91	96.88
291.141	97.88
291.371	101.88
291.602	92.88
291.833	83.88
292.064	100.88
292.295	88.88
292.526	101.88
292.757	89.88
292.987	78.88
293.218	85.88
293.449	84.88
293.68	85.88
293.91	84.88
294.141	92.88
294.372	91.88
294.603	86.88
294.833	81.88
295.064	85.88
295.295	87.88
295.525	93.88
295.756	92.88
295.987	103.88
296.217	136.88
296.448	119.88
296.679	89.88
296.909	98.88
297.14	94.88
297.37	78.88
297.601	91.88
297.831	84.88
298.062	83.88
298.292	93.88
298.523	90.88
298.753	85.88
298.984	83.88
299.214	79.88
299.445	82.88
299.675	96.88
299.905	93.88
300.136	106.88
300.366	86.88
300.597	90.88
300.827	97.88
301.057	93.88
301.288	93.88
301.518	101.88
301.748	84.88
301.979	94.88
302.209	96.88
302.439	96.88
302.669	92.88
302.9	88.88
303.13	82.88
303.36	96.88
303.59	97.88
303.82	94.88
304.051	87.88
304.281	84.88
304.511	69.88
304.741	94.88
304.971	96.88
305.201	95.88
305.431	105.88
305.661	83.88
305.891	92.88
306.121	89.88
306.352	95.88
306.582	99.88
306.812	106.88
307.042	100.88
307.272	96.88
307.502	92.88
307.731	78.88
307.961	74.88
308.191	89.88
308.421	85.88
308.651	93.88
308.881	93.88
309.111	102.88
309.341	91.88
309.571	106.88
309.8	95.88
310.03	110.88
310.26	104.88
310.49	91.88
310.72	83.88
310.949	100.88
311.179	88.88
311.409	100.88
311.639	101.88
311.868	89.88
312.098	97.88
312.328	97.88
312.557	96.88
312.787	85.88
313.017	99.88
313.246	85.88
313.476	78.88
313.706	83.88
313.935	93.88
314.165	93.88
314.394	86.88
314.624	93.88
314.853	78.88
315.083	85.88
315.312	86.88
315.542	91.88
315.771	87.88
316.001	97.88
316.23	93.88
316.46	90.88
316.689	86.88
316.919	98.88
317.148	97.88
317.377	95.88
317.607	82.88
317.836	86.88
318.065	92.88
318.295	89.88
318.524	79.88
318.753	79.88
318.983	88.88
319.212	105.88
319.441	103.88
319.67	112.88
319.9	77.88
320.129	98.88
320.358	87.88
320.587	86.88
320.816	86.88
321.046	82.88
321.275	93.88
321.504	85.88
321.733	92.88
321.962	99.88
322.191	109.88
322.42	90.88
322.649	91.88
322.878	99.88
323.108	118.88
323.337	101.88
323.566	110.88
323.795	141.88
324.024	193.88
324.253	350.88
324.482	727.88
324.71	1449.88
324.939	1897.88
325.168	702.88
325.397	236.88
325.626	117.88
325.855	137.88
326.084	131.88
326.313	122.88
326.542	144.88
326.77	198.88
326.999	405.88
327.228	839.88
327.457	1457.88
327.686	1189.88
327.914	327.88
328.143	163.88
328.372	137.88
328.6	123.88
328.829	116.88
329.058	105.88
329.287	125.88
329.515	95.88
329.744	104.88
329.972	92.88
330.201	112.88
330.43	102.88
330.658	109.88
330.887	125.88
331.115	115.88
331.344	113.88
331.572	97.88
331.801	68.88
332.03	97.88
332.258	95.88
332.486	90.88
332.715	96.88
332.943	114.88
333.172	101.88
333.4	103.88
333.629	98.88
333.857	92.88
334.085	91.88
334.314	94.88
334.542	109.88
334.771	86.88
334.999	82.88
335.227	90.88
335.455	88.88
335.684	99.88
335.912	94.88
336.14	105.88
336.369	97.88
336.597	101.88
336.825	86.88
337.053	93.88
337.281	89.88
337.51	87.88
337.738	98.88
337.966	91.88
338.194	91.88
338.422	86.88
338.65	91.88
338.878	95.88
339.106	92.88
339.334	97.88
339.562	84.88
339.79	102.88
340.018	90.88
340.246	86.88
340.474	98.88
340.702	95.88
340.93	94.88
341.158	84.88
341.386	99.88
341.614	87.88
341.842	89.88
342.07	100.88
342.298	87.88
342.526	95.88
342.754	98.88
342.981	85.88
343.209	79.88
343.437	96.88
343.665	84.88
343.893	100.88
344.12	91.88
344.348	76.88
344.576	85.88
344.804	93.88
345.031	83.88
345.259	101.88
345.487	87.88
345.714	80.88
345.942	94.88
346.17	79.88
346.397	93.88
346.625	100.88
346.853	91.88
347.08	86.88
347.308	85.88
347.535	88.88
347.763	102.88
347.99	83.88
348.218	95.88
348.445	94.88
348.673	95.88
348.9	83.88
349.128	86.88
349.355	93.88
349.583	93.88
349.81	98.88
350.037	88.88
350.265	101.88
350.492	83.88
350.72	90.88
350.947	89.88
351.174	105.88
351.402	103.88
351.629	94.88
351.856	93.88
352.083	92.88
352.311	95.88
352.538	107.88
352.765	110.88
352.992	112.88
353.22	108.88
353.447	104.88
353.674	94.88
353.901	102.88
354.128	97.88
354.355	93.88
354.583	99.88
354.81	110.88
355.037	103.88
355.264	84.88
355.491	101.88
355.718	102.88
355.945	85.88
356.172	78.88
356.399	83.88
356.626	93.88
356.853	85.88
357.08	89.88
357.307	95.88
357.534	88.88
357.761	102.88
357.988	98.88
358.215	95.88
358.441	87.88
358.668	100.88
358.895	93.88
359.122	91.88
359.349	92.88
359.576	79.88
359.802	96.88
360.029	98.88
360.256	104.88
360.483	94.88
360.709	103.88
360.936	96.88
361.163	97.88
361.39	89.88
361.616	80.88
361.843	102.88
362.07	103.88
362.296	87.88
362.523	78.88
362.749	86.88
362.976	102.88
363.203	80.88
363.429	92.88
363.656	86.88
363.882	84.88
364.109	88.88
364.335	89.88
364.562	90.88
364.788	84.88
365.015	91.88
365.241	79.88
365.468	95.88
365.694	98.88
365.92	86.88
366.147	77.88
366.373	86.88
366.599	74.88
366.826	78.88
367.052	89.88
367.278	87.88
367.505	86.88
367.731	98.88
367.957	84.88
368.184	94.88
368.41	91.88
368.636	116.88
368.862	114.88
369.089	100.88
369.315	81.88
369.541	94.88
369.767	85.88
369.993	96.88
370.219	87.88
370.445	82.88
370.672	73.88
370.898	78.88
371.124	87.88
371.35	83.88
371.576	93.88
371.802	98.88
372.028	79.88
372.254	103.88
372.48	94.88
372.706	89.88
372.932	85.88
373.158	83.88
373.384	99.88
373.61	99.88
373.835	99.88
374.061	94.88
374.287	85.88
374.513	101.88
374.739	95.88
374.965	77.88
375.191	90.88
375.416	86.88
375.642	101.88
375.868	104.88
376.094	95.88
376.319	86.88
376.545	92.88
376.771	90.88
376.997	85.88
377.222	89.88
377.448	100.88
377.674	100.88
377.899	94.88
378.125	76.88
378.35	90.88
378.576	87.88
378.802	89.88
379.027	96.88
379.253	105.88
379.478	96.88
379.704	90.88
379.929	93.88
380.155	101.88
380.38	104.88
380.606	89.88
380.831	103.88
381.057	108.88
381.282	85.88
381.507	89.88
381.733	107.88
381.958	93.88
382.184	118.88
382.409	97.88
382.634	106.88
382.86	124.88
383.085	110.88
383.31	98.88
383.535	106.88
383.761	109.88
383.986	107.88
384.211	98.88
384.436	102.88
384.662	93.88
384.887	121.88
385.112	105.88
385.337	99.88
385.562	99.88
385.787	110.88
386.013	114.88
386.238	131.88
386.463	133.88
386.688	111.88
386.913	109.88
387.138	105.88
387.363	114.88
387.588	104.88
387.813	110.88
388.038	113.88
388.263	127.88
388.488	116.88
388.713	98.88
388.938	94.88
389.163	85.88
389.387	96.88
389.612	83.88
389.837	91.88
390.062	82.88
390.287	79.88
390.512	97.88
390.736	83.88
390.961	90.88
391.186	87.88
391.411	113.88
391.636	90.88
391.86	96.88
392.085	87.88
392.31	92.88
392.534	88.88
392.759	78.88
392.984	79.88
393.208	101.88
393.433	101.88
393.658	102.88
393.882	98.88
394.107	100.88
394.331	86.88
394.556	70.88
394.78	80.88
395.005	84.88
395.229	93.88
395.454	83.88
395.678	94.88
395.903	86.88
396.127	82.88
396.352	77.88
396.576	86.88
396.801	103.88
397.025	85.88
397.249	85.88
397.474	86.88
397.698	89.88
397.922	78.88
398.147	95.88
398.371	89.88
398.595	99.88
398.82	94.88
399.044	85.88
399.268	92.88
399.492	87.88
399.717	83.88
399.941	98.88
400.165	86.88
400.389	81.88
400.613	96.88
400.837	91.88
401.062	95.88
401.286	94.88
401.51	93.88
401.734	89.88
401.958	82.88
402.182	112.88
402.406	148.88
402.63	99.88
402.854	95.88
403.078	93.88
403.302	92.88
403.526	93.88
403.75	76.88
403.974	88.88
404.198	94.88
404.422	98.88
404.645	85.88
404.869	92.88
405.093	93.88
405.317	89.88
405.541	92.88
405.765	89.88
405.988	104.88
406.212	157.88
406.436	199.88
406.66	132.88
406.883	90.88
407.107	95.88
407.331	84.88
407.555	101.88
407.778	98.88
408.002	72.88
408.226	87.88
408.449	90.88
408.673	92.88
408.896	93.88
409.12	87.88
409.344	89.88
409.567	80.88
409.791	91.88
410.014	79.88
410.238	96.88
410.461	98.88
410.685	98.88
410.908	109.88
411.132	99.88
411.355	96.88
411.578	95.88
411.802	84.88
412.025	100.88
412.249	83.88
412.472	86.88
412.695	97.88
412.919	93.88
413.142	97.88
413.365	89.88
413.589	76.88
413.812	94.88
414.035	93.88
414.258	86.88
414.482	108.88
414.705	81.88
414.928	90.88
415.151	90.88
415.374	91.88
415.597	91.88
415.821	82.88
416.044	96.88
416.267	86.88
416.49	85.88
416.713	92.88
416.936	89.88
417.159	97.88
417.382	93.88
417.605	87.88
417.828	89.88
418.051	84.88
418.274	102.88
418.497	99.88
418.72	88.88
418.943	83.88
419.166	92.88
419.389	76.88
419.611	87.88
419.834	86.88
420.057	95.88
420.28	89.88
420.503	82.88
420.726	91.88
420.948	79.88
421.171	84.88
421.394	76.88
421.617	71.88
421.839	92.88
422.062	89.88
422.285	92.88
422.507	91.88
422.73	94.88
422.953	90.88
423.175	79.88
423.398	69.88
423.621	78.88
423.843	81.88
424.066	87.88
424.288	106.88
424.511	77.88
424.733	102.88
424.956	98.88
425.178	95.88
425.401	92.88
425.623	91.88
425.846	85.88
426.068	95.88
426.291	81.88
426.513	95.88
426.735	113.88
426.958	106.88
427.18	92.88
427.402	113.88
427.625	137.88
427.847	99.88
428.069	86.88
428.292	95.88
428.514	93.88
428.736	86.88
428.958	87.88
429.181	92.88
429.403	82.88
429.625	82.88
429.847	98.88
430.069	83.88
430.292	82.88
430.514	91.88
430.736	93.88
430.958	89.88
431.18	85.88
431.402	83.88
431.624	89.88
431.846	73.88
432.068	84.88
432.29	81.88
432.512	100.88
432.734	97.88
432.956	101.88
433.178	99.88
433.4	88.88
433.622	91.88
433.844	93.88
434.066	83.88
434.287	84.88
434.509	92.88
434.731	86.88
434.953	95.88
435.175	99.88
435.397	91.88
435.618	96.88
435.84	99.88
436.062	127.88
436.284	106.88
436.505	105.88
436.727	86.88
436.949	96.88
437.17	81.88
437.392	103.88
437.614	91.88
437.835	94.88
438.057	108.88
438.278	105.88
438.5	86.88
438.721	101.88
438.943	93.88
439.165	90.88
439.386	93.88
439.608	86.88
439.829	94.88
440.05	110.88
440.272	131.88
440.493	84.88
440.715	87.88
440.936	78.88
441.158	84.88
441.379	82.88
441.6	86.88
441.822	100.88
442.043	85.88
442.264	81.88
442.486	88.88
442.707	84.88
442.928	98.88
443.149	103.88
443.371	117.88
443.592	101.88
443.813	96.88
444.034	100.88
444.255	82.88
444.476	83.88
444.698	102.88
444.919	93.88
445.14	136.88
445.361	123.88
445.582	110.88
445.803	133.88
446.024	120.88
446.245	103.88
446.466	104.88
446.687	81.88
446.908	70.88
447.129	90.88
447.35	95.88
447.571	82.88
447.792	94.88
448.013	104.88
448.234	107.88
448.455	106.88
448.675	111.88
448.896	88.88
449.117	93.88
449.338	91.88
449.559	122.88
449.779	118.88
450	87.88
450.221	85.88
450.442	90.88
450.662	98.88
450.883	91.88
451.104	89.88
451.324	93.88
451.545	78.88
451.766	75.88
451.986	80.88
452.207	79.88
452.428	90.88
452.648	93.88
452.869	108.88
453.089	103.88
453.31	126.88
453.53	93.88
453.751	79.88
453.971	101.88
454.192	91.88
454.412	89.88
454.633	90.88
454.853	92.88
455.073	90.88
455.294	92.88
455.514	97.88
455.734	99.88
455.955	86.88
456.175	77.88
456.395	83.88
456.616	87.88
456.836	87.88
457.056	84.88
457.276	96.88
457.497	86.88
457.717	85.88
457.937	87.88
458.157	87.88
458.377	86.88
458.598	85.88
458.818	141.88
459.038	121.88
459.258	117.88
459.478	85.88
459.698	82.88
459.918	87.88
460.138	97.88
460.358	92.88
460.578	90.88
460.798	86.88
461.018	87.88
461.238	71.88
461.458	89.88
461.678	71.88
461.898	81.88
462.118	101.88
462.338	90.88
462.558	80.88
462.777	86.88
462.997	84.88
463.217	95.88
463.437	90.88
463.657	87.88
463.876	94.88
464.096	97.88
464.316	80.88
464.536	105.88
464.755	98.88
464.975	104.88
465.195	143.88
465.414	125.88
465.634	103.88
465.854	86.88
466.073	86.88
466.293	93.88
466.512	97.88
466.732	86.88
466.951	81.88
467.171	94.88
467.391	91.88
467.61	108.88
467.829	93.88
468.049	84.88
468.268	87.88
468.488	96.88
468.707	73.88
468.927	90.88
469.146	62.88
469.365	83.88
469.585	76.88
469.804	95.88
470.023	97.88
470.243	92.88
470.462	95.88
470.681	94.88
470.901	86.88
471.12	84.88
471.339	81.88
471.558	88.88
471.777	91.88
471.997	85.88
472.216	84.88
472.435	71.88
472.654	89.88
472.873	88.88
473.092	83.88
473.311	78.88
473.53	73.88
473.749	90.88
473.968	88.88
474.187	90.88
474.406	88.88
474.625	85.88
474.844	95.88
475.063	94.88
475.282	85.88
475.501	99.88
475.72	84.88
475.939	83.88
476.158	88.88
476.377	94.88
476.596	83.88
476.814	91.88
477.033	103.88
477.252	92.88
477.471	81.88
477.69	95.88
477.908	89.88
478.127	90.88
478.346	92.88
478.564	79.88
478.783	105.88
479.002	105.88
479.22	85.88
479.439	97.88
479.658	100.88
479.876	99.88
480.095	89.88
480.313	99.88
480.532	104.88
480.751	93.88
480.969	86.88
481.188	91.88
481.406	82.88
481.624	90.88
481.843	93.88
482.061	73.88
482.28	88.88
482.498	80.88
482.717	89.88
482.935	98.88
483.153	74.88
483.372	87.88
483.59	105.88
483.808	82.88
484.027	76.88
484.245	86.88
484.463	89.88
484.681	98.88
484.9	114.88
485.118	100.88
485.336	100.88
485.554	99.88
485.772	95.88
485.99	115.88
486.209	94.88
486.427	101.88
486.645	96.88
486.863	109.88
487.081	93.88
487.299	92.88
487.517	93.88
487.735	87.88
487.953	82.88
488.171	94.88
488.389	109.88
488.607	107.88
488.825	102.88
489.043	98.88
489.261	94.88
489.479	101.88
489.696	113.88
489.914	69.88
490.132	101.88
490.35	82.88
490.568	75.88
490.786	81.88
491.003	97.88
491.221	81.88
491.439	93.88
491.657	93.88
491.874	92.88
492.092	88.88
492.31	87.88
492.527	81.88
492.745	100.88
492.963	93.88
493.18	105.88
493.398	95.88
493.615	86.88
493.833	102.88
494.05	106.88
494.268	99.88
494.485	93.88
494.703	87.88
494.92	85.88
495.138	79.88
495.355	97.88
495.573	96.88
495.79	85.88
496.008	95.88
496.225	92.88
496.442	81.88
496.66	91.88
496.877	87.88
497.094	82.88
497.312	79.88
497.529	83.88
497.746	92.88
497.963	97.88
498.181	88.88
498.398	99.88
498.615	98.88
498.832	94.88
499.049	95.88
499.267	86.88
499.484	83.88
499.701	85.88
499.918	100.88
500.135	94.88
500.352	87.88
500.569	104.88
500.786	100.88
501.003	102.88
501.22	87.88
501.437	94.88
501.654	85.88
501.871	110.88
502.088	91.88
502.305	94.88
502.522	93.88
502.739	82.88
502.956	98.88
503.172	81.88
503.389	96.88
503.606	108.88
503.823	95.88
504.04	74.88
504.256	92.88
504.473	105.88
504.69	87.88
504.907	97.88
505.123	91.88
505.34	84.88
505.557	93.88
505.773	95.88
505.99	93.88
506.207	86.88
506.423	89.88
506.64	86.88
506.856	109.88
507.073	100.88
507.289	91.88
507.506	85.88
507.722	108.88
507.939	107.88
508.155	86.88
508.372	83.88
508.588	87.88
508.805	104.88
509.021	90.88
509.238	95.88
509.454	90.88
509.67	81.88
509.887	98.88
510.103	121.88
510.319	180.88
510.536	631.88
510.752	1953.88
510.968	576.88
511.184	151.88
511.401	108.88
511.617	99.88
511.833	99.88
512.049	85.88
512.265	91.88
512.481	110.88
512.698	94.88
512.914	116.88
513.13	77.88
513.346	89.88
513.562	91.88
513.778	105.88
513.994	111.88
514.21	110.88
514.426	115.88
514.642	136.88
514.858	127.88
515.074	152.88
515.29	349.88
515.506	1149.88
515.721	450.88
515.937	137.88
516.153	109.88
516.369	95.88
