Data from Uncirc_2006_H10_HRD10591_00014.txt Node
Date: Wed Jan 03 10:24:57 EST 2024
User: Yrep
Spectrometer: HR+D1059
Trigger mode: 1
Integration Time (sec): 1.000000E-1
Scans to average: 1
Electric dark correction enabled: true
Nonlinearity correction enabled: false
Boxcar width: 0
XAxis mode: Wavelengths
Number of Pixels in Spectrum: 2048
>>>>>Begin Spectral Data<<<<<
223.165	-13
223.4	-13
223.635	-13
223.869	-17
224.104	-11
224.338	-16
224.573	-7
224.808	-7
225.042	-4
225.277	-16
225.511	-5
225.746	-1
225.98	10
226.215	14
226.449	10
226.683	16
226.918	31
227.152	16
227.387	28
227.621	46
227.856	30
228.09	34
228.324	49
228.559	57
228.793	56
229.027	64
229.262	64
229.496	88
229.73	83
229.964	79
230.199	65
230.433	79
230.667	94
230.901	93
231.136	77
231.37	83
231.604	76
231.838	84
232.072	67
232.306	86
232.541	80
232.775	92
233.009	84
233.243	83
233.477	76
233.711	74
233.945	76
234.179	78
234.413	71
234.647	76
234.881	88
235.115	78
235.349	72
235.583	80
235.817	83
236.051	95
236.285	71
236.519	80
236.753	71
236.987	63
237.221	79
237.455	97
237.689	87
237.922	67
238.156	83
238.39	70
238.624	82
238.858	89
239.091	90
239.325	88
239.559	81
239.793	76
240.027	71
240.26	71
240.494	82
240.728	90
240.961	80
241.195	83
241.429	74
241.662	69
241.896	86
242.13	83
242.363	75
242.597	78
242.83	72
243.064	72
243.298	80
243.531	72
243.765	79
243.998	66
244.232	74
244.465	79
244.699	93
244.932	83
245.166	76
245.399	92
245.633	74
245.866	75
246.099	76
246.333	92
246.566	74
246.8	84
247.033	73
247.266	74
247.5	86
247.733	94
247.966	86
248.2	86
248.433	81
248.666	87
248.899	89
249.133	85
249.366	102
249.599	80
249.832	76
250.066	77
250.299	78
250.532	79
250.765	92
250.998	72
251.231	72
251.465	78
251.698	86
251.931	70
252.164	89
252.397	84
252.63	83
252.863	80
253.096	79
253.329	83
253.562	73
253.795	68
254.028	76
254.261	66
254.494	88
254.727	95
254.96	82
255.193	76
255.426	74
255.659	80
255.892	84
256.124	83
256.357	81
256.59	92
256.823	92
257.056	73
257.289	84
257.521	81
257.754	93
257.987	78
258.22	86
258.452	85
258.685	92
258.918	70
259.151	75
259.383	74
259.616	91
259.849	87
260.081	84
260.314	78
260.547	82
260.779	103
261.012	76
261.244	87
261.477	86
261.71	99
261.942	119
262.175	111
262.407	92
262.64	77
262.872	85
263.105	95
263.337	76
263.57	81
263.802	76
264.035	82
264.267	89
264.499	77
264.732	78
264.964	94
265.197	83
265.429	81
265.661	76
265.894	75
266.126	84
266.358	93
266.591	86
266.823	85
267.055	80
267.287	64
267.52	75
267.752	90
267.984	78
268.216	85
268.448	83
268.681	70
268.913	82
269.145	81
269.377	86
269.609	68
269.841	87
270.073	69
270.306	77
270.538	75
270.77	79
271.002	87
271.234	87
271.466	87
271.698	95
271.93	90
272.162	83
272.394	95
272.626	83
272.858	82
273.09	104
273.322	89
273.553	76
273.785	95
274.017	83
274.249	92
274.481	82
274.713	81
274.945	94
275.176	92
275.408	75
275.64	88
275.872	84
276.104	88
276.335	91
276.567	92
276.799	113
277.031	109
277.262	83
277.494	92
277.726	79
277.957	91
278.189	96
278.421	80
278.652	78
278.884	80
279.115	92
279.347	88
279.579	84
279.81	71
280.042	92
280.273	78
280.505	72
280.736	92
280.968	92
281.199	85
281.431	99
281.662	90
281.894	94
282.125	93
282.356	129
282.588	128
282.819	107
283.051	89
283.282	67
283.513	95
283.745	81
283.976	84
284.207	95
284.439	104
284.67	96
284.901	99
285.132	87
285.364	84
285.595	93
285.826	80
286.057	95
286.288	84
286.52	86
286.751	91
286.982	95
287.213	93
287.444	79
287.675	103
287.906	81
288.138	88
288.369	86
288.6	83
288.831	85
289.062	94
289.293	68
289.524	76
289.755	90
289.986	76
290.217	98
290.448	83
290.679	91
290.91	91
291.141	97
291.371	86
291.602	100
291.833	95
292.064	97
292.295	88
292.526	74
292.757	86
292.987	85
293.218	91
293.449	82
293.68	64
293.91	80
294.141	78
294.372	84
294.603	82
294.833	93
295.064	88
295.295	72
295.525	94
295.756	91
295.987	113
296.217	138
296.448	124
296.679	82
296.909	100
297.14	83
297.37	101
297.601	79
297.831	84
298.062	113
298.292	86
298.523	91
298.753	84
298.984	82
299.214	80
299.445	98
299.675	101
299.905	96
300.136	94
300.366	81
300.597	96
300.827	74
301.057	94
301.288	98
301.518	94
301.748	100
301.979	93
302.209	94
302.439	85
302.669	84
302.9	85
303.13	87
303.36	101
303.59	86
303.82	101
304.051	90
304.281	83
304.511	101
304.741	88
304.971	85
305.201	87
305.431	98
305.661	84
305.891	95
306.121	104
306.352	100
306.582	103
306.812	102
307.042	90
307.272	91
307.502	91
307.731	84
307.961	84
308.191	86
308.421	98
308.651	106
308.881	84
309.111	92
309.341	88
309.571	94
309.8	97
310.03	84
310.26	99
310.49	99
310.72	92
310.949	112
311.179	101
311.409	83
311.639	108
311.868	95
312.098	88
312.328	95
312.557	104
312.787	112
313.017	83
313.246	103
313.476	87
313.706	93
313.935	85
314.165	103
314.394	102
314.624	91
314.853	86
315.083	89
315.312	85
315.542	87
315.771	97
316.001	97
316.23	84
316.46	98
316.689	104
316.919	98
317.148	95
317.377	104
317.607	93
317.836	89
318.065	80
318.295	99
318.524	93
318.753	103
318.983	82
319.212	86
319.441	103
319.67	102
319.9	87
320.129	92
320.358	101
320.587	98
320.816	103
321.046	102
321.275	85
321.504	91
321.733	87
321.962	94
322.191	98
322.42	119
322.649	92
322.878	113
323.108	122
323.337	114
323.566	126
323.795	163
324.024	219
324.253	398
324.482	872
324.71	1821
324.939	2357
325.168	859
325.397	254
325.626	175
325.855	130
326.084	126
326.313	130
326.542	158
326.77	231
326.999	479
327.228	996
327.457	1801
327.686	1421
327.914	367
328.143	190
328.372	142
328.6	118
328.829	117
329.058	118
329.287	129
329.515	110
329.744	102
329.972	107
330.201	96
330.43	98
330.658	107
330.887	139
331.115	130
331.344	103
331.572	110
331.801	100
332.03	111
332.258	102
332.486	94
332.715	99
332.943	94
333.172	97
333.4	93
333.629	103
333.857	112
334.085	108
334.314	101
334.542	95
334.771	88
334.999	99
335.227	104
335.455	97
335.684	89
335.912	95
336.14	100
336.369	94
336.597	96
336.825	103
337.053	111
337.281	94
337.51	108
337.738	108
337.966	94
338.194	100
338.422	92
338.65	90
338.878	106
339.106	86
339.334	103
339.562	87
339.79	100
340.018	95
340.246	86
340.474	85
340.702	80
340.93	95
341.158	85
341.386	85
341.614	91
341.842	101
342.07	99
342.298	87
342.526	99
342.754	96
342.981	98
343.209	74
343.437	88
343.665	107
343.893	97
344.12	94
344.348	79
344.576	88
344.804	94
345.031	87
345.259	90
345.487	97
345.714	91
345.942	85
346.17	90
346.397	86
346.625	97
346.853	88
347.08	77
347.308	87
347.535	100
347.763	102
347.99	107
348.218	107
348.445	98
348.673	101
348.9	96
349.128	91
349.355	80
349.583	104
349.81	86
350.037	94
350.265	95
350.492	91
350.72	96
350.947	102
351.174	89
351.402	106
351.629	85
351.856	99
352.083	106
352.311	114
352.538	118
352.765	100
352.992	116
353.22	108
353.447	94
353.674	96
353.901	90
354.128	90
354.355	102
354.583	92
354.81	100
355.037	111
355.264	81
355.491	93
355.718	87
355.945	87
356.172	97
356.399	106
356.626	102
356.853	102
357.08	94
357.307	85
357.534	86
357.761	91
357.988	100
358.215	103
358.441	101
358.668	107
358.895	91
359.122	109
359.349	87
359.576	96
359.802	112
360.029	115
360.256	107
360.483	100
360.709	86
360.936	74
361.163	102
361.39	96
361.616	94
361.843	87
362.07	86
362.296	98
362.523	93
362.749	95
362.976	84
363.203	89
363.429	90
363.656	98
363.882	93
364.109	96
364.335	85
364.562	93
364.788	87
365.015	108
365.241	108
365.468	99
365.694	86
365.92	83
366.147	89
366.373	86
366.599	90
366.826	95
367.052	87
367.278	84
367.505	78
367.731	109
367.957	86
368.184	88
368.41	94
368.636	110
368.862	105
369.089	102
369.315	104
369.541	93
369.767	88
369.993	86
370.219	99
370.445	80
370.672	82
370.898	92
371.124	87
371.35	94
371.576	101
371.802	95
372.028	79
372.254	92
372.48	87
372.706	84
372.932	95
373.158	84
373.384	93
373.61	94
373.835	100
374.061	91
374.287	94
374.513	81
374.739	95
374.965	93
375.191	86
375.416	95
375.642	78
375.868	103
376.094	110
376.319	81
376.545	92
376.771	87
376.997	82
377.222	100
377.448	96
377.674	82
377.899	94
378.125	91
378.35	87
378.576	84
378.802	94
379.027	95
379.253	84
379.478	94
379.704	103
379.929	94
380.155	89
380.38	93
380.606	93
380.831	95
381.057	95
381.282	108
381.507	86
381.733	94
381.958	112
382.184	102
382.409	107
382.634	103
382.86	111
383.085	102
383.31	95
383.535	110
383.761	105
383.986	110
384.211	96
384.436	101
384.662	99
384.887	115
385.112	124
385.337	115
385.562	117
385.787	102
386.013	114
386.238	107
386.463	115
386.688	118
386.913	100
387.138	109
387.363	116
387.588	111
387.813	116
388.038	112
388.263	113
388.488	130
388.713	117
388.938	96
389.163	100
389.387	88
389.612	95
389.837	88
390.062	80
390.287	84
390.512	101
390.736	95
390.961	95
391.186	95
391.411	94
391.636	98
391.86	86
392.085	94
392.31	92
392.534	82
392.759	84
392.984	82
393.208	86
393.433	116
393.658	77
393.882	80
394.107	76
394.331	88
394.556	89
394.78	91
395.005	85
395.229	97
395.454	86
395.678	82
395.903	92
396.127	92
396.352	83
396.576	82
396.801	97
397.025	97
397.249	88
397.474	97
397.698	95
397.922	97
398.147	91
398.371	102
398.595	100
398.82	93
399.044	94
399.268	86
399.492	102
399.717	84
399.941	91
400.165	95
400.389	83
400.613	87
400.837	80
401.062	84
401.286	92
401.51	90
401.734	89
401.958	102
402.182	126
402.406	159
402.63	111
402.854	96
403.078	91
403.302	97
403.526	97
403.75	87
403.974	100
404.198	90
404.422	85
404.645	105
404.869	94
405.093	103
405.317	91
405.541	105
405.765	98
405.988	114
406.212	170
406.436	201
406.66	149
406.883	115
407.107	101
407.331	99
407.555	106
407.778	98
408.002	90
408.226	86
408.449	94
408.673	96
408.896	88
409.12	98
409.344	85
409.567	88
409.791	88
410.014	78
410.238	92
410.461	100
410.685	93
410.908	102
411.132	99
411.355	75
411.578	106
411.802	87
412.025	97
412.249	99
412.472	96
412.695	88
412.919	92
413.142	95
413.365	82
413.589	104
413.812	93
414.035	104
414.258	100
414.482	102
414.705	91
414.928	98
415.151	85
415.374	92
415.597	96
415.821	86
416.044	94
416.267	95
416.49	90
416.713	88
416.936	76
417.159	92
417.382	94
417.605	94
417.828	79
418.051	90
418.274	87
418.497	86
418.72	81
418.943	87
419.166	96
419.389	82
419.611	100
419.834	108
420.057	94
420.28	80
420.503	88
420.726	86
420.948	85
421.171	94
421.394	101
421.617	88
421.839	88
422.062	90
422.285	100
422.507	96
422.73	106
422.953	86
423.175	102
423.398	84
423.621	89
423.843	92
424.066	85
424.288	88
424.511	87
424.733	94
424.956	90
425.178	111
425.401	95
425.623	92
425.846	99
426.068	77
426.291	90
426.513	112
426.735	99
426.958	80
427.18	106
427.402	140
427.625	178
427.847	150
428.069	98
428.292	103
428.514	84
428.736	73
428.958	98
429.181	82
429.403	89
429.625	86
429.847	95
430.069	102
430.292	95
430.514	75
430.736	99
430.958	88
431.18	89
431.402	93
431.624	93
431.846	85
432.068	90
432.29	86
432.512	77
432.734	79
432.956	84
433.178	94
433.4	93
433.622	94
433.844	99
434.066	111
434.287	80
434.509	87
434.731	86
434.953	86
435.175	83
435.397	86
435.618	99
435.84	98
436.062	118
436.284	110
436.505	97
436.727	99
436.949	90
437.17	87
437.392	104
437.614	104
437.835	102
438.057	115
438.278	103
438.5	87
438.721	115
438.943	111
439.165	84
439.386	91
439.608	99
439.829	93
440.05	112
440.272	139
440.493	92
440.715	82
440.936	87
441.158	89
441.379	94
441.6	84
441.822	96
442.043	76
442.264	102
442.486	100
442.707	109
442.928	106
443.149	126
443.371	124
443.592	110
443.813	102
444.034	110
444.255	105
444.476	85
444.698	91
444.919	104
445.14	115
445.361	111
445.582	113
445.803	129
446.024	118
446.245	119
446.466	98
446.687	88
446.908	82
447.129	107
447.35	83
447.571	106
447.792	99
448.013	102
448.234	100
448.455	118
448.675	107
448.896	114
449.117	106
449.338	110
449.559	117
449.779	124
450	95
450.221	96
450.442	101
450.662	84
450.883	114
451.104	118
451.324	88
451.545	86
451.766	89
451.986	92
452.207	91
452.428	86
452.648	100
452.869	101
453.089	119
453.31	116
453.53	92
453.751	89
453.971	110
454.192	111
454.412	101
454.633	85
454.853	81
455.073	92
455.294	99
455.514	81
455.734	94
455.955	98
456.175	75
456.395	98
456.616	86
456.836	78
457.056	75
457.276	92
457.497	84
457.717	98
457.937	83
458.157	95
458.377	98
458.598	98
458.818	157
459.038	160
459.258	102
459.478	94
459.698	82
459.918	87
460.138	88
460.358	93
460.578	98
460.798	84
461.018	86
461.238	84
461.458	74
461.678	86
461.898	93
462.118	82
462.338	92
462.558	104
462.777	83
462.997	80
463.217	77
463.437	99
463.657	89
463.876	93
464.096	92
464.316	107
464.536	85
464.755	78
464.975	112
465.195	167
465.414	154
465.634	94
465.854	83
466.073	85
466.293	90
466.512	79
466.732	76
466.951	94
467.171	101
467.391	98
467.61	95
467.829	92
468.049	94
468.268	88
468.488	93
468.707	78
468.927	75
469.146	98
469.365	99
469.585	104
469.804	86
470.023	102
470.243	94
470.462	88
470.681	122
470.901	100
471.12	89
471.339	82
471.558	79
471.777	90
471.997	84
472.216	87
472.435	91
472.654	94
472.873	98
473.092	82
473.311	90
473.53	100
473.749	84
473.968	79
474.187	101
474.406	89
474.625	85
474.844	91
475.063	85
475.282	106
475.501	67
475.72	87
475.939	78
476.158	88
476.377	83
476.596	85
476.814	97
477.033	109
477.252	85
477.471	101
477.69	93
477.908	89
478.127	95
478.346	77
478.564	94
478.783	109
479.002	98
479.22	100
479.439	100
479.658	101
479.876	99
480.095	92
480.313	99
480.532	91
480.751	87
480.969	79
481.188	92
481.406	91
481.624	88
481.843	107
482.061	82
482.28	86
482.498	94
482.717	100
482.935	96
483.153	77
483.372	93
483.59	92
483.808	97
484.027	92
484.245	91
484.463	90
484.681	99
484.9	93
485.118	99
485.336	95
485.554	102
485.772	93
485.99	109
486.209	110
486.427	102
486.645	101
486.863	101
487.081	93
487.299	95
487.517	105
487.735	81
487.953	82
488.171	92
488.389	90
488.607	103
488.825	93
489.043	86
489.261	94
489.479	93
489.696	99
489.914	100
490.132	100
490.35	80
490.568	93
490.786	91
491.003	90
491.221	88
491.439	100
491.657	98
491.874	86
492.092	90
492.31	76
492.527	91
492.745	96
492.963	87
493.18	83
493.398	81
493.615	97
493.833	88
494.05	92
494.268	96
494.485	79
494.703	79
494.92	101
495.138	93
495.355	83
495.573	83
495.79	86
496.008	92
496.225	94
496.442	96
496.66	89
496.877	87
497.094	106
497.312	98
497.529	97
497.746	94
497.963	93
498.181	83
498.398	83
498.615	105
498.832	78
499.049	76
499.267	82
499.484	93
499.701	98
499.918	83
500.135	98
500.352	91
500.569	79
500.786	98
501.003	86
501.22	88
501.437	100
501.654	106
501.871	107
502.088	95
502.305	104
502.522	95
502.739	107
502.956	95
503.172	106
503.389	100
503.606	108
503.823	99
504.04	99
504.256	93
504.473	92
504.69	84
504.907	96
505.123	85
505.34	87
505.557	87
505.773	95
505.99	93
506.207	83
506.423	89
506.64	90
506.856	81
507.073	93
507.289	96
507.506	101
507.722	112
507.939	108
508.155	92
508.372	93
508.588	88
508.805	94
509.021	106
509.238	104
509.454	112
509.67	99
509.887	119
510.103	128
510.319	223
510.536	822
510.752	2497
510.968	696
511.184	170
511.401	116
511.617	108
511.833	77
512.049	102
512.265	93
512.481	99
512.698	90
512.914	88
513.13	97
513.346	97
513.562	97
513.778	88
513.994	94
514.21	110
514.426	111
514.642	124
514.858	136
515.074	175
515.29	458
515.506	1575
515.721	580
515.937	165
516.153	105
516.369	104
516.585	83
516.801	98
517.016	97
517.232	87
517.448	98
517.664	101
517.879	89
518.095	100
518.311	92
518.527	95
518.742	99
518.958	103
519.173	103
519.389	101
519.605	68
519.82	84
520.036	104
520.251	122
520.467	109
520.682	119
520.898	124
521.113	111
521.329	134
521.544	204
521.76	613
521.975	2644
522.19	1617
522.406	331
522.621	132
522.836	97
523.052	95
523.267	104
523.482	97
523.698	88
523.913	116
524.128	110
524.343	84
524.559	95
524.774	87
524.989	98
525.204	116
525.419	95
525.634	86
525.849	84
526.064	87
526.28	82
526.495	99
526.71	104
526.925	82
527.14	84
527.355	92
527.57	88
527.785	94
527.999	103
528.214	93
528.429	107
528.644	98
528.859	91
529.074	89
529.289	110
529.503	175
529.718	102
529.933	102
530.148	88
530.363	96
530.577	84
530.792	85
531.007	99
531.221	87
531.436	85
531.651	79
531.865	103
532.08	84
532.295	85
532.509	91
532.724	102
532.938	100
533.153	102
533.367	87
533.582	98
533.796	109
534.011	97
534.225	94
534.44	86
534.654	101
534.868	92
535.083	103
535.297	98
535.511	91
535.726	98
535.94	99
536.154	96
536.369	87
536.583	94
536.797	92
537.011	82
537.225	79
537.44	90
537.654	100
537.868	84
538.082	105
538.296	89
538.51	99
538.724	92
538.938	89
539.153	87
539.367	110
539.581	73
539.795	88
540.009	86
540.222	100
540.436	95
540.65	89
540.864	88
541.078	92
541.292	87
541.506	84
541.72	95
541.934	85
542.147	84
542.361	92
542.575	89
542.789	87
543.002	101
543.216	92
543.43	106
543.644	89
543.857	80
544.071	88
544.285	114
544.498	101
544.712	80
544.925	102
545.139	86
545.352	88
545.566	93
545.779	106
545.993	88
546.206	87
546.42	86
546.633	103
546.847	105
547.06	90
547.274	103
547.487	88
547.7	87
547.914	88
548.127	80
548.34	93
548.554	84
548.767	95
548.98	95
549.193	87
549.407	87
549.62	78
549.833	86
550.046	93
550.259	99
550.473	83
550.686	91
550.899	78
551.112	92
551.325	81
551.538	92
551.751	97
551.964	96
552.177	80
552.39	91
552.603	90
552.816	85
553.029	82
553.242	85
553.455	107
553.667	106
553.88	96
554.093	98
554.306	95
554.519	95
554.732	87
554.944	93
555.157	93
555.37	91
555.583	96
555.795	101
556.008	85
556.221	92
556.433	92
556.646	93
556.859	95
557.071	83
557.284	97
557.496	92
557.709	102
557.921	82
558.134	87
558.346	94
558.559	90
558.771	92
558.984	77
559.196	87
559.409	93
559.621	92
559.833	96
560.046	107
560.258	55
560.47	92
560.683	95
560.895	104
561.107	106
561.32	89
561.532	75
561.744	89
561.956	91
562.168	93
562.381	79
562.593	96
562.805	99
563.017	88
563.229	115
563.441	86
563.653	82
563.865	96
564.077	90
564.289	79
564.501	95
564.713	91
564.925	102
565.137	113
565.349	92
565.561	88
565.773	84
565.985	88
566.197	78
566.408	89
566.62	78
566.832	85
567.044	89
567.255	88
567.467	89
567.679	69
567.891	84
568.102	79
568.314	93
568.526	87
568.737	99
568.949	107
569.161	90
569.372	88
569.584	96
569.795	102
570.007	127
570.218	264
570.43	148
570.641	98
570.853	98
571.064	88
571.276	87
571.487	91
571.698	88
571.91	93
572.121	100
572.333	88
572.544	85
572.755	91
572.966	92
573.178	87
573.389	92
573.6	87
573.811	82
574.023	97
574.234	90
574.445	85
574.656	81
574.867	84
575.078	90
575.289	79
575.501	88
575.712	94
575.923	87
576.134	95
576.345	95
576.556	96
576.767	90
576.978	99
577.188	106
577.399	93
577.61	110
577.821	114
578.032	119
578.243	302
578.454	871
578.665	229
578.875	100
579.086	97
579.297	90
579.508	95
579.718	82
579.929	101
580.14	106
580.35	94
580.561	79
580.772	94
580.982	81
581.193	82
581.403	95
581.614	86
581.825	82
582.035	91
582.246	100
582.456	92
582.667	70
582.877	82
583.087	93
583.298	73
583.508	98
