Data from Uncirc_2006_H10_HRD10591_00089.txt Node
Date: Wed Jan 03 10:25:12 EST 2024
User: Yrep
Spectrometer: HR+D1059
Trigger mode: 1
Integration Time (sec): 1.000000E-1
Scans to average: 1
Electric dark correction enabled: true
Nonlinearity correction enabled: false
Boxcar width: 0
XAxis mode: Wavelengths
Number of Pixels in Spectrum: 2048
>>>>>Begin Spectral Data<<<<<
223.165	-14.19
223.4	-14.19
223.635	-14.19
223.869	-18.19
224.104	-19.19
224.338	-14.19
224.573	-13.19
224.808	-2.19
225.042	-19.19
225.277	-14.19
225.511	-4.19
225.746	-2.19
225.98	3.81
226.215	12.81
226.449	17.81
226.683	30.81
226.918	30.81
227.152	24.81
227.387	33.81
227.621	46.81
227.856	52.81
228.09	60.81
228.324	65.81
228.559	54.81
228.793	63.81
229.027	65.81
229.262	77.81
229.496	75.81
229.73	94.81
229.964	86.81
230.199	66.81
230.433	84.81
230.667	86.81
230.901	92.81
231.136	67.81
231.37	94.81
231.604	82.81
231.838	98.81
232.072	81.81
232.306	81.81
232.541	83.81
232.775	87.81
233.009	80.81
233.243	87.81
233.477	83.81
233.711	82.81
233.945	88.81
234.179	83.81
234.413	82.81
234.647	77.81
234.881	76.81
235.115	70.81
235.349	73.81
235.583	80.81
235.817	75.81
236.051	74.81
236.285	83.81
236.519	77.81
236.753	81.81
236.987	82.81
237.221	91.81
237.455	90.81
237.689	88.81
237.922	67.81
238.156	81.81
238.39	78.81
238.624	70.81
238.858	61.81
239.091	79.81
239.325	83.81
239.559	89.81
239.793	76.81
240.027	82.81
240.26	79.81
240.494	78.81
240.728	79.81
240.961	83.81
241.195	91.81
241.429	80.81
241.662	80.81
241.896	80.81
242.13	83.81
242.363	85.81
242.597	91.81
242.83	70.81
243.064	88.81
243.298	76.81
243.531	80.81
243.765	77.81
243.998	74.81
244.232	78.81
244.465	72.81
244.699	87.81
244.932	88.81
245.166	71.81
245.399	76.81
245.633	88.81
245.866	80.81
246.099	78.81
246.333	75.81
246.566	79.81
246.8	91.81
247.033	73.81
247.266	78.81
247.5	91.81
247.733	72.81
247.966	88.81
248.2	82.81
248.433	93.81
248.666	85.81
248.899	87.81
249.133	78.81
249.366	90.81
249.599	94.81
249.832	83.81
250.066	78.81
250.299	80.81
250.532	83.81
250.765	90.81
250.998	77.81
251.231	78.81
251.465	76.81
251.698	92.81
251.931	69.81
252.164	80.81
252.397	82.81
252.63	79.81
252.863	71.81
253.096	76.81
253.329	87.81
253.562	80.81
253.795	84.81
254.028	83.81
254.261	85.81
254.494	87.81
254.727	94.81
254.96	96.81
255.193	77.81
255.426	78.81
255.659	78.81
255.892	86.81
256.124	87.81
256.357	82.81
256.59	81.81
256.823	79.81
257.056	91.81
257.289	83.81
257.521	100.81
257.754	79.81
257.987	100.81
258.22	90.81
258.452	85.81
258.685	93.81
258.918	77.81
259.151	93.81
259.383	84.81
259.616	88.81
259.849	84.81
260.081	90.81
260.314	96.81
260.547	90.81
260.779	71.81
261.012	76.81
261.244	102.81
261.477	93.81
261.71	106.81
261.942	123.81
262.175	117.81
262.407	92.81
262.64	86.81
262.872	96.81
263.105	75.81
263.337	72.81
263.57	83.81
263.802	83.81
264.035	106.81
264.267	88.81
264.499	79.81
264.732	102.81
264.964	89.81
265.197	84.81
265.429	85.81
265.661	78.81
265.894	67.81
266.126	87.81
266.358	83.81
266.591	83.81
266.823	86.81
267.055	77.81
267.287	79.81
267.52	77.81
267.752	73.81
267.984	98.81
268.216	83.81
268.448	101.81
268.681	93.81
268.913	90.81
269.145	92.81
269.377	76.81
269.609	78.81
269.841	79.81
270.073	86.81
270.306	82.81
270.538	93.81
270.77	74.81
271.002	73.81
271.234	89.81
271.466	88.81
271.698	80.81
271.93	80.81
272.162	69.81
272.394	91.81
272.626	79.81
272.858	75.81
273.09	73.81
273.322	82.81
273.553	86.81
273.785	77.81
274.017	83.81
274.249	92.81
274.481	94.81
274.713	77.81
274.945	82.81
275.176	91.81
275.408	95.81
275.64	87.81
275.872	78.81
276.104	92.81
276.335	94.81
276.567	102.81
276.799	112.81
277.031	104.81
277.262	86.81
277.494	83.81
277.726	80.81
277.957	84.81
278.189	83.81
278.421	91.81
278.652	94.81
278.884	80.81
279.115	97.81
279.347	78.81
279.579	76.81
279.81	86.81
280.042	83.81
280.273	97.81
280.505	79.81
280.736	79.81
280.968	74.81
281.199	83.81
281.431	85.81
281.662	87.81
281.894	90.81
282.125	101.81
282.356	118.81
282.588	140.81
282.819	131.81
283.051	83.81
283.282	78.81
283.513	85.81
283.745	91.81
283.976	88.81
284.207	79.81
284.439	96.81
284.67	83.81
284.901	98.81
285.132	87.81
285.364	88.81
285.595	87.81
285.826	97.81
286.057	97.81
286.288	85.81
286.52	84.81
286.751	85.81
286.982	88.81
287.213	78.81
287.444	85.81
287.675	85.81
287.906	90.81
288.138	83.81
288.369	110.81
288.6	89.81
288.831	93.81
289.062	97.81
289.293	74.81
289.524	98.81
289.755	94.81
289.986	83.81
290.217	85.81
290.448	89.81
290.679	87.81
290.91	92.81
291.141	83.81
291.371	91.81
291.602	82.81
291.833	84.81
292.064	88.81
292.295	88.81
292.526	79.81
292.757	90.81
292.987	100.81
293.218	96.81
293.449	76.81
293.68	85.81
293.91	87.81
294.141	81.81
294.372	87.81
294.603	91.81
294.833	92.81
295.064	96.81
295.295	98.81
295.525	101.81
295.756	103.81
295.987	105.81
296.217	137.81
296.448	131.81
296.679	86.81
296.909	92.81
297.14	93.81
297.37	87.81
297.601	96.81
297.831	104.81
298.062	91.81
298.292	80.81
298.523	87.81
298.753	94.81
298.984	89.81
299.214	99.81
299.445	83.81
299.675	97.81
299.905	98.81
300.136	95.81
300.366	93.81
300.597	84.81
300.827	87.81
301.057	100.81
301.288	100.81
301.518	87.81
301.748	89.81
301.979	101.81
302.209	109.81
302.439	93.81
302.669	96.81
302.9	87.81
303.13	96.81
303.36	90.81
303.59	101.81
303.82	101.81
304.051	89.81
304.281	86.81
304.511	99.81
304.741	91.81
304.971	99.81
305.201	84.81
305.431	90.81
305.661	88.81
305.891	86.81
306.121	80.81
306.352	92.81
306.582	108.81
306.812	90.81
307.042	83.81
307.272	90.81
307.502	84.81
307.731	81.81
307.961	97.81
308.191	91.81
308.421	82.81
308.651	98.81
308.881	92.81
309.111	96.81
309.341	107.81
309.571	94.81
309.8	96.81
310.03	91.81
310.26	98.81
310.49	107.81
310.72	85.81
310.949	108.81
311.179	100.81
311.409	95.81
311.639	103.81
311.868	95.81
312.098	98.81
312.328	108.81
312.557	115.81
312.787	109.81
313.017	98.81
313.246	105.81
313.476	98.81
313.706	109.81
313.935	97.81
314.165	103.81
314.394	112.81
314.624	105.81
314.853	90.81
315.083	87.81
315.312	91.81
315.542	81.81
315.771	90.81
316.001	88.81
316.23	88.81
316.46	90.81
316.689	99.81
316.919	91.81
317.148	103.81
317.377	85.81
317.607	98.81
317.836	97.81
318.065	110.81
318.295	88.81
318.524	86.81
318.753	99.81
318.983	87.81
319.212	109.81
319.441	108.81
319.67	103.81
319.9	95.81
320.129	111.81
320.358	87.81
320.587	95.81
320.816	100.81
321.046	100.81
321.275	92.81
321.504	81.81
321.733	87.81
321.962	99.81
322.191	86.81
322.42	107.81
322.649	113.81
322.878	106.81
323.108	107.81
323.337	135.81
323.566	124.81
323.795	154.81
324.024	202.81
324.253	402.81
324.482	851.81
324.71	1763.81
324.939	2331.81
325.168	848.81
325.397	248.81
325.626	135.81
325.855	123.81
326.084	145.81
326.313	122.81
326.542	156.81
326.77	248.81
326.999	475.81
327.228	1003.81
327.457	1779.81
327.686	1423.81
327.914	366.81
328.143	197.81
328.372	152.81
328.6	111.81
328.829	114.81
329.058	126.81
329.287	126.81
329.515	101.81
329.744	100.81
329.972	101.81
330.201	95.81
330.43	107.81
330.658	108.81
330.887	118.81
331.115	117.81
331.344	90.81
331.572	97.81
331.801	106.81
332.03	98.81
332.258	108.81
332.486	103.81
332.715	94.81
332.943	86.81
333.172	98.81
333.4	109.81
333.629	87.81
333.857	109.81
334.085	101.81
334.314	96.81
334.542	98.81
334.771	95.81
334.999	88.81
335.227	95.81
335.455	80.81
335.684	100.81
335.912	90.81
336.14	85.81
336.369	76.81
336.597	81.81
336.825	94.81
337.053	74.81
337.281	102.81
337.51	84.81
337.738	102.81
337.966	84.81
338.194	94.81
338.422	96.81
338.65	98.81
338.878	99.81
339.106	83.81
339.334	94.81
339.562	93.81
339.79	106.81
340.018	97.81
340.246	83.81
340.474	88.81
340.702	93.81
340.93	95.81
341.158	81.81
341.386	95.81
341.614	81.81
341.842	94.81
342.07	84.81
342.298	85.81
342.526	94.81
342.754	85.81
342.981	82.81
343.209	90.81
343.437	86.81
343.665	87.81
343.893	82.81
344.12	88.81
344.348	82.81
344.576	90.81
344.804	95.81
345.031	98.81
345.259	85.81
345.487	86.81
345.714	103.81
345.942	109.81
346.17	92.81
346.397	87.81
346.625	96.81
346.853	80.81
347.08	96.81
347.308	90.81
347.535	94.81
347.763	95.81
347.99	98.81
348.218	98.81
348.445	93.81
348.673	95.81
348.9	113.81
349.128	95.81
349.355	80.81
349.583	96.81
349.81	91.81
350.037	91.81
350.265	83.81
350.492	88.81
350.72	89.81
350.947	94.81
351.174	95.81
351.402	114.81
351.629	99.81
351.856	109.81
352.083	102.81
352.311	94.81
352.538	99.81
352.765	94.81
352.992	97.81
353.22	109.81
353.447	105.81
353.674	95.81
353.901	103.81
354.128	91.81
354.355	92.81
354.583	93.81
354.81	87.81
355.037	86.81
355.264	91.81
355.491	107.81
355.718	93.81
355.945	79.81
356.172	99.81
356.399	83.81
356.626	83.81
356.853	97.81
357.08	100.81
357.307	83.81
357.534	101.81
357.761	98.81
357.988	107.81
358.215	92.81
358.441	94.81
358.668	106.81
358.895	97.81
359.122	90.81
359.349	92.81
359.576	74.81
359.802	111.81
360.029	102.81
360.256	109.81
360.483	101.81
360.709	87.81
360.936	79.81
361.163	92.81
361.39	97.81
361.616	89.81
361.843	94.81
362.07	94.81
362.296	88.81
362.523	92.81
362.749	98.81
362.976	80.81
363.203	98.81
363.429	87.81
363.656	100.81
363.882	93.81
364.109	87.81
364.335	104.81
364.562	108.81
364.788	98.81
365.015	91.81
365.241	103.81
365.468	102.81
365.694	114.81
365.92	87.81
366.147	82.81
366.373	85.81
366.599	101.81
366.826	91.81
367.052	90.81
367.278	105.81
367.505	88.81
367.731	88.81
367.957	80.81
368.184	88.81
368.41	105.81
368.636	98.81
368.862	110.81
369.089	99.81
369.315	86.81
369.541	85.81
369.767	89.81
369.993	99.81
370.219	88.81
370.445	79.81
370.672	87.81
370.898	82.81
371.124	86.81
371.35	81.81
371.576	86.81
371.802	72.81
372.028	81.81
372.254	95.81
372.48	89.81
372.706	94.81
372.932	112.81
373.158	92.81
373.384	95.81
373.61	99.81
373.835	89.81
374.061	92.81
374.287	99.81
374.513	93.81
374.739	98.81
374.965	94.81
375.191	91.81
375.416	79.81
375.642	83.81
375.868	96.81
376.094	96.81
376.319	98.81
376.545	91.81
376.771	91.81
376.997	87.81
377.222	90.81
377.448	96.81
377.674	84.81
377.899	80.81
378.125	102.81
378.35	92.81
378.576	87.81
378.802	77.81
379.027	86.81
379.253	89.81
379.478	104.81
379.704	85.81
379.929	83.81
380.155	101.81
380.38	106.81
380.606	110.81
380.831	91.81
381.057	94.81
381.282	75.81
381.507	88.81
381.733	103.81
381.958	97.81
382.184	97.81
382.409	92.81
382.634	103.81
382.86	94.81
383.085	109.81
383.31	110.81
383.535	88.81
383.761	102.81
383.986	99.81
384.211	96.81
384.436	83.81
384.662	102.81
384.887	99.81
385.112	100.81
385.337	116.81
385.562	103.81
385.787	98.81
386.013	113.81
386.238	114.81
386.463	101.81
386.688	105.81
386.913	101.81
387.138	101.81
387.363	87.81
387.588	96.81
387.813	91.81
388.038	117.81
388.263	106.81
388.488	103.81
388.713	86.81
388.938	85.81
389.163	94.81
389.387	96.81
389.612	95.81
389.837	94.81
390.062	99.81
390.287	92.81
390.512	92.81
390.736	97.81
390.961	99.81
391.186	90.81
391.411	104.81
391.636	83.81
391.86	97.81
392.085	82.81
392.31	84.81
392.534	98.81
392.759	86.81
392.984	95.81
393.208	100.81
393.433	92.81
393.658	91.81
393.882	78.81
394.107	90.81
394.331	76.81
394.556	95.81
394.78	93.81
395.005	79.81
395.229	62.81
395.454	81.81
395.678	77.81
395.903	89.81
396.127	93.81
396.352	84.81
396.576	79.81
396.801	89.81
397.025	98.81
397.249	96.81
397.474	94.81
397.698	82.81
397.922	82.81
398.147	103.81
398.371	84.81
398.595	85.81
398.82	99.81
399.044	85.81
399.268	72.81
399.492	83.81
399.717	76.81
399.941	94.81
400.165	89.81
400.389	85.81
400.613	89.81
400.837	87.81
401.062	88.81
401.286	104.81
401.51	86.81
401.734	97.81
401.958	95.81
402.182	117.81
402.406	154.81
402.63	119.81
402.854	96.81
403.078	96.81
403.302	91.81
403.526	87.81
403.75	87.81
403.974	70.81
404.198	94.81
404.422	93.81
404.645	77.81
404.869	80.81
405.093	94.81
405.317	101.81
405.541	92.81
405.765	100.81
405.988	116.81
406.212	177.81
406.436	231.81
406.66	152.81
406.883	90.81
407.107	82.81
407.331	85.81
407.555	99.81
407.778	108.81
408.002	93.81
408.226	84.81
408.449	84.81
408.673	102.81
408.896	92.81
409.12	87.81
409.344	100.81
409.567	89.81
409.791	85.81
410.014	85.81
410.238	100.81
410.461	76.81
410.685	94.81
410.908	87.81
411.132	106.81
411.355	106.81
411.578	93.81
411.802	84.81
412.025	85.81
412.249	91.81
412.472	84.81
412.695	98.81
412.919	87.81
413.142	83.81
413.365	89.81
413.589	92.81
413.812	84.81
414.035	85.81
414.258	88.81
414.482	102.81
414.705	87.81
414.928	83.81
415.151	87.81
415.374	103.81
415.597	80.81
415.821	93.81
416.044	88.81
416.267	84.81
416.49	100.81
416.713	84.81
416.936	74.81
417.159	92.81
417.382	88.81
417.605	87.81
417.828	100.81
418.051	97.81
418.274	84.81
418.497	99.81
418.72	88.81
418.943	95.81
419.166	92.81
419.389	89.81
419.611	87.81
419.834	97.81
420.057	85.81
420.28	98.81
420.503	86.81
420.726	89.81
420.948	95.81
421.171	96.81
421.394	90.81
421.617	95.81
421.839	96.81
422.062	91.81
422.285	85.81
422.507	101.81
422.73	112.81
422.953	78.81
423.175	74.81
423.398	71.81
423.621	92.81
423.843	88.81
424.066	79.81
424.288	78.81
424.511	99.81
424.733	83.81
424.956	105.81
425.178	88.81
425.401	100.81
425.623	86.81
425.846	99.81
426.068	98.81
426.291	93.81
426.513	88.81
426.735	79.81
426.958	84.81
427.18	101.81
427.402	122.81
427.625	150.81
427.847	117.81
428.069	93.81
428.292	69.81
428.514	102.81
428.736	90.81
428.958	83.81
429.181	99.81
429.403	80.81
429.625	91.81
429.847	98.81
430.069	97.81
430.292	83.81
430.514	88.81
430.736	82.81
430.958	79.81
431.18	70.81
431.402	63.81
431.624	87.81
431.846	83.81
432.068	86.81
432.29	88.81
432.512	91.81
432.734	91.81
432.956	97.81
433.178	104.81
433.4	95.81
433.622	101.81
433.844	81.81
434.066	81.81
434.287	94.81
434.509	92.81
434.731	91.81
434.953	86.81
435.175	91.81
435.397	81.81
435.618	88.81
435.84	96.81
436.062	117.81
436.284	113.81
436.505	115.81
436.727	93.81
436.949	84.81
437.17	78.81
437.392	95.81
437.614	92.81
437.835	113.81
438.057	110.81
438.278	102.81
438.5	95.81
438.721	101.81
438.943	117.81
439.165	88.81
439.386	91.81
439.608	106.81
439.829	98.81
440.05	98.81
440.272	136.81
440.493	114.81
440.715	94.81
440.936	81.81
441.158	75.81
441.379	83.81
441.6	87.81
441.822	93.81
442.043	92.81
442.264	94.81
442.486	92.81
442.707	82.81
442.928	112.81
443.149	130.81
443.371	117.81
443.592	102.81
443.813	104.81
444.034	98.81
444.255	87.81
444.476	95.81
444.698	93.81
444.919	99.81
445.14	134.81
445.361	115.81
445.582	110.81
445.803	110.81
446.024	120.81
446.245	136.81
446.466	109.81
446.687	84.81
446.908	83.81
447.129	75.81
447.35	91.81
447.571	99.81
447.792	89.81
448.013	92.81
448.234	95.81
448.455	100.81
448.675	101.81
448.896	103.81
449.117	96.81
449.338	88.81
449.559	133.81
449.779	122.81
450	99.81
450.221	85.81
450.442	86.81
450.662	90.81
450.883	90.81
451.104	106.81
451.324	90.81
451.545	88.81
451.766	88.81
451.986	88.81
452.207	93.81
452.428	90.81
452.648	100.81
452.869	114.81
453.089	101.81
453.31	108.81
453.53	100.81
453.751	87.81
453.971	109.81
454.192	108.81
454.412	92.81
454.633	92.81
454.853	82.81
455.073	91.81
455.294	90.81
455.514	90.81
455.734	86.81
455.955	84.81
456.175	83.81
456.395	82.81
456.616	78.81
456.836	68.81
457.056	87.81
457.276	86.81
457.497	89.81
457.717	84.81
457.937	82.81
458.157	79.81
458.377	100.81
458.598	100.81
458.818	145.81
459.038	151.81
459.258	111.81
459.478	95.81
459.698	77.81
459.918	80.81
460.138	88.81
460.358	98.81
460.578	72.81
460.798	92.81
461.018	88.81
461.238	80.81
461.458	67.81
461.678	67.81
461.898	87.81
462.118	91.81
462.338	86.81
462.558	85.81
462.777	69.81
462.997	82.81
463.217	77.81
463.437	82.81
463.657	95.81
463.876	82.81
464.096	83.81
464.316	89.81
464.536	94.81
464.755	104.81
464.975	101.81
465.195	151.81
465.414	152.81
465.634	82.81
465.854	92.81
466.073	78.81
466.293	85.81
466.512	76.81
466.732	86.81
466.951	94.81
467.171	93.81
467.391	106.81
467.61	100.81
467.829	85.81
468.049	80.81
468.268	92.81
468.488	90.81
468.707	86.81
468.927	82.81
469.146	70.81
469.365	90.81
469.585	86.81
469.804	103.81
470.023	85.81
470.243	87.81
470.462	100.81
470.681	98.81
470.901	99.81
471.12	99.81
471.339	94.81
471.558	92.81
471.777	78.81
471.997	87.81
472.216	76.81
472.435	92.81
472.654	98.81
472.873	79.81
473.092	96.81
473.311	97.81
473.53	96.81
473.749	85.81
473.968	96.81
474.187	101.81
474.406	102.81
474.625	97.81
474.844	98.81
475.063	85.81
475.282	103.81
475.501	93.81
475.72	96.81
475.939	88.81
476.158	98.81
476.377	100.81
476.596	87.81
476.814	87.81
477.033	87.81
477.252	100.81
477.471	96.81
477.69	86.81
477.908	77.81
478.127	87.81
478.346	82.81
478.564	88.81
478.783	82.81
479.002	97.81
479.22	90.81
479.439	100.81
479.658	98.81
479.876	95.81
480.095	89.81
480.313	82.81
480.532	92.81
480.751	108.81
480.969	84.81
481.188	87.81
481.406	93.81
481.624	90.81
481.843	90.81
482.061	87.81
482.28	89.81
482.498	88.81
482.717	86.81
482.935	100.81
483.153	87.81
483.372	89.81
483.59	77.81
483.808	88.81
484.027	89.81
484.245	90.81
484.463	94.81
484.681	113.81
484.9	85.81
485.118	86.81
485.336	96.81
485.554	100.81
485.772	110.81
485.99	86.81
486.209	102.81
486.427	96.81
486.645	115.81
486.863	109.81
487.081	91.81
487.299	110.81
487.517	91.81
487.735	87.81
487.953	84.81
488.171	95.81
488.389	95.81
488.607	112.81
488.825	94.81
489.043	89.81
489.261	92.81
489.479	79.81
489.696	93.81
489.914	96.81
490.132	92.81
490.35	88.81
490.568	87.81
490.786	87.81
491.003	90.81
491.221	88.81
491.439	82.81
491.657	88.81
491.874	89.81
492.092	95.81
492.31	88.81
492.527	88.81
492.745	73.81
492.963	80.81
493.18	104.81
493.398	92.81
493.615	93.81
493.833	109.81
494.05	79.81
494.268	83.81
494.485	101.81
494.703	92.81
494.92	88.81
495.138	86.81
495.355	87.81
495.573	104.81
495.79	98.81
496.008	89.81
496.225	100.81
496.442	91.81
496.66	85.81
496.877	95.81
497.094	92.81
497.312	76.81
497.529	92.81
497.746	100.81
497.963	98.81
498.181	98.81
498.398	99.81
498.615	117.81
498.832	115.81
499.049	98.81
499.267	89.81
499.484	90.81
499.701	96.81
499.918	86.81
500.135	92.81
500.352	74.81
500.569	87.81
500.786	81.81
501.003	102.81
501.22	97.81
501.437	83.81
501.654	76.81
501.871	95.81
502.088	86.81
502.305	89.81
502.522	97.81
502.739	103.81
502.956	92.81
503.172	90.81
503.389	95.81
503.606	103.81
503.823	88.81
504.04	87.81
504.256	96.81
504.473	103.81
504.69	100.81
504.907	100.81
505.123	99.81
505.34	98.81
505.557	81.81
505.773	94.81
505.99	88.81
506.207	96.81
506.423	98.81
506.64	101.81
506.856	82.81
507.073	82.81
507.289	85.81
507.506	92.81
507.722	104.81
507.939	108.81
508.155	87.81
508.372	101.81
508.588	96.81
508.805	91.81
509.021	94.81
509.238	106.81
509.454	105.81
509.67	100.81
509.887	114.81
510.103	120.81
510.319	239.81
510.536	768.81
510.752	2436.81
510.968	668.81
511.184	166.81
511.401	119.81
511.617	95.81
511.833	98.81
512.049	97.81
512.265	93.81
512.481	90.81
512.698	89.81
512.914	88.81
513.13	95.81
513.346	88.81
513.562	86.81
513.778	102.81
513.994	96.81
514.21	93.81
514.426	120.81
514.642	134.81
514.858	126.81
515.074	169.81
515.29	442.81
515.506	1489.81
515.721	535.81
515.937	147.81
