Data from Uncirc_2006_H10_HRD10591_00026.txt Node
Date: Wed Jan 03 10:25:00 EST 2024
User: Yrep
Spectrometer: HR+D1059
Trigger mode: 1
Integration Time (sec): 1.000000E-1
Scans to average: 1
Electric dark correction enabled: true
Nonlinearity correction enabled: false
Boxcar width: 0
XAxis mode: Wavelengths
Number of Pixels in Spectrum: 2048
>>>>>Begin Spectral Data<<<<<
223.165	-13.62
223.4	-13.62
223.635	-13.62
223.869	-24.62
224.104	-22.62
224.338	-29.62
224.573	-9.62
224.808	2.38
225.042	-6.62
225.277	-8.62
225.511	2.38
225.746	6.38
225.98	18.38
226.215	8.38
226.449	16.38
226.683	3.38
226.918	25.38
227.152	32.38
227.387	30.38
227.621	49.38
227.856	44.38
228.09	52.38
228.324	50.38
228.559	64.38
228.793	65.38
229.027	63.38
229.262	78.38
229.496	77.38
229.73	85.38
229.964	87.38
230.199	81.38
230.433	63.38
230.667	82.38
230.901	77.38
231.136	79.38
231.37	98.38
231.604	68.38
231.838	82.38
232.072	84.38
232.306	93.38
232.541	77.38
232.775	86.38
233.009	74.38
233.243	82.38
233.477	96.38
233.711	91.38
233.945	76.38
234.179	75.38
234.413	80.38
234.647	83.38
234.881	83.38
235.115	79.38
235.349	81.38
235.583	85.38
235.817	94.38
236.051	81.38
236.285	84.38
236.519	73.38
236.753	78.38
236.987	82.38
237.221	81.38
237.455	89.38
237.689	81.38
237.922	80.38
238.156	76.38
238.39	82.38
238.624	83.38
238.858	82.38
239.091	71.38
239.325	76.38
239.559	76.38
239.793	75.38
240.027	74.38
240.26	86.38
240.494	74.38
240.728	81.38
240.961	83.38
241.195	80.38
241.429	88.38
241.662	75.38
241.896	77.38
242.13	82.38
242.363	71.38
242.597	78.38
242.83	74.38
243.064	78.38
243.298	86.38
243.531	83.38
243.765	70.38
243.998	72.38
244.232	73.38
244.465	90.38
244.699	96.38
244.932	85.38
245.166	76.38
245.399	82.38
245.633	84.38
245.866	84.38
246.099	79.38
246.333	74.38
246.566	88.38
246.8	71.38
247.033	82.38
247.266	78.38
247.5	95.38
247.733	76.38
247.966	77.38
248.2	86.38
248.433	79.38
248.666	98.38
248.899	85.38
249.133	70.38
249.366	92.38
249.599	86.38
249.832	72.38
250.066	79.38
250.299	72.38
250.532	75.38
250.765	75.38
250.998	83.38
251.231	80.38
251.465	75.38
251.698	82.38
251.931	70.38
252.164	78.38
252.397	79.38
252.63	83.38
252.863	84.38
253.096	84.38
253.329	83.38
253.562	64.38
253.795	80.38
254.028	92.38
254.261	79.38
254.494	62.38
254.727	67.38
254.96	81.38
255.193	82.38
255.426	84.38
255.659	85.38
255.892	92.38
256.124	78.38
256.357	81.38
256.59	97.38
256.823	82.38
257.056	73.38
257.289	74.38
257.521	85.38
257.754	86.38
257.987	90.38
258.22	80.38
258.452	80.38
258.685	75.38
258.918	86.38
259.151	83.38
259.383	79.38
259.616	99.38
259.849	87.38
260.081	68.38
260.314	93.38
260.547	90.38
260.779	75.38
261.012	83.38
261.244	93.38
261.477	84.38
261.71	89.38
261.942	108.38
262.175	117.38
262.407	100.38
262.64	83.38
262.872	76.38
263.105	75.38
263.337	83.38
263.57	88.38
263.802	75.38
264.035	86.38
264.267	86.38
264.499	90.38
264.732	92.38
264.964	77.38
265.197	71.38
265.429	76.38
265.661	85.38
265.894	98.38
266.126	84.38
266.358	84.38
266.591	83.38
266.823	70.38
267.055	82.38
267.287	84.38
267.52	89.38
267.752	87.38
267.984	90.38
268.216	83.38
268.448	86.38
268.681	82.38
268.913	83.38
269.145	74.38
269.377	85.38
269.609	83.38
269.841	96.38
270.073	79.38
270.306	79.38
270.538	81.38
270.77	80.38
271.002	66.38
271.234	85.38
271.466	82.38
271.698	93.38
271.93	81.38
272.162	99.38
272.394	107.38
272.626	76.38
272.858	89.38
273.09	85.38
273.322	80.38
273.553	95.38
273.785	98.38
274.017	92.38
274.249	100.38
274.481	75.38
274.713	90.38
274.945	89.38
275.176	84.38
275.408	85.38
275.64	84.38
275.872	98.38
276.104	94.38
276.335	98.38
276.567	95.38
276.799	110.38
277.031	102.38
277.262	86.38
277.494	80.38
277.726	96.38
277.957	87.38
278.189	85.38
278.421	79.38
278.652	73.38
278.884	82.38
279.115	87.38
279.347	95.38
279.579	88.38
279.81	78.38
280.042	91.38
280.273	82.38
280.505	88.38
280.736	101.38
280.968	75.38
281.199	92.38
281.431	90.38
281.662	76.38
281.894	91.38
282.125	86.38
282.356	99.38
282.588	138.38
282.819	94.38
283.051	85.38
283.282	85.38
283.513	95.38
283.745	82.38
283.976	88.38
284.207	85.38
284.439	92.38
284.67	94.38
284.901	90.38
285.132	85.38
285.364	87.38
285.595	91.38
285.826	89.38
286.057	81.38
286.288	98.38
286.52	77.38
286.751	84.38
286.982	88.38
287.213	85.38
287.444	98.38
287.675	85.38
287.906	88.38
288.138	88.38
288.369	75.38
288.6	93.38
288.831	85.38
289.062	83.38
289.293	86.38
289.524	102.38
289.755	91.38
289.986	83.38
290.217	85.38
290.448	86.38
290.679	96.38
290.91	68.38
291.141	91.38
291.371	87.38
291.602	83.38
291.833	81.38
292.064	94.38
292.295	89.38
292.526	91.38
292.757	102.38
292.987	95.38
293.218	86.38
293.449	88.38
293.68	84.38
293.91	95.38
294.141	87.38
294.372	81.38
294.603	84.38
294.833	100.38
295.064	96.38
295.295	86.38
295.525	95.38
295.756	101.38
295.987	118.38
296.217	125.38
296.448	108.38
296.679	101.38
296.909	80.38
297.14	84.38
297.37	101.38
297.601	92.38
297.831	95.38
298.062	92.38
298.292	90.38
298.523	98.38
298.753	102.38
298.984	94.38
299.214	83.38
299.445	84.38
299.675	95.38
299.905	93.38
300.136	94.38
300.366	104.38
300.597	99.38
300.827	93.38
301.057	96.38
301.288	103.38
301.518	103.38
301.748	103.38
301.979	104.38
302.209	95.38
302.439	93.38
302.669	97.38
302.9	88.38
303.13	79.38
303.36	100.38
303.59	93.38
303.82	102.38
304.051	113.38
304.281	85.38
304.511	91.38
304.741	87.38
304.971	94.38
305.201	92.38
305.431	86.38
305.661	81.38
305.891	81.38
306.121	96.38
306.352	108.38
306.582	103.38
306.812	98.38
307.042	86.38
307.272	84.38
307.502	86.38
307.731	103.38
307.961	82.38
308.191	100.38
308.421	88.38
308.651	103.38
308.881	82.38
309.111	81.38
309.341	95.38
309.571	99.38
309.8	100.38
310.03	108.38
310.26	96.38
310.49	102.38
310.72	90.38
310.949	98.38
311.179	106.38
311.409	90.38
311.639	93.38
311.868	104.38
312.098	96.38
312.328	82.38
312.557	108.38
312.787	117.38
313.017	111.38
313.246	106.38
313.476	84.38
313.706	82.38
313.935	107.38
314.165	101.38
314.394	102.38
314.624	80.38
314.853	83.38
315.083	86.38
315.312	103.38
315.542	104.38
315.771	84.38
316.001	95.38
316.23	85.38
316.46	94.38
316.689	103.38
316.919	88.38
317.148	88.38
317.377	105.38
317.607	98.38
317.836	76.38
318.065	95.38
318.295	80.38
318.524	78.38
318.753	93.38
318.983	92.38
319.212	97.38
319.441	105.38
319.67	114.38
319.9	101.38
320.129	86.38
320.358	90.38
320.587	100.38
320.816	94.38
321.046	101.38
321.275	93.38
321.504	91.38
321.733	89.38
321.962	102.38
322.191	103.38
322.42	99.38
322.649	100.38
322.878	117.38
323.108	109.38
323.337	128.38
323.566	133.38
323.795	143.38
324.024	189.38
324.253	369.38
324.482	789.38
324.71	1560.38
324.939	2015.38
325.168	759.38
325.397	231.38
325.626	142.38
325.855	133.38
326.084	111.38
326.313	126.38
326.542	156.38
326.77	222.38
326.999	459.38
327.228	894.38
327.457	1618.38
327.686	1286.38
327.914	363.38
328.143	174.38
328.372	141.38
328.6	121.38
328.829	128.38
329.058	134.38
329.287	123.38
329.515	104.38
329.744	90.38
329.972	104.38
330.201	99.38
330.43	106.38
330.658	114.38
330.887	118.38
331.115	126.38
331.344	97.38
331.572	95.38
331.801	97.38
332.03	99.38
332.258	90.38
332.486	80.38
332.715	88.38
332.943	79.38
333.172	101.38
333.4	98.38
333.629	115.38
333.857	118.38
334.085	106.38
334.314	100.38
334.542	101.38
334.771	83.38
334.999	90.38
335.227	83.38
335.455	91.38
335.684	99.38
335.912	93.38
336.14	111.38
336.369	99.38
336.597	91.38
336.825	100.38
337.053	100.38
337.281	91.38
337.51	95.38
337.738	99.38
337.966	87.38
338.194	94.38
338.422	97.38
338.65	98.38
338.878	100.38
339.106	88.38
339.334	92.38
339.562	97.38
339.79	95.38
340.018	82.38
340.246	87.38
340.474	98.38
340.702	96.38
340.93	88.38
341.158	101.38
341.386	91.38
341.614	102.38
341.842	98.38
342.07	93.38
342.298	93.38
342.526	90.38
342.754	89.38
342.981	86.38
343.209	88.38
343.437	107.38
343.665	96.38
343.893	87.38
344.12	89.38
344.348	92.38
344.576	100.38
344.804	95.38
345.031	100.38
345.259	98.38
345.487	83.38
345.714	85.38
345.942	87.38
346.17	93.38
346.397	88.38
346.625	110.38
346.853	98.38
347.08	87.38
347.308	91.38
347.535	108.38
347.763	96.38
347.99	77.38
348.218	95.38
348.445	115.38
348.673	106.38
348.9	85.38
349.128	91.38
349.355	94.38
349.583	101.38
349.81	88.38
350.037	104.38
350.265	117.38
350.492	85.38
350.72	103.38
350.947	107.38
351.174	98.38
351.402	110.38
351.629	97.38
351.856	109.38
352.083	86.38
352.311	102.38
352.538	103.38
352.765	106.38
352.992	128.38
353.22	112.38
353.447	102.38
353.674	107.38
353.901	89.38
354.128	82.38
354.355	114.38
354.583	94.38
354.81	92.38
355.037	107.38
355.264	93.38
355.491	97.38
355.718	95.38
355.945	102.38
356.172	88.38
356.399	107.38
356.626	98.38
356.853	99.38
357.08	87.38
357.307	95.38
357.534	99.38
357.761	89.38
357.988	107.38
358.215	86.38
358.441	83.38
358.668	91.38
358.895	86.38
359.122	82.38
359.349	88.38
359.576	83.38
359.802	92.38
360.029	111.38
360.256	102.38
360.483	93.38
360.709	89.38
360.936	103.38
361.163	88.38
361.39	92.38
361.616	92.38
361.843	91.38
362.07	84.38
362.296	88.38
362.523	90.38
362.749	87.38
362.976	95.38
363.203	83.38
363.429	94.38
363.656	88.38
363.882	99.38
364.109	102.38
364.335	83.38
364.562	90.38
364.788	88.38
365.015	99.38
365.241	112.38
365.468	101.38
365.694	97.38
365.92	101.38
366.147	98.38
366.373	91.38
366.599	81.38
366.826	93.38
367.052	96.38
367.278	91.38
367.505	97.38
367.731	103.38
367.957	70.38
368.184	97.38
368.41	93.38
368.636	109.38
368.862	118.38
369.089	102.38
369.315	85.38
369.541	91.38
369.767	85.38
369.993	74.38
370.219	98.38
370.445	74.38
370.672	101.38
370.898	97.38
371.124	84.38
371.35	91.38
371.576	86.38
371.802	85.38
372.028	60.38
372.254	103.38
372.48	94.38
372.706	89.38
372.932	100.38
373.158	94.38
373.384	95.38
373.61	100.38
373.835	96.38
374.061	102.38
374.287	98.38
374.513	91.38
374.739	94.38
374.965	81.38
375.191	103.38
375.416	83.38
375.642	95.38
375.868	92.38
376.094	92.38
376.319	88.38
376.545	94.38
376.771	100.38
376.997	94.38
377.222	103.38
377.448	90.38
377.674	95.38
377.899	94.38
378.125	81.38
378.35	90.38
378.576	96.38
378.802	99.38
379.027	82.38
379.253	78.38
379.478	99.38
379.704	103.38
379.929	103.38
380.155	73.38
380.38	90.38
380.606	98.38
380.831	87.38
381.057	109.38
381.282	90.38
381.507	92.38
381.733	97.38
381.958	91.38
382.184	113.38
382.409	99.38
382.634	107.38
382.86	106.38
383.085	106.38
383.31	95.38
383.535	103.38
383.761	122.38
383.986	96.38
384.211	99.38
384.436	91.38
384.662	106.38
384.887	112.38
385.112	99.38
385.337	93.38
385.562	117.38
385.787	93.38
386.013	113.38
386.238	125.38
386.463	115.38
386.688	112.38
386.913	102.38
387.138	114.38
387.363	99.38
387.588	112.38
387.813	116.38
388.038	106.38
388.263	98.38
388.488	125.38
388.713	98.38
388.938	99.38
389.163	95.38
389.387	86.38
389.612	99.38
389.837	92.38
390.062	107.38
390.287	94.38
390.512	92.38
390.736	96.38
390.961	95.38
391.186	98.38
391.411	71.38
391.636	100.38
391.86	91.38
392.085	82.38
392.31	89.38
392.534	89.38
392.759	92.38
392.984	79.38
393.208	89.38
393.433	88.38
393.658	104.38
393.882	85.38
394.107	88.38
394.331	91.38
394.556	90.38
394.78	91.38
395.005	86.38
395.229	66.38
395.454	85.38
395.678	91.38
395.903	96.38
396.127	92.38
396.352	83.38
396.576	88.38
396.801	93.38
397.025	80.38
397.249	77.38
397.474	82.38
397.698	86.38
397.922	79.38
398.147	97.38
398.371	84.38
398.595	94.38
398.82	87.38
399.044	85.38
399.268	84.38
399.492	81.38
399.717	91.38
399.941	84.38
400.165	106.38
400.389	85.38
400.613	87.38
400.837	96.38
401.062	67.38
401.286	81.38
401.51	92.38
401.734	93.38
401.958	112.38
402.182	127.38
402.406	134.38
402.63	105.38
402.854	87.38
403.078	92.38
403.302	92.38
403.526	96.38
403.75	93.38
403.974	86.38
404.198	90.38
404.422	94.38
404.645	84.38
404.869	95.38
405.093	83.38
405.317	96.38
405.541	92.38
405.765	89.38
405.988	101.38
406.212	171.38
406.436	215.38
406.66	125.38
406.883	97.38
407.107	89.38
407.331	92.38
407.555	95.38
407.778	101.38
408.002	100.38
408.226	86.38
408.449	99.38
408.673	75.38
408.896	99.38
409.12	79.38
409.344	77.38
409.567	100.38
409.791	87.38
410.014	95.38
410.238	103.38
410.461	98.38
410.685	90.38
410.908	93.38
411.132	104.38
411.355	94.38
411.578	88.38
411.802	86.38
412.025	94.38
412.249	86.38
412.472	96.38
412.695	93.38
412.919	75.38
413.142	90.38
413.365	98.38
413.589	86.38
413.812	79.38
414.035	96.38
414.258	82.38
414.482	96.38
414.705	106.38
414.928	100.38
415.151	85.38
415.374	98.38
415.597	98.38
415.821	91.38
416.044	94.38
416.267	82.38
416.49	97.38
416.713	84.38
416.936	87.38
417.159	88.38
417.382	96.38
417.605	87.38
417.828	85.38
418.051	95.38
418.274	82.38
418.497	83.38
418.72	83.38
418.943	85.38
419.166	85.38
419.389	99.38
419.611	93.38
419.834	88.38
420.057	94.38
420.28	100.38
420.503	95.38
420.726	94.38
420.948	95.38
421.171	94.38
421.394	90.38
421.617	92.38
421.839	91.38
422.062	97.38
422.285	102.38
422.507	97.38
422.73	104.38
422.953	86.38
423.175	102.38
423.398	89.38
423.621	85.38
423.843	94.38
424.066	91.38
424.288	89.38
424.511	102.38
424.733	110.38
424.956	114.38
425.178	99.38
425.401	96.38
425.623	83.38
425.846	94.38
426.068	85.38
426.291	93.38
426.513	94.38
426.735	87.38
426.958	92.38
427.18	91.38
427.402	145.38
427.625	150.38
427.847	126.38
428.069	95.38
428.292	88.38
428.514	105.38
428.736	88.38
428.958	80.38
429.181	86.38
429.403	95.38
429.625	77.38
429.847	80.38
430.069	103.38
430.292	91.38
430.514	101.38
430.736	83.38
430.958	84.38
431.18	81.38
431.402	88.38
431.624	88.38
431.846	78.38
432.068	93.38
432.29	86.38
432.512	79.38
432.734	99.38
432.956	89.38
433.178	93.38
433.4	90.38
433.622	83.38
433.844	89.38
434.066	78.38
434.287	86.38
434.509	95.38
434.731	96.38
434.953	95.38
435.175	82.38
435.397	87.38
435.618	88.38
435.84	106.38
436.062	104.38
436.284	102.38
436.505	106.38
436.727	97.38
436.949	83.38
437.17	78.38
437.392	96.38
437.614	86.38
437.835	105.38
438.057	100.38
438.278	97.38
438.5	109.38
438.721	122.38
438.943	88.38
439.165	83.38
439.386	73.38
439.608	107.38
439.829	104.38
440.05	111.38
440.272	123.38
440.493	99.38
440.715	99.38
440.936	86.38
441.158	83.38
441.379	94.38
441.6	92.38
441.822	87.38
442.043	95.38
442.264	114.38
442.486	103.38
442.707	98.38
442.928	111.38
443.149	106.38
443.371	119.38
443.592	114.38
443.813	103.38
444.034	109.38
444.255	86.38
444.476	86.38
444.698	83.38
444.919	83.38
445.14	123.38
445.361	125.38
445.582	116.38
445.803	138.38
446.024	112.38
446.245	115.38
446.466	119.38
446.687	85.38
446.908	85.38
447.129	88.38
447.35	87.38
447.571	93.38
447.792	81.38
448.013	92.38
448.234	102.38
448.455	88.38
448.675	114.38
448.896	103.38
449.117	102.38
449.338	97.38
449.559	122.38
449.779	114.38
450	93.38
450.221	84.38
450.442	80.38
450.662	85.38
450.883	106.38
451.104	102.38
451.324	94.38
451.545	86.38
451.766	100.38
451.986	99.38
452.207	107.38
452.428	93.38
452.648	86.38
452.869	104.38
453.089	118.38
453.31	97.38
453.53	87.38
453.751	98.38
453.971	99.38
454.192	108.38
454.412	81.38
454.633	85.38
454.853	104.38
455.073	88.38
455.294	91.38
455.514	100.38
455.734	99.38
455.955	82.38
456.175	82.38
456.395	73.38
456.616	78.38
456.836	84.38
457.056	97.38
457.276	93.38
457.497	72.38
457.717	75.38
457.937	95.38
458.157	82.38
458.377	98.38
458.598	110.38
458.818	132.38
459.038	148.38
459.258	112.38
459.478	87.38
459.698	85.38
459.918	86.38
460.138	92.38
460.358	80.38
460.578	94.38
460.798	90.38
461.018	89.38
461.238	82.38
461.458	89.38
461.678	89.38
461.898	83.38
462.118	92.38
462.338	64.38
462.558	85.38
462.777	80.38
462.997	86.38
463.217	89.38
463.437	83.38
463.657	77.38
463.876	88.38
464.096	80.38
464.316	83.38
464.536	101.38
464.755	87.38
464.975	109.38
465.195	163.38
465.414	160.38
465.634	88.38
465.854	84.38
466.073	87.38
466.293	98.38
466.512	87.38
466.732	83.38
466.951	92.38
467.171	100.38
467.391	90.38
467.61	82.38
467.829	96.38
468.049	98.38
468.268	92.38
468.488	94.38
468.707	91.38
468.927	92.38
469.146	83.38
469.365	89.38
469.585	82.38
469.804	90.38
470.023	96.38
470.243	100.38
470.462	102.38
470.681	100.38
470.901	96.38
471.12	101.38
471.339	80.38
471.558	80.38
471.777	89.38
471.997	87.38
472.216	88.38
472.435	91.38
472.654	93.38
472.873	86.38
473.092	84.38
473.311	95.38
473.53	91.38
473.749	85.38
473.968	94.38
474.187	107.38
474.406	84.38
474.625	87.38
474.844	92.38
475.063	87.38
475.282	93.38
475.501	91.38
475.72	80.38
475.939	88.38
476.158	92.38
476.377	101.38
476.596	86.38
476.814	105.38
477.033	87.38
477.252	88.38
477.471	83.38
477.69	79.38
477.908	82.38
478.127	94.38
478.346	78.38
478.564	101.38
478.783	82.38
479.002	98.38
479.22	92.38
479.439	82.38
479.658	104.38
479.876	96.38
480.095	86.38
480.313	73.38
480.532	88.38
480.751	94.38
480.969	91.38
481.188	84.38
481.406	94.38
481.624	94.38
481.843	97.38
482.061	80.38
482.28	92.38
482.498	90.38
482.717	82.38
482.935	107.38
483.153	94.38
483.372	86.38
483.59	87.38
483.808	79.38
484.027	84.38
484.245	82.38
484.463	81.38
484.681	99.38
484.9	87.38
485.118	105.38
485.336	98.38
485.554	107.38
485.772	94.38
485.99	105.38
486.209	109.38
486.427	103.38
486.645	107.38
486.863	122.38
487.081	121.38
487.299	87.38
487.517	90.38
487.735	100.38
487.953	99.38
488.171	85.38
488.389	83.38
488.607	95.38
488.825	74.38
489.043	87.38
489.261	85.38
489.479	94.38
489.696	85.38
489.914	83.38
490.132	87.38
490.35	88.38
490.568	88.38
490.786	91.38
491.003	95.38
491.221	87.38
491.439	91.38
491.657	90.38
491.874	83.38
492.092	91.38
492.31	88.38
492.527	90.38
492.745	99.38
492.963	92.38
493.18	94.38
493.398	82.38
493.615	92.38
493.833	103.38
494.05	89.38
494.268	100.38
494.485	88.38
494.703	99.38
494.92	76.38
495.138	75.38
495.355	86.38
495.573	91.38
495.79	84.38
496.008	88.38
496.225	87.38
496.442	88.38
496.66	86.38
496.877	90.38
497.094	86.38
497.312	107.38
497.529	97.38
497.746	88.38
497.963	103.38
498.181	90.38
498.398	88.38
498.615	93.38
498.832	87.38
499.049	100.38
499.267	94.38
499.484	98.38
499.701	100.38
499.918	104.38
500.135	97.38
500.352	74.38
500.569	94.38
500.786	85.38
501.003	99.38
501.22	84.38
501.437	92.38
501.654	95.38
501.871	107.38
502.088	90.38
502.305	85.38
502.522	94.38
502.739	96.38
502.956	87.38
503.172	96.38
503.389	99.38
503.606	96.38
503.823	92.38
504.04	77.38
504.256	105.38
504.473	102.38
504.69	88.38
504.907	91.38
505.123	90.38
505.34	95.38
505.557	90.38
505.773	88.38
505.99	87.38
506.207	96.38
506.423	88.38
506.64	102.38
506.856	94.38
507.073	96.38
507.289	85.38
507.506	90.38
507.722	114.38
507.939	104.38
508.155	93.38
508.372	92.38
508.588	93.38
508.805	96.38
509.021	92.38
509.238	107.38
509.454	91.38
509.67	98.38
509.887	101.38
510.103	127.38
510.319	212.38
510.536	755.38
510.752	2326.38
510.968	680.38
511.184	166.38
511.401	115.38
511.617	97.38
511.833	92.38
512.049	97.38
512.265	96.38
512.481	91.38
512.698	82.38
512.914	91.38
513.13	91.38
513.346	103.38
513.562	91.38
513.778	107.38
513.994	93.38
514.21	115.38
514.426	114.38
514.642	140.38
514.858	124.38
515.074	168.38
515.29	433.38
515.506	1438.38
515.721	528.38
