Data from Uncirc_2006_H10_HRD10591_00044.txt Node
Date: Wed Jan 03 10:25:03 EST 2024
User: Yrep
Spectrometer: HR+D1059
Trigger mode: 1
Integration Time (sec): 1.000000E-1
Scans to average: 1
Electric dark correction enabled: true
Nonlinearity correction enabled: false
Boxcar width: 0
XAxis mode: Wavelengths
Number of Pixels in Spectrum: 2048
>>>>>Begin Spectral Data<<<<<
223.165	-13.38
223.4	-13.38
223.635	-13.38
223.869	-27.38
224.104	-17.38
224.338	-14.38
224.573	-20.38
224.808	-20.38
225.042	-7.38
225.277	-16.38
225.511	-1.38
225.746	4.62
225.98	14.62
226.215	15.62
226.449	10.62
226.683	24.62
226.918	30.62
227.152	37.62
227.387	43.62
227.621	26.62
227.856	50.62
228.09	48.62
228.324	53.62
228.559	58.62
228.793	67.62
229.027	44.62
229.262	72.62
229.496	57.62
229.73	73.62
229.964	78.62
230.199	69.62
230.433	79.62
230.667	98.62
230.901	69.62
231.136	79.62
231.37	87.62
231.604	82.62
231.838	77.62
232.072	87.62
232.306	74.62
232.541	83.62
232.775	81.62
233.009	82.62
233.243	86.62
233.477	76.62
233.711	92.62
233.945	83.62
234.179	92.62
234.413	84.62
234.647	76.62
234.881	83.62
235.115	68.62
235.349	78.62
235.583	82.62
235.817	86.62
236.051	80.62
236.285	76.62
236.519	83.62
236.753	81.62
236.987	80.62
237.221	90.62
237.455	91.62
237.689	86.62
237.922	64.62
238.156	69.62
238.39	80.62
238.624	86.62
238.858	71.62
239.091	59.62
239.325	67.62
239.559	86.62
239.793	80.62
240.027	77.62
240.26	77.62
240.494	74.62
240.728	85.62
240.961	80.62
241.195	88.62
241.429	88.62
241.662	88.62
241.896	82.62
242.13	91.62
242.363	89.62
242.597	82.62
242.83	73.62
243.064	77.62
243.298	75.62
243.531	71.62
243.765	88.62
243.998	87.62
244.232	80.62
244.465	87.62
244.699	88.62
244.932	82.62
245.166	75.62
245.399	84.62
245.633	88.62
245.866	78.62
246.099	76.62
246.333	67.62
246.566	83.62
246.8	90.62
247.033	76.62
247.266	78.62
247.5	86.62
247.733	87.62
247.966	89.62
248.2	92.62
248.433	90.62
248.666	82.62
248.899	86.62
249.133	88.62
249.366	83.62
249.599	78.62
249.832	82.62
250.066	87.62
250.299	85.62
250.532	75.62
250.765	71.62
250.998	96.62
251.231	74.62
251.465	82.62
251.698	97.62
251.931	81.62
252.164	76.62
252.397	82.62
252.63	80.62
252.863	82.62
253.096	78.62
253.329	78.62
253.562	81.62
253.795	88.62
254.028	87.62
254.261	79.62
254.494	95.62
254.727	76.62
254.96	78.62
255.193	91.62
255.426	80.62
255.659	84.62
255.892	83.62
256.124	80.62
256.357	87.62
256.59	82.62
256.823	76.62
257.056	84.62
257.289	86.62
257.521	84.62
257.754	81.62
257.987	75.62
258.22	84.62
258.452	84.62
258.685	71.62
258.918	83.62
259.151	76.62
259.383	80.62
259.616	88.62
259.849	84.62
260.081	82.62
260.314	89.62
260.547	91.62
260.779	93.62
261.012	92.62
261.244	76.62
261.477	104.62
261.71	94.62
261.942	117.62
262.175	98.62
262.407	86.62
262.64	93.62
262.872	76.62
263.105	88.62
263.337	66.62
263.57	82.62
263.802	94.62
264.035	85.62
264.267	95.62
264.499	92.62
264.732	77.62
264.964	85.62
265.197	72.62
265.429	80.62
265.661	91.62
265.894	84.62
266.126	81.62
266.358	84.62
266.591	80.62
266.823	87.62
267.055	91.62
267.287	86.62
267.52	70.62
267.752	82.62
267.984	75.62
268.216	90.62
268.448	87.62
268.681	84.62
268.913	92.62
269.145	100.62
269.377	86.62
269.609	87.62
269.841	85.62
270.073	85.62
270.306	79.62
270.538	89.62
270.77	83.62
271.002	80.62
271.234	81.62
271.466	88.62
271.698	88.62
271.93	83.62
272.162	87.62
272.394	86.62
272.626	86.62
272.858	79.62
273.09	85.62
273.322	98.62
273.553	95.62
273.785	85.62
274.017	99.62
274.249	99.62
274.481	88.62
274.713	85.62
274.945	78.62
275.176	71.62
275.408	93.62
275.64	85.62
275.872	87.62
276.104	88.62
276.335	99.62
276.567	94.62
276.799	111.62
277.031	96.62
277.262	86.62
277.494	72.62
277.726	87.62
277.957	85.62
278.189	85.62
278.421	94.62
278.652	85.62
278.884	80.62
279.115	91.62
279.347	83.62
279.579	75.62
279.81	78.62
280.042	84.62
280.273	87.62
280.505	75.62
280.736	109.62
280.968	89.62
281.199	99.62
281.431	90.62
281.662	87.62
281.894	93.62
282.125	106.62
282.356	114.62
282.588	142.62
282.819	89.62
283.051	85.62
283.282	88.62
283.513	90.62
283.745	79.62
283.976	91.62
284.207	86.62
284.439	91.62
284.67	70.62
284.901	88.62
285.132	115.62
285.364	79.62
285.595	96.62
285.826	96.62
286.057	82.62
286.288	69.62
286.52	77.62
286.751	84.62
286.982	87.62
287.213	91.62
287.444	85.62
287.675	86.62
287.906	95.62
288.138	85.62
288.369	100.62
288.6	96.62
288.831	91.62
289.062	97.62
289.293	87.62
289.524	102.62
289.755	83.62
289.986	86.62
290.217	120.62
290.448	84.62
290.679	90.62
290.91	94.62
291.141	72.62
291.371	76.62
291.602	91.62
291.833	90.62
292.064	99.62
292.295	98.62
292.526	95.62
292.757	96.62
292.987	69.62
293.218	92.62
293.449	87.62
293.68	110.62
293.91	86.62
294.141	83.62
294.372	88.62
294.603	99.62
294.833	107.62
295.064	88.62
295.295	87.62
295.525	74.62
295.756	91.62
295.987	107.62
296.217	142.62
296.448	131.62
296.679	93.62
296.909	93.62
297.14	76.62
297.37	74.62
297.601	85.62
297.831	83.62
298.062	102.62
298.292	81.62
298.523	88.62
298.753	78.62
298.984	71.62
299.214	87.62
299.445	83.62
299.675	94.62
299.905	100.62
300.136	95.62
300.366	95.62
300.597	88.62
300.827	90.62
301.057	95.62
301.288	107.62
301.518	88.62
301.748	84.62
301.979	85.62
302.209	96.62
302.439	99.62
302.669	102.62
302.9	91.62
303.13	85.62
303.36	98.62
303.59	99.62
303.82	103.62
304.051	93.62
304.281	92.62
304.511	88.62
304.741	90.62
304.971	90.62
305.201	75.62
305.431	88.62
305.661	87.62
305.891	99.62
306.121	90.62
306.352	98.62
306.582	114.62
306.812	91.62
307.042	90.62
307.272	69.62
307.502	90.62
307.731	97.62
307.961	102.62
308.191	98.62
308.421	99.62
308.651	90.62
308.881	78.62
309.111	80.62
309.341	77.62
309.571	99.62
309.8	96.62
310.03	101.62
310.26	92.62
310.49	108.62
310.72	95.62
310.949	99.62
311.179	107.62
311.409	92.62
311.639	86.62
311.868	97.62
312.098	88.62
312.328	94.62
312.557	109.62
312.787	87.62
313.017	97.62
313.246	99.62
313.476	101.62
313.706	95.62
313.935	101.62
314.165	97.62
314.394	103.62
314.624	104.62
314.853	92.62
315.083	104.62
315.312	102.62
315.542	93.62
315.771	90.62
316.001	105.62
316.23	94.62
316.46	104.62
316.689	92.62
316.919	122.62
317.148	99.62
317.377	90.62
317.607	98.62
317.836	106.62
318.065	95.62
318.295	94.62
318.524	102.62
318.753	94.62
318.983	107.62
319.212	100.62
319.441	103.62
319.67	104.62
319.9	94.62
320.129	87.62
320.358	88.62
320.587	97.62
320.816	96.62
321.046	99.62
321.275	99.62
321.504	93.62
321.733	90.62
321.962	90.62
322.191	93.62
322.42	99.62
322.649	112.62
322.878	103.62
323.108	103.62
323.337	113.62
323.566	122.62
323.795	144.62
324.024	199.62
324.253	399.62
324.482	832.62
324.71	1652.62
324.939	2211.62
325.168	795.62
325.397	242.62
325.626	151.62
325.855	143.62
326.084	133.62
326.313	116.62
326.542	148.62
326.77	226.62
326.999	460.62
327.228	940.62
327.457	1717.62
327.686	1346.62
327.914	370.62
328.143	184.62
328.372	124.62
328.6	115.62
328.829	117.62
329.058	118.62
329.287	122.62
329.515	98.62
329.744	94.62
329.972	87.62
330.201	112.62
330.43	120.62
330.658	122.62
330.887	123.62
331.115	124.62
331.344	108.62
331.572	97.62
331.801	106.62
332.03	98.62
332.258	103.62
332.486	85.62
332.715	88.62
332.943	102.62
333.172	103.62
333.4	109.62
333.629	113.62
333.857	106.62
334.085	106.62
334.314	87.62
334.542	94.62
334.771	90.62
334.999	90.62
335.227	87.62
335.455	100.62
335.684	87.62
335.912	93.62
336.14	97.62
336.369	86.62
336.597	100.62
336.825	103.62
337.053	93.62
337.281	94.62
337.51	91.62
337.738	91.62
337.966	91.62
338.194	87.62
338.422	101.62
338.65	95.62
338.878	95.62
339.106	103.62
339.334	97.62
339.562	99.62
339.79	101.62
340.018	78.62
340.246	87.62
340.474	84.62
340.702	92.62
340.93	88.62
341.158	87.62
341.386	93.62
341.614	91.62
341.842	94.62
342.07	83.62
342.298	113.62
342.526	110.62
342.754	96.62
342.981	82.62
343.209	83.62
343.437	83.62
343.665	84.62
343.893	84.62
344.12	90.62
344.348	95.62
344.576	85.62
344.804	86.62
345.031	98.62
345.259	95.62
345.487	92.62
345.714	87.62
345.942	89.62
346.17	93.62
346.397	106.62
346.625	70.62
346.853	101.62
347.08	72.62
347.308	87.62
347.535	103.62
347.763	86.62
347.99	89.62
348.218	114.62
348.445	99.62
348.673	97.62
348.9	82.62
349.128	98.62
349.355	111.62
349.583	87.62
349.81	109.62
350.037	90.62
350.265	86.62
350.492	98.62
350.72	101.62
350.947	102.62
351.174	89.62
351.402	105.62
351.629	106.62
351.856	87.62
352.083	102.62
352.311	110.62
352.538	114.62
352.765	99.62
352.992	120.62
353.22	124.62
353.447	104.62
353.674	100.62
353.901	85.62
354.128	104.62
354.355	96.62
354.583	97.62
354.81	102.62
355.037	94.62
355.264	102.62
355.491	97.62
355.718	92.62
355.945	94.62
356.172	92.62
356.399	96.62
356.626	104.62
356.853	98.62
357.08	104.62
357.307	93.62
357.534	102.62
357.761	103.62
357.988	94.62
358.215	86.62
358.441	96.62
358.668	77.62
358.895	82.62
359.122	92.62
359.349	96.62
359.576	95.62
359.802	110.62
360.029	110.62
360.256	94.62
360.483	99.62
360.709	81.62
360.936	86.62
361.163	99.62
361.39	103.62
361.616	86.62
361.843	95.62
362.07	78.62
362.296	99.62
362.523	92.62
362.749	90.62
362.976	92.62
363.203	96.62
363.429	79.62
363.656	79.62
363.882	91.62
364.109	105.62
364.335	78.62
364.562	66.62
364.788	85.62
365.015	84.62
365.241	98.62
365.468	106.62
365.694	99.62
365.92	82.62
366.147	91.62
366.373	92.62
366.599	93.62
366.826	98.62
367.052	92.62
367.278	100.62
367.505	90.62
367.731	88.62
367.957	84.62
368.184	95.62
368.41	104.62
368.636	108.62
368.862	111.62
369.089	104.62
369.315	100.62
369.541	93.62
369.767	92.62
369.993	84.62
370.219	87.62
370.445	91.62
370.672	89.62
370.898	97.62
371.124	85.62
371.35	88.62
371.576	78.62
371.802	79.62
372.028	85.62
372.254	83.62
372.48	90.62
372.706	75.62
372.932	82.62
373.158	96.62
373.384	92.62
373.61	88.62
373.835	92.62
374.061	108.62
374.287	92.62
374.513	88.62
374.739	86.62
374.965	84.62
375.191	86.62
375.416	91.62
375.642	88.62
375.868	91.62
376.094	97.62
376.319	91.62
376.545	90.62
376.771	103.62
376.997	93.62
377.222	94.62
377.448	87.62
377.674	101.62
377.899	98.62
378.125	83.62
378.35	92.62
378.576	98.62
378.802	90.62
379.027	115.62
379.253	95.62
379.478	86.62
379.704	102.62
379.929	100.62
380.155	94.62
380.38	94.62
380.606	88.62
380.831	96.62
381.057	106.62
381.282	97.62
381.507	91.62
381.733	94.62
381.958	103.62
382.184	101.62
382.409	95.62
382.634	85.62
382.86	96.62
383.085	101.62
383.31	97.62
383.535	101.62
383.761	101.62
383.986	92.62
384.211	98.62
384.436	84.62
384.662	102.62
384.887	109.62
385.112	107.62
385.337	105.62
385.562	99.62
385.787	100.62
386.013	116.62
386.238	111.62
386.463	107.62
386.688	115.62
386.913	99.62
387.138	113.62
387.363	91.62
387.588	102.62
387.813	100.62
388.038	91.62
388.263	106.62
388.488	98.62
388.713	111.62
388.938	93.62
389.163	100.62
389.387	95.62
389.612	88.62
389.837	114.62
390.062	89.62
390.287	107.62
390.512	101.62
390.736	87.62
390.961	93.62
391.186	90.62
391.411	102.62
391.636	80.62
391.86	75.62
392.085	91.62
392.31	88.62
392.534	90.62
392.759	98.62
392.984	87.62
393.208	101.62
393.433	101.62
393.658	78.62
393.882	98.62
394.107	76.62
394.331	92.62
394.556	102.62
394.78	92.62
395.005	77.62
395.229	104.62
395.454	105.62
395.678	87.62
395.903	91.62
396.127	78.62
396.352	92.62
396.576	83.62
396.801	94.62
397.025	98.62
397.249	106.62
397.474	68.62
397.698	72.62
397.922	87.62
398.147	89.62
398.371	88.62
398.595	101.62
398.82	85.62
399.044	70.62
399.268	103.62
399.492	88.62
399.717	95.62
399.941	84.62
400.165	101.62
400.389	98.62
400.613	92.62
400.837	100.62
401.062	101.62
401.286	101.62
401.51	91.62
401.734	88.62
401.958	91.62
402.182	134.62
402.406	168.62
402.63	124.62
402.854	83.62
403.078	92.62
403.302	89.62
403.526	87.62
403.75	70.62
403.974	94.62
404.198	79.62
404.422	75.62
404.645	76.62
404.869	102.62
405.093	102.62
405.317	89.62
405.541	102.62
405.765	105.62
405.988	113.62
406.212	173.62
406.436	197.62
406.66	142.62
406.883	101.62
407.107	74.62
407.331	84.62
407.555	99.62
407.778	78.62
408.002	76.62
408.226	96.62
408.449	85.62
408.673	90.62
408.896	85.62
409.12	91.62
409.344	97.62
409.567	96.62
409.791	80.62
410.014	90.62
410.238	93.62
410.461	102.62
410.685	97.62
410.908	100.62
411.132	86.62
411.355	86.62
411.578	86.62
411.802	97.62
412.025	89.62
412.249	97.62
412.472	91.62
412.695	84.62
412.919	80.62
413.142	73.62
413.365	92.62
413.589	92.62
413.812	98.62
414.035	94.62
414.258	82.62
414.482	99.62
414.705	94.62
414.928	81.62
415.151	92.62
415.374	88.62
415.597	84.62
415.821	84.62
416.044	81.62
416.267	97.62
416.49	96.62
416.713	96.62
416.936	88.62
417.159	87.62
417.382	93.62
417.605	98.62
417.828	92.62
418.051	92.62
418.274	93.62
418.497	84.62
418.72	90.62
418.943	82.62
419.166	89.62
419.389	92.62
419.611	87.62
419.834	87.62
420.057	90.62
420.28	94.62
420.503	83.62
420.726	84.62
420.948	83.62
421.171	79.62
421.394	92.62
421.617	98.62
421.839	101.62
422.062	85.62
422.285	100.62
422.507	98.62
422.73	118.62
422.953	93.62
423.175	84.62
423.398	99.62
423.621	90.62
423.843	85.62
424.066	87.62
424.288	84.62
424.511	75.62
424.733	94.62
424.956	107.62
425.178	113.62
425.401	96.62
425.623	97.62
425.846	87.62
426.068	87.62
426.291	99.62
426.513	92.62
426.735	94.62
426.958	87.62
427.18	101.62
427.402	134.62
427.625	154.62
427.847	109.62
428.069	86.62
428.292	78.62
428.514	79.62
428.736	78.62
428.958	82.62
429.181	80.62
429.403	87.62
429.625	92.62
429.847	104.62
430.069	106.62
430.292	87.62
430.514	71.62
430.736	83.62
430.958	94.62
431.18	98.62
431.402	80.62
431.624	90.62
431.846	72.62
432.068	88.62
432.29	93.62
432.512	80.62
432.734	87.62
432.956	87.62
433.178	98.62
433.4	101.62
433.622	101.62
433.844	83.62
434.066	85.62
434.287	99.62
434.509	112.62
434.731	88.62
434.953	79.62
435.175	73.62
435.397	95.62
435.618	90.62
435.84	96.62
436.062	111.62
436.284	114.62
436.505	96.62
436.727	102.62
436.949	87.62
437.17	88.62
437.392	87.62
437.614	95.62
437.835	94.62
438.057	113.62
438.278	96.62
438.5	106.62
438.721	101.62
438.943	106.62
439.165	87.62
439.386	97.62
439.608	92.62
439.829	96.62
440.05	114.62
440.272	126.62
440.493	102.62
440.715	89.62
440.936	100.62
441.158	98.62
441.379	96.62
441.6	102.62
441.822	100.62
442.043	107.62
442.264	94.62
442.486	82.62
442.707	90.62
442.928	104.62
443.149	120.62
443.371	117.62
443.592	105.62
443.813	111.62
444.034	109.62
444.255	81.62
444.476	85.62
444.698	74.62
444.919	86.62
445.14	142.62
445.361	111.62
445.582	104.62
445.803	141.62
446.024	128.62
446.245	138.62
446.466	103.62
446.687	87.62
446.908	86.62
447.129	91.62
447.35	79.62
447.571	91.62
447.792	96.62
448.013	99.62
448.234	110.62
448.455	108.62
448.675	117.62
448.896	108.62
449.117	102.62
449.338	102.62
449.559	119.62
449.779	110.62
450	92.62
450.221	93.62
450.442	84.62
450.662	101.62
450.883	106.62
451.104	109.62
451.324	84.62
451.545	98.62
451.766	90.62
451.986	89.62
452.207	84.62
452.428	85.62
452.648	99.62
452.869	100.62
453.089	108.62
453.31	110.62
453.53	105.62
453.751	96.62
453.971	100.62
454.192	110.62
454.412	89.62
454.633	85.62
454.853	96.62
455.073	82.62
455.294	88.62
455.514	90.62
455.734	96.62
455.955	98.62
456.175	78.62
456.395	76.62
456.616	84.62
456.836	80.62
457.056	76.62
457.276	87.62
457.497	84.62
457.717	73.62
457.937	74.62
458.157	87.62
458.377	84.62
458.598	88.62
458.818	135.62
459.038	162.62
459.258	92.62
459.478	77.62
459.698	90.62
459.918	78.62
460.138	94.62
460.358	78.62
460.578	75.62
460.798	87.62
461.018	88.62
461.238	81.62
461.458	77.62
461.678	78.62
461.898	84.62
462.118	87.62
462.338	95.62
462.558	81.62
462.777	76.62
462.997	80.62
463.217	90.62
463.437	78.62
463.657	86.62
463.876	96.62
464.096	79.62
464.316	83.62
464.536	76.62
464.755	85.62
464.975	103.62
465.195	144.62
465.414	145.62
465.634	105.62
465.854	93.62
466.073	86.62
466.293	91.62
466.512	80.62
466.732	86.62
466.951	91.62
467.171	86.62
467.391	94.62
467.61	116.62
467.829	96.62
468.049	91.62
468.268	82.62
468.488	95.62
468.707	95.62
468.927	77.62
469.146	91.62
469.365	86.62
469.585	88.62
469.804	90.62
470.023	91.62
470.243	109.62
470.462	100.62
470.681	94.62
470.901	93.62
471.12	82.62
471.339	88.62
471.558	83.62
471.777	70.62
471.997	85.62
472.216	84.62
472.435	93.62
472.654	83.62
472.873	97.62
473.092	87.62
473.311	81.62
473.53	80.62
473.749	104.62
473.968	93.62
474.187	107.62
474.406	94.62
474.625	100.62
474.844	95.62
475.063	86.62
475.282	81.62
475.501	83.62
475.72	96.62
475.939	74.62
476.158	95.62
476.377	80.62
476.596	77.62
476.814	88.62
477.033	87.62
477.252	89.62
477.471	95.62
477.69	81.62
477.908	76.62
478.127	82.62
478.346	96.62
478.564	86.62
478.783	89.62
479.002	88.62
479.22	79.62
479.439	94.62
479.658	97.62
479.876	108.62
480.095	94.62
480.313	84.62
480.532	81.62
480.751	91.62
480.969	98.62
481.188	81.62
481.406	96.62
481.624	86.62
481.843	86.62
482.061	88.62
482.28	83.62
482.498	101.62
482.717	99.62
482.935	95.62
483.153	93.62
483.372	95.62
483.59	105.62
483.808	100.62
484.027	88.62
484.245	94.62
484.463	74.62
484.681	98.62
484.9	82.62
485.118	95.62
485.336	101.62
485.554	85.62
485.772	80.62
485.99	103.62
486.209	96.62
486.427	110.62
486.645	101.62
486.863	95.62
487.081	100.62
487.299	103.62
487.517	91.62
487.735	99.62
487.953	107.62
488.171	82.62
488.389	94.62
488.607	96.62
488.825	99.62
489.043	99.62
489.261	95.62
489.479	90.62
489.696	86.62
489.914	86.62
490.132	72.62
490.35	88.62
490.568	85.62
490.786	96.62
491.003	86.62
491.221	100.62
491.439	104.62
491.657	92.62
491.874	70.62
492.092	97.62
492.31	98.62
492.527	88.62
492.745	88.62
492.963	85.62
493.18	91.62
493.398	83.62
493.615	90.62
493.833	98.62
494.05	92.62
494.268	93.62
494.485	85.62
494.703	104.62
494.92	99.62
495.138	74.62
495.355	96.62
495.573	96.62
495.79	92.62
496.008	103.62
496.225	104.62
496.442	79.62
496.66	85.62
496.877	90.62
497.094	87.62
497.312	95.62
497.529	102.62
497.746	97.62
497.963	96.62
498.181	92.62
498.398	94.62
498.615	98.62
498.832	98.62
499.049	96.62
499.267	101.62
499.484	95.62
499.701	86.62
499.918	95.62
500.135	94.62
500.352	83.62
500.569	89.62
500.786	94.62
501.003	84.62
501.22	102.62
501.437	86.62
501.654	100.62
501.871	107.62
502.088	86.62
502.305	95.62
502.522	79.62
502.739	81.62
502.956	97.62
503.172	97.62
503.389	85.62
503.606	79.62
503.823	80.62
504.04	99.62
504.256	101.62
504.473	97.62
504.69	88.62
504.907	97.62
505.123	93.62
505.34	83.62
505.557	93.62
505.773	88.62
505.99	87.62
506.207	94.62
506.423	82.62
506.64	100.62
506.856	86.62
507.073	86.62
507.289	79.62
507.506	107.62
507.722	114.62
507.939	101.62
508.155	104.62
508.372	96.62
508.588	89.62
508.805	87.62
509.021	102.62
509.238	110.62
509.454	118.62
509.67	101.62
509.887	113.62
510.103	138.62
510.319	206.62
510.536	740.62
510.752	2253.62
510.968	664.62
511.184	150.62
511.401	116.62
511.617	107.62
511.833	101.62
512.049	100.62
512.265	94.62
512.481	88.62
512.698	93.62
512.914	94.62
513.13	87.62
513.346	90.62
513.562	94.62
513.778	102.62
513.994	89.62
514.21	103.62
514.426	129.62
514.642	148.62
514.858	124.62
515.074	153.62
515.29	438.62
515.506	1357.62
515.721	518.62
