Data from Uncirc_2006_H10_HRD10591_00010.txt Node
Date: Wed Jan 03 10:24:57 EST 2024
User: Yrep
Spectrometer: HR+D1059
Trigger mode: 1
Integration Time (sec): 1.000000E-1
Scans to average: 1
Electric dark correction enabled: true
Nonlinearity correction enabled: false
Boxcar width: 0
XAxis mode: Wavelengths
Number of Pixels in Spectrum: 2048
>>>>>Begin Spectral Data<<<<<
223.165	-6.44
223.4	-6.44
223.635	-6.44
223.869	-25.44
224.104	-28.44
224.338	-24.44
224.573	-12.44
224.808	-10.44
225.042	-11.44
225.277	-21.44
225.511	1.56
225.746	9.56
225.98	8.56
226.215	2.56
226.449	19.56
226.683	28.56
226.918	31.56
227.152	38.56
227.387	45.56
227.621	43.56
227.856	42.56
228.09	50.56
228.324	50.56
228.559	53.56
228.793	46.56
229.027	58.56
229.262	61.56
229.496	70.56
229.73	79.56
229.964	68.56
230.199	78.56
230.433	81.56
230.667	80.56
230.901	62.56
231.136	64.56
231.37	67.56
231.604	71.56
231.838	65.56
232.072	75.56
232.306	73.56
232.541	85.56
232.775	69.56
233.009	80.56
233.243	73.56
233.477	75.56
233.711	84.56
233.945	67.56
234.179	74.56
234.413	73.56
234.647	76.56
234.881	67.56
235.115	81.56
235.349	76.56
235.583	60.56
235.817	80.56
236.051	76.56
236.285	70.56
236.519	78.56
236.753	81.56
236.987	75.56
237.221	85.56
237.455	83.56
237.689	70.56
237.922	68.56
238.156	72.56
238.39	77.56
238.624	78.56
238.858	78.56
239.091	56.56
239.325	80.56
239.559	63.56
239.793	75.56
240.027	84.56
240.26	66.56
240.494	73.56
240.728	68.56
240.961	68.56
241.195	71.56
241.429	79.56
241.662	83.56
241.896	61.56
242.13	91.56
242.363	66.56
242.597	73.56
242.83	78.56
243.064	68.56
243.298	70.56
243.531	63.56
243.765	71.56
243.998	80.56
244.232	75.56
244.465	79.56
244.699	86.56
244.932	78.56
245.166	65.56
245.399	71.56
245.633	85.56
245.866	78.56
246.099	63.56
246.333	79.56
246.566	65.56
246.8	81.56
247.033	85.56
247.266	74.56
247.5	80.56
247.733	90.56
247.966	71.56
248.2	79.56
248.433	66.56
248.666	78.56
248.899	84.56
249.133	81.56
249.366	103.56
249.599	85.56
249.832	78.56
250.066	69.56
250.299	80.56
250.532	75.56
250.765	74.56
250.998	89.56
251.231	76.56
251.465	83.56
251.698	72.56
251.931	66.56
252.164	65.56
252.397	71.56
252.63	71.56
252.863	88.56
253.096	94.56
253.329	78.56
253.562	80.56
253.795	81.56
254.028	69.56
254.261	70.56
254.494	84.56
254.727	76.56
254.96	82.56
255.193	82.56
255.426	92.56
255.659	79.56
255.892	94.56
256.124	86.56
256.357	76.56
256.59	72.56
256.823	77.56
257.056	71.56
257.289	86.56
257.521	70.56
257.754	69.56
257.987	89.56
258.22	93.56
258.452	81.56
258.685	85.56
258.918	75.56
259.151	88.56
259.383	77.56
259.616	69.56
259.849	55.56
260.081	88.56
260.314	79.56
260.547	70.56
260.779	78.56
261.012	84.56
261.244	79.56
261.477	93.56
261.71	89.56
261.942	102.56
262.175	114.56
262.407	84.56
262.64	59.56
262.872	85.56
263.105	73.56
263.337	80.56
263.57	82.56
263.802	81.56
264.035	79.56
264.267	77.56
264.499	78.56
264.732	83.56
264.964	82.56
265.197	74.56
265.429	80.56
265.661	91.56
265.894	86.56
266.126	73.56
266.358	76.56
266.591	68.56
266.823	74.56
267.055	80.56
267.287	86.56
267.52	81.56
267.752	85.56
267.984	69.56
268.216	90.56
268.448	70.56
268.681	81.56
268.913	83.56
269.145	65.56
269.377	84.56
269.609	81.56
269.841	70.56
270.073	83.56
270.306	72.56
270.538	78.56
270.77	69.56
271.002	91.56
271.234	87.56
271.466	95.56
271.698	82.56
271.93	68.56
272.162	83.56
272.394	83.56
272.626	80.56
272.858	80.56
273.09	83.56
273.322	76.56
273.553	75.56
273.785	90.56
274.017	70.56
274.249	77.56
274.481	80.56
274.713	88.56
274.945	107.56
275.176	90.56
275.408	81.56
275.64	85.56
275.872	74.56
276.104	85.56
276.335	84.56
276.567	86.56
276.799	96.56
277.031	103.56
277.262	88.56
277.494	82.56
277.726	80.56
277.957	78.56
278.189	79.56
278.421	77.56
278.652	93.56
278.884	89.56
279.115	77.56
279.347	91.56
279.579	70.56
279.81	78.56
280.042	89.56
280.273	77.56
280.505	84.56
280.736	88.56
280.968	75.56
281.199	84.56
281.431	82.56
281.662	92.56
281.894	90.56
282.125	95.56
282.356	112.56
282.588	112.56
282.819	104.56
283.051	88.56
283.282	97.56
283.513	83.56
283.745	72.56
283.976	86.56
284.207	93.56
284.439	91.56
284.67	74.56
284.901	90.56
285.132	82.56
285.364	70.56
285.595	73.56
285.826	89.56
286.057	89.56
286.288	88.56
286.52	81.56
286.751	87.56
286.982	76.56
287.213	71.56
287.444	95.56
287.675	82.56
287.906	83.56
288.138	72.56
288.369	82.56
288.6	89.56
288.831	85.56
289.062	87.56
289.293	84.56
289.524	76.56
289.755	78.56
289.986	70.56
290.217	89.56
290.448	75.56
290.679	91.56
290.91	81.56
291.141	83.56
291.371	102.56
291.602	87.56
291.833	78.56
292.064	89.56
292.295	82.56
292.526	93.56
292.757	84.56
292.987	90.56
293.218	83.56
293.449	89.56
293.68	80.56
293.91	82.56
294.141	78.56
294.372	89.56
294.603	84.56
294.833	72.56
295.064	74.56
295.295	84.56
295.525	80.56
295.756	97.56
295.987	106.56
296.217	136.56
296.448	121.56
296.679	71.56
296.909	79.56
297.14	82.56
297.37	89.56
297.601	89.56
297.831	87.56
298.062	78.56
298.292	91.56
298.523	95.56
298.753	80.56
298.984	84.56
299.214	92.56
299.445	91.56
299.675	92.56
299.905	89.56
300.136	82.56
300.366	83.56
300.597	84.56
300.827	84.56
301.057	88.56
301.288	101.56
301.518	89.56
301.748	82.56
301.979	87.56
302.209	76.56
302.439	67.56
302.669	82.56
302.9	73.56
303.13	87.56
303.36	89.56
303.59	88.56
303.82	99.56
304.051	91.56
304.281	96.56
304.511	98.56
304.741	90.56
304.971	87.56
305.201	84.56
305.431	92.56
305.661	99.56
305.891	90.56
306.121	94.56
306.352	87.56
306.582	93.56
306.812	83.56
307.042	97.56
307.272	94.56
307.502	88.56
307.731	85.56
307.961	77.56
308.191	76.56
308.421	76.56
308.651	73.56
308.881	109.56
309.111	92.56
309.341	94.56
309.571	104.56
309.8	87.56
310.03	77.56
310.26	78.56
310.49	82.56
310.72	111.56
310.949	94.56
311.179	96.56
311.409	90.56
311.639	99.56
311.868	92.56
312.098	90.56
312.328	92.56
312.557	91.56
312.787	115.56
313.017	99.56
313.246	85.56
313.476	77.56
313.706	92.56
313.935	85.56
314.165	106.56
314.394	102.56
314.624	89.56
314.853	97.56
315.083	94.56
315.312	97.56
315.542	79.56
315.771	86.56
316.001	91.56
316.23	90.56
316.46	89.56
316.689	81.56
316.919	93.56
317.148	82.56
317.377	93.56
317.607	86.56
317.836	97.56
318.065	95.56
318.295	86.56
318.524	80.56
318.753	92.56
318.983	98.56
319.212	97.56
319.441	91.56
319.67	106.56
319.9	102.56
320.129	107.56
320.358	93.56
320.587	98.56
320.816	80.56
321.046	90.56
321.275	107.56
321.504	93.56
321.733	83.56
321.962	100.56
322.191	101.56
322.42	106.56
322.649	96.56
322.878	103.56
323.108	112.56
323.337	126.56
323.566	135.56
323.795	146.56
324.024	187.56
324.253	356.56
324.482	781.56
324.71	1557.56
324.939	2004.56
325.168	746.56
325.397	229.56
325.626	143.56
325.855	118.56
326.084	121.56
326.313	107.56
326.542	139.56
326.77	214.56
326.999	436.56
327.228	861.56
327.457	1567.56
327.686	1254.56
327.914	337.56
328.143	173.56
328.372	133.56
328.6	127.56
328.829	110.56
329.058	108.56
329.287	110.56
329.515	97.56
329.744	88.56
329.972	101.56
330.201	82.56
330.43	92.56
330.658	118.56
330.887	114.56
331.115	111.56
331.344	94.56
331.572	95.56
331.801	97.56
332.03	102.56
332.258	92.56
332.486	90.56
332.715	93.56
332.943	111.56
333.172	96.56
333.4	93.56
333.629	96.56
333.857	93.56
334.085	96.56
334.314	104.56
334.542	97.56
334.771	97.56
334.999	95.56
335.227	89.56
335.455	75.56
335.684	99.56
335.912	82.56
336.14	80.56
336.369	90.56
336.597	98.56
336.825	95.56
337.053	100.56
337.281	94.56
337.51	76.56
337.738	84.56
337.966	90.56
338.194	92.56
338.422	98.56
338.65	81.56
338.878	91.56
339.106	97.56
339.334	97.56
339.562	87.56
339.79	94.56
340.018	82.56
340.246	87.56
340.474	95.56
340.702	89.56
340.93	76.56
341.158	85.56
341.386	73.56
341.614	72.56
341.842	89.56
342.07	82.56
342.298	100.56
342.526	90.56
342.754	88.56
342.981	84.56
343.209	90.56
343.437	93.56
343.665	72.56
343.893	82.56
344.12	89.56
344.348	98.56
344.576	88.56
344.804	96.56
345.031	98.56
345.259	97.56
345.487	103.56
345.714	80.56
345.942	90.56
346.17	77.56
346.397	93.56
346.625	83.56
346.853	90.56
347.08	87.56
347.308	92.56
347.535	101.56
347.763	75.56
347.99	76.56
348.218	82.56
348.445	110.56
348.673	102.56
348.9	98.56
349.128	89.56
349.355	91.56
349.583	102.56
349.81	100.56
350.037	90.56
350.265	95.56
350.492	91.56
350.72	90.56
350.947	92.56
351.174	88.56
351.402	96.56
351.629	100.56
351.856	102.56
352.083	85.56
352.311	115.56
352.538	101.56
352.765	92.56
352.992	122.56
353.22	108.56
353.447	87.56
353.674	98.56
353.901	104.56
354.128	98.56
354.355	102.56
354.583	103.56
354.81	106.56
355.037	112.56
355.264	94.56
355.491	96.56
355.718	83.56
355.945	86.56
356.172	88.56
356.399	97.56
356.626	80.56
356.853	90.56
357.08	88.56
357.307	94.56
357.534	92.56
357.761	84.56
357.988	104.56
358.215	96.56
358.441	99.56
358.668	87.56
358.895	78.56
359.122	80.56
359.349	84.56
359.576	75.56
359.802	86.56
360.029	106.56
360.256	93.56
360.483	97.56
360.709	92.56
360.936	88.56
361.163	84.56
361.39	99.56
361.616	93.56
361.843	90.56
362.07	90.56
362.296	87.56
362.523	84.56
362.749	89.56
362.976	91.56
363.203	87.56
363.429	84.56
363.656	78.56
363.882	63.56
364.109	83.56
364.335	83.56
364.562	75.56
364.788	96.56
365.015	70.56
365.241	85.56
365.468	83.56
365.694	116.56
365.92	86.56
366.147	96.56
366.373	81.56
366.599	82.56
366.826	101.56
367.052	96.56
367.278	62.56
367.505	80.56
367.731	105.56
367.957	96.56
368.184	93.56
368.41	94.56
368.636	91.56
368.862	111.56
369.089	96.56
369.315	94.56
369.541	80.56
369.767	83.56
369.993	75.56
370.219	84.56
370.445	89.56
370.672	88.56
370.898	84.56
371.124	91.56
371.35	71.56
371.576	82.56
371.802	77.56
372.028	88.56
372.254	82.56
372.48	89.56
372.706	89.56
372.932	90.56
373.158	79.56
373.384	79.56
373.61	73.56
373.835	100.56
374.061	88.56
374.287	75.56
374.513	85.56
374.739	78.56
374.965	89.56
375.191	83.56
375.416	92.56
375.642	98.56
375.868	90.56
376.094	96.56
376.319	77.56
376.545	96.56
376.771	94.56
376.997	84.56
377.222	84.56
377.448	93.56
377.674	94.56
377.899	88.56
378.125	82.56
378.35	75.56
378.576	91.56
378.802	82.56
379.027	94.56
379.253	84.56
379.478	86.56
379.704	91.56
379.929	94.56
380.155	104.56
380.38	88.56
380.606	95.56
380.831	92.56
381.057	98.56
381.282	87.56
381.507	93.56
381.733	95.56
381.958	79.56
382.184	105.56
382.409	98.56
382.634	100.56
382.86	97.56
383.085	92.56
383.31	102.56
383.535	109.56
383.761	100.56
383.986	104.56
384.211	93.56
384.436	115.56
384.662	110.56
384.887	94.56
385.112	99.56
385.337	107.56
385.562	119.56
385.787	100.56
386.013	120.56
386.238	131.56
386.463	94.56
386.688	123.56
386.913	99.56
387.138	107.56
387.363	109.56
387.588	98.56
387.813	119.56
388.038	123.56
388.263	113.56
388.488	114.56
388.713	88.56
388.938	90.56
389.163	92.56
389.387	100.56
389.612	82.56
389.837	94.56
390.062	104.56
390.287	93.56
390.512	91.56
390.736	84.56
390.961	84.56
391.186	106.56
391.411	84.56
391.636	81.56
391.86	84.56
392.085	79.56
392.31	81.56
392.534	91.56
392.759	74.56
392.984	89.56
393.208	84.56
393.433	92.56
393.658	93.56
393.882	88.56
394.107	79.56
394.331	86.56
394.556	85.56
394.78	91.56
395.005	74.56
395.229	83.56
395.454	84.56
395.678	87.56
395.903	82.56
396.127	91.56
396.352	79.56
396.576	69.56
396.801	93.56
397.025	80.56
397.249	83.56
397.474	87.56
397.698	83.56
397.922	79.56
398.147	77.56
398.371	79.56
398.595	80.56
398.82	90.56
399.044	74.56
399.268	84.56
399.492	91.56
399.717	90.56
399.941	92.56
400.165	82.56
400.389	84.56
400.613	82.56
400.837	91.56
401.062	85.56
401.286	78.56
401.51	96.56
401.734	90.56
401.958	87.56
402.182	123.56
402.406	143.56
402.63	122.56
402.854	89.56
403.078	93.56
403.302	75.56
403.526	90.56
403.75	83.56
403.974	87.56
404.198	78.56
404.422	95.56
404.645	87.56
404.869	80.56
405.093	97.56
405.317	83.56
405.541	83.56
405.765	90.56
405.988	95.56
406.212	164.56
406.436	188.56
406.66	136.56
406.883	95.56
407.107	86.56
407.331	89.56
407.555	94.56
407.778	72.56
408.002	82.56
408.226	76.56
408.449	83.56
408.673	84.56
408.896	83.56
409.12	87.56
409.344	91.56
409.567	88.56
409.791	84.56
410.014	91.56
410.238	85.56
410.461	91.56
410.685	87.56
410.908	89.56
411.132	103.56
411.355	97.56
411.578	71.56
411.802	96.56
412.025	59.56
412.249	91.56
412.472	89.56
412.695	84.56
412.919	66.56
413.142	69.56
413.365	74.56
413.589	88.56
413.812	89.56
414.035	90.56
414.258	96.56
414.482	84.56
414.705	76.56
414.928	91.56
415.151	94.56
415.374	78.56
415.597	75.56
415.821	81.56
416.044	91.56
416.267	75.56
416.49	89.56
416.713	77.56
416.936	93.56
417.159	91.56
417.382	94.56
417.605	90.56
417.828	90.56
418.051	80.56
418.274	76.56
418.497	87.56
418.72	80.56
418.943	85.56
419.166	84.56
419.389	90.56
419.611	83.56
419.834	92.56
420.057	85.56
420.28	92.56
420.503	86.56
420.726	99.56
420.948	63.56
421.171	95.56
421.394	92.56
421.617	83.56
421.839	90.56
422.062	82.56
422.285	79.56
422.507	95.56
422.73	95.56
422.953	97.56
423.175	84.56
423.398	78.56
423.621	85.56
423.843	88.56
424.066	75.56
424.288	83.56
424.511	83.56
424.733	103.56
424.956	93.56
425.178	79.56
425.401	111.56
425.623	98.56
425.846	103.56
426.068	86.56
426.291	95.56
426.513	79.56
426.735	88.56
426.958	103.56
427.18	114.56
427.402	117.56
427.625	146.56
427.847	113.56
428.069	84.56
428.292	88.56
428.514	75.56
428.736	83.56
428.958	88.56
429.181	69.56
429.403	86.56
429.625	72.56
429.847	86.56
430.069	95.56
430.292	104.56
430.514	82.56
430.736	81.56
430.958	95.56
431.18	65.56
431.402	95.56
431.624	75.56
431.846	80.56
432.068	86.56
432.29	80.56
432.512	84.56
432.734	78.56
432.956	83.56
433.178	96.56
433.4	86.56
433.622	84.56
433.844	75.56
434.066	95.56
434.287	96.56
434.509	69.56
434.731	79.56
434.953	74.56
435.175	86.56
435.397	84.56
435.618	86.56
435.84	90.56
436.062	119.56
436.284	98.56
436.505	87.56
436.727	94.56
436.949	98.56
437.17	105.56
437.392	84.56
437.614	85.56
437.835	82.56
438.057	111.56
438.278	106.56
438.5	106.56
438.721	101.56
438.943	93.56
439.165	81.56
439.386	95.56
439.608	94.56
439.829	96.56
440.05	111.56
440.272	136.56
440.493	87.56
440.715	77.56
440.936	89.56
441.158	83.56
441.379	89.56
441.6	81.56
441.822	100.56
442.043	74.56
442.264	100.56
442.486	88.56
442.707	65.56
442.928	86.56
443.149	117.56
443.371	113.56
443.592	101.56
443.813	97.56
444.034	95.56
444.255	84.56
444.476	100.56
444.698	82.56
444.919	100.56
445.14	136.56
445.361	111.56
445.582	95.56
445.803	104.56
446.024	103.56
446.245	115.56
446.466	103.56
446.687	102.56
446.908	82.56
447.129	99.56
447.35	81.56
447.571	84.56
447.792	89.56
448.013	100.56
448.234	88.56
448.455	96.56
448.675	108.56
448.896	100.56
449.117	96.56
449.338	90.56
449.559	118.56
449.779	123.56
450	91.56
450.221	76.56
450.442	97.56
450.662	92.56
450.883	97.56
451.104	93.56
451.324	78.56
451.545	96.56
451.766	76.56
451.986	75.56
452.207	89.56
452.428	84.56
452.648	90.56
452.869	112.56
453.089	106.56
453.31	108.56
453.53	94.56
453.751	77.56
453.971	99.56
454.192	100.56
454.412	78.56
454.633	86.56
454.853	79.56
455.073	84.56
455.294	98.56
455.514	88.56
455.734	103.56
455.955	78.56
456.175	89.56
456.395	89.56
456.616	79.56
456.836	82.56
457.056	78.56
457.276	84.56
457.497	75.56
457.717	76.56
457.937	79.56
458.157	88.56
458.377	89.56
458.598	96.56
458.818	135.56
459.038	127.56
459.258	98.56
459.478	72.56
459.698	83.56
459.918	70.56
460.138	78.56
460.358	66.56
460.578	88.56
460.798	84.56
461.018	88.56
461.238	83.56
461.458	79.56
461.678	85.56
461.898	84.56
462.118	90.56
462.338	80.56
462.558	77.56
462.777	83.56
462.997	70.56
463.217	78.56
463.437	79.56
463.657	88.56
463.876	87.56
464.096	81.56
464.316	91.56
464.536	93.56
464.755	83.56
464.975	105.56
465.195	142.56
465.414	146.56
465.634	92.56
465.854	88.56
466.073	89.56
466.293	93.56
466.512	87.56
466.732	71.56
466.951	92.56
467.171	80.56
467.391	84.56
467.61	98.56
467.829	84.56
468.049	59.56
468.268	78.56
468.488	72.56
468.707	81.56
468.927	102.56
469.146	80.56
469.365	74.56
469.585	84.56
469.804	93.56
470.023	93.56
470.243	92.56
470.462	88.56
470.681	96.56
470.901	108.56
471.12	80.56
471.339	86.56
471.558	83.56
471.777	82.56
471.997	83.56
472.216	90.56
472.435	81.56
472.654	84.56
472.873	87.56
473.092	96.56
473.311	82.56
473.53	89.56
473.749	72.56
473.968	93.56
474.187	111.56
474.406	82.56
474.625	88.56
474.844	84.56
475.063	90.56
475.282	91.56
475.501	90.56
475.72	86.56
475.939	88.56
476.158	83.56
476.377	82.56
476.596	80.56
476.814	80.56
477.033	89.56
477.252	93.56
477.471	71.56
477.69	87.56
477.908	85.56
478.127	97.56
478.346	85.56
478.564	91.56
478.783	81.56
479.002	90.56
479.22	86.56
479.439	96.56
479.658	89.56
479.876	88.56
480.095	91.56
480.313	101.56
480.532	80.56
480.751	97.56
480.969	75.56
481.188	92.56
481.406	86.56
481.624	107.56
481.843	91.56
482.061	77.56
482.28	87.56
482.498	92.56
482.717	87.56
482.935	82.56
483.153	68.56
483.372	81.56
483.59	87.56
483.808	83.56
484.027	101.56
484.245	83.56
484.463	84.56
484.681	100.56
484.9	83.56
485.118	91.56
485.336	88.56
485.554	80.56
485.772	91.56
485.99	119.56
486.209	91.56
486.427	95.56
486.645	102.56
486.863	97.56
487.081	94.56
487.299	85.56
487.517	94.56
487.735	93.56
487.953	96.56
488.171	90.56
488.389	95.56
488.607	75.56
488.825	76.56
489.043	90.56
489.261	89.56
489.479	81.56
489.696	77.56
489.914	83.56
490.132	83.56
490.35	85.56
490.568	73.56
490.786	75.56
491.003	77.56
491.221	74.56
491.439	76.56
491.657	88.56
491.874	92.56
492.092	99.56
492.31	97.56
492.527	82.56
492.745	85.56
492.963	87.56
493.18	84.56
493.398	87.56
493.615	86.56
493.833	81.56
494.05	95.56
494.268	83.56
494.485	80.56
494.703	93.56
494.92	87.56
495.138	78.56
495.355	89.56
495.573	87.56
495.79	77.56
496.008	99.56
496.225	103.56
496.442	82.56
496.66	90.56
496.877	87.56
497.094	85.56
497.312	100.56
497.529	90.56
497.746	84.56
497.963	101.56
498.181	83.56
498.398	92.56
498.615	106.56
498.832	91.56
499.049	97.56
499.267	83.56
499.484	83.56
499.701	94.56
499.918	74.56
500.135	89.56
500.352	90.56
500.569	82.56
500.786	87.56
501.003	93.56
501.22	87.56
501.437	86.56
501.654	84.56
501.871	101.56
502.088	70.56
502.305	90.56
502.522	89.56
502.739	76.56
502.956	95.56
503.172	75.56
503.389	97.56
503.606	97.56
503.823	89.56
504.04	91.56
504.256	91.56
504.473	92.56
504.69	88.56
504.907	98.56
505.123	87.56
505.34	97.56
505.557	87.56
505.773	99.56
505.99	89.56
506.207	94.56
506.423	80.56
506.64	83.56
506.856	84.56
507.073	82.56
507.289	96.56
507.506	101.56
507.722	110.56
507.939	96.56
508.155	89.56
508.372	86.56
508.588	83.56
508.805	102.56
509.021	95.56
509.238	85.56
509.454	109.56
509.67	79.56
509.887	103.56
510.103	126.56
510.319	203.56
510.536	696.56
510.752	2063.56
510.968	592.56
511.184	137.56
511.401	92.56
511.617	102.56
511.833	98.56
512.049	85.56
512.265	89.56
512.481	73.56
512.698	86.56
512.914	80.56
513.13	103.56
513.346	79.56
513.562	82.56
513.778	86.56
513.994	88.56
514.21	77.56
514.426	114.56
514.642	137.56
514.858	135.56
515.074	152.56
515.29	384.56
515.506	1259.56
515.721	468.56
515.937	140.56
516.153	104.56
516.369	94.56
516.585	93.56
516.801	100.56
517.016	82.56
517.232	94.56
