Data from Uncirc_2006_H10_HRD10591_00052.txt Node
Date: Wed Jan 03 10:25:05 EST 2024
User: Yrep
Spectrometer: HR+D1059
Trigger mode: 1
Integration Time (sec): 1.000000E-1
Scans to average: 1
Electric dark correction enabled: true
Nonlinearity correction enabled: false
Boxcar width: 0
XAxis mode: Wavelengths
Number of Pixels in Spectrum: 2048
>>>>>Begin Spectral Data<<<<<
223.165	-13.81
223.4	-13.81
223.635	-13.81
223.869	-30.81
224.104	-17.81
224.338	-9.81
224.573	-3.81
224.808	-15.81
225.042	-10.81
225.277	1.19
225.511	-2.81
225.746	3.19
225.98	18.19
226.215	3.19
226.449	19.19
226.683	18.19
226.918	15.19
227.152	27.19
227.387	35.19
227.621	41.19
227.856	33.19
228.09	46.19
228.324	36.19
228.559	49.19
228.793	57.19
229.027	59.19
229.262	68.19
229.496	83.19
229.73	81.19
229.964	78.19
230.199	75.19
230.433	82.19
230.667	77.19
230.901	75.19
231.136	62.19
231.37	69.19
231.604	89.19
231.838	81.19
232.072	93.19
232.306	90.19
232.541	75.19
232.775	82.19
233.009	86.19
233.243	67.19
233.477	86.19
233.711	78.19
233.945	73.19
234.179	65.19
234.413	80.19
234.647	72.19
234.881	79.19
235.115	77.19
235.349	76.19
235.583	71.19
235.817	65.19
236.051	82.19
236.285	75.19
236.519	73.19
236.753	83.19
236.987	82.19
237.221	77.19
237.455	84.19
237.689	83.19
237.922	75.19
238.156	85.19
238.39	91.19
238.624	87.19
238.858	75.19
239.091	67.19
239.325	80.19
239.559	86.19
239.793	75.19
240.027	80.19
240.26	97.19
240.494	75.19
240.728	79.19
240.961	82.19
241.195	68.19
241.429	67.19
241.662	80.19
241.896	75.19
242.13	72.19
242.363	76.19
242.597	90.19
242.83	74.19
243.064	73.19
243.298	69.19
243.531	78.19
243.765	83.19
243.998	69.19
244.232	78.19
244.465	101.19
244.699	89.19
244.932	80.19
245.166	82.19
245.399	90.19
245.633	95.19
245.866	81.19
246.099	66.19
246.333	74.19
246.566	93.19
246.8	86.19
247.033	83.19
247.266	82.19
247.5	77.19
247.733	79.19
247.966	68.19
248.2	73.19
248.433	78.19
248.666	76.19
248.899	83.19
249.133	77.19
249.366	82.19
249.599	81.19
249.832	90.19
250.066	93.19
250.299	79.19
250.532	111.19
250.765	87.19
250.998	71.19
251.231	80.19
251.465	82.19
251.698	87.19
251.931	91.19
252.164	95.19
252.397	76.19
252.63	81.19
252.863	80.19
253.096	75.19
253.329	83.19
253.562	68.19
253.795	84.19
254.028	71.19
254.261	77.19
254.494	90.19
254.727	93.19
254.96	84.19
255.193	94.19
255.426	71.19
255.659	90.19
255.892	79.19
256.124	75.19
256.357	81.19
256.59	81.19
256.823	81.19
257.056	88.19
257.289	85.19
257.521	81.19
257.754	74.19
257.987	69.19
258.22	67.19
258.452	71.19
258.685	84.19
258.918	79.19
259.151	68.19
259.383	77.19
259.616	86.19
259.849	83.19
260.081	85.19
260.314	83.19
260.547	85.19
260.779	90.19
261.012	95.19
261.244	82.19
261.477	86.19
261.71	84.19
261.942	100.19
262.175	101.19
262.407	99.19
262.64	86.19
262.872	85.19
263.105	87.19
263.337	74.19
263.57	84.19
263.802	86.19
264.035	81.19
264.267	85.19
264.499	81.19
264.732	81.19
264.964	82.19
265.197	93.19
265.429	57.19
265.661	73.19
265.894	81.19
266.126	81.19
266.358	85.19
266.591	75.19
266.823	82.19
267.055	103.19
267.287	73.19
267.52	108.19
267.752	95.19
267.984	78.19
268.216	86.19
268.448	81.19
268.681	74.19
268.913	79.19
269.145	90.19
269.377	90.19
269.609	86.19
269.841	79.19
270.073	86.19
270.306	82.19
270.538	67.19
270.77	99.19
271.002	80.19
271.234	91.19
271.466	96.19
271.698	69.19
271.93	84.19
272.162	73.19
272.394	75.19
272.626	81.19
272.858	92.19
273.09	87.19
273.322	75.19
273.553	68.19
273.785	89.19
274.017	82.19
274.249	83.19
274.481	94.19
274.713	98.19
274.945	92.19
275.176	81.19
275.408	69.19
275.64	80.19
275.872	83.19
276.104	93.19
276.335	90.19
276.567	91.19
276.799	104.19
277.031	96.19
277.262	93.19
277.494	80.19
277.726	82.19
277.957	90.19
278.189	78.19
278.421	89.19
278.652	83.19
278.884	84.19
279.115	89.19
279.347	95.19
279.579	70.19
279.81	81.19
280.042	86.19
280.273	81.19
280.505	79.19
280.736	86.19
280.968	86.19
281.199	80.19
281.431	94.19
281.662	87.19
281.894	76.19
282.125	100.19
282.356	112.19
282.588	126.19
282.819	116.19
283.051	94.19
283.282	83.19
283.513	89.19
283.745	82.19
283.976	83.19
284.207	92.19
284.439	93.19
284.67	92.19
284.901	85.19
285.132	71.19
285.364	67.19
285.595	85.19
285.826	65.19
286.057	80.19
286.288	95.19
286.52	80.19
286.751	80.19
286.982	90.19
287.213	95.19
287.444	82.19
287.675	93.19
287.906	93.19
288.138	86.19
288.369	76.19
288.6	92.19
288.831	100.19
289.062	95.19
289.293	92.19
289.524	77.19
289.755	76.19
289.986	79.19
290.217	97.19
290.448	76.19
290.679	73.19
290.91	84.19
291.141	79.19
291.371	105.19
291.602	86.19
291.833	90.19
292.064	77.19
292.295	87.19
292.526	75.19
292.757	90.19
292.987	99.19
293.218	84.19
293.449	95.19
293.68	75.19
293.91	102.19
294.141	78.19
294.372	86.19
294.603	91.19
294.833	97.19
295.064	93.19
295.295	98.19
295.525	97.19
295.756	90.19
295.987	111.19
296.217	134.19
296.448	109.19
296.679	87.19
296.909	85.19
297.14	78.19
297.37	92.19
297.601	93.19
297.831	87.19
298.062	103.19
298.292	93.19
298.523	89.19
298.753	81.19
298.984	102.19
299.214	93.19
299.445	77.19
299.675	91.19
299.905	100.19
300.136	92.19
300.366	90.19
300.597	83.19
300.827	110.19
301.057	96.19
301.288	95.19
301.518	87.19
301.748	90.19
301.979	114.19
302.209	80.19
302.439	86.19
302.669	73.19
302.9	91.19
303.13	91.19
303.36	92.19
303.59	91.19
303.82	94.19
304.051	82.19
304.281	80.19
304.511	93.19
304.741	85.19
304.971	105.19
305.201	91.19
305.431	98.19
305.661	93.19
305.891	71.19
306.121	79.19
306.352	103.19
306.582	107.19
306.812	82.19
307.042	99.19
307.272	95.19
307.502	92.19
307.731	86.19
307.961	85.19
308.191	79.19
308.421	82.19
308.651	95.19
308.881	92.19
309.111	92.19
309.341	89.19
309.571	101.19
309.8	97.19
310.03	88.19
310.26	107.19
310.49	99.19
310.72	91.19
310.949	102.19
311.179	91.19
311.409	94.19
311.639	98.19
311.868	87.19
312.098	87.19
312.328	91.19
312.557	99.19
312.787	88.19
313.017	99.19
313.246	93.19
313.476	85.19
313.706	77.19
313.935	91.19
314.165	90.19
314.394	98.19
314.624	87.19
314.853	96.19
315.083	94.19
315.312	91.19
315.542	88.19
315.771	92.19
316.001	95.19
316.23	81.19
316.46	83.19
316.689	92.19
316.919	90.19
317.148	91.19
317.377	93.19
317.607	97.19
317.836	83.19
318.065	86.19
318.295	77.19
318.524	94.19
318.753	100.19
318.983	84.19
319.212	95.19
319.441	103.19
319.67	91.19
319.9	93.19
320.129	92.19
320.358	90.19
320.587	112.19
320.816	97.19
321.046	99.19
321.275	86.19
321.504	94.19
321.733	96.19
321.962	97.19
322.191	98.19
322.42	106.19
322.649	104.19
322.878	101.19
323.108	108.19
323.337	101.19
323.566	113.19
323.795	135.19
324.024	197.19
324.253	362.19
324.482	751.19
324.71	1500.19
324.939	1959.19
325.168	719.19
325.397	225.19
325.626	144.19
325.855	127.19
326.084	127.19
326.313	117.19
326.542	155.19
326.77	224.19
326.999	433.19
327.228	844.19
327.457	1520.19
327.686	1184.19
327.914	344.19
328.143	189.19
328.372	134.19
328.6	109.19
328.829	119.19
329.058	110.19
329.287	114.19
329.515	114.19
329.744	99.19
329.972	103.19
330.201	103.19
330.43	101.19
330.658	124.19
330.887	111.19
331.115	109.19
331.344	103.19
331.572	102.19
331.801	84.19
332.03	108.19
332.258	90.19
332.486	85.19
332.715	101.19
332.943	99.19
333.172	105.19
333.4	91.19
333.629	95.19
333.857	105.19
334.085	98.19
334.314	98.19
334.542	95.19
334.771	98.19
334.999	96.19
335.227	103.19
335.455	95.19
335.684	98.19
335.912	95.19
336.14	100.19
336.369	108.19
336.597	96.19
336.825	83.19
337.053	76.19
337.281	95.19
337.51	86.19
337.738	99.19
337.966	96.19
338.194	98.19
338.422	102.19
338.65	99.19
338.878	95.19
339.106	92.19
339.334	82.19
339.562	83.19
339.79	92.19
340.018	98.19
340.246	88.19
340.474	100.19
340.702	87.19
340.93	102.19
341.158	93.19
341.386	87.19
341.614	93.19
341.842	93.19
342.07	88.19
342.298	89.19
342.526	94.19
342.754	94.19
342.981	80.19
343.209	98.19
343.437	112.19
343.665	94.19
343.893	93.19
344.12	74.19
344.348	82.19
344.576	91.19
344.804	83.19
345.031	91.19
345.259	98.19
345.487	99.19
345.714	92.19
345.942	91.19
346.17	89.19
346.397	102.19
346.625	89.19
346.853	79.19
347.08	86.19
347.308	86.19
347.535	97.19
347.763	94.19
347.99	93.19
348.218	102.19
348.445	98.19
348.673	100.19
348.9	94.19
349.128	89.19
349.355	109.19
349.583	87.19
349.81	90.19
350.037	100.19
350.265	91.19
350.492	98.19
350.72	86.19
350.947	85.19
351.174	108.19
351.402	101.19
351.629	98.19
351.856	94.19
352.083	98.19
352.311	102.19
352.538	107.19
352.765	110.19
352.992	94.19
353.22	109.19
353.447	94.19
353.674	103.19
353.901	84.19
354.128	93.19
354.355	108.19
354.583	109.19
354.81	105.19
355.037	109.19
355.264	89.19
355.491	86.19
355.718	91.19
355.945	81.19
356.172	93.19
356.399	101.19
356.626	102.19
356.853	83.19
357.08	79.19
357.307	83.19
357.534	95.19
357.761	91.19
357.988	99.19
358.215	91.19
358.441	91.19
358.668	102.19
358.895	88.19
359.122	84.19
359.349	86.19
359.576	87.19
359.802	102.19
360.029	102.19
360.256	91.19
360.483	89.19
360.709	88.19
360.936	94.19
361.163	87.19
361.39	108.19
361.616	89.19
361.843	85.19
362.07	98.19
362.296	87.19
362.523	80.19
362.749	96.19
362.976	100.19
363.203	94.19
363.429	94.19
363.656	80.19
363.882	86.19
364.109	101.19
364.335	95.19
364.562	82.19
364.788	83.19
365.015	77.19
365.241	94.19
365.468	115.19
365.694	114.19
365.92	83.19
366.147	95.19
366.373	101.19
366.599	93.19
366.826	83.19
367.052	92.19
367.278	98.19
367.505	91.19
367.731	77.19
367.957	82.19
368.184	96.19
368.41	94.19
368.636	104.19
368.862	130.19
369.089	98.19
369.315	89.19
369.541	90.19
369.767	84.19
369.993	86.19
370.219	91.19
370.445	89.19
370.672	86.19
370.898	91.19
371.124	97.19
371.35	97.19
371.576	89.19
371.802	90.19
372.028	87.19
372.254	71.19
372.48	84.19
372.706	101.19
372.932	97.19
373.158	99.19
373.384	103.19
373.61	80.19
373.835	94.19
374.061	79.19
374.287	90.19
374.513	77.19
374.739	104.19
374.965	81.19
375.191	91.19
375.416	102.19
375.642	119.19
375.868	85.19
376.094	84.19
376.319	83.19
376.545	89.19
376.771	93.19
376.997	86.19
377.222	85.19
377.448	90.19
377.674	87.19
377.899	76.19
378.125	76.19
378.35	97.19
378.576	105.19
378.802	100.19
379.027	84.19
379.253	93.19
379.478	87.19
379.704	90.19
379.929	102.19
380.155	90.19
380.38	102.19
380.606	93.19
380.831	94.19
381.057	99.19
381.282	92.19
381.507	100.19
381.733	96.19
381.958	86.19
382.184	88.19
382.409	89.19
382.634	91.19
382.86	107.19
383.085	111.19
383.31	93.19
383.535	93.19
383.761	110.19
383.986	80.19
384.211	105.19
384.436	98.19
384.662	93.19
384.887	95.19
385.112	100.19
385.337	101.19
385.562	87.19
385.787	102.19
386.013	92.19
386.238	94.19
386.463	90.19
386.688	97.19
386.913	100.19
387.138	93.19
387.363	83.19
387.588	97.19
387.813	104.19
388.038	89.19
388.263	92.19
388.488	101.19
388.713	116.19
388.938	103.19
389.163	91.19
389.387	75.19
389.612	95.19
389.837	97.19
390.062	90.19
390.287	93.19
390.512	93.19
390.736	83.19
390.961	87.19
391.186	84.19
391.411	100.19
391.636	102.19
391.86	68.19
392.085	73.19
392.31	77.19
392.534	82.19
392.759	75.19
392.984	91.19
393.208	87.19
393.433	90.19
393.658	85.19
393.882	79.19
394.107	91.19
394.331	83.19
394.556	86.19
394.78	87.19
395.005	96.19
395.229	90.19
395.454	80.19
395.678	76.19
395.903	79.19
396.127	82.19
396.352	87.19
396.576	71.19
396.801	90.19
397.025	93.19
397.249	94.19
397.474	98.19
397.698	89.19
397.922	85.19
398.147	86.19
398.371	84.19
398.595	90.19
398.82	83.19
399.044	101.19
399.268	84.19
399.492	93.19
399.717	79.19
399.941	94.19
400.165	93.19
400.389	110.19
400.613	85.19
400.837	85.19
401.062	94.19
401.286	89.19
401.51	94.19
401.734	86.19
401.958	105.19
402.182	127.19
402.406	146.19
402.63	108.19
402.854	107.19
403.078	101.19
403.302	79.19
403.526	84.19
403.75	78.19
403.974	94.19
404.198	91.19
404.422	95.19
404.645	78.19
404.869	102.19
405.093	86.19
405.317	85.19
405.541	86.19
405.765	84.19
405.988	102.19
406.212	151.19
406.436	193.19
406.66	111.19
406.883	97.19
407.107	91.19
407.331	85.19
407.555	107.19
407.778	101.19
408.002	81.19
408.226	97.19
408.449	97.19
408.673	94.19
408.896	102.19
409.12	87.19
409.344	91.19
409.567	100.19
409.791	95.19
410.014	101.19
410.238	97.19
410.461	94.19
410.685	86.19
410.908	102.19
411.132	96.19
411.355	99.19
411.578	93.19
411.802	70.19
412.025	86.19
412.249	94.19
412.472	78.19
412.695	97.19
412.919	101.19
413.142	87.19
413.365	82.19
413.589	85.19
413.812	95.19
414.035	106.19
414.258	100.19
414.482	101.19
414.705	88.19
414.928	73.19
415.151	95.19
415.374	96.19
415.597	93.19
415.821	82.19
416.044	96.19
416.267	82.19
416.49	102.19
416.713	100.19
416.936	77.19
417.159	90.19
417.382	85.19
417.605	78.19
417.828	91.19
418.051	105.19
418.274	92.19
418.497	75.19
418.72	78.19
418.943	97.19
419.166	91.19
419.389	100.19
419.611	100.19
419.834	90.19
420.057	83.19
420.28	99.19
420.503	78.19
420.726	88.19
420.948	91.19
421.171	89.19
421.394	92.19
421.617	77.19
421.839	82.19
422.062	83.19
422.285	88.19
422.507	88.19
422.73	102.19
422.953	82.19
423.175	82.19
423.398	89.19
423.621	85.19
423.843	97.19
424.066	97.19
424.288	82.19
424.511	91.19
424.733	105.19
424.956	115.19
425.178	95.19
425.401	98.19
425.623	88.19
425.846	96.19
426.068	87.19
426.291	103.19
426.513	91.19
426.735	94.19
426.958	81.19
427.18	109.19
427.402	106.19
427.625	149.19
427.847	110.19
428.069	112.19
428.292	93.19
428.514	81.19
428.736	80.19
428.958	84.19
429.181	72.19
429.403	83.19
429.625	93.19
429.847	91.19
430.069	82.19
430.292	77.19
430.514	81.19
430.736	81.19
430.958	82.19
431.18	82.19
431.402	101.19
431.624	80.19
431.846	91.19
432.068	83.19
432.29	87.19
432.512	73.19
432.734	87.19
432.956	99.19
433.178	109.19
433.4	107.19
433.622	95.19
433.844	87.19
434.066	91.19
434.287	83.19
434.509	92.19
434.731	80.19
434.953	100.19
435.175	85.19
435.397	99.19
435.618	101.19
435.84	114.19
436.062	98.19
436.284	110.19
436.505	86.19
436.727	94.19
436.949	95.19
437.17	80.19
437.392	91.19
437.614	101.19
437.835	87.19
438.057	115.19
438.278	97.19
438.5	97.19
438.721	111.19
438.943	97.19
439.165	86.19
439.386	94.19
439.608	91.19
439.829	96.19
440.05	117.19
440.272	141.19
440.493	90.19
440.715	84.19
440.936	77.19
441.158	100.19
441.379	87.19
441.6	88.19
441.822	81.19
442.043	81.19
442.264	91.19
442.486	95.19
442.707	76.19
442.928	94.19
443.149	118.19
443.371	119.19
443.592	114.19
443.813	98.19
444.034	102.19
444.255	105.19
444.476	102.19
444.698	77.19
444.919	78.19
445.14	117.19
445.361	121.19
445.582	104.19
445.803	115.19
446.024	108.19
446.245	124.19
446.466	110.19
446.687	82.19
446.908	89.19
447.129	86.19
447.35	93.19
447.571	79.19
447.792	98.19
448.013	107.19
448.234	103.19
448.455	96.19
448.675	113.19
448.896	111.19
449.117	106.19
449.338	100.19
449.559	124.19
449.779	110.19
450	92.19
450.221	75.19
450.442	95.19
450.662	92.19
450.883	108.19
451.104	98.19
451.324	94.19
451.545	82.19
451.766	88.19
451.986	83.19
452.207	95.19
452.428	97.19
452.648	84.19
452.869	106.19
453.089	102.19
453.31	106.19
453.53	93.19
453.751	101.19
453.971	96.19
454.192	97.19
454.412	85.19
454.633	84.19
454.853	89.19
455.073	90.19
455.294	77.19
455.514	82.19
455.734	84.19
455.955	83.19
456.175	99.19
456.395	94.19
456.616	90.19
456.836	77.19
457.056	94.19
457.276	94.19
457.497	89.19
457.717	95.19
457.937	87.19
458.157	76.19
458.377	84.19
458.598	105.19
458.818	148.19
459.038	129.19
459.258	112.19
459.478	86.19
459.698	104.19
459.918	87.19
460.138	75.19
460.358	79.19
460.578	91.19
460.798	85.19
461.018	85.19
461.238	90.19
461.458	86.19
461.678	70.19
461.898	62.19
462.118	69.19
462.338	95.19
462.558	78.19
462.777	93.19
462.997	82.19
463.217	87.19
463.437	102.19
463.657	102.19
463.876	96.19
464.096	96.19
464.316	87.19
464.536	100.19
464.755	75.19
464.975	99.19
465.195	152.19
465.414	148.19
465.634	98.19
465.854	94.19
466.073	96.19
466.293	86.19
466.512	80.19
466.732	87.19
466.951	89.19
467.171	83.19
467.391	94.19
467.61	96.19
467.829	93.19
468.049	62.19
468.268	93.19
468.488	96.19
468.707	97.19
468.927	81.19
469.146	81.19
469.365	90.19
469.585	97.19
469.804	92.19
470.023	91.19
470.243	81.19
470.462	105.19
470.681	84.19
470.901	80.19
471.12	87.19
471.339	88.19
471.558	91.19
471.777	97.19
471.997	90.19
472.216	94.19
472.435	82.19
472.654	86.19
472.873	98.19
473.092	83.19
473.311	78.19
473.53	81.19
473.749	85.19
473.968	100.19
474.187	99.19
474.406	80.19
474.625	81.19
474.844	99.19
475.063	83.19
475.282	96.19
475.501	94.19
475.72	82.19
475.939	90.19
476.158	86.19
476.377	97.19
476.596	100.19
476.814	91.19
477.033	86.19
477.252	95.19
477.471	85.19
477.69	85.19
477.908	86.19
478.127	94.19
478.346	78.19
478.564	87.19
478.783	90.19
479.002	87.19
479.22	91.19
479.439	112.19
479.658	94.19
479.876	86.19
480.095	95.19
480.313	95.19
480.532	75.19
480.751	74.19
480.969	80.19
481.188	110.19
481.406	96.19
481.624	76.19
481.843	80.19
482.061	92.19
482.28	73.19
482.498	86.19
482.717	87.19
482.935	100.19
483.153	93.19
483.372	87.19
483.59	86.19
483.808	78.19
484.027	78.19
484.245	80.19
484.463	86.19
484.681	109.19
484.9	91.19
485.118	102.19
485.336	101.19
485.554	103.19
485.772	82.19
485.99	105.19
486.209	91.19
486.427	110.19
486.645	99.19
486.863	96.19
487.081	90.19
487.299	96.19
487.517	101.19
487.735	82.19
487.953	87.19
488.171	77.19
488.389	83.19
488.607	93.19
488.825	87.19
489.043	90.19
489.261	94.19
489.479	88.19
489.696	105.19
489.914	88.19
490.132	106.19
490.35	78.19
490.568	77.19
490.786	84.19
491.003	90.19
491.221	85.19
491.439	91.19
491.657	88.19
491.874	92.19
492.092	87.19
492.31	94.19
492.527	87.19
492.745	84.19
492.963	89.19
493.18	101.19
493.398	93.19
493.615	96.19
493.833	90.19
494.05	98.19
494.268	94.19
494.485	84.19
494.703	104.19
494.92	103.19
495.138	94.19
495.355	95.19
495.573	91.19
495.79	84.19
496.008	94.19
496.225	75.19
496.442	82.19
496.66	101.19
496.877	80.19
497.094	86.19
497.312	85.19
497.529	88.19
497.746	100.19
497.963	90.19
498.181	86.19
498.398	92.19
498.615	113.19
498.832	100.19
499.049	105.19
499.267	86.19
499.484	79.19
499.701	103.19
499.918	89.19
500.135	88.19
500.352	89.19
500.569	91.19
500.786	90.19
501.003	89.19
501.22	81.19
501.437	86.19
501.654	98.19
501.871	101.19
502.088	97.19
502.305	91.19
502.522	98.19
502.739	94.19
502.956	92.19
503.172	101.19
503.389	94.19
503.606	89.19
503.823	100.19
504.04	92.19
504.256	72.19
504.473	103.19
504.69	96.19
504.907	87.19
505.123	90.19
505.34	82.19
505.557	98.19
505.773	97.19
505.99	108.19
506.207	86.19
506.423	94.19
506.64	82.19
506.856	84.19
507.073	86.19
507.289	85.19
507.506	101.19
507.722	105.19
507.939	103.19
508.155	82.19
508.372	88.19
508.588	97.19
508.805	86.19
509.021	98.19
509.238	87.19
509.454	96.19
509.67	102.19
509.887	113.19
510.103	140.19
510.319	193.19
510.536	703.19
510.752	2140.19
510.968	627.19
511.184	148.19
511.401	105.19
511.617	87.19
511.833	99.19
512.049	84.19
512.265	93.19
512.481	87.19
512.698	84.19
512.914	92.19
513.13	93.19
513.346	91.19
513.562	79.19
513.778	91.19
513.994	96.19
514.21	104.19
514.426	114.19
514.642	125.19
514.858	108.19
515.074	138.19
515.29	389.19
515.506	1289.19
515.721	486.19
515.937	138.19
516.153	122.19
