Data from Uncirc_2006_H10_HRD10591_00082.txt Node
Date: Wed Jan 03 10:25:11 EST 2024
User: Yrep
Spectrometer: HR+D1059
Trigger mode: 1
Integration Time (sec): 1.000000E-1
Scans to average: 1
Electric dark correction enabled: true
Nonlinearity correction enabled: false
Boxcar width: 0
XAxis mode: Wavelengths
Number of Pixels in Spectrum: 2048
>>>>>Begin Spectral Data<<<<<
223.165	-17.62
223.4	-17.62
223.635	-17.62
223.869	-12.62
224.104	-20.62
224.338	-21.62
224.573	-21.62
224.808	-6.62
225.042	4.38
225.277	-4.62
225.511	0.38
225.746	-3.62
225.98	0.38
226.215	-0.62
226.449	14.38
226.683	11.38
226.918	35.38
227.152	43.38
227.387	17.38
227.621	40.38
227.856	44.38
228.09	41.38
228.324	49.38
228.559	65.38
228.793	49.38
229.027	63.38
229.262	65.38
229.496	60.38
229.73	72.38
229.964	77.38
230.199	76.38
230.433	50.38
230.667	72.38
230.901	86.38
231.136	75.38
231.37	71.38
231.604	72.38
231.838	73.38
232.072	65.38
232.306	75.38
232.541	77.38
232.775	79.38
233.009	80.38
233.243	75.38
233.477	62.38
233.711	97.38
233.945	68.38
234.179	62.38
234.413	82.38
234.647	70.38
234.881	59.38
235.115	65.38
235.349	81.38
235.583	68.38
235.817	83.38
236.051	70.38
236.285	71.38
236.519	63.38
236.753	78.38
236.987	82.38
237.221	81.38
237.455	81.38
237.689	73.38
237.922	66.38
238.156	68.38
238.39	68.38
238.624	78.38
238.858	62.38
239.091	79.38
239.325	81.38
239.559	70.38
239.793	83.38
240.027	76.38
240.26	75.38
240.494	75.38
240.728	92.38
240.961	75.38
241.195	80.38
241.429	70.38
241.662	91.38
241.896	73.38
242.13	62.38
242.363	64.38
242.597	70.38
242.83	74.38
243.064	65.38
243.298	78.38
243.531	68.38
243.765	77.38
243.998	76.38
244.232	69.38
244.465	72.38
244.699	84.38
244.932	72.38
245.166	83.38
245.399	73.38
245.633	67.38
245.866	77.38
246.099	80.38
246.333	50.38
246.566	68.38
246.8	73.38
247.033	72.38
247.266	81.38
247.5	77.38
247.733	78.38
247.966	88.38
248.2	76.38
248.433	80.38
248.666	81.38
248.899	84.38
249.133	85.38
249.366	103.38
249.599	93.38
249.832	77.38
250.066	80.38
250.299	81.38
250.532	67.38
250.765	76.38
250.998	71.38
251.231	84.38
251.465	63.38
251.698	90.38
251.931	75.38
252.164	89.38
252.397	80.38
252.63	84.38
252.863	74.38
253.096	69.38
253.329	80.38
253.562	65.38
253.795	85.38
254.028	75.38
254.261	78.38
254.494	61.38
254.727	83.38
254.96	83.38
255.193	65.38
255.426	74.38
255.659	80.38
255.892	74.38
256.124	82.38
256.357	65.38
256.59	81.38
256.823	88.38
257.056	74.38
257.289	78.38
257.521	80.38
257.754	84.38
257.987	92.38
258.22	91.38
258.452	83.38
258.685	90.38
258.918	91.38
259.151	83.38
259.383	82.38
259.616	80.38
259.849	93.38
260.081	87.38
260.314	85.38
260.547	67.38
260.779	91.38
261.012	92.38
261.244	91.38
261.477	94.38
261.71	98.38
261.942	106.38
262.175	117.38
262.407	87.38
262.64	72.38
262.872	76.38
263.105	71.38
263.337	75.38
263.57	77.38
263.802	78.38
264.035	90.38
264.267	83.38
264.499	74.38
264.732	88.38
264.964	75.38
265.197	70.38
265.429	82.38
265.661	84.38
265.894	90.38
266.126	69.38
266.358	84.38
266.591	77.38
266.823	81.38
267.055	69.38
267.287	91.38
267.52	78.38
267.752	85.38
267.984	83.38
268.216	85.38
268.448	69.38
268.681	91.38
268.913	93.38
269.145	81.38
269.377	84.38
269.609	76.38
269.841	82.38
270.073	77.38
270.306	82.38
270.538	83.38
270.77	78.38
271.002	77.38
271.234	85.38
271.466	88.38
271.698	90.38
271.93	70.38
272.162	91.38
272.394	91.38
272.626	88.38
272.858	93.38
273.09	90.38
273.322	98.38
273.553	87.38
273.785	82.38
274.017	77.38
274.249	94.38
274.481	92.38
274.713	78.38
274.945	84.38
275.176	83.38
275.408	88.38
275.64	80.38
275.872	96.38
276.104	73.38
276.335	85.38
276.567	74.38
276.799	98.38
277.031	105.38
277.262	78.38
277.494	92.38
277.726	83.38
277.957	82.38
278.189	86.38
278.421	85.38
278.652	83.38
278.884	85.38
279.115	91.38
279.347	106.38
279.579	94.38
279.81	92.38
280.042	91.38
280.273	84.38
280.505	93.38
280.736	93.38
280.968	79.38
281.199	92.38
281.431	76.38
281.662	89.38
281.894	81.38
282.125	81.38
282.356	97.38
282.588	146.38
282.819	123.38
283.051	78.38
283.282	81.38
283.513	88.38
283.745	98.38
283.976	85.38
284.207	91.38
284.439	86.38
284.67	91.38
284.901	86.38
285.132	91.38
285.364	89.38
285.595	76.38
285.826	81.38
286.057	91.38
286.288	82.38
286.52	76.38
286.751	79.38
286.982	81.38
287.213	75.38
287.444	84.38
287.675	87.38
287.906	86.38
288.138	85.38
288.369	98.38
288.6	85.38
288.831	72.38
289.062	78.38
289.293	85.38
289.524	84.38
289.755	86.38
289.986	86.38
290.217	81.38
290.448	79.38
290.679	97.38
290.91	83.38
291.141	90.38
291.371	83.38
291.602	74.38
291.833	81.38
292.064	74.38
292.295	82.38
292.526	82.38
292.757	78.38
292.987	93.38
293.218	78.38
293.449	84.38
293.68	89.38
293.91	89.38
294.141	88.38
294.372	79.38
294.603	94.38
294.833	74.38
295.064	85.38
295.295	95.38
295.525	98.38
295.756	107.38
295.987	109.38
296.217	128.38
296.448	119.38
296.679	91.38
296.909	90.38
297.14	76.38
297.37	94.38
297.601	98.38
297.831	97.38
298.062	80.38
298.292	95.38
298.523	101.38
298.753	89.38
298.984	82.38
299.214	84.38
299.445	78.38
299.675	76.38
299.905	97.38
300.136	85.38
300.366	91.38
300.597	84.38
300.827	96.38
301.057	92.38
301.288	90.38
301.518	100.38
301.748	86.38
301.979	101.38
302.209	94.38
302.439	75.38
302.669	90.38
302.9	105.38
303.13	100.38
303.36	82.38
303.59	103.38
303.82	97.38
304.051	79.38
304.281	88.38
304.511	69.38
304.741	95.38
304.971	92.38
305.201	86.38
305.431	96.38
305.661	90.38
305.891	79.38
306.121	91.38
306.352	98.38
306.582	85.38
306.812	101.38
307.042	93.38
307.272	95.38
307.502	95.38
307.731	98.38
307.961	81.38
308.191	88.38
308.421	90.38
308.651	91.38
308.881	95.38
309.111	87.38
309.341	92.38
309.571	111.38
309.8	110.38
310.03	83.38
310.26	105.38
310.49	84.38
310.72	85.38
310.949	102.38
311.179	95.38
311.409	82.38
311.639	90.38
311.868	106.38
312.098	106.38
312.328	94.38
312.557	99.38
312.787	106.38
313.017	81.38
313.246	106.38
313.476	87.38
313.706	96.38
313.935	87.38
314.165	80.38
314.394	95.38
314.624	94.38
314.853	80.38
315.083	91.38
315.312	92.38
315.542	87.38
315.771	96.38
316.001	96.38
316.23	75.38
316.46	84.38
316.689	84.38
316.919	95.38
317.148	104.38
317.377	95.38
317.607	97.38
317.836	84.38
318.065	93.38
318.295	88.38
318.524	93.38
318.753	88.38
318.983	104.38
319.212	98.38
319.441	92.38
319.67	108.38
319.9	96.38
320.129	99.38
320.358	90.38
320.587	92.38
320.816	100.38
321.046	101.38
321.275	96.38
321.504	84.38
321.733	93.38
321.962	99.38
322.191	99.38
322.42	101.38
322.649	108.38
322.878	101.38
323.108	125.38
323.337	120.38
323.566	140.38
323.795	169.38
324.024	218.38
324.253	404.38
324.482	848.38
324.71	1782.38
324.939	2322.38
325.168	858.38
325.397	259.38
325.626	154.38
325.855	132.38
326.084	130.38
326.313	127.38
326.542	151.38
326.77	245.38
326.999	480.38
327.228	977.38
327.457	1810.38
327.686	1443.38
327.914	378.38
328.143	196.38
328.372	142.38
328.6	131.38
328.829	105.38
329.058	122.38
329.287	139.38
329.515	113.38
329.744	94.38
329.972	110.38
330.201	92.38
330.43	104.38
330.658	110.38
330.887	137.38
331.115	108.38
331.344	99.38
331.572	108.38
331.801	101.38
332.03	96.38
332.258	96.38
332.486	98.38
332.715	100.38
332.943	100.38
333.172	84.38
333.4	95.38
333.629	100.38
333.857	99.38
334.085	95.38
334.314	87.38
334.542	102.38
334.771	92.38
334.999	91.38
335.227	95.38
335.455	88.38
335.684	101.38
335.912	100.38
336.14	90.38
336.369	83.38
336.597	95.38
336.825	74.38
337.053	84.38
337.281	85.38
337.51	86.38
337.738	91.38
337.966	96.38
338.194	101.38
338.422	100.38
338.65	100.38
338.878	85.38
339.106	94.38
339.334	101.38
339.562	98.38
339.79	96.38
340.018	84.38
340.246	84.38
340.474	89.38
340.702	91.38
340.93	91.38
341.158	90.38
341.386	96.38
341.614	79.38
341.842	87.38
342.07	90.38
342.298	84.38
342.526	99.38
342.754	91.38
342.981	98.38
343.209	96.38
343.437	82.38
343.665	69.38
343.893	96.38
344.12	86.38
344.348	90.38
344.576	74.38
344.804	85.38
345.031	97.38
345.259	104.38
345.487	81.38
345.714	88.38
345.942	82.38
346.17	72.38
346.397	89.38
346.625	97.38
346.853	96.38
347.08	94.38
347.308	96.38
347.535	94.38
347.763	102.38
347.99	82.38
348.218	86.38
348.445	92.38
348.673	94.38
348.9	97.38
349.128	90.38
349.355	100.38
349.583	86.38
349.81	93.38
350.037	79.38
350.265	95.38
350.492	86.38
350.72	78.38
350.947	100.38
351.174	109.38
351.402	105.38
351.629	95.38
351.856	109.38
352.083	97.38
352.311	107.38
352.538	113.38
352.765	96.38
352.992	126.38
353.22	112.38
353.447	96.38
353.674	94.38
353.901	101.38
354.128	91.38
354.355	106.38
354.583	102.38
354.81	91.38
355.037	73.38
355.264	80.38
355.491	84.38
355.718	81.38
355.945	88.38
356.172	90.38
356.399	96.38
356.626	112.38
356.853	81.38
357.08	87.38
357.307	109.38
357.534	83.38
357.761	84.38
357.988	94.38
358.215	93.38
358.441	84.38
358.668	100.38
358.895	96.38
359.122	69.38
359.349	89.38
359.576	104.38
359.802	90.38
360.029	98.38
360.256	111.38
360.483	83.38
360.709	88.38
360.936	93.38
361.163	100.38
361.39	86.38
361.616	96.38
361.843	79.38
362.07	96.38
362.296	88.38
362.523	89.38
362.749	99.38
362.976	97.38
363.203	94.38
363.429	83.38
363.656	95.38
363.882	92.38
364.109	97.38
364.335	94.38
364.562	79.38
364.788	90.38
365.015	103.38
365.241	103.38
365.468	104.38
365.694	108.38
365.92	81.38
366.147	100.38
366.373	85.38
366.599	83.38
366.826	100.38
367.052	85.38
367.278	82.38
367.505	80.38
367.731	85.38
367.957	80.38
368.184	92.38
368.41	103.38
368.636	112.38
368.862	107.38
369.089	95.38
369.315	86.38
369.541	81.38
369.767	96.38
369.993	103.38
370.219	85.38
370.445	88.38
370.672	97.38
370.898	87.38
371.124	81.38
371.35	73.38
371.576	80.38
371.802	79.38
372.028	83.38
372.254	82.38
372.48	97.38
372.706	87.38
372.932	69.38
373.158	97.38
373.384	101.38
373.61	81.38
373.835	86.38
374.061	93.38
374.287	106.38
374.513	78.38
374.739	86.38
374.965	89.38
375.191	80.38
375.416	75.38
375.642	90.38
375.868	94.38
376.094	85.38
376.319	93.38
376.545	99.38
376.771	99.38
376.997	99.38
377.222	83.38
377.448	81.38
377.674	77.38
377.899	94.38
378.125	93.38
378.35	79.38
378.576	87.38
378.802	78.38
379.027	83.38
379.253	93.38
379.478	94.38
379.704	76.38
379.929	86.38
380.155	101.38
380.38	99.38
380.606	92.38
380.831	83.38
381.057	96.38
381.282	100.38
381.507	79.38
381.733	88.38
381.958	92.38
382.184	105.38
382.409	95.38
382.634	104.38
382.86	88.38
383.085	98.38
383.31	98.38
383.535	100.38
383.761	92.38
383.986	93.38
384.211	97.38
384.436	95.38
384.662	87.38
384.887	105.38
385.112	107.38
385.337	99.38
385.562	100.38
385.787	97.38
386.013	96.38
386.238	123.38
386.463	103.38
386.688	109.38
386.913	93.38
387.138	97.38
387.363	100.38
387.588	94.38
387.813	94.38
388.038	98.38
388.263	97.38
388.488	115.38
388.713	95.38
388.938	99.38
389.163	93.38
389.387	98.38
389.612	83.38
389.837	76.38
390.062	89.38
390.287	86.38
390.512	84.38
390.736	80.38
390.961	85.38
391.186	105.38
391.411	86.38
391.636	96.38
391.86	88.38
392.085	96.38
392.31	73.38
392.534	76.38
392.759	75.38
392.984	67.38
393.208	77.38
393.433	93.38
393.658	92.38
393.882	74.38
394.107	90.38
394.331	91.38
394.556	80.38
394.78	92.38
395.005	83.38
395.229	94.38
395.454	85.38
395.678	82.38
395.903	81.38
396.127	92.38
396.352	82.38
396.576	68.38
396.801	83.38
397.025	70.38
397.249	81.38
397.474	76.38
397.698	90.38
397.922	74.38
398.147	98.38
398.371	92.38
398.595	81.38
398.82	86.38
399.044	77.38
399.268	72.38
399.492	83.38
399.717	91.38
399.941	91.38
400.165	92.38
400.389	97.38
400.613	58.38
400.837	75.38
401.062	96.38
401.286	98.38
401.51	108.38
401.734	91.38
401.958	104.38
402.182	102.38
402.406	143.38
402.63	113.38
402.854	91.38
403.078	85.38
403.302	75.38
403.526	76.38
403.75	86.38
403.974	66.38
404.198	75.38
404.422	80.38
404.645	78.38
404.869	86.38
405.093	93.38
405.317	98.38
405.541	94.38
405.765	85.38
405.988	110.38
406.212	166.38
406.436	217.38
406.66	132.38
406.883	95.38
407.107	89.38
407.331	99.38
407.555	103.38
407.778	92.38
408.002	75.38
408.226	78.38
408.449	84.38
408.673	80.38
408.896	88.38
409.12	106.38
409.344	95.38
409.567	83.38
409.791	92.38
410.014	79.38
410.238	83.38
410.461	89.38
410.685	96.38
410.908	101.38
411.132	114.38
411.355	95.38
411.578	89.38
411.802	81.38
412.025	91.38
412.249	79.38
412.472	99.38
412.695	86.38
412.919	79.38
413.142	94.38
413.365	85.38
413.589	71.38
413.812	75.38
414.035	89.38
414.258	77.38
414.482	93.38
414.705	83.38
414.928	89.38
415.151	96.38
415.374	79.38
415.597	75.38
415.821	65.38
416.044	86.38
416.267	90.38
416.49	79.38
416.713	86.38
416.936	90.38
417.159	90.38
417.382	78.38
417.605	85.38
417.828	93.38
418.051	88.38
418.274	92.38
418.497	89.38
418.72	76.38
418.943	86.38
419.166	90.38
419.389	78.38
419.611	74.38
419.834	97.38
420.057	95.38
420.28	82.38
420.503	90.38
420.726	84.38
420.948	88.38
421.171	81.38
421.394	81.38
421.617	78.38
421.839	80.38
422.062	92.38
422.285	86.38
422.507	95.38
422.73	86.38
422.953	89.38
423.175	92.38
423.398	78.38
423.621	88.38
423.843	64.38
424.066	77.38
424.288	83.38
424.511	87.38
424.733	84.38
424.956	107.38
425.178	99.38
425.401	83.38
425.623	100.38
425.846	84.38
426.068	93.38
426.291	94.38
426.513	81.38
426.735	82.38
426.958	85.38
427.18	93.38
427.402	132.38
427.625	154.38
427.847	110.38
428.069	89.38
428.292	98.38
428.514	77.38
428.736	86.38
428.958	78.38
429.181	87.38
429.403	78.38
429.625	82.38
429.847	94.38
430.069	94.38
430.292	96.38
430.514	86.38
430.736	77.38
430.958	87.38
431.18	87.38
431.402	102.38
431.624	94.38
431.846	93.38
432.068	81.38
432.29	85.38
432.512	90.38
432.734	72.38
432.956	87.38
433.178	82.38
433.4	74.38
433.622	102.38
433.844	78.38
434.066	77.38
434.287	85.38
434.509	92.38
434.731	100.38
434.953	96.38
435.175	78.38
435.397	85.38
435.618	93.38
435.84	83.38
436.062	114.38
436.284	99.38
436.505	91.38
436.727	100.38
436.949	86.38
437.17	96.38
437.392	80.38
437.614	85.38
437.835	90.38
438.057	114.38
438.278	86.38
438.5	94.38
438.721	116.38
438.943	93.38
439.165	76.38
439.386	84.38
439.608	100.38
439.829	100.38
440.05	125.38
440.272	132.38
440.493	102.38
440.715	83.38
440.936	84.38
441.158	82.38
441.379	85.38
441.6	84.38
441.822	97.38
442.043	86.38
442.264	95.38
442.486	109.38
442.707	81.38
442.928	91.38
443.149	122.38
443.371	117.38
443.592	101.38
443.813	93.38
444.034	110.38
444.255	76.38
444.476	76.38
444.698	81.38
444.919	77.38
445.14	113.38
445.361	111.38
445.582	112.38
445.803	130.38
446.024	142.38
446.245	121.38
446.466	122.38
446.687	82.38
446.908	80.38
447.129	76.38
447.35	95.38
447.571	86.38
447.792	89.38
448.013	90.38
448.234	105.38
448.455	98.38
448.675	113.38
448.896	111.38
449.117	99.38
449.338	86.38
449.559	113.38
449.779	128.38
450	91.38
450.221	92.38
450.442	81.38
450.662	77.38
450.883	100.38
451.104	91.38
451.324	84.38
451.545	71.38
451.766	85.38
451.986	101.38
452.207	91.38
452.428	93.38
452.648	102.38
452.869	102.38
453.089	115.38
453.31	112.38
453.53	98.38
453.751	76.38
453.971	104.38
454.192	104.38
454.412	86.38
454.633	80.38
454.853	87.38
455.073	93.38
455.294	81.38
455.514	87.38
455.734	82.38
455.955	90.38
456.175	81.38
456.395	89.38
456.616	68.38
456.836	84.38
457.056	84.38
457.276	87.38
457.497	84.38
457.717	73.38
457.937	74.38
458.157	89.38
458.377	80.38
458.598	95.38
458.818	141.38
459.038	151.38
459.258	101.38
459.478	85.38
459.698	76.38
459.918	93.38
460.138	73.38
460.358	93.38
460.578	84.38
460.798	99.38
461.018	87.38
461.238	90.38
461.458	91.38
461.678	69.38
461.898	78.38
462.118	80.38
462.338	86.38
462.558	86.38
462.777	89.38
462.997	83.38
463.217	83.38
463.437	82.38
463.657	92.38
463.876	85.38
464.096	81.38
464.316	89.38
464.536	86.38
464.755	96.38
464.975	102.38
465.195	146.38
465.414	137.38
465.634	88.38
465.854	80.38
466.073	81.38
466.293	78.38
466.512	88.38
466.732	75.38
466.951	81.38
467.171	84.38
467.391	91.38
467.61	91.38
467.829	97.38
468.049	80.38
468.268	82.38
468.488	91.38
468.707	76.38
468.927	85.38
469.146	83.38
469.365	84.38
469.585	84.38
469.804	95.38
470.023	91.38
470.243	96.38
470.462	96.38
470.681	101.38
470.901	85.38
471.12	95.38
471.339	90.38
471.558	89.38
471.777	88.38
471.997	84.38
472.216	74.38
472.435	91.38
472.654	68.38
472.873	79.38
473.092	81.38
473.311	86.38
473.53	83.38
473.749	99.38
473.968	81.38
474.187	91.38
474.406	88.38
474.625	94.38
474.844	92.38
475.063	75.38
475.282	84.38
475.501	82.38
475.72	91.38
475.939	93.38
476.158	85.38
476.377	86.38
476.596	91.38
476.814	91.38
477.033	90.38
477.252	86.38
477.471	85.38
477.69	80.38
477.908	76.38
478.127	86.38
478.346	83.38
478.564	76.38
478.783	98.38
479.002	96.38
479.22	81.38
479.439	107.38
479.658	90.38
479.876	82.38
480.095	89.38
480.313	84.38
480.532	84.38
480.751	81.38
480.969	91.38
481.188	91.38
481.406	93.38
481.624	90.38
481.843	77.38
482.061	92.38
482.28	74.38
482.498	88.38
482.717	74.38
482.935	81.38
483.153	90.38
483.372	87.38
483.59	79.38
483.808	76.38
484.027	83.38
484.245	90.38
484.463	81.38
484.681	97.38
484.9	73.38
485.118	93.38
485.336	79.38
485.554	103.38
485.772	109.38
485.99	96.38
486.209	104.38
486.427	94.38
486.645	108.38
486.863	109.38
487.081	110.38
487.299	87.38
487.517	103.38
487.735	83.38
487.953	80.38
488.171	74.38
488.389	99.38
488.607	93.38
488.825	86.38
489.043	90.38
489.261	89.38
489.479	81.38
489.696	84.38
489.914	90.38
490.132	92.38
490.35	95.38
490.568	83.38
490.786	92.38
491.003	80.38
491.221	85.38
491.439	85.38
491.657	77.38
491.874	86.38
492.092	78.38
492.31	91.38
492.527	99.38
492.745	81.38
492.963	104.38
493.18	93.38
493.398	85.38
493.615	101.38
493.833	84.38
494.05	69.38
494.268	88.38
494.485	81.38
494.703	91.38
494.92	77.38
495.138	80.38
495.355	90.38
495.573	84.38
495.79	87.38
496.008	93.38
496.225	72.38
496.442	96.38
496.66	91.38
496.877	87.38
497.094	104.38
497.312	95.38
497.529	83.38
497.746	92.38
497.963	98.38
498.181	100.38
498.398	87.38
498.615	113.38
498.832	108.38
499.049	75.38
499.267	85.38
499.484	89.38
499.701	88.38
499.918	98.38
500.135	81.38
500.352	84.38
500.569	85.38
500.786	80.38
501.003	73.38
501.22	83.38
501.437	86.38
501.654	102.38
501.871	98.38
502.088	85.38
502.305	75.38
502.522	90.38
502.739	83.38
502.956	89.38
503.172	94.38
503.389	86.38
503.606	110.38
503.823	84.38
504.04	99.38
504.256	93.38
504.473	73.38
504.69	85.38
504.907	90.38
505.123	82.38
505.34	78.38
505.557	86.38
505.773	81.38
505.99	101.38
506.207	87.38
506.423	89.38
506.64	81.38
506.856	81.38
507.073	79.38
507.289	95.38
507.506	92.38
507.722	104.38
507.939	117.38
508.155	91.38
508.372	98.38
508.588	97.38
508.805	103.38
509.021	103.38
509.238	79.38
509.454	90.38
509.67	94.38
509.887	92.38
510.103	121.38
510.319	210.38
510.536	761.38
510.752	2438.38
510.968	672.38
511.184	158.38
511.401	123.38
511.617	99.38
511.833	83.38
512.049	88.38
512.265	88.38
512.481	88.38
512.698	75.38
512.914	91.38
513.13	91.38
513.346	97.38
513.562	97.38
513.778	92.38
513.994	90.38
514.21	94.38
514.426	108.38
514.642	126.38
514.858	116.38
515.074	164.38
515.29	451.38
515.506	1490.38
515.721	556.38
515.937	154.38
516.153	101.38
516.369	110.38
516.585	96.38
516.801	88.38
