Data from Uncirc_2006_H10_HRD10591_00013.txt Node
Date: Wed Jan 03 10:24:57 EST 2024
User: Yrep
Spectrometer: HR+D1059
Trigger mode: 1
Integration Time (sec): 1.000000E-1
Scans to average: 1
Electric dark correction enabled: true
Nonlinearity correction enabled: false
Boxcar width: 0
XAxis mode: Wavelengths
Number of Pixels in Spectrum: 2048
>>>>>Begin Spectral Data<<<<<
223.165	-11.94
223.4	-11.94
223.635	-11.94
223.869	-8.94
224.104	-13.94
224.338	-20.94
224.573	-14.94
224.808	-4.94
225.042	-0.94
225.277	6.06
225.511	-9.94
225.746	-7.94
225.98	9.06
226.215	0.06
226.449	18.06
226.683	15.06
226.918	15.06
227.152	31.06
227.387	33.06
227.621	40.06
227.856	50.06
228.09	47.06
228.324	44.06
228.559	46.06
228.793	62.06
229.027	67.06
229.262	70.06
229.496	63.06
229.73	82.06
229.964	80.06
230.199	72.06
230.433	88.06
230.667	79.06
230.901	74.06
231.136	76.06
231.37	97.06
231.604	88.06
231.838	78.06
232.072	77.06
232.306	87.06
232.541	75.06
232.775	79.06
233.009	67.06
233.243	74.06
233.477	95.06
233.711	90.06
233.945	79.06
234.179	76.06
234.413	76.06
234.647	83.06
234.881	73.06
235.115	89.06
235.349	89.06
235.583	85.06
235.817	78.06
236.051	76.06
236.285	87.06
236.519	71.06
236.753	80.06
236.987	87.06
237.221	75.06
237.455	92.06
237.689	87.06
237.922	77.06
238.156	69.06
238.39	79.06
238.624	61.06
238.858	81.06
239.091	72.06
239.325	74.06
239.559	84.06
239.793	80.06
240.027	83.06
240.26	76.06
240.494	84.06
240.728	75.06
240.961	65.06
241.195	92.06
241.429	82.06
241.662	84.06
241.896	81.06
242.13	71.06
242.363	72.06
242.597	81.06
242.83	64.06
243.064	70.06
243.298	80.06
243.531	82.06
243.765	88.06
243.998	92.06
244.232	73.06
244.465	74.06
244.699	73.06
244.932	81.06
245.166	72.06
245.399	74.06
245.633	83.06
245.866	82.06
246.099	69.06
246.333	87.06
246.566	75.06
246.8	88.06
247.033	79.06
247.266	63.06
247.5	95.06
247.733	79.06
247.966	89.06
248.2	85.06
248.433	82.06
248.666	58.06
248.899	67.06
249.133	93.06
249.366	102.06
249.599	97.06
249.832	85.06
250.066	83.06
250.299	83.06
250.532	86.06
250.765	83.06
250.998	81.06
251.231	88.06
251.465	78.06
251.698	87.06
251.931	77.06
252.164	74.06
252.397	79.06
252.63	75.06
252.863	85.06
253.096	69.06
253.329	74.06
253.562	90.06
253.795	93.06
254.028	82.06
254.261	79.06
254.494	72.06
254.727	75.06
254.96	87.06
255.193	85.06
255.426	89.06
255.659	86.06
255.892	91.06
256.124	90.06
256.357	87.06
256.59	92.06
256.823	84.06
257.056	78.06
257.289	80.06
257.521	89.06
257.754	82.06
257.987	94.06
258.22	95.06
258.452	83.06
258.685	74.06
258.918	72.06
259.151	84.06
259.383	91.06
259.616	80.06
259.849	79.06
260.081	91.06
260.314	82.06
260.547	84.06
260.779	72.06
261.012	98.06
261.244	86.06
261.477	95.06
261.71	92.06
261.942	114.06
262.175	101.06
262.407	86.06
262.64	74.06
262.872	82.06
263.105	76.06
263.337	90.06
263.57	78.06
263.802	79.06
264.035	88.06
264.267	76.06
264.499	83.06
264.732	98.06
264.964	82.06
265.197	67.06
265.429	78.06
265.661	70.06
265.894	94.06
266.126	80.06
266.358	84.06
266.591	79.06
266.823	88.06
267.055	80.06
267.287	96.06
267.52	87.06
267.752	80.06
267.984	80.06
268.216	90.06
268.448	91.06
268.681	61.06
268.913	83.06
269.145	86.06
269.377	90.06
269.609	75.06
269.841	83.06
270.073	92.06
270.306	90.06
270.538	82.06
270.77	80.06
271.002	77.06
271.234	83.06
271.466	88.06
271.698	82.06
271.93	83.06
272.162	88.06
272.394	87.06
272.626	90.06
272.858	65.06
273.09	93.06
273.322	90.06
273.553	92.06
273.785	88.06
274.017	90.06
274.249	85.06
274.481	74.06
274.713	91.06
274.945	95.06
275.176	96.06
275.408	100.06
275.64	75.06
275.872	87.06
276.104	83.06
276.335	91.06
276.567	98.06
276.799	102.06
277.031	85.06
277.262	79.06
277.494	99.06
277.726	75.06
277.957	91.06
278.189	84.06
278.421	93.06
278.652	78.06
278.884	76.06
279.115	87.06
279.347	99.06
279.579	79.06
279.81	93.06
280.042	94.06
280.273	85.06
280.505	85.06
280.736	86.06
280.968	84.06
281.199	88.06
281.431	91.06
281.662	77.06
281.894	96.06
282.125	91.06
282.356	116.06
282.588	143.06
282.819	94.06
283.051	107.06
283.282	83.06
283.513	97.06
283.745	96.06
283.976	83.06
284.207	88.06
284.439	86.06
284.67	84.06
284.901	94.06
285.132	78.06
285.364	93.06
285.595	75.06
285.826	85.06
286.057	87.06
286.288	83.06
286.52	95.06
286.751	84.06
286.982	100.06
287.213	81.06
287.444	87.06
287.675	98.06
287.906	91.06
288.138	99.06
288.369	88.06
288.6	81.06
288.831	84.06
289.062	89.06
289.293	101.06
289.524	96.06
289.755	83.06
289.986	98.06
290.217	84.06
290.448	80.06
290.679	78.06
290.91	110.06
291.141	89.06
291.371	93.06
291.602	101.06
291.833	94.06
292.064	98.06
292.295	91.06
292.526	83.06
292.757	68.06
292.987	88.06
293.218	81.06
293.449	93.06
293.68	91.06
293.91	91.06
294.141	104.06
294.372	92.06
294.603	86.06
294.833	92.06
295.064	95.06
295.295	88.06
295.525	90.06
295.756	104.06
295.987	111.06
296.217	127.06
296.448	113.06
296.679	106.06
296.909	100.06
297.14	97.06
297.37	81.06
297.601	80.06
297.831	94.06
298.062	113.06
298.292	91.06
298.523	88.06
298.753	96.06
298.984	88.06
299.214	87.06
299.445	97.06
299.675	98.06
299.905	93.06
300.136	92.06
300.366	101.06
300.597	92.06
300.827	93.06
301.057	103.06
301.288	102.06
301.518	107.06
301.748	87.06
301.979	101.06
302.209	95.06
302.439	94.06
302.669	83.06
302.9	87.06
303.13	75.06
303.36	98.06
303.59	98.06
303.82	104.06
304.051	90.06
304.281	98.06
304.511	93.06
304.741	103.06
304.971	99.06
305.201	99.06
305.431	96.06
305.661	93.06
305.891	95.06
306.121	105.06
306.352	97.06
306.582	94.06
306.812	98.06
307.042	107.06
307.272	94.06
307.502	92.06
307.731	94.06
307.961	104.06
308.191	91.06
308.421	92.06
308.651	91.06
308.881	99.06
309.111	86.06
309.341	95.06
309.571	113.06
309.8	89.06
310.03	96.06
310.26	102.06
310.49	87.06
310.72	106.06
310.949	94.06
311.179	99.06
311.409	95.06
311.639	102.06
311.868	98.06
312.098	86.06
312.328	103.06
312.557	98.06
312.787	100.06
313.017	90.06
313.246	95.06
313.476	95.06
313.706	95.06
313.935	94.06
314.165	108.06
314.394	96.06
314.624	79.06
314.853	100.06
315.083	84.06
315.312	78.06
315.542	94.06
315.771	85.06
316.001	112.06
316.23	78.06
316.46	85.06
316.689	91.06
316.919	93.06
317.148	92.06
317.377	103.06
317.607	92.06
317.836	81.06
318.065	78.06
318.295	92.06
318.524	86.06
318.753	92.06
318.983	108.06
319.212	91.06
319.441	110.06
319.67	92.06
319.9	88.06
320.129	96.06
320.358	88.06
320.587	107.06
320.816	91.06
321.046	87.06
321.275	104.06
321.504	95.06
321.733	105.06
321.962	103.06
322.191	97.06
322.42	97.06
322.649	116.06
322.878	94.06
323.108	122.06
323.337	142.06
323.566	129.06
323.795	149.06
324.024	205.06
324.253	397.06
324.482	810.06
324.71	1686.06
324.939	2247.06
325.168	810.06
325.397	254.06
325.626	136.06
325.855	147.06
326.084	135.06
326.313	131.06
326.542	135.06
326.77	230.06
326.999	465.06
327.228	989.06
327.457	1746.06
327.686	1360.06
327.914	351.06
328.143	180.06
328.372	141.06
328.6	124.06
328.829	120.06
329.058	127.06
329.287	119.06
329.515	96.06
329.744	106.06
329.972	90.06
330.201	83.06
330.43	99.06
330.658	111.06
330.887	135.06
331.115	110.06
331.344	106.06
331.572	93.06
331.801	109.06
332.03	101.06
332.258	99.06
332.486	99.06
332.715	93.06
332.943	98.06
333.172	84.06
333.4	96.06
333.629	109.06
333.857	107.06
334.085	95.06
334.314	93.06
334.542	86.06
334.771	87.06
334.999	96.06
335.227	103.06
335.455	89.06
335.684	90.06
335.912	110.06
336.14	91.06
336.369	106.06
336.597	89.06
336.825	95.06
337.053	95.06
337.281	100.06
337.51	80.06
337.738	100.06
337.966	83.06
338.194	76.06
338.422	90.06
338.65	89.06
338.878	96.06
339.106	95.06
339.334	87.06
339.562	84.06
339.79	100.06
340.018	90.06
340.246	94.06
340.474	84.06
340.702	79.06
340.93	84.06
341.158	97.06
341.386	95.06
341.614	99.06
341.842	95.06
342.07	91.06
342.298	99.06
342.526	90.06
342.754	99.06
342.981	94.06
343.209	76.06
343.437	98.06
343.665	92.06
343.893	102.06
344.12	99.06
344.348	88.06
344.576	86.06
344.804	79.06
345.031	118.06
345.259	82.06
345.487	86.06
345.714	103.06
345.942	98.06
346.17	95.06
346.397	80.06
346.625	87.06
346.853	101.06
347.08	81.06
347.308	106.06
347.535	93.06
347.763	114.06
347.99	106.06
348.218	93.06
348.445	92.06
348.673	94.06
348.9	107.06
349.128	100.06
349.355	101.06
349.583	88.06
349.81	99.06
350.037	96.06
350.265	83.06
350.492	86.06
350.72	82.06
350.947	110.06
351.174	106.06
351.402	111.06
351.629	101.06
351.856	102.06
352.083	103.06
352.311	100.06
352.538	111.06
352.765	101.06
352.992	102.06
353.22	100.06
353.447	107.06
353.674	88.06
353.901	98.06
354.128	99.06
354.355	97.06
354.583	109.06
354.81	112.06
355.037	99.06
355.264	100.06
355.491	107.06
355.718	96.06
355.945	99.06
356.172	106.06
356.399	99.06
356.626	101.06
356.853	97.06
357.08	85.06
357.307	90.06
357.534	100.06
357.761	95.06
357.988	90.06
358.215	111.06
358.441	106.06
358.668	90.06
358.895	83.06
359.122	106.06
359.349	85.06
359.576	94.06
359.802	95.06
360.029	94.06
360.256	98.06
360.483	90.06
360.709	91.06
360.936	83.06
361.163	91.06
361.39	90.06
361.616	91.06
361.843	80.06
362.07	77.06
362.296	96.06
362.523	91.06
362.749	93.06
362.976	90.06
363.203	83.06
363.429	93.06
363.656	86.06
363.882	87.06
364.109	95.06
364.335	92.06
364.562	97.06
364.788	112.06
365.015	99.06
365.241	106.06
365.468	101.06
365.694	103.06
365.92	95.06
366.147	92.06
366.373	92.06
366.599	91.06
366.826	92.06
367.052	99.06
367.278	96.06
367.505	95.06
367.731	106.06
367.957	86.06
368.184	78.06
368.41	104.06
368.636	107.06
368.862	127.06
369.089	118.06
369.315	84.06
369.541	101.06
369.767	84.06
369.993	93.06
370.219	79.06
370.445	82.06
370.672	95.06
370.898	79.06
371.124	91.06
371.35	89.06
371.576	82.06
371.802	106.06
372.028	84.06
372.254	91.06
372.48	81.06
372.706	89.06
372.932	83.06
373.158	88.06
373.384	94.06
373.61	94.06
373.835	81.06
374.061	114.06
374.287	87.06
374.513	109.06
374.739	103.06
374.965	87.06
375.191	95.06
375.416	72.06
375.642	86.06
375.868	89.06
376.094	98.06
376.319	79.06
376.545	78.06
376.771	92.06
376.997	81.06
377.222	92.06
377.448	86.06
377.674	92.06
377.899	93.06
378.125	88.06
378.35	97.06
378.576	89.06
378.802	86.06
379.027	87.06
379.253	94.06
379.478	82.06
379.704	83.06
379.929	92.06
380.155	85.06
380.38	94.06
380.606	94.06
380.831	109.06
381.057	97.06
381.282	92.06
381.507	94.06
381.733	86.06
381.958	103.06
382.184	103.06
382.409	102.06
382.634	114.06
382.86	107.06
383.085	111.06
383.31	106.06
383.535	119.06
383.761	103.06
383.986	104.06
384.211	112.06
384.436	116.06
384.662	125.06
384.887	118.06
385.112	116.06
385.337	108.06
385.562	119.06
385.787	114.06
386.013	121.06
386.238	128.06
386.463	115.06
386.688	111.06
386.913	123.06
387.138	123.06
387.363	114.06
387.588	112.06
387.813	113.06
388.038	112.06
388.263	126.06
388.488	115.06
388.713	101.06
388.938	99.06
389.163	106.06
389.387	102.06
389.612	109.06
389.837	105.06
390.062	97.06
390.287	85.06
390.512	106.06
390.736	102.06
390.961	109.06
391.186	98.06
391.411	89.06
391.636	100.06
391.86	83.06
392.085	81.06
392.31	94.06
392.534	97.06
392.759	100.06
392.984	80.06
393.208	87.06
393.433	105.06
393.658	99.06
393.882	100.06
394.107	86.06
394.331	85.06
394.556	92.06
394.78	89.06
395.005	91.06
395.229	88.06
395.454	88.06
395.678	95.06
395.903	87.06
396.127	90.06
396.352	93.06
396.576	102.06
396.801	87.06
397.025	95.06
397.249	103.06
397.474	95.06
397.698	77.06
397.922	86.06
398.147	82.06
398.371	93.06
398.595	100.06
398.82	84.06
399.044	80.06
399.268	95.06
399.492	95.06
399.717	93.06
399.941	94.06
400.165	88.06
400.389	89.06
400.613	79.06
400.837	90.06
401.062	82.06
401.286	92.06
401.51	89.06
401.734	89.06
401.958	99.06
402.182	121.06
402.406	149.06
402.63	114.06
402.854	87.06
403.078	93.06
403.302	98.06
403.526	98.06
403.75	86.06
403.974	107.06
404.198	85.06
404.422	86.06
404.645	84.06
404.869	101.06
405.093	85.06
405.317	94.06
405.541	96.06
405.765	91.06
405.988	112.06
406.212	159.06
406.436	213.06
406.66	142.06
406.883	88.06
407.107	88.06
407.331	103.06
407.555	101.06
407.778	94.06
408.002	100.06
408.226	90.06
408.449	74.06
408.673	92.06
408.896	85.06
409.12	93.06
409.344	103.06
409.567	89.06
409.791	94.06
410.014	92.06
410.238	107.06
410.461	92.06
410.685	109.06
410.908	99.06
411.132	90.06
411.355	109.06
411.578	94.06
411.802	85.06
412.025	95.06
412.249	84.06
412.472	91.06
412.695	78.06
412.919	87.06
413.142	84.06
413.365	86.06
413.589	94.06
413.812	82.06
414.035	72.06
414.258	94.06
414.482	97.06
414.705	98.06
414.928	81.06
415.151	97.06
415.374	109.06
415.597	97.06
415.821	94.06
416.044	89.06
416.267	96.06
416.49	95.06
416.713	94.06
416.936	89.06
417.159	81.06
417.382	87.06
417.605	91.06
417.828	77.06
418.051	88.06
418.274	77.06
418.497	85.06
418.72	84.06
418.943	87.06
419.166	94.06
419.389	92.06
419.611	98.06
419.834	95.06
420.057	84.06
420.28	82.06
420.503	89.06
420.726	80.06
420.948	82.06
421.171	98.06
421.394	83.06
421.617	89.06
421.839	97.06
422.062	85.06
422.285	90.06
422.507	93.06
422.73	100.06
422.953	94.06
423.175	94.06
423.398	85.06
423.621	100.06
423.843	79.06
424.066	83.06
424.288	91.06
424.511	90.06
424.733	90.06
424.956	86.06
425.178	98.06
425.401	103.06
425.623	98.06
425.846	103.06
426.068	89.06
426.291	91.06
426.513	88.06
426.735	99.06
426.958	89.06
427.18	108.06
427.402	131.06
427.625	153.06
427.847	119.06
428.069	89.06
428.292	82.06
428.514	80.06
428.736	75.06
428.958	82.06
429.181	88.06
429.403	77.06
429.625	81.06
429.847	88.06
430.069	106.06
430.292	81.06
430.514	92.06
430.736	83.06
430.958	79.06
431.18	80.06
431.402	86.06
431.624	94.06
431.846	88.06
432.068	98.06
432.29	86.06
432.512	90.06
432.734	87.06
432.956	88.06
433.178	94.06
433.4	104.06
433.622	96.06
433.844	83.06
434.066	93.06
434.287	90.06
434.509	98.06
434.731	88.06
434.953	84.06
435.175	85.06
435.397	87.06
435.618	74.06
435.84	92.06
436.062	112.06
436.284	108.06
436.505	106.06
436.727	103.06
436.949	119.06
437.17	92.06
437.392	86.06
437.614	78.06
437.835	93.06
438.057	109.06
438.278	103.06
438.5	99.06
438.721	114.06
438.943	103.06
439.165	86.06
439.386	93.06
439.608	100.06
439.829	96.06
440.05	125.06
440.272	130.06
440.493	104.06
440.715	91.06
440.936	86.06
441.158	73.06
441.379	103.06
441.6	97.06
441.822	101.06
442.043	105.06
442.264	94.06
442.486	106.06
442.707	82.06
442.928	80.06
443.149	139.06
443.371	117.06
443.592	113.06
443.813	105.06
444.034	102.06
444.255	102.06
444.476	88.06
444.698	76.06
444.919	88.06
445.14	126.06
445.361	130.06
445.582	112.06
445.803	127.06
446.024	115.06
446.245	135.06
446.466	112.06
446.687	90.06
446.908	92.06
447.129	86.06
447.35	81.06
447.571	88.06
447.792	95.06
448.013	94.06
448.234	104.06
448.455	94.06
448.675	106.06
448.896	119.06
449.117	104.06
449.338	98.06
449.559	111.06
449.779	119.06
450	77.06
450.221	92.06
450.442	78.06
450.662	84.06
450.883	97.06
451.104	102.06
451.324	87.06
451.545	97.06
451.766	80.06
451.986	76.06
452.207	81.06
452.428	92.06
452.648	97.06
452.869	110.06
453.089	109.06
453.31	108.06
453.53	98.06
453.751	100.06
453.971	107.06
454.192	103.06
454.412	94.06
454.633	84.06
454.853	71.06
455.073	76.06
455.294	93.06
455.514	90.06
455.734	112.06
455.955	98.06
456.175	86.06
456.395	82.06
456.616	86.06
456.836	81.06
457.056	89.06
457.276	74.06
457.497	93.06
457.717	88.06
457.937	87.06
458.157	74.06
458.377	100.06
458.598	91.06
458.818	147.06
459.038	122.06
459.258	96.06
459.478	85.06
459.698	81.06
459.918	91.06
460.138	82.06
460.358	95.06
460.578	97.06
460.798	92.06
461.018	86.06
461.238	88.06
461.458	81.06
461.678	108.06
461.898	91.06
462.118	101.06
462.338	80.06
462.558	76.06
462.777	87.06
462.997	90.06
463.217	84.06
463.437	79.06
463.657	82.06
463.876	81.06
464.096	92.06
464.316	98.06
464.536	98.06
464.755	98.06
464.975	98.06
465.195	147.06
465.414	150.06
465.634	92.06
465.854	77.06
466.073	79.06
466.293	88.06
466.512	92.06
466.732	72.06
466.951	96.06
467.171	98.06
467.391	91.06
467.61	96.06
467.829	95.06
468.049	77.06
468.268	80.06
468.488	90.06
468.707	92.06
468.927	74.06
469.146	94.06
469.365	79.06
469.585	82.06
469.804	86.06
470.023	92.06
470.243	98.06
470.462	103.06
470.681	104.06
470.901	91.06
471.12	83.06
471.339	87.06
471.558	94.06
471.777	83.06
471.997	75.06
472.216	89.06
472.435	85.06
472.654	82.06
472.873	90.06
473.092	83.06
473.311	80.06
473.53	93.06
473.749	83.06
473.968	98.06
474.187	90.06
474.406	94.06
474.625	77.06
474.844	73.06
475.063	97.06
475.282	66.06
475.501	93.06
475.72	103.06
475.939	96.06
476.158	85.06
476.377	80.06
476.596	73.06
476.814	95.06
477.033	91.06
477.252	96.06
477.471	64.06
477.69	81.06
477.908	87.06
478.127	103.06
478.346	101.06
478.564	91.06
478.783	88.06
479.002	87.06
479.22	95.06
479.439	100.06
479.658	94.06
479.876	95.06
480.095	88.06
480.313	78.06
480.532	95.06
480.751	84.06
480.969	78.06
481.188	83.06
481.406	91.06
481.624	86.06
481.843	96.06
482.061	83.06
482.28	97.06
482.498	84.06
482.717	77.06
482.935	89.06
483.153	96.06
483.372	88.06
483.59	84.06
483.808	94.06
484.027	92.06
484.245	95.06
484.463	95.06
484.681	109.06
484.9	104.06
485.118	86.06
485.336	96.06
485.554	92.06
485.772	96.06
485.99	93.06
486.209	109.06
486.427	106.06
486.645	99.06
486.863	97.06
487.081	98.06
487.299	108.06
487.517	94.06
487.735	93.06
487.953	107.06
488.171	95.06
488.389	99.06
488.607	95.06
488.825	72.06
489.043	87.06
489.261	104.06
489.479	88.06
489.696	86.06
489.914	100.06
490.132	84.06
490.35	92.06
490.568	87.06
490.786	86.06
491.003	103.06
491.221	87.06
491.439	93.06
491.657	86.06
491.874	93.06
492.092	89.06
492.31	95.06
492.527	107.06
492.745	97.06
492.963	84.06
493.18	87.06
493.398	101.06
493.615	98.06
493.833	100.06
494.05	95.06
494.268	83.06
494.485	73.06
494.703	88.06
494.92	81.06
495.138	87.06
495.355	96.06
495.573	95.06
495.79	92.06
496.008	96.06
496.225	92.06
496.442	101.06
496.66	90.06
496.877	100.06
497.094	103.06
497.312	90.06
497.529	100.06
497.746	109.06
497.963	93.06
498.181	95.06
498.398	87.06
498.615	105.06
498.832	92.06
499.049	91.06
499.267	87.06
499.484	88.06
499.701	81.06
499.918	93.06
500.135	78.06
500.352	83.06
500.569	93.06
500.786	81.06
501.003	87.06
501.22	88.06
501.437	82.06
501.654	94.06
501.871	109.06
502.088	83.06
502.305	88.06
502.522	96.06
502.739	96.06
502.956	86.06
503.172	86.06
503.389	96.06
503.606	96.06
503.823	96.06
504.04	99.06
504.256	99.06
504.473	101.06
504.69	81.06
504.907	95.06
505.123	81.06
505.34	81.06
505.557	84.06
505.773	85.06
505.99	91.06
506.207	111.06
506.423	94.06
506.64	99.06
506.856	88.06
507.073	92.06
507.289	86.06
507.506	85.06
507.722	102.06
507.939	107.06
508.155	102.06
508.372	106.06
508.588	98.06
508.805	85.06
509.021	110.06
509.238	98.06
509.454	79.06
509.67	100.06
509.887	102.06
510.103	132.06
510.319	208.06
510.536	755.06
510.752	2309.06
510.968	644.06
511.184	151.06
511.401	85.06
511.617	100.06
511.833	78.06
512.049	112.06
512.265	102.06
512.481	99.06
512.698	99.06
512.914	91.06
513.13	105.06
513.346	78.06
513.562	78.06
513.778	88.06
513.994	99.06
514.21	115.06
514.426	128.06
514.642	127.06
514.858	128.06
515.074	163.06
515.29	436.06
515.506	1418.06
515.721	520.06
