Data from Uncirc_2006_H10_HRD10591_00049.txt Node
Date: Wed Jan 03 10:25:04 EST 2024
User: Yrep
Spectrometer: HR+D1059
Trigger mode: 1
Integration Time (sec): 1.000000E-1
Scans to average: 1
Electric dark correction enabled: true
Nonlinearity correction enabled: false
Boxcar width: 0
XAxis mode: Wavelengths
Number of Pixels in Spectrum: 2048
>>>>>Begin Spectral Data<<<<<
223.165	-13.81
223.4	-13.81
223.635	-13.81
223.869	-15.81
224.104	-23.81
224.338	-19.81
224.573	-21.81
224.808	-7.81
225.042	-2.81
225.277	0.19
225.511	0.19
225.746	-10.81
225.98	4.19
226.215	11.19
226.449	13.19
226.683	28.19
226.918	27.19
227.152	32.19
227.387	36.19
227.621	50.19
227.856	44.19
228.09	42.19
228.324	37.19
228.559	60.19
228.793	55.19
229.027	63.19
229.262	61.19
229.496	74.19
229.73	70.19
229.964	86.19
230.199	78.19
230.433	82.19
230.667	76.19
230.901	62.19
231.136	84.19
231.37	85.19
231.604	77.19
231.838	84.19
232.072	82.19
232.306	86.19
232.541	86.19
232.775	85.19
233.009	74.19
233.243	79.19
233.477	86.19
233.711	87.19
233.945	94.19
234.179	75.19
234.413	86.19
234.647	75.19
234.881	70.19
235.115	76.19
235.349	75.19
235.583	79.19
235.817	89.19
236.051	84.19
236.285	72.19
236.519	67.19
236.753	80.19
236.987	86.19
237.221	91.19
237.455	80.19
237.689	76.19
237.922	72.19
238.156	86.19
238.39	79.19
238.624	77.19
238.858	79.19
239.091	76.19
239.325	68.19
239.559	74.19
239.793	81.19
240.027	78.19
240.26	69.19
240.494	71.19
240.728	65.19
240.961	97.19
241.195	83.19
241.429	82.19
241.662	90.19
241.896	72.19
242.13	71.19
242.363	66.19
242.597	76.19
242.83	74.19
243.064	85.19
243.298	69.19
243.531	85.19
243.765	69.19
243.998	78.19
244.232	79.19
244.465	81.19
244.699	78.19
244.932	83.19
245.166	78.19
245.399	69.19
245.633	72.19
245.866	73.19
246.099	72.19
246.333	83.19
246.566	86.19
246.8	69.19
247.033	84.19
247.266	70.19
247.5	76.19
247.733	82.19
247.966	86.19
248.2	74.19
248.433	76.19
248.666	85.19
248.899	89.19
249.133	75.19
249.366	104.19
249.599	78.19
249.832	72.19
250.066	75.19
250.299	82.19
250.532	75.19
250.765	80.19
250.998	62.19
251.231	80.19
251.465	72.19
251.698	80.19
251.931	81.19
252.164	91.19
252.397	83.19
252.63	81.19
252.863	66.19
253.096	78.19
253.329	74.19
253.562	93.19
253.795	72.19
254.028	85.19
254.261	84.19
254.494	74.19
254.727	82.19
254.96	79.19
255.193	67.19
255.426	77.19
255.659	76.19
255.892	89.19
256.124	75.19
256.357	80.19
256.59	68.19
256.823	90.19
257.056	72.19
257.289	82.19
257.521	70.19
257.754	85.19
257.987	78.19
258.22	78.19
258.452	85.19
258.685	75.19
258.918	88.19
259.151	80.19
259.383	77.19
259.616	90.19
259.849	88.19
260.081	90.19
260.314	84.19
260.547	69.19
260.779	81.19
261.012	76.19
261.244	85.19
261.477	86.19
261.71	87.19
261.942	107.19
262.175	89.19
262.407	80.19
262.64	76.19
262.872	81.19
263.105	92.19
263.337	85.19
263.57	77.19
263.802	99.19
264.035	81.19
264.267	73.19
264.499	74.19
264.732	84.19
264.964	82.19
265.197	82.19
265.429	67.19
265.661	80.19
265.894	92.19
266.126	76.19
266.358	107.19
266.591	75.19
266.823	75.19
267.055	80.19
267.287	74.19
267.52	85.19
267.752	89.19
267.984	80.19
268.216	82.19
268.448	84.19
268.681	80.19
268.913	60.19
269.145	69.19
269.377	85.19
269.609	76.19
269.841	73.19
270.073	73.19
270.306	79.19
270.538	78.19
270.77	81.19
271.002	78.19
271.234	85.19
271.466	74.19
271.698	85.19
271.93	78.19
272.162	83.19
272.394	87.19
272.626	95.19
272.858	80.19
273.09	80.19
273.322	72.19
273.553	79.19
273.785	80.19
274.017	88.19
274.249	75.19
274.481	90.19
274.713	74.19
274.945	83.19
275.176	98.19
275.408	85.19
275.64	77.19
275.872	83.19
276.104	78.19
276.335	81.19
276.567	97.19
276.799	90.19
277.031	94.19
277.262	88.19
277.494	86.19
277.726	85.19
277.957	66.19
278.189	90.19
278.421	86.19
278.652	88.19
278.884	72.19
279.115	83.19
279.347	83.19
279.579	76.19
279.81	87.19
280.042	92.19
280.273	85.19
280.505	75.19
280.736	88.19
280.968	101.19
281.199	68.19
281.431	79.19
281.662	91.19
281.894	81.19
282.125	110.19
282.356	109.19
282.588	133.19
282.819	96.19
283.051	92.19
283.282	81.19
283.513	95.19
283.745	93.19
283.976	92.19
284.207	83.19
284.439	93.19
284.67	82.19
284.901	82.19
285.132	82.19
285.364	88.19
285.595	86.19
285.826	91.19
286.057	91.19
286.288	87.19
286.52	78.19
286.751	92.19
286.982	91.19
287.213	75.19
287.444	90.19
287.675	89.19
287.906	92.19
288.138	92.19
288.369	99.19
288.6	82.19
288.831	74.19
289.062	90.19
289.293	72.19
289.524	86.19
289.755	81.19
289.986	81.19
290.217	91.19
290.448	77.19
290.679	81.19
290.91	80.19
291.141	83.19
291.371	83.19
291.602	84.19
291.833	82.19
292.064	91.19
292.295	84.19
292.526	84.19
292.757	75.19
292.987	78.19
293.218	93.19
293.449	88.19
293.68	94.19
293.91	82.19
294.141	79.19
294.372	89.19
294.603	94.19
294.833	78.19
295.064	80.19
295.295	94.19
295.525	99.19
295.756	90.19
295.987	94.19
296.217	118.19
296.448	124.19
296.679	80.19
296.909	78.19
297.14	99.19
297.37	86.19
297.601	84.19
297.831	74.19
298.062	85.19
298.292	91.19
298.523	84.19
298.753	81.19
298.984	76.19
299.214	85.19
299.445	104.19
299.675	90.19
299.905	82.19
300.136	91.19
300.366	77.19
300.597	90.19
300.827	90.19
301.057	93.19
301.288	91.19
301.518	83.19
301.748	93.19
301.979	102.19
302.209	92.19
302.439	85.19
302.669	81.19
302.9	85.19
303.13	71.19
303.36	90.19
303.59	96.19
303.82	107.19
304.051	76.19
304.281	71.19
304.511	93.19
304.741	77.19
304.971	84.19
305.201	96.19
305.431	102.19
305.661	82.19
305.891	84.19
306.121	93.19
306.352	99.19
306.582	88.19
306.812	73.19
307.042	90.19
307.272	86.19
307.502	86.19
307.731	101.19
307.961	82.19
308.191	85.19
308.421	92.19
308.651	96.19
308.881	88.19
309.111	86.19
309.341	90.19
309.571	103.19
309.8	99.19
310.03	78.19
310.26	97.19
310.49	84.19
310.72	88.19
310.949	81.19
311.179	82.19
311.409	92.19
311.639	84.19
311.868	97.19
312.098	84.19
312.328	83.19
312.557	109.19
312.787	110.19
313.017	100.19
313.246	76.19
313.476	80.19
313.706	82.19
313.935	84.19
314.165	86.19
314.394	101.19
314.624	99.19
314.853	80.19
315.083	91.19
315.312	84.19
315.542	84.19
315.771	80.19
316.001	84.19
316.23	103.19
316.46	104.19
316.689	95.19
316.919	88.19
317.148	89.19
317.377	93.19
317.607	96.19
317.836	80.19
318.065	93.19
318.295	85.19
318.524	80.19
318.753	96.19
318.983	100.19
319.212	108.19
319.441	105.19
319.67	88.19
319.9	92.19
320.129	87.19
320.358	85.19
320.587	86.19
320.816	80.19
321.046	97.19
321.275	86.19
321.504	97.19
321.733	96.19
321.962	92.19
322.191	97.19
322.42	112.19
322.649	102.19
322.878	112.19
323.108	117.19
323.337	122.19
323.566	127.19
323.795	126.19
324.024	189.19
324.253	364.19
324.482	775.19
324.71	1564.19
324.939	2064.19
325.168	763.19
325.397	213.19
325.626	144.19
325.855	129.19
326.084	122.19
326.313	147.19
326.542	142.19
326.77	214.19
326.999	430.19
327.228	861.19
327.457	1583.19
327.686	1286.19
327.914	360.19
328.143	196.19
328.372	134.19
328.6	106.19
328.829	114.19
329.058	104.19
329.287	120.19
329.515	99.19
329.744	88.19
329.972	98.19
330.201	90.19
330.43	90.19
330.658	105.19
330.887	119.19
331.115	103.19
331.344	102.19
331.572	105.19
331.801	86.19
332.03	85.19
332.258	87.19
332.486	100.19
332.715	90.19
332.943	82.19
333.172	94.19
333.4	95.19
333.629	123.19
333.857	103.19
334.085	106.19
334.314	83.19
334.542	84.19
334.771	79.19
334.999	83.19
335.227	101.19
335.455	89.19
335.684	104.19
335.912	99.19
336.14	92.19
336.369	86.19
336.597	95.19
336.825	94.19
337.053	108.19
337.281	90.19
337.51	93.19
337.738	98.19
337.966	78.19
338.194	95.19
338.422	100.19
338.65	99.19
338.878	91.19
339.106	99.19
339.334	92.19
339.562	89.19
339.79	82.19
340.018	88.19
340.246	90.19
340.474	86.19
340.702	78.19
340.93	104.19
341.158	77.19
341.386	75.19
341.614	93.19
341.842	84.19
342.07	88.19
342.298	96.19
342.526	78.19
342.754	74.19
342.981	71.19
343.209	91.19
343.437	91.19
343.665	89.19
343.893	81.19
344.12	97.19
344.348	76.19
344.576	93.19
344.804	93.19
345.031	85.19
345.259	96.19
345.487	90.19
345.714	91.19
345.942	78.19
346.17	78.19
346.397	78.19
346.625	85.19
346.853	90.19
347.08	89.19
347.308	84.19
347.535	93.19
347.763	93.19
347.99	102.19
348.218	96.19
348.445	88.19
348.673	94.19
348.9	80.19
349.128	88.19
349.355	105.19
349.583	105.19
349.81	94.19
350.037	94.19
350.265	85.19
350.492	89.19
350.72	94.19
350.947	102.19
351.174	104.19
351.402	101.19
351.629	91.19
351.856	92.19
352.083	100.19
352.311	105.19
352.538	105.19
352.765	104.19
352.992	118.19
353.22	111.19
353.447	114.19
353.674	107.19
353.901	104.19
354.128	95.19
354.355	89.19
354.583	97.19
354.81	80.19
355.037	89.19
355.264	103.19
355.491	91.19
355.718	96.19
355.945	89.19
356.172	95.19
356.399	81.19
356.626	86.19
356.853	86.19
357.08	87.19
357.307	85.19
357.534	93.19
357.761	82.19
357.988	93.19
358.215	104.19
358.441	72.19
358.668	84.19
358.895	91.19
359.122	88.19
359.349	88.19
359.576	87.19
359.802	85.19
360.029	101.19
360.256	112.19
360.483	93.19
360.709	86.19
360.936	92.19
361.163	97.19
361.39	104.19
361.616	82.19
361.843	86.19
362.07	87.19
362.296	101.19
362.523	77.19
362.749	94.19
362.976	78.19
363.203	89.19
363.429	99.19
363.656	79.19
363.882	78.19
364.109	91.19
364.335	81.19
364.562	92.19
364.788	98.19
365.015	102.19
365.241	94.19
365.468	94.19
365.694	101.19
365.92	95.19
366.147	102.19
366.373	96.19
366.599	77.19
366.826	79.19
367.052	85.19
367.278	86.19
367.505	88.19
367.731	90.19
367.957	89.19
368.184	80.19
368.41	85.19
368.636	115.19
368.862	111.19
369.089	112.19
369.315	96.19
369.541	94.19
369.767	88.19
369.993	69.19
370.219	80.19
370.445	96.19
370.672	93.19
370.898	82.19
371.124	81.19
371.35	75.19
371.576	73.19
371.802	97.19
372.028	94.19
372.254	77.19
372.48	92.19
372.706	83.19
372.932	93.19
373.158	88.19
373.384	80.19
373.61	93.19
373.835	78.19
374.061	85.19
374.287	81.19
374.513	78.19
374.739	79.19
374.965	92.19
375.191	77.19
375.416	99.19
375.642	86.19
375.868	72.19
376.094	86.19
376.319	94.19
376.545	95.19
376.771	94.19
376.997	93.19
377.222	87.19
377.448	87.19
377.674	82.19
377.899	88.19
378.125	97.19
378.35	93.19
378.576	105.19
378.802	91.19
379.027	87.19
379.253	97.19
379.478	89.19
379.704	90.19
379.929	92.19
380.155	90.19
380.38	89.19
380.606	87.19
380.831	94.19
381.057	101.19
381.282	88.19
381.507	83.19
381.733	90.19
381.958	96.19
382.184	95.19
382.409	116.19
382.634	101.19
382.86	93.19
383.085	87.19
383.31	86.19
383.535	93.19
383.761	91.19
383.986	91.19
384.211	86.19
384.436	90.19
384.662	97.19
384.887	107.19
385.112	107.19
385.337	96.19
385.562	90.19
385.787	116.19
386.013	111.19
386.238	102.19
386.463	110.19
386.688	114.19
386.913	109.19
387.138	117.19
387.363	91.19
387.588	79.19
387.813	109.19
388.038	104.19
388.263	102.19
388.488	101.19
388.713	88.19
388.938	93.19
389.163	96.19
389.387	99.19
389.612	96.19
389.837	90.19
390.062	97.19
390.287	99.19
390.512	96.19
390.736	89.19
390.961	101.19
391.186	88.19
391.411	82.19
391.636	85.19
391.86	84.19
392.085	79.19
392.31	83.19
392.534	86.19
392.759	92.19
392.984	75.19
393.208	77.19
393.433	91.19
393.658	96.19
393.882	76.19
394.107	88.19
394.331	86.19
394.556	86.19
394.78	76.19
395.005	86.19
395.229	89.19
395.454	83.19
395.678	94.19
395.903	91.19
396.127	85.19
396.352	83.19
396.576	67.19
396.801	95.19
397.025	82.19
397.249	74.19
397.474	86.19
397.698	80.19
397.922	89.19
398.147	99.19
398.371	88.19
398.595	87.19
398.82	97.19
399.044	86.19
399.268	83.19
399.492	63.19
399.717	94.19
399.941	84.19
400.165	83.19
400.389	89.19
400.613	87.19
400.837	96.19
401.062	61.19
401.286	72.19
401.51	89.19
401.734	102.19
401.958	101.19
402.182	125.19
402.406	141.19
402.63	121.19
402.854	94.19
403.078	74.19
403.302	87.19
403.526	91.19
403.75	82.19
403.974	72.19
404.198	78.19
404.422	85.19
404.645	79.19
404.869	87.19
405.093	79.19
405.317	96.19
405.541	88.19
405.765	99.19
405.988	113.19
406.212	156.19
406.436	206.19
406.66	118.19
406.883	85.19
407.107	67.19
407.331	85.19
407.555	98.19
407.778	94.19
408.002	95.19
408.226	86.19
408.449	88.19
408.673	85.19
408.896	92.19
409.12	92.19
409.344	84.19
409.567	85.19
409.791	85.19
410.014	100.19
410.238	83.19
410.461	96.19
410.685	86.19
410.908	90.19
411.132	88.19
411.355	89.19
411.578	94.19
411.802	88.19
412.025	86.19
412.249	77.19
412.472	91.19
412.695	95.19
412.919	82.19
413.142	88.19
413.365	86.19
413.589	79.19
413.812	77.19
414.035	95.19
414.258	98.19
414.482	78.19
414.705	80.19
414.928	78.19
415.151	83.19
415.374	84.19
415.597	81.19
415.821	85.19
416.044	92.19
416.267	88.19
416.49	89.19
416.713	85.19
416.936	82.19
417.159	85.19
417.382	89.19
417.605	87.19
417.828	95.19
418.051	104.19
418.274	99.19
418.497	77.19
418.72	87.19
418.943	90.19
419.166	84.19
419.389	95.19
419.611	92.19
419.834	83.19
420.057	76.19
420.28	99.19
420.503	86.19
420.726	78.19
420.948	94.19
421.171	88.19
421.394	92.19
421.617	92.19
421.839	77.19
422.062	85.19
422.285	85.19
422.507	70.19
422.73	86.19
422.953	101.19
423.175	83.19
423.398	86.19
423.621	92.19
423.843	92.19
424.066	87.19
424.288	91.19
424.511	82.19
424.733	107.19
424.956	97.19
425.178	91.19
425.401	93.19
425.623	95.19
425.846	95.19
426.068	82.19
426.291	77.19
426.513	86.19
426.735	84.19
426.958	94.19
427.18	98.19
427.402	137.19
427.625	158.19
427.847	122.19
428.069	92.19
428.292	82.19
428.514	82.19
428.736	83.19
428.958	78.19
429.181	85.19
429.403	95.19
429.625	92.19
429.847	86.19
430.069	83.19
430.292	85.19
430.514	80.19
430.736	88.19
430.958	73.19
431.18	74.19
431.402	68.19
431.624	102.19
431.846	83.19
432.068	86.19
432.29	84.19
432.512	88.19
432.734	88.19
432.956	78.19
433.178	92.19
433.4	88.19
433.622	97.19
433.844	86.19
434.066	86.19
434.287	74.19
434.509	92.19
434.731	87.19
434.953	86.19
435.175	78.19
435.397	83.19
435.618	90.19
435.84	110.19
436.062	101.19
436.284	128.19
436.505	99.19
436.727	90.19
436.949	85.19
437.17	82.19
437.392	84.19
437.614	78.19
437.835	104.19
438.057	104.19
438.278	93.19
438.5	94.19
438.721	121.19
438.943	107.19
439.165	94.19
439.386	88.19
439.608	73.19
439.829	89.19
440.05	113.19
440.272	136.19
440.493	80.19
440.715	106.19
440.936	81.19
441.158	80.19
441.379	85.19
441.6	89.19
441.822	96.19
442.043	97.19
442.264	102.19
442.486	109.19
442.707	83.19
442.928	121.19
443.149	120.19
443.371	109.19
443.592	100.19
443.813	102.19
444.034	90.19
444.255	90.19
444.476	83.19
444.698	87.19
444.919	90.19
445.14	125.19
445.361	111.19
445.582	114.19
445.803	118.19
446.024	129.19
446.245	120.19
446.466	109.19
446.687	87.19
446.908	89.19
447.129	85.19
447.35	94.19
447.571	82.19
447.792	90.19
448.013	92.19
448.234	92.19
448.455	84.19
448.675	100.19
448.896	110.19
449.117	96.19
449.338	104.19
449.559	102.19
449.779	122.19
450	91.19
450.221	92.19
450.442	87.19
450.662	99.19
450.883	102.19
451.104	100.19
451.324	86.19
451.545	90.19
451.766	88.19
451.986	85.19
452.207	88.19
452.428	85.19
452.648	95.19
452.869	100.19
453.089	104.19
453.31	95.19
453.53	100.19
453.751	76.19
453.971	105.19
454.192	102.19
454.412	85.19
454.633	85.19
454.853	86.19
455.073	95.19
455.294	95.19
455.514	94.19
455.734	83.19
455.955	74.19
456.175	79.19
456.395	96.19
456.616	89.19
456.836	95.19
457.056	97.19
457.276	82.19
457.497	79.19
457.717	82.19
457.937	88.19
458.157	92.19
458.377	78.19
458.598	97.19
458.818	131.19
459.038	150.19
459.258	112.19
459.478	95.19
459.698	86.19
459.918	77.19
460.138	86.19
460.358	73.19
460.578	79.19
460.798	76.19
461.018	82.19
461.238	83.19
461.458	85.19
461.678	83.19
461.898	93.19
462.118	103.19
462.338	78.19
462.558	90.19
462.777	87.19
462.997	79.19
463.217	85.19
463.437	86.19
463.657	81.19
463.876	82.19
464.096	89.19
464.316	80.19
464.536	70.19
464.755	85.19
464.975	99.19
465.195	150.19
465.414	139.19
465.634	80.19
465.854	84.19
466.073	84.19
466.293	77.19
466.512	63.19
466.732	72.19
466.951	85.19
467.171	102.19
467.391	72.19
467.61	113.19
467.829	105.19
468.049	88.19
468.268	94.19
468.488	97.19
468.707	84.19
468.927	91.19
469.146	74.19
469.365	86.19
469.585	83.19
469.804	92.19
470.023	89.19
470.243	85.19
470.462	94.19
470.681	113.19
470.901	101.19
471.12	95.19
471.339	90.19
471.558	87.19
471.777	86.19
471.997	78.19
472.216	97.19
472.435	76.19
472.654	84.19
472.873	101.19
473.092	92.19
473.311	86.19
473.53	86.19
473.749	84.19
473.968	90.19
474.187	98.19
474.406	111.19
474.625	91.19
474.844	96.19
475.063	87.19
475.282	89.19
475.501	82.19
475.72	86.19
475.939	77.19
476.158	79.19
476.377	101.19
476.596	80.19
476.814	82.19
477.033	78.19
477.252	70.19
477.471	73.19
477.69	71.19
477.908	80.19
478.127	88.19
478.346	96.19
478.564	84.19
478.783	99.19
479.002	94.19
479.22	89.19
479.439	81.19
479.658	92.19
479.876	85.19
480.095	80.19
480.313	79.19
480.532	84.19
480.751	82.19
480.969	94.19
481.188	82.19
481.406	98.19
481.624	78.19
481.843	83.19
482.061	81.19
482.28	85.19
482.498	92.19
482.717	75.19
482.935	89.19
483.153	99.19
483.372	93.19
483.59	98.19
483.808	73.19
484.027	79.19
484.245	84.19
484.463	93.19
484.681	93.19
484.9	77.19
485.118	101.19
485.336	86.19
485.554	90.19
485.772	97.19
485.99	90.19
486.209	107.19
486.427	107.19
486.645	99.19
486.863	105.19
487.081	100.19
487.299	92.19
487.517	96.19
487.735	86.19
487.953	76.19
488.171	104.19
488.389	92.19
488.607	93.19
488.825	96.19
489.043	106.19
489.261	91.19
489.479	87.19
489.696	84.19
489.914	97.19
490.132	86.19
490.35	93.19
490.568	86.19
490.786	95.19
491.003	77.19
491.221	90.19
491.439	86.19
491.657	96.19
491.874	84.19
492.092	98.19
492.31	83.19
492.527	89.19
492.745	99.19
492.963	90.19
493.18	85.19
493.398	91.19
493.615	88.19
493.833	88.19
494.05	92.19
494.268	93.19
494.485	98.19
494.703	93.19
494.92	86.19
495.138	76.19
495.355	79.19
495.573	101.19
495.79	94.19
496.008	82.19
496.225	93.19
496.442	83.19
496.66	99.19
496.877	99.19
497.094	87.19
497.312	87.19
497.529	94.19
497.746	77.19
497.963	94.19
498.181	84.19
498.398	101.19
498.615	99.19
498.832	99.19
499.049	91.19
499.267	91.19
499.484	95.19
499.701	90.19
499.918	92.19
500.135	77.19
500.352	74.19
500.569	85.19
500.786	85.19
501.003	77.19
501.22	89.19
501.437	88.19
501.654	94.19
501.871	104.19
502.088	88.19
502.305	89.19
502.522	82.19
502.739	83.19
502.956	91.19
503.172	84.19
503.389	96.19
503.606	99.19
503.823	96.19
504.04	94.19
504.256	97.19
504.473	92.19
504.69	99.19
504.907	87.19
505.123	89.19
505.34	81.19
505.557	94.19
505.773	89.19
505.99	83.19
506.207	99.19
506.423	93.19
506.64	83.19
506.856	86.19
507.073	111.19
507.289	94.19
507.506	96.19
507.722	104.19
507.939	100.19
508.155	91.19
508.372	96.19
508.588	94.19
508.805	86.19
509.021	101.19
509.238	90.19
509.454	86.19
509.67	108.19
509.887	93.19
510.103	133.19
510.319	201.19
510.536	713.19
510.752	2138.19
510.968	605.19
511.184	156.19
511.401	115.19
511.617	104.19
511.833	76.19
512.049	97.19
512.265	97.19
512.481	91.19
512.698	101.19
512.914	97.19
513.13	96.19
513.346	86.19
513.562	101.19
513.778	93.19
513.994	105.19
514.21	92.19
514.426	118.19
514.642	116.19
514.858	119.19
515.074	158.19
515.29	400.19
515.506	1302.19
515.721	505.19
515.937	142.19
516.153	110.19
516.369	90.19
516.585	101.19
516.801	99.19
517.016	95.19
