Data from Uncirc_2006_H10_HRD10591_00086.txt Node
Date: Wed Jan 03 10:25:12 EST 2024
User: Yrep
Spectrometer: HR+D1059
Trigger mode: 1
Integration Time (sec): 1.000000E-1
Scans to average: 1
Electric dark correction enabled: true
Nonlinearity correction enabled: false
Boxcar width: 0
XAxis mode: Wavelengths
Number of Pixels in Spectrum: 2048
>>>>>Begin Spectral Data<<<<<
223.165	-23.19
223.4	-23.19
223.635	-23.19
223.869	-18.19
224.104	-20.19
224.338	-4.19
224.573	-8.19
224.808	-20.19
225.042	-0.19
225.277	0.81
225.511	-10.19
225.746	2.81
225.98	4.81
226.215	20.81
226.449	15.81
226.683	9.81
226.918	13.81
227.152	35.81
227.387	43.81
227.621	62.81
227.856	40.81
228.09	40.81
228.324	49.81
228.559	52.81
228.793	71.81
229.027	70.81
229.262	71.81
229.496	63.81
229.73	78.81
229.964	88.81
230.199	75.81
230.433	78.81
230.667	72.81
230.901	68.81
231.136	80.81
231.37	78.81
231.604	81.81
231.838	89.81
232.072	73.81
232.306	88.81
232.541	76.81
232.775	79.81
233.009	80.81
233.243	84.81
233.477	81.81
233.711	79.81
233.945	75.81
234.179	71.81
234.413	81.81
234.647	85.81
234.881	81.81
235.115	65.81
235.349	79.81
235.583	74.81
235.817	76.81
236.051	83.81
236.285	85.81
236.519	78.81
236.753	71.81
236.987	71.81
237.221	76.81
237.455	78.81
237.689	83.81
237.922	74.81
238.156	68.81
238.39	74.81
238.624	77.81
238.858	70.81
239.091	76.81
239.325	75.81
239.559	78.81
239.793	85.81
240.027	84.81
240.26	80.81
240.494	77.81
240.728	73.81
240.961	77.81
241.195	79.81
241.429	84.81
241.662	80.81
241.896	81.81
242.13	76.81
242.363	66.81
242.597	81.81
242.83	78.81
243.064	70.81
243.298	82.81
243.531	72.81
243.765	81.81
243.998	82.81
244.232	86.81
244.465	75.81
244.699	81.81
244.932	86.81
245.166	81.81
245.399	79.81
245.633	79.81
245.866	75.81
246.099	68.81
246.333	77.81
246.566	71.81
246.8	84.81
247.033	91.81
247.266	78.81
247.5	93.81
247.733	89.81
247.966	76.81
248.2	74.81
248.433	92.81
248.666	65.81
248.899	84.81
249.133	86.81
249.366	81.81
249.599	89.81
249.832	79.81
250.066	93.81
250.299	77.81
250.532	94.81
250.765	72.81
250.998	82.81
251.231	77.81
251.465	78.81
251.698	67.81
251.931	75.81
252.164	77.81
252.397	92.81
252.63	78.81
252.863	80.81
253.096	71.81
253.329	80.81
253.562	79.81
253.795	68.81
254.028	75.81
254.261	96.81
254.494	82.81
254.727	78.81
254.96	69.81
255.193	74.81
255.426	70.81
255.659	73.81
255.892	97.81
256.124	80.81
256.357	77.81
256.59	95.81
256.823	85.81
257.056	73.81
257.289	70.81
257.521	70.81
257.754	93.81
257.987	69.81
258.22	81.81
258.452	95.81
258.685	87.81
258.918	87.81
259.151	85.81
259.383	73.81
259.616	75.81
259.849	68.81
260.081	81.81
260.314	79.81
260.547	84.81
260.779	91.81
261.012	81.81
261.244	90.81
261.477	93.81
261.71	99.81
261.942	110.81
262.175	100.81
262.407	92.81
262.64	87.81
262.872	81.81
263.105	86.81
263.337	95.81
263.57	80.81
263.802	74.81
264.035	86.81
264.267	90.81
264.499	83.81
264.732	85.81
264.964	74.81
265.197	81.81
265.429	90.81
265.661	85.81
265.894	95.81
266.126	93.81
266.358	97.81
266.591	91.81
266.823	93.81
267.055	87.81
267.287	79.81
267.52	73.81
267.752	77.81
267.984	96.81
268.216	84.81
268.448	94.81
268.681	86.81
268.913	90.81
269.145	80.81
269.377	86.81
269.609	88.81
269.841	88.81
270.073	78.81
270.306	88.81
270.538	93.81
270.77	76.81
271.002	82.81
271.234	80.81
271.466	93.81
271.698	82.81
271.93	91.81
272.162	75.81
272.394	78.81
272.626	78.81
272.858	76.81
273.09	83.81
273.322	73.81
273.553	81.81
273.785	78.81
274.017	94.81
274.249	89.81
274.481	83.81
274.713	77.81
274.945	84.81
275.176	99.81
275.408	84.81
275.64	84.81
275.872	80.81
276.104	86.81
276.335	93.81
276.567	100.81
276.799	100.81
277.031	98.81
277.262	84.81
277.494	85.81
277.726	81.81
277.957	82.81
278.189	79.81
278.421	71.81
278.652	79.81
278.884	92.81
279.115	85.81
279.347	82.81
279.579	84.81
279.81	89.81
280.042	95.81
280.273	79.81
280.505	76.81
280.736	76.81
280.968	96.81
281.199	83.81
281.431	85.81
281.662	79.81
281.894	97.81
282.125	89.81
282.356	107.81
282.588	133.81
282.819	112.81
283.051	87.81
283.282	88.81
283.513	75.81
283.745	96.81
283.976	93.81
284.207	94.81
284.439	95.81
284.67	85.81
284.901	78.81
285.132	82.81
285.364	86.81
285.595	83.81
285.826	80.81
286.057	80.81
286.288	94.81
286.52	95.81
286.751	79.81
286.982	83.81
287.213	75.81
287.444	92.81
287.675	89.81
287.906	79.81
288.138	84.81
288.369	89.81
288.6	93.81
288.831	83.81
289.062	82.81
289.293	75.81
289.524	100.81
289.755	87.81
289.986	76.81
290.217	86.81
290.448	84.81
290.679	96.81
290.91	85.81
291.141	95.81
291.371	70.81
291.602	88.81
291.833	92.81
292.064	72.81
292.295	96.81
292.526	95.81
292.757	101.81
292.987	104.81
293.218	89.81
293.449	80.81
293.68	86.81
293.91	83.81
294.141	86.81
294.372	84.81
294.603	93.81
294.833	84.81
295.064	104.81
295.295	87.81
295.525	98.81
295.756	106.81
295.987	96.81
296.217	107.81
296.448	113.81
296.679	103.81
296.909	99.81
297.14	97.81
297.37	88.81
297.601	81.81
297.831	90.81
298.062	96.81
298.292	88.81
298.523	92.81
298.753	91.81
298.984	77.81
299.214	97.81
299.445	91.81
299.675	92.81
299.905	99.81
300.136	100.81
300.366	101.81
300.597	94.81
300.827	96.81
301.057	102.81
301.288	99.81
301.518	94.81
301.748	90.81
301.979	96.81
302.209	101.81
302.439	90.81
302.669	84.81
302.9	85.81
303.13	101.81
303.36	80.81
303.59	91.81
303.82	92.81
304.051	100.81
304.281	77.81
304.511	97.81
304.741	86.81
304.971	82.81
305.201	80.81
305.431	107.81
305.661	90.81
305.891	95.81
306.121	92.81
306.352	105.81
306.582	95.81
306.812	90.81
307.042	91.81
307.272	100.81
307.502	86.81
307.731	96.81
307.961	103.81
308.191	89.81
308.421	93.81
308.651	109.81
308.881	88.81
309.111	94.81
309.341	101.81
309.571	95.81
309.8	92.81
310.03	103.81
310.26	89.81
310.49	93.81
310.72	109.81
310.949	98.81
311.179	88.81
311.409	88.81
311.639	96.81
311.868	108.81
312.098	94.81
312.328	94.81
312.557	97.81
312.787	97.81
313.017	90.81
313.246	83.81
313.476	94.81
313.706	82.81
313.935	95.81
314.165	88.81
314.394	105.81
314.624	90.81
314.853	98.81
315.083	92.81
315.312	105.81
315.542	94.81
315.771	94.81
316.001	87.81
316.23	93.81
316.46	97.81
316.689	86.81
316.919	94.81
317.148	99.81
317.377	84.81
317.607	95.81
317.836	103.81
318.065	95.81
318.295	98.81
318.524	91.81
318.753	86.81
318.983	90.81
319.212	104.81
319.441	93.81
319.67	108.81
319.9	80.81
320.129	81.81
320.358	87.81
320.587	92.81
320.816	90.81
321.046	94.81
321.275	100.81
321.504	103.81
321.733	102.81
321.962	100.81
322.191	96.81
322.42	123.81
322.649	114.81
322.878	112.81
323.108	111.81
323.337	130.81
323.566	135.81
323.795	153.81
324.024	195.81
324.253	400.81
324.482	820.81
324.71	1627.81
324.939	2216.81
325.168	800.81
325.397	254.81
325.626	130.81
325.855	121.81
326.084	123.81
326.313	114.81
326.542	152.81
326.77	223.81
326.999	469.81
327.228	921.81
327.457	1704.81
327.686	1326.81
327.914	353.81
328.143	191.81
328.372	139.81
328.6	110.81
328.829	111.81
329.058	116.81
329.287	133.81
329.515	93.81
329.744	106.81
329.972	115.81
330.201	97.81
330.43	107.81
330.658	114.81
330.887	132.81
331.115	97.81
331.344	102.81
331.572	89.81
331.801	100.81
332.03	100.81
332.258	89.81
332.486	98.81
332.715	87.81
332.943	106.81
333.172	103.81
333.4	88.81
333.629	106.81
333.857	116.81
334.085	105.81
334.314	101.81
334.542	99.81
334.771	108.81
334.999	95.81
335.227	89.81
335.455	99.81
335.684	95.81
335.912	109.81
336.14	103.81
336.369	99.81
336.597	88.81
336.825	112.81
337.053	86.81
337.281	82.81
337.51	97.81
337.738	89.81
337.966	96.81
338.194	94.81
338.422	103.81
338.65	100.81
338.878	86.81
339.106	84.81
339.334	101.81
339.562	96.81
339.79	99.81
340.018	81.81
340.246	107.81
340.474	99.81
340.702	90.81
340.93	99.81
341.158	86.81
341.386	101.81
341.614	81.81
341.842	81.81
342.07	92.81
342.298	93.81
342.526	99.81
342.754	82.81
342.981	93.81
343.209	100.81
343.437	103.81
343.665	84.81
343.893	88.81
344.12	82.81
344.348	89.81
344.576	95.81
344.804	86.81
345.031	97.81
345.259	91.81
345.487	91.81
345.714	101.81
345.942	94.81
346.17	86.81
346.397	97.81
346.625	88.81
346.853	89.81
347.08	109.81
347.308	98.81
347.535	98.81
347.763	97.81
347.99	96.81
348.218	95.81
348.445	103.81
348.673	95.81
348.9	94.81
349.128	110.81
349.355	91.81
349.583	89.81
349.81	97.81
350.037	94.81
350.265	105.81
350.492	97.81
350.72	94.81
350.947	99.81
351.174	109.81
351.402	98.81
351.629	103.81
351.856	93.81
352.083	97.81
352.311	100.81
352.538	107.81
352.765	89.81
352.992	95.81
353.22	111.81
353.447	107.81
353.674	100.81
353.901	99.81
354.128	117.81
354.355	111.81
354.583	109.81
354.81	109.81
355.037	97.81
355.264	95.81
355.491	94.81
355.718	96.81
355.945	94.81
356.172	105.81
356.399	91.81
356.626	100.81
356.853	87.81
357.08	78.81
357.307	83.81
357.534	94.81
357.761	100.81
357.988	86.81
358.215	81.81
358.441	87.81
358.668	99.81
358.895	93.81
359.122	97.81
359.349	89.81
359.576	76.81
359.802	98.81
360.029	105.81
360.256	98.81
360.483	92.81
360.709	79.81
360.936	117.81
361.163	96.81
361.39	97.81
361.616	107.81
361.843	104.81
362.07	90.81
362.296	96.81
362.523	86.81
362.749	96.81
362.976	90.81
363.203	89.81
363.429	91.81
363.656	80.81
363.882	91.81
364.109	81.81
364.335	84.81
364.562	84.81
364.788	88.81
365.015	99.81
365.241	95.81
365.468	99.81
365.694	117.81
365.92	96.81
366.147	82.81
366.373	88.81
366.599	83.81
366.826	84.81
367.052	88.81
367.278	101.81
367.505	91.81
367.731	86.81
367.957	107.81
368.184	93.81
368.41	92.81
368.636	100.81
368.862	121.81
369.089	110.81
369.315	96.81
369.541	104.81
369.767	89.81
369.993	88.81
370.219	82.81
370.445	86.81
370.672	98.81
370.898	89.81
371.124	89.81
371.35	82.81
371.576	93.81
371.802	87.81
372.028	77.81
372.254	81.81
372.48	79.81
372.706	101.81
372.932	87.81
373.158	92.81
373.384	86.81
373.61	91.81
373.835	107.81
374.061	89.81
374.287	93.81
374.513	87.81
374.739	84.81
374.965	82.81
375.191	66.81
375.416	87.81
375.642	101.81
375.868	101.81
376.094	108.81
376.319	103.81
376.545	81.81
376.771	91.81
376.997	89.81
377.222	88.81
377.448	96.81
377.674	92.81
377.899	100.81
378.125	98.81
378.35	88.81
378.576	94.81
378.802	87.81
379.027	87.81
379.253	97.81
379.478	94.81
379.704	100.81
379.929	93.81
380.155	83.81
380.38	88.81
380.606	79.81
380.831	100.81
381.057	108.81
381.282	113.81
381.507	99.81
381.733	97.81
381.958	84.81
382.184	82.81
382.409	103.81
382.634	113.81
382.86	67.81
383.085	91.81
383.31	106.81
383.535	104.81
383.761	104.81
383.986	101.81
384.211	95.81
384.436	98.81
384.662	107.81
384.887	95.81
385.112	104.81
385.337	93.81
385.562	90.81
385.787	105.81
386.013	97.81
386.238	110.81
386.463	106.81
386.688	109.81
386.913	105.81
387.138	99.81
387.363	112.81
387.588	109.81
387.813	112.81
388.038	109.81
388.263	99.81
388.488	105.81
388.713	114.81
388.938	97.81
389.163	109.81
389.387	90.81
389.612	97.81
389.837	97.81
390.062	93.81
390.287	99.81
390.512	89.81
390.736	109.81
390.961	100.81
391.186	96.81
391.411	94.81
391.636	105.81
391.86	77.81
392.085	84.81
392.31	84.81
392.534	88.81
392.759	94.81
392.984	87.81
393.208	91.81
393.433	93.81
393.658	92.81
393.882	80.81
394.107	84.81
394.331	84.81
394.556	95.81
394.78	96.81
395.005	85.81
395.229	92.81
395.454	96.81
395.678	94.81
395.903	88.81
396.127	82.81
396.352	95.81
396.576	90.81
396.801	89.81
397.025	88.81
397.249	101.81
397.474	87.81
397.698	95.81
397.922	100.81
398.147	93.81
398.371	92.81
398.595	86.81
398.82	86.81
399.044	101.81
399.268	92.81
399.492	97.81
399.717	103.81
399.941	107.81
400.165	106.81
400.389	83.81
400.613	75.81
400.837	81.81
401.062	88.81
401.286	95.81
401.51	84.81
401.734	82.81
401.958	96.81
402.182	105.81
402.406	144.81
402.63	111.81
402.854	88.81
403.078	83.81
403.302	86.81
403.526	79.81
403.75	87.81
403.974	89.81
404.198	83.81
404.422	83.81
404.645	79.81
404.869	94.81
405.093	93.81
405.317	109.81
405.541	100.81
405.765	99.81
405.988	112.81
406.212	153.81
406.436	211.81
406.66	136.81
406.883	99.81
407.107	80.81
407.331	105.81
407.555	94.81
407.778	106.81
408.002	95.81
408.226	88.81
408.449	99.81
408.673	85.81
408.896	87.81
409.12	99.81
409.344	81.81
409.567	99.81
409.791	96.81
410.014	102.81
410.238	80.81
410.461	89.81
410.685	100.81
410.908	98.81
411.132	104.81
411.355	100.81
411.578	93.81
411.802	96.81
412.025	88.81
412.249	88.81
412.472	99.81
412.695	89.81
412.919	94.81
413.142	87.81
413.365	79.81
413.589	83.81
413.812	99.81
414.035	111.81
414.258	94.81
414.482	80.81
414.705	92.81
414.928	85.81
415.151	97.81
415.374	110.81
415.597	93.81
415.821	79.81
416.044	93.81
416.267	96.81
416.49	86.81
416.713	87.81
416.936	93.81
417.159	79.81
417.382	81.81
417.605	88.81
417.828	99.81
418.051	94.81
418.274	89.81
418.497	98.81
418.72	92.81
418.943	87.81
419.166	92.81
419.389	88.81
419.611	87.81
419.834	78.81
420.057	92.81
420.28	81.81
420.503	87.81
420.726	83.81
420.948	98.81
421.171	104.81
421.394	87.81
421.617	95.81
421.839	82.81
422.062	95.81
422.285	86.81
422.507	87.81
422.73	87.81
422.953	81.81
423.175	92.81
423.398	96.81
423.621	97.81
423.843	101.81
424.066	92.81
424.288	90.81
424.511	92.81
424.733	100.81
424.956	119.81
425.178	97.81
425.401	96.81
425.623	99.81
425.846	100.81
426.068	96.81
426.291	92.81
426.513	97.81
426.735	99.81
426.958	102.81
427.18	94.81
427.402	133.81
427.625	137.81
427.847	127.81
428.069	97.81
428.292	93.81
428.514	95.81
428.736	100.81
428.958	88.81
429.181	87.81
429.403	69.81
429.625	79.81
429.847	104.81
430.069	100.81
430.292	95.81
430.514	92.81
430.736	87.81
430.958	84.81
431.18	94.81
431.402	83.81
431.624	94.81
431.846	91.81
432.068	86.81
432.29	92.81
432.512	99.81
432.734	96.81
432.956	106.81
433.178	80.81
433.4	85.81
433.622	103.81
433.844	95.81
434.066	79.81
434.287	94.81
434.509	95.81
434.731	104.81
434.953	88.81
435.175	99.81
435.397	91.81
435.618	95.81
435.84	114.81
436.062	120.81
436.284	86.81
436.505	95.81
436.727	103.81
436.949	89.81
437.17	86.81
437.392	92.81
437.614	113.81
437.835	84.81
438.057	107.81
438.278	110.81
438.5	97.81
438.721	110.81
438.943	100.81
439.165	80.81
439.386	86.81
439.608	86.81
439.829	86.81
440.05	108.81
440.272	135.81
440.493	85.81
440.715	82.81
440.936	101.81
441.158	88.81
441.379	87.81
441.6	82.81
441.822	88.81
442.043	98.81
442.264	108.81
442.486	108.81
442.707	82.81
442.928	107.81
443.149	117.81
443.371	106.81
443.592	103.81
443.813	111.81
444.034	104.81
444.255	108.81
444.476	87.81
444.698	94.81
444.919	73.81
445.14	140.81
445.361	115.81
445.582	113.81
445.803	120.81
446.024	121.81
446.245	140.81
446.466	99.81
446.687	92.81
446.908	92.81
447.129	92.81
447.35	88.81
447.571	81.81
447.792	73.81
448.013	97.81
448.234	96.81
448.455	86.81
448.675	114.81
448.896	119.81
449.117	111.81
449.338	94.81
449.559	124.81
449.779	112.81
450	105.81
450.221	95.81
450.442	78.81
450.662	100.81
450.883	129.81
451.104	105.81
451.324	100.81
451.545	88.81
451.766	96.81
451.986	92.81
452.207	86.81
452.428	97.81
452.648	88.81
452.869	100.81
453.089	110.81
453.31	115.81
453.53	102.81
453.751	95.81
453.971	89.81
454.192	104.81
454.412	80.81
454.633	81.81
454.853	94.81
455.073	92.81
455.294	78.81
455.514	89.81
455.734	89.81
455.955	94.81
456.175	79.81
456.395	83.81
456.616	97.81
456.836	94.81
457.056	84.81
457.276	68.81
457.497	87.81
457.717	84.81
457.937	86.81
458.157	80.81
458.377	99.81
458.598	106.81
458.818	137.81
459.038	142.81
459.258	103.81
459.478	88.81
459.698	97.81
459.918	100.81
460.138	89.81
460.358	81.81
460.578	87.81
460.798	92.81
461.018	90.81
461.238	92.81
461.458	72.81
461.678	87.81
461.898	86.81
462.118	86.81
462.338	98.81
462.558	82.81
462.777	91.81
462.997	82.81
463.217	77.81
463.437	88.81
463.657	76.81
463.876	79.81
464.096	93.81
464.316	104.81
464.536	94.81
464.755	91.81
464.975	93.81
465.195	143.81
465.414	156.81
465.634	107.81
465.854	93.81
466.073	90.81
466.293	85.81
466.512	84.81
466.732	90.81
466.951	86.81
467.171	94.81
467.391	98.81
467.61	92.81
467.829	80.81
468.049	95.81
468.268	85.81
468.488	73.81
468.707	81.81
468.927	77.81
469.146	85.81
469.365	89.81
469.585	97.81
469.804	97.81
470.023	85.81
470.243	85.81
470.462	89.81
470.681	105.81
470.901	84.81
471.12	100.81
471.339	88.81
471.558	74.81
471.777	98.81
471.997	96.81
472.216	103.81
472.435	97.81
472.654	90.81
472.873	86.81
473.092	98.81
473.311	71.81
473.53	77.81
473.749	89.81
473.968	87.81
474.187	105.81
474.406	88.81
474.625	110.81
474.844	90.81
475.063	97.81
475.282	83.81
475.501	81.81
475.72	88.81
475.939	98.81
476.158	83.81
476.377	90.81
476.596	93.81
476.814	94.81
477.033	102.81
477.252	89.81
477.471	99.81
477.69	86.81
477.908	83.81
478.127	86.81
478.346	90.81
478.564	97.81
478.783	100.81
479.002	86.81
479.22	89.81
479.439	93.81
479.658	100.81
479.876	94.81
480.095	86.81
480.313	82.81
480.532	79.81
480.751	77.81
480.969	74.81
481.188	96.81
481.406	83.81
481.624	101.81
481.843	95.81
482.061	87.81
482.28	97.81
482.498	84.81
482.717	83.81
482.935	85.81
483.153	98.81
483.372	84.81
483.59	74.81
483.808	80.81
484.027	94.81
484.245	75.81
484.463	104.81
484.681	95.81
484.9	88.81
485.118	98.81
485.336	86.81
485.554	110.81
485.772	99.81
485.99	111.81
486.209	105.81
486.427	94.81
486.645	103.81
486.863	115.81
487.081	105.81
487.299	97.81
487.517	90.81
487.735	97.81
487.953	102.81
488.171	93.81
488.389	81.81
488.607	112.81
488.825	77.81
489.043	89.81
489.261	98.81
489.479	107.81
489.696	87.81
489.914	84.81
490.132	97.81
490.35	93.81
490.568	94.81
490.786	78.81
491.003	111.81
491.221	75.81
491.439	68.81
491.657	86.81
491.874	99.81
492.092	92.81
492.31	89.81
492.527	97.81
492.745	89.81
492.963	91.81
493.18	90.81
493.398	89.81
493.615	90.81
493.833	109.81
494.05	95.81
494.268	87.81
494.485	97.81
494.703	92.81
494.92	94.81
495.138	107.81
495.355	92.81
495.573	83.81
495.79	91.81
496.008	92.81
496.225	97.81
496.442	97.81
496.66	92.81
496.877	95.81
497.094	84.81
497.312	97.81
497.529	91.81
497.746	91.81
497.963	87.81
498.181	99.81
498.398	91.81
498.615	102.81
498.832	114.81
499.049	85.81
499.267	91.81
499.484	87.81
499.701	95.81
499.918	85.81
500.135	84.81
500.352	93.81
500.569	91.81
500.786	82.81
501.003	89.81
501.22	90.81
501.437	86.81
501.654	88.81
501.871	120.81
502.088	111.81
502.305	93.81
502.522	77.81
502.739	98.81
502.956	85.81
503.172	98.81
503.389	101.81
503.606	97.81
503.823	100.81
504.04	87.81
504.256	94.81
504.473	90.81
504.69	92.81
504.907	103.81
505.123	102.81
505.34	97.81
505.557	91.81
505.773	89.81
505.99	93.81
506.207	91.81
506.423	96.81
506.64	78.81
506.856	87.81
507.073	86.81
507.289	98.81
507.506	88.81
507.722	121.81
507.939	111.81
508.155	107.81
508.372	81.81
508.588	90.81
508.805	109.81
509.021	95.81
509.238	90.81
509.454	86.81
509.67	107.81
509.887	98.81
510.103	110.81
510.319	196.81
510.536	679.81
510.752	2083.81
510.968	593.81
511.184	159.81
511.401	114.81
511.617	96.81
511.833	91.81
512.049	91.81
512.265	89.81
512.481	119.81
512.698	96.81
512.914	95.81
513.13	95.81
513.346	93.81
513.562	91.81
513.778	94.81
513.994	96.81
514.21	96.81
514.426	115.81
514.642	125.81
514.858	121.81
515.074	147.81
515.29	381.81
515.506	1251.81
515.721	486.81
515.937	136.81
