Data from Uncirc_2006_H10_HRD10591_00056.txt Node
Date: Wed Jan 03 10:25:06 EST 2024
User: Yrep
Spectrometer: HR+D1059
Trigger mode: 1
Integration Time (sec): 1.000000E-1
Scans to average: 1
Electric dark correction enabled: true
Nonlinearity correction enabled: false
Boxcar width: 0
XAxis mode: Wavelengths
Number of Pixels in Spectrum: 2048
>>>>>Begin Spectral Data<<<<<
223.165	-6.94
223.4	-6.94
223.635	-6.94
223.869	-17.94
224.104	-19.94
224.338	-15.94
224.573	-25.94
224.808	-24.94
225.042	-13.94
225.277	-2.94
225.511	6.06
225.746	11.06
225.98	13.06
226.215	4.06
226.449	12.06
226.683	28.06
226.918	23.06
227.152	31.06
227.387	47.06
227.621	50.06
227.856	45.06
228.09	49.06
228.324	58.06
228.559	60.06
228.793	52.06
229.027	64.06
229.262	54.06
229.496	81.06
229.73	79.06
229.964	82.06
230.199	62.06
230.433	68.06
230.667	60.06
230.901	84.06
231.136	72.06
231.37	67.06
231.604	83.06
231.838	87.06
232.072	69.06
232.306	60.06
232.541	63.06
232.775	66.06
233.009	74.06
233.243	82.06
233.477	91.06
233.711	79.06
233.945	84.06
234.179	79.06
234.413	83.06
234.647	64.06
234.881	76.06
235.115	75.06
235.349	72.06
235.583	68.06
235.817	67.06
236.051	76.06
236.285	85.06
236.519	83.06
236.753	84.06
236.987	76.06
237.221	83.06
237.455	76.06
237.689	67.06
237.922	70.06
238.156	68.06
238.39	93.06
238.624	82.06
238.858	83.06
239.091	80.06
239.325	72.06
239.559	74.06
239.793	69.06
240.027	74.06
240.26	78.06
240.494	67.06
240.728	59.06
240.961	77.06
241.195	75.06
241.429	70.06
241.662	75.06
241.896	71.06
242.13	87.06
242.363	90.06
242.597	64.06
242.83	68.06
243.064	64.06
243.298	82.06
243.531	78.06
243.765	58.06
243.998	89.06
244.232	77.06
244.465	98.06
244.699	69.06
244.932	79.06
245.166	80.06
245.399	81.06
245.633	70.06
245.866	77.06
246.099	77.06
246.333	63.06
246.566	71.06
246.8	80.06
247.033	75.06
247.266	70.06
247.5	76.06
247.733	60.06
247.966	70.06
248.2	83.06
248.433	65.06
248.666	56.06
248.899	99.06
249.133	79.06
249.366	85.06
249.599	81.06
249.832	82.06
250.066	88.06
250.299	75.06
250.532	71.06
250.765	73.06
250.998	71.06
251.231	66.06
251.465	86.06
251.698	69.06
251.931	84.06
252.164	78.06
252.397	75.06
252.63	76.06
252.863	68.06
253.096	64.06
253.329	76.06
253.562	84.06
253.795	70.06
254.028	89.06
254.261	73.06
254.494	71.06
254.727	78.06
254.96	83.06
255.193	82.06
255.426	86.06
255.659	82.06
255.892	77.06
256.124	74.06
256.357	74.06
256.59	64.06
256.823	74.06
257.056	63.06
257.289	79.06
257.521	89.06
257.754	69.06
257.987	71.06
258.22	89.06
258.452	84.06
258.685	82.06
258.918	92.06
259.151	84.06
259.383	68.06
259.616	69.06
259.849	89.06
260.081	78.06
260.314	83.06
260.547	57.06
260.779	68.06
261.012	74.06
261.244	75.06
261.477	82.06
261.71	99.06
261.942	92.06
262.175	117.06
262.407	88.06
262.64	84.06
262.872	86.06
263.105	84.06
263.337	86.06
263.57	81.06
263.802	83.06
264.035	79.06
264.267	83.06
264.499	84.06
264.732	87.06
264.964	63.06
265.197	76.06
265.429	73.06
265.661	80.06
265.894	85.06
266.126	90.06
266.358	79.06
266.591	82.06
266.823	77.06
267.055	82.06
267.287	79.06
267.52	92.06
267.752	74.06
267.984	89.06
268.216	82.06
268.448	84.06
268.681	76.06
268.913	69.06
269.145	78.06
269.377	74.06
269.609	94.06
269.841	93.06
270.073	80.06
270.306	89.06
270.538	90.06
270.77	81.06
271.002	78.06
271.234	81.06
271.466	84.06
271.698	79.06
271.93	69.06
272.162	74.06
272.394	89.06
272.626	82.06
272.858	80.06
273.09	77.06
273.322	82.06
273.553	89.06
273.785	94.06
274.017	75.06
274.249	74.06
274.481	88.06
274.713	72.06
274.945	86.06
275.176	83.06
275.408	82.06
275.64	81.06
275.872	77.06
276.104	79.06
276.335	87.06
276.567	90.06
276.799	95.06
277.031	82.06
277.262	83.06
277.494	96.06
277.726	68.06
277.957	72.06
278.189	80.06
278.421	74.06
278.652	76.06
278.884	82.06
279.115	81.06
279.347	79.06
279.579	94.06
279.81	79.06
280.042	88.06
280.273	80.06
280.505	87.06
280.736	91.06
280.968	76.06
281.199	90.06
281.431	92.06
281.662	88.06
281.894	74.06
282.125	83.06
282.356	104.06
282.588	125.06
282.819	111.06
283.051	91.06
283.282	87.06
283.513	85.06
283.745	90.06
283.976	80.06
284.207	92.06
284.439	88.06
284.67	88.06
284.901	67.06
285.132	91.06
285.364	81.06
285.595	90.06
285.826	78.06
286.057	76.06
286.288	85.06
286.52	88.06
286.751	73.06
286.982	86.06
287.213	74.06
287.444	81.06
287.675	78.06
287.906	73.06
288.138	74.06
288.369	90.06
288.6	78.06
288.831	76.06
289.062	80.06
289.293	87.06
289.524	80.06
289.755	81.06
289.986	75.06
290.217	80.06
290.448	87.06
290.679	88.06
290.91	82.06
291.141	77.06
291.371	95.06
291.602	78.06
291.833	87.06
292.064	84.06
292.295	79.06
292.526	88.06
292.757	90.06
292.987	81.06
293.218	84.06
293.449	87.06
293.68	97.06
293.91	79.06
294.141	84.06
294.372	97.06
294.603	74.06
294.833	84.06
295.064	82.06
295.295	79.06
295.525	91.06
295.756	104.06
295.987	106.06
296.217	113.06
296.448	110.06
296.679	88.06
296.909	75.06
297.14	83.06
297.37	92.06
297.601	94.06
297.831	82.06
298.062	89.06
298.292	99.06
298.523	69.06
298.753	84.06
298.984	75.06
299.214	83.06
299.445	93.06
299.675	77.06
299.905	85.06
300.136	88.06
300.366	96.06
300.597	71.06
300.827	79.06
301.057	91.06
301.288	112.06
301.518	82.06
301.748	80.06
301.979	83.06
302.209	97.06
302.439	77.06
302.669	78.06
302.9	85.06
303.13	83.06
303.36	102.06
303.59	83.06
303.82	93.06
304.051	84.06
304.281	94.06
304.511	93.06
304.741	108.06
304.971	87.06
305.201	88.06
305.431	83.06
305.661	89.06
305.891	89.06
306.121	88.06
306.352	89.06
306.582	91.06
306.812	79.06
307.042	89.06
307.272	80.06
307.502	82.06
307.731	92.06
307.961	99.06
308.191	92.06
308.421	92.06
308.651	91.06
308.881	72.06
309.111	87.06
309.341	75.06
309.571	95.06
309.8	79.06
310.03	90.06
310.26	79.06
310.49	85.06
310.72	102.06
310.949	90.06
311.179	92.06
311.409	87.06
311.639	89.06
311.868	93.06
312.098	92.06
312.328	85.06
312.557	85.06
312.787	104.06
313.017	92.06
313.246	86.06
313.476	90.06
313.706	87.06
313.935	83.06
314.165	99.06
314.394	101.06
314.624	90.06
314.853	100.06
315.083	84.06
315.312	82.06
315.542	82.06
315.771	81.06
316.001	90.06
316.23	94.06
316.46	91.06
316.689	84.06
316.919	83.06
317.148	98.06
317.377	75.06
317.607	89.06
317.836	89.06
318.065	81.06
318.295	91.06
318.524	83.06
318.753	72.06
318.983	103.06
319.212	92.06
319.441	111.06
319.67	113.06
319.9	95.06
320.129	94.06
320.358	98.06
320.587	89.06
320.816	97.06
321.046	97.06
321.275	96.06
321.504	84.06
321.733	92.06
321.962	92.06
322.191	103.06
322.42	97.06
322.649	101.06
322.878	103.06
323.108	110.06
323.337	113.06
323.566	135.06
323.795	137.06
324.024	200.06
324.253	371.06
324.482	817.06
324.71	1744.06
324.939	2346.06
325.168	846.06
325.397	264.06
325.626	153.06
325.855	126.06
326.084	133.06
326.313	133.06
326.542	153.06
326.77	224.06
326.999	488.06
327.228	996.06
327.457	1814.06
327.686	1443.06
327.914	362.06
328.143	166.06
328.372	136.06
328.6	115.06
328.829	118.06
329.058	121.06
329.287	130.06
329.515	112.06
329.744	86.06
329.972	80.06
330.201	83.06
330.43	114.06
330.658	115.06
330.887	132.06
331.115	118.06
331.344	102.06
331.572	83.06
331.801	103.06
332.03	91.06
332.258	88.06
332.486	84.06
332.715	89.06
332.943	79.06
333.172	97.06
333.4	79.06
333.629	97.06
333.857	110.06
334.085	111.06
334.314	96.06
334.542	86.06
334.771	97.06
334.999	75.06
335.227	89.06
335.455	79.06
335.684	85.06
335.912	86.06
336.14	103.06
336.369	103.06
336.597	86.06
336.825	86.06
337.053	87.06
337.281	90.06
337.51	88.06
337.738	96.06
337.966	88.06
338.194	95.06
338.422	95.06
338.65	87.06
338.878	69.06
339.106	80.06
339.334	78.06
339.562	89.06
339.79	89.06
340.018	79.06
340.246	85.06
340.474	87.06
340.702	90.06
340.93	90.06
341.158	84.06
341.386	94.06
341.614	95.06
341.842	89.06
342.07	80.06
342.298	81.06
342.526	99.06
342.754	94.06
342.981	83.06
343.209	74.06
343.437	95.06
343.665	100.06
343.893	92.06
344.12	97.06
344.348	76.06
344.576	86.06
344.804	93.06
345.031	81.06
345.259	94.06
345.487	84.06
345.714	82.06
345.942	85.06
346.17	100.06
346.397	84.06
346.625	89.06
346.853	89.06
347.08	90.06
347.308	96.06
347.535	97.06
347.763	95.06
347.99	86.06
348.218	94.06
348.445	104.06
348.673	95.06
348.9	106.06
349.128	97.06
349.355	103.06
349.583	77.06
349.81	90.06
350.037	94.06
350.265	94.06
350.492	89.06
350.72	80.06
350.947	102.06
351.174	102.06
351.402	101.06
351.629	115.06
351.856	79.06
352.083	82.06
352.311	94.06
352.538	98.06
352.765	93.06
352.992	102.06
353.22	124.06
353.447	99.06
353.674	111.06
353.901	84.06
354.128	90.06
354.355	93.06
354.583	95.06
354.81	101.06
355.037	98.06
355.264	102.06
355.491	91.06
355.718	91.06
355.945	80.06
356.172	92.06
356.399	91.06
356.626	92.06
356.853	70.06
357.08	75.06
357.307	90.06
357.534	90.06
357.761	104.06
357.988	90.06
358.215	83.06
358.441	85.06
358.668	81.06
358.895	91.06
359.122	76.06
359.349	85.06
359.576	104.06
359.802	106.06
360.029	111.06
360.256	89.06
360.483	98.06
360.709	90.06
360.936	92.06
361.163	99.06
361.39	87.06
361.616	89.06
361.843	85.06
362.07	84.06
362.296	88.06
362.523	84.06
362.749	82.06
362.976	84.06
363.203	98.06
363.429	78.06
363.656	94.06
363.882	87.06
364.109	78.06
364.335	87.06
364.562	76.06
364.788	72.06
365.015	86.06
365.241	90.06
365.468	103.06
365.694	95.06
365.92	102.06
366.147	80.06
366.373	84.06
366.599	104.06
366.826	76.06
367.052	88.06
367.278	90.06
367.505	74.06
367.731	83.06
367.957	87.06
368.184	94.06
368.41	91.06
368.636	104.06
368.862	112.06
369.089	115.06
369.315	98.06
369.541	86.06
369.767	67.06
369.993	82.06
370.219	86.06
370.445	85.06
370.672	99.06
370.898	89.06
371.124	87.06
371.35	76.06
371.576	80.06
371.802	76.06
372.028	87.06
372.254	83.06
372.48	80.06
372.706	76.06
372.932	81.06
373.158	91.06
373.384	91.06
373.61	86.06
373.835	93.06
374.061	93.06
374.287	96.06
374.513	64.06
374.739	80.06
374.965	84.06
375.191	90.06
375.416	89.06
375.642	91.06
375.868	72.06
376.094	95.06
376.319	82.06
376.545	83.06
376.771	89.06
376.997	94.06
377.222	88.06
377.448	68.06
377.674	91.06
377.899	97.06
378.125	83.06
378.35	82.06
378.576	86.06
378.802	98.06
379.027	79.06
379.253	88.06
379.478	83.06
379.704	78.06
379.929	84.06
380.155	89.06
380.38	78.06
380.606	87.06
380.831	82.06
381.057	96.06
381.282	88.06
381.507	100.06
381.733	94.06
381.958	81.06
382.184	96.06
382.409	98.06
382.634	84.06
382.86	99.06
383.085	102.06
383.31	103.06
383.535	97.06
383.761	90.06
383.986	112.06
384.211	93.06
384.436	91.06
384.662	109.06
384.887	95.06
385.112	99.06
385.337	100.06
385.562	94.06
385.787	103.06
386.013	110.06
386.238	114.06
386.463	103.06
386.688	91.06
386.913	89.06
387.138	124.06
387.363	103.06
387.588	102.06
387.813	103.06
388.038	105.06
388.263	96.06
388.488	98.06
388.713	113.06
388.938	100.06
389.163	89.06
389.387	95.06
389.612	82.06
389.837	74.06
390.062	81.06
390.287	76.06
390.512	84.06
390.736	91.06
390.961	74.06
391.186	86.06
391.411	94.06
391.636	94.06
391.86	85.06
392.085	87.06
392.31	87.06
392.534	75.06
392.759	88.06
392.984	87.06
393.208	79.06
393.433	82.06
393.658	81.06
393.882	91.06
394.107	85.06
394.331	79.06
394.556	75.06
394.78	83.06
395.005	85.06
395.229	72.06
395.454	98.06
395.678	83.06
395.903	96.06
396.127	77.06
396.352	103.06
396.576	87.06
396.801	81.06
397.025	95.06
397.249	83.06
397.474	91.06
397.698	92.06
397.922	88.06
398.147	92.06
398.371	82.06
398.595	76.06
398.82	91.06
399.044	96.06
399.268	85.06
399.492	82.06
399.717	79.06
399.941	80.06
400.165	97.06
400.389	85.06
400.613	74.06
400.837	85.06
401.062	96.06
401.286	84.06
401.51	89.06
401.734	83.06
401.958	113.06
402.182	123.06
402.406	166.06
402.63	110.06
402.854	81.06
403.078	72.06
403.302	85.06
403.526	96.06
403.75	82.06
403.974	89.06
404.198	94.06
404.422	83.06
404.645	90.06
404.869	90.06
405.093	102.06
405.317	82.06
405.541	105.06
405.765	95.06
405.988	118.06
406.212	165.06
406.436	206.06
406.66	128.06
406.883	90.06
407.107	93.06
407.331	102.06
407.555	98.06
407.778	99.06
408.002	83.06
408.226	73.06
408.449	91.06
408.673	84.06
408.896	81.06
409.12	86.06
409.344	91.06
409.567	82.06
409.791	89.06
410.014	94.06
410.238	95.06
410.461	95.06
410.685	84.06
410.908	88.06
411.132	91.06
411.355	104.06
411.578	98.06
411.802	74.06
412.025	84.06
412.249	84.06
412.472	88.06
412.695	87.06
412.919	91.06
413.142	81.06
413.365	99.06
413.589	94.06
413.812	91.06
414.035	87.06
414.258	74.06
414.482	79.06
414.705	87.06
414.928	84.06
415.151	96.06
415.374	100.06
415.597	80.06
415.821	87.06
416.044	86.06
416.267	94.06
416.49	87.06
416.713	73.06
416.936	71.06
417.159	76.06
417.382	78.06
417.605	97.06
417.828	87.06
418.051	83.06
418.274	87.06
418.497	84.06
418.72	100.06
418.943	79.06
419.166	92.06
419.389	78.06
419.611	83.06
419.834	88.06
420.057	77.06
420.28	83.06
420.503	84.06
420.726	100.06
420.948	89.06
421.171	86.06
421.394	85.06
421.617	89.06
421.839	82.06
422.062	81.06
422.285	91.06
422.507	99.06
422.73	102.06
422.953	85.06
423.175	90.06
423.398	88.06
423.621	79.06
423.843	83.06
424.066	72.06
424.288	74.06
424.511	80.06
424.733	93.06
424.956	104.06
425.178	105.06
425.401	102.06
425.623	89.06
425.846	90.06
426.068	76.06
426.291	98.06
426.513	88.06
426.735	73.06
426.958	87.06
427.18	112.06
427.402	121.06
427.625	154.06
427.847	123.06
428.069	79.06
428.292	81.06
428.514	87.06
428.736	83.06
428.958	76.06
429.181	96.06
429.403	82.06
429.625	80.06
429.847	76.06
430.069	93.06
430.292	86.06
430.514	78.06
430.736	75.06
430.958	76.06
431.18	83.06
431.402	77.06
431.624	99.06
431.846	89.06
432.068	88.06
432.29	74.06
432.512	64.06
432.734	92.06
432.956	96.06
433.178	98.06
433.4	97.06
433.622	74.06
433.844	83.06
434.066	90.06
434.287	74.06
434.509	90.06
434.731	89.06
434.953	84.06
435.175	90.06
435.397	96.06
435.618	99.06
435.84	104.06
436.062	110.06
436.284	102.06
436.505	87.06
436.727	107.06
436.949	96.06
437.17	75.06
437.392	80.06
437.614	79.06
437.835	98.06
438.057	95.06
438.278	105.06
438.5	93.06
438.721	111.06
438.943	103.06
439.165	83.06
439.386	78.06
439.608	82.06
439.829	87.06
440.05	111.06
440.272	142.06
440.493	86.06
440.715	87.06
440.936	103.06
441.158	89.06
441.379	82.06
441.6	96.06
441.822	73.06
442.043	86.06
442.264	92.06
442.486	89.06
442.707	92.06
442.928	120.06
443.149	138.06
443.371	131.06
443.592	101.06
443.813	108.06
444.034	84.06
444.255	85.06
444.476	85.06
444.698	95.06
444.919	91.06
445.14	120.06
445.361	117.06
445.582	105.06
445.803	109.06
446.024	121.06
446.245	115.06
446.466	103.06
446.687	94.06
446.908	81.06
447.129	90.06
447.35	96.06
447.571	87.06
447.792	87.06
448.013	95.06
448.234	98.06
448.455	84.06
448.675	109.06
448.896	108.06
449.117	89.06
449.338	93.06
449.559	109.06
449.779	125.06
450	81.06
450.221	93.06
450.442	75.06
450.662	83.06
450.883	104.06
451.104	91.06
451.324	83.06
451.545	97.06
451.766	85.06
451.986	72.06
452.207	84.06
452.428	98.06
452.648	102.06
452.869	116.06
453.089	112.06
453.31	122.06
453.53	82.06
453.751	86.06
453.971	106.06
454.192	97.06
454.412	90.06
454.633	78.06
454.853	76.06
455.073	80.06
455.294	81.06
455.514	78.06
455.734	84.06
455.955	85.06
456.175	81.06
456.395	88.06
456.616	91.06
456.836	63.06
457.056	75.06
457.276	73.06
457.497	72.06
457.717	72.06
457.937	75.06
458.157	74.06
458.377	101.06
458.598	102.06
458.818	134.06
459.038	142.06
459.258	95.06
459.478	96.06
459.698	100.06
459.918	78.06
460.138	80.06
460.358	84.06
460.578	81.06
460.798	80.06
461.018	96.06
461.238	87.06
461.458	75.06
461.678	81.06
461.898	65.06
462.118	81.06
462.338	88.06
462.558	74.06
462.777	87.06
462.997	95.06
463.217	72.06
463.437	78.06
463.657	85.06
463.876	87.06
464.096	88.06
464.316	99.06
464.536	82.06
464.755	94.06
464.975	104.06
465.195	150.06
465.414	140.06
465.634	97.06
465.854	96.06
466.073	90.06
466.293	85.06
466.512	83.06
466.732	90.06
466.951	87.06
467.171	85.06
467.391	87.06
467.61	115.06
467.829	96.06
468.049	91.06
468.268	80.06
468.488	84.06
468.707	97.06
468.927	79.06
469.146	87.06
469.365	81.06
469.585	87.06
469.804	88.06
470.023	94.06
470.243	88.06
470.462	89.06
470.681	97.06
470.901	101.06
471.12	92.06
471.339	79.06
471.558	73.06
471.777	83.06
471.997	86.06
472.216	79.06
472.435	88.06
472.654	91.06
472.873	97.06
473.092	89.06
473.311	91.06
473.53	74.06
473.749	83.06
473.968	102.06
474.187	92.06
474.406	88.06
474.625	90.06
474.844	79.06
475.063	78.06
475.282	83.06
475.501	73.06
475.72	73.06
475.939	78.06
476.158	74.06
476.377	68.06
476.596	82.06
476.814	77.06
477.033	77.06
477.252	81.06
477.471	94.06
477.69	91.06
477.908	96.06
478.127	87.06
478.346	75.06
478.564	89.06
478.783	84.06
479.002	96.06
479.22	88.06
479.439	78.06
479.658	99.06
479.876	85.06
480.095	89.06
480.313	101.06
480.532	92.06
480.751	88.06
480.969	85.06
481.188	67.06
481.406	67.06
481.624	84.06
481.843	70.06
482.061	79.06
482.28	78.06
482.498	83.06
482.717	75.06
482.935	94.06
483.153	81.06
483.372	81.06
483.59	72.06
483.808	78.06
484.027	70.06
484.245	96.06
484.463	94.06
484.681	103.06
484.9	84.06
485.118	97.06
485.336	73.06
485.554	87.06
485.772	86.06
485.99	97.06
486.209	90.06
486.427	99.06
486.645	114.06
486.863	105.06
487.081	104.06
487.299	93.06
487.517	87.06
487.735	100.06
487.953	80.06
488.171	90.06
488.389	78.06
488.607	91.06
488.825	83.06
489.043	96.06
489.261	85.06
489.479	76.06
489.696	85.06
489.914	95.06
490.132	79.06
490.35	84.06
490.568	84.06
490.786	94.06
491.003	92.06
491.221	80.06
491.439	76.06
491.657	93.06
491.874	102.06
492.092	74.06
492.31	96.06
492.527	93.06
492.745	84.06
492.963	79.06
493.18	82.06
493.398	74.06
493.615	91.06
493.833	97.06
494.05	87.06
494.268	89.06
494.485	78.06
494.703	70.06
494.92	90.06
495.138	84.06
495.355	95.06
495.573	92.06
495.79	92.06
496.008	77.06
496.225	91.06
496.442	68.06
496.66	96.06
496.877	79.06
497.094	96.06
497.312	91.06
497.529	91.06
497.746	91.06
497.963	87.06
498.181	80.06
498.398	99.06
498.615	111.06
498.832	103.06
499.049	79.06
499.267	84.06
499.484	71.06
499.701	89.06
499.918	81.06
500.135	80.06
500.352	87.06
500.569	79.06
500.786	90.06
501.003	88.06
501.22	85.06
501.437	89.06
501.654	90.06
501.871	96.06
502.088	76.06
502.305	79.06
502.522	87.06
502.739	88.06
502.956	79.06
503.172	83.06
503.389	93.06
503.606	94.06
503.823	101.06
504.04	95.06
504.256	77.06
504.473	92.06
504.69	88.06
504.907	104.06
505.123	84.06
505.34	87.06
505.557	81.06
505.773	80.06
505.99	87.06
506.207	80.06
506.423	84.06
506.64	90.06
506.856	91.06
507.073	77.06
507.289	80.06
507.506	94.06
507.722	84.06
507.939	102.06
508.155	87.06
508.372	80.06
508.588	91.06
508.805	87.06
509.021	95.06
509.238	103.06
509.454	91.06
509.67	103.06
509.887	125.06
510.103	121.06
510.319	202.06
510.536	792.06
510.752	2486.06
510.968	685.06
511.184	153.06
511.401	95.06
511.617	99.06
511.833	93.06
512.049	80.06
512.265	97.06
512.481	89.06
512.698	82.06
512.914	77.06
513.13	79.06
513.346	88.06
513.562	85.06
513.778	96.06
513.994	96.06
514.21	82.06
514.426	118.06
514.642	130.06
514.858	134.06
515.074	171.06
515.29	444.06
515.506	1511.06
515.721	558.06
515.937	153.06
516.153	105.06
516.369	99.06
516.585	93.06
516.801	84.06
517.016	89.06
517.232	87.06
