Data from Uncirc_2006_H10_HRD10591_00075.txt Node
Date: Wed Jan 03 10:25:10 EST 2024
User: Yrep
Spectrometer: HR+D1059
Trigger mode: 1
Integration Time (sec): 1.000000E-1
Scans to average: 1
Electric dark correction enabled: true
Nonlinearity correction enabled: false
Boxcar width: 0
XAxis mode: Wavelengths
Number of Pixels in Spectrum: 2048
>>>>>Begin Spectral Data<<<<<
223.165	-23.12
223.4	-23.12
223.635	-23.12
223.869	-32.12
224.104	-17.12
224.338	-27.12
224.573	-20.12
224.808	-19.12
225.042	0.88
225.277	9.88
225.511	-4.12
225.746	1.88
225.98	-5.12
226.215	13.88
226.449	33.88
226.683	29.88
226.918	28.88
227.152	28.88
227.387	29.88
227.621	27.88
227.856	49.88
228.09	33.88
228.324	48.88
228.559	62.88
228.793	52.88
229.027	65.88
229.262	59.88
229.496	75.88
229.73	81.88
229.964	73.88
230.199	63.88
230.433	67.88
230.667	82.88
230.901	69.88
231.136	76.88
231.37	72.88
231.604	79.88
231.838	65.88
232.072	73.88
232.306	92.88
232.541	80.88
232.775	78.88
233.009	90.88
233.243	78.88
233.477	81.88
233.711	80.88
233.945	85.88
234.179	100.88
234.413	79.88
234.647	79.88
234.881	74.88
235.115	77.88
235.349	67.88
235.583	79.88
235.817	85.88
236.051	80.88
236.285	83.88
236.519	83.88
236.753	79.88
236.987	73.88
237.221	79.88
237.455	67.88
237.689	67.88
237.922	47.88
238.156	73.88
238.39	79.88
238.624	67.88
238.858	83.88
239.091	80.88
239.325	78.88
239.559	79.88
239.793	82.88
240.027	81.88
240.26	76.88
240.494	68.88
240.728	82.88
240.961	78.88
241.195	63.88
241.429	62.88
241.662	70.88
241.896	73.88
242.13	72.88
242.363	76.88
242.597	78.88
242.83	68.88
243.064	72.88
243.298	79.88
243.531	75.88
243.765	73.88
243.998	70.88
244.232	89.88
244.465	88.88
244.699	66.88
244.932	77.88
245.166	78.88
245.399	75.88
245.633	71.88
245.866	72.88
246.099	63.88
246.333	65.88
246.566	77.88
246.8	76.88
247.033	68.88
247.266	84.88
247.5	79.88
247.733	66.88
247.966	83.88
248.2	81.88
248.433	79.88
248.666	84.88
248.899	89.88
249.133	66.88
249.366	97.88
249.599	95.88
249.832	81.88
250.066	60.88
250.299	81.88
250.532	93.88
250.765	85.88
250.998	70.88
251.231	81.88
251.465	83.88
251.698	80.88
251.931	74.88
252.164	85.88
252.397	73.88
252.63	84.88
252.863	81.88
253.096	76.88
253.329	73.88
253.562	78.88
253.795	73.88
254.028	79.88
254.261	67.88
254.494	68.88
254.727	89.88
254.96	82.88
255.193	78.88
255.426	76.88
255.659	68.88
255.892	79.88
256.124	76.88
256.357	83.88
256.59	87.88
256.823	90.88
257.056	88.88
257.289	74.88
257.521	74.88
257.754	74.88
257.987	76.88
258.22	91.88
258.452	80.88
258.685	81.88
258.918	80.88
259.151	80.88
259.383	75.88
259.616	81.88
259.849	75.88
260.081	84.88
260.314	81.88
260.547	89.88
260.779	83.88
261.012	81.88
261.244	64.88
261.477	81.88
261.71	95.88
261.942	102.88
262.175	112.88
262.407	88.88
262.64	89.88
262.872	75.88
263.105	86.88
263.337	90.88
263.57	90.88
263.802	74.88
264.035	85.88
264.267	91.88
264.499	82.88
264.732	67.88
264.964	83.88
265.197	81.88
265.429	84.88
265.661	87.88
265.894	69.88
266.126	68.88
266.358	93.88
266.591	96.88
266.823	80.88
267.055	83.88
267.287	87.88
267.52	71.88
267.752	84.88
267.984	76.88
268.216	80.88
268.448	77.88
268.681	83.88
268.913	91.88
269.145	97.88
269.377	89.88
269.609	67.88
269.841	85.88
270.073	72.88
270.306	84.88
270.538	78.88
270.77	81.88
271.002	83.88
271.234	83.88
271.466	89.88
271.698	82.88
271.93	89.88
272.162	95.88
272.394	87.88
272.626	82.88
272.858	72.88
273.09	87.88
273.322	68.88
273.553	86.88
273.785	83.88
274.017	85.88
274.249	83.88
274.481	74.88
274.713	73.88
274.945	78.88
275.176	82.88
275.408	100.88
275.64	92.88
275.872	87.88
276.104	81.88
276.335	87.88
276.567	81.88
276.799	108.88
277.031	111.88
277.262	68.88
277.494	69.88
277.726	88.88
277.957	87.88
278.189	77.88
278.421	72.88
278.652	82.88
278.884	82.88
279.115	88.88
279.347	88.88
279.579	69.88
279.81	85.88
280.042	80.88
280.273	74.88
280.505	73.88
280.736	80.88
280.968	90.88
281.199	79.88
281.431	78.88
281.662	97.88
281.894	87.88
282.125	89.88
282.356	120.88
282.588	142.88
282.819	111.88
283.051	92.88
283.282	83.88
283.513	84.88
283.745	84.88
283.976	83.88
284.207	77.88
284.439	81.88
284.67	72.88
284.901	80.88
285.132	77.88
285.364	82.88
285.595	96.88
285.826	90.88
286.057	82.88
286.288	89.88
286.52	80.88
286.751	78.88
286.982	80.88
287.213	89.88
287.444	81.88
287.675	81.88
287.906	72.88
288.138	78.88
288.369	85.88
288.6	79.88
288.831	89.88
289.062	83.88
289.293	98.88
289.524	81.88
289.755	91.88
289.986	87.88
290.217	90.88
290.448	81.88
290.679	80.88
290.91	61.88
291.141	92.88
291.371	91.88
291.602	75.88
291.833	87.88
292.064	76.88
292.295	91.88
292.526	87.88
292.757	95.88
292.987	73.88
293.218	76.88
293.449	93.88
293.68	85.88
293.91	85.88
294.141	89.88
294.372	81.88
294.603	74.88
294.833	97.88
295.064	73.88
295.295	92.88
295.525	84.88
295.756	85.88
295.987	114.88
296.217	136.88
296.448	108.88
296.679	88.88
296.909	71.88
297.14	94.88
297.37	85.88
297.601	98.88
297.831	75.88
298.062	81.88
298.292	87.88
298.523	95.88
298.753	84.88
298.984	91.88
299.214	83.88
299.445	81.88
299.675	81.88
299.905	91.88
300.136	90.88
300.366	86.88
300.597	84.88
300.827	96.88
301.057	89.88
301.288	103.88
301.518	101.88
301.748	77.88
301.979	98.88
302.209	90.88
302.439	90.88
302.669	91.88
302.9	87.88
303.13	79.88
303.36	87.88
303.59	91.88
303.82	106.88
304.051	101.88
304.281	100.88
304.511	84.88
304.741	83.88
304.971	91.88
305.201	96.88
305.431	87.88
305.661	87.88
305.891	84.88
306.121	100.88
306.352	98.88
306.582	107.88
306.812	83.88
307.042	91.88
307.272	89.88
307.502	81.88
307.731	90.88
307.961	82.88
308.191	88.88
308.421	94.88
308.651	92.88
308.881	89.88
309.111	105.88
309.341	79.88
309.571	91.88
309.8	99.88
310.03	97.88
310.26	96.88
310.49	96.88
310.72	105.88
310.949	90.88
311.179	99.88
311.409	82.88
311.639	90.88
311.868	84.88
312.098	90.88
312.328	83.88
312.557	81.88
312.787	108.88
313.017	100.88
313.246	92.88
313.476	98.88
313.706	86.88
313.935	95.88
314.165	101.88
314.394	84.88
314.624	95.88
314.853	83.88
315.083	89.88
315.312	99.88
315.542	94.88
315.771	83.88
316.001	85.88
316.23	80.88
316.46	100.88
316.689	92.88
316.919	85.88
317.148	72.88
317.377	97.88
317.607	91.88
317.836	81.88
318.065	95.88
318.295	87.88
318.524	76.88
318.753	102.88
318.983	85.88
319.212	91.88
319.441	105.88
319.67	91.88
319.9	67.88
320.129	83.88
320.358	82.88
320.587	81.88
320.816	114.88
321.046	98.88
321.275	101.88
321.504	102.88
321.733	94.88
321.962	85.88
322.191	99.88
322.42	98.88
322.649	117.88
322.878	108.88
323.108	106.88
323.337	116.88
323.566	141.88
323.795	137.88
324.024	203.88
324.253	390.88
324.482	867.88
324.71	1770.88
324.939	2321.88
325.168	817.88
325.397	242.88
325.626	146.88
325.855	131.88
326.084	123.88
326.313	112.88
326.542	154.88
326.77	247.88
326.999	480.88
327.228	979.88
327.457	1776.88
327.686	1380.88
327.914	361.88
328.143	187.88
328.372	127.88
328.6	115.88
328.829	129.88
329.058	114.88
329.287	121.88
329.515	116.88
329.744	97.88
329.972	97.88
330.201	83.88
330.43	98.88
330.658	102.88
330.887	127.88
331.115	128.88
331.344	97.88
331.572	105.88
331.801	93.88
332.03	99.88
332.258	95.88
332.486	107.88
332.715	82.88
332.943	92.88
333.172	89.88
333.4	88.88
333.629	91.88
333.857	100.88
334.085	90.88
334.314	99.88
334.542	91.88
334.771	98.88
334.999	102.88
335.227	87.88
335.455	88.88
335.684	88.88
335.912	95.88
336.14	103.88
336.369	86.88
336.597	99.88
336.825	97.88
337.053	99.88
337.281	81.88
337.51	85.88
337.738	85.88
337.966	94.88
338.194	75.88
338.422	98.88
338.65	94.88
338.878	101.88
339.106	77.88
339.334	79.88
339.562	101.88
339.79	95.88
340.018	96.88
340.246	82.88
340.474	92.88
340.702	92.88
340.93	108.88
341.158	105.88
341.386	97.88
341.614	102.88
341.842	91.88
342.07	93.88
342.298	71.88
342.526	82.88
342.754	89.88
342.981	73.88
343.209	95.88
343.437	115.88
343.665	80.88
343.893	82.88
344.12	83.88
344.348	89.88
344.576	80.88
344.804	86.88
345.031	83.88
345.259	83.88
345.487	94.88
345.714	85.88
345.942	103.88
346.17	90.88
346.397	86.88
346.625	90.88
346.853	90.88
347.08	91.88
347.308	92.88
347.535	115.88
347.763	106.88
347.99	100.88
348.218	98.88
348.445	99.88
348.673	99.88
348.9	95.88
349.128	83.88
349.355	87.88
349.583	77.88
349.81	104.88
350.037	100.88
350.265	84.88
350.492	93.88
350.72	75.88
350.947	95.88
351.174	104.88
351.402	111.88
351.629	101.88
351.856	99.88
352.083	97.88
352.311	92.88
352.538	93.88
352.765	96.88
352.992	96.88
353.22	92.88
353.447	95.88
353.674	93.88
353.901	104.88
354.128	109.88
354.355	95.88
354.583	82.88
354.81	98.88
355.037	85.88
355.264	103.88
355.491	94.88
355.718	80.88
355.945	79.88
356.172	96.88
356.399	99.88
356.626	103.88
356.853	96.88
357.08	95.88
357.307	98.88
357.534	91.88
357.761	77.88
357.988	92.88
358.215	97.88
358.441	81.88
358.668	79.88
358.895	89.88
359.122	87.88
359.349	86.88
359.576	92.88
359.802	104.88
360.029	107.88
360.256	107.88
360.483	84.88
360.709	96.88
360.936	89.88
361.163	81.88
361.39	104.88
361.616	97.88
361.843	66.88
362.07	92.88
362.296	88.88
362.523	97.88
362.749	85.88
362.976	78.88
363.203	81.88
363.429	91.88
363.656	75.88
363.882	67.88
364.109	96.88
364.335	86.88
364.562	88.88
364.788	94.88
365.015	100.88
365.241	84.88
365.468	105.88
365.694	88.88
365.92	90.88
366.147	89.88
366.373	84.88
366.599	78.88
366.826	65.88
367.052	91.88
367.278	79.88
367.505	98.88
367.731	75.88
367.957	90.88
368.184	90.88
368.41	91.88
368.636	106.88
368.862	106.88
369.089	109.88
369.315	90.88
369.541	85.88
369.767	73.88
369.993	77.88
370.219	90.88
370.445	76.88
370.672	84.88
370.898	85.88
371.124	89.88
371.35	82.88
371.576	82.88
371.802	86.88
372.028	90.88
372.254	85.88
372.48	86.88
372.706	92.88
372.932	74.88
373.158	85.88
373.384	90.88
373.61	79.88
373.835	88.88
374.061	85.88
374.287	73.88
374.513	89.88
374.739	80.88
374.965	80.88
375.191	85.88
375.416	86.88
375.642	99.88
375.868	95.88
376.094	91.88
376.319	89.88
376.545	83.88
376.771	75.88
376.997	89.88
377.222	87.88
377.448	95.88
377.674	92.88
377.899	91.88
378.125	84.88
378.35	84.88
378.576	80.88
378.802	97.88
379.027	95.88
379.253	99.88
379.478	88.88
379.704	90.88
379.929	83.88
380.155	89.88
380.38	83.88
380.606	90.88
380.831	86.88
381.057	88.88
381.282	89.88
381.507	84.88
381.733	88.88
381.958	80.88
382.184	87.88
382.409	92.88
382.634	80.88
382.86	89.88
383.085	96.88
383.31	98.88
383.535	96.88
383.761	95.88
383.986	94.88
384.211	91.88
384.436	91.88
384.662	97.88
384.887	91.88
385.112	104.88
385.337	87.88
385.562	108.88
385.787	104.88
386.013	105.88
386.238	94.88
386.463	119.88
386.688	97.88
386.913	84.88
387.138	93.88
387.363	101.88
387.588	90.88
387.813	107.88
388.038	94.88
388.263	100.88
388.488	106.88
388.713	95.88
388.938	97.88
389.163	95.88
389.387	66.88
389.612	101.88
389.837	89.88
390.062	101.88
390.287	90.88
390.512	104.88
390.736	80.88
390.961	94.88
391.186	95.88
391.411	99.88
391.636	84.88
391.86	80.88
392.085	94.88
392.31	79.88
392.534	80.88
392.759	70.88
392.984	84.88
393.208	79.88
393.433	96.88
393.658	92.88
393.882	81.88
394.107	85.88
394.331	75.88
394.556	84.88
394.78	79.88
395.005	74.88
395.229	81.88
395.454	78.88
395.678	96.88
395.903	94.88
396.127	89.88
396.352	83.88
396.576	75.88
396.801	75.88
397.025	80.88
397.249	90.88
397.474	81.88
397.698	76.88
397.922	73.88
398.147	83.88
398.371	82.88
398.595	79.88
398.82	76.88
399.044	74.88
399.268	76.88
399.492	95.88
399.717	77.88
399.941	79.88
400.165	91.88
400.389	84.88
400.613	89.88
400.837	78.88
401.062	85.88
401.286	82.88
401.51	83.88
401.734	76.88
401.958	97.88
402.182	127.88
402.406	142.88
402.63	129.88
402.854	97.88
403.078	94.88
403.302	79.88
403.526	90.88
403.75	88.88
403.974	80.88
404.198	93.88
404.422	93.88
404.645	85.88
404.869	78.88
405.093	87.88
405.317	90.88
405.541	90.88
405.765	93.88
405.988	99.88
406.212	175.88
406.436	215.88
406.66	137.88
406.883	99.88
407.107	90.88
407.331	97.88
407.555	94.88
407.778	79.88
408.002	96.88
408.226	98.88
408.449	102.88
408.673	84.88
408.896	93.88
409.12	90.88
409.344	83.88
409.567	90.88
409.791	79.88
410.014	95.88
410.238	97.88
410.461	105.88
410.685	81.88
410.908	96.88
411.132	98.88
411.355	99.88
411.578	91.88
411.802	90.88
412.025	72.88
412.249	83.88
412.472	101.88
412.695	77.88
412.919	84.88
413.142	88.88
413.365	89.88
413.589	94.88
413.812	77.88
414.035	84.88
414.258	99.88
414.482	90.88
414.705	100.88
414.928	71.88
415.151	80.88
415.374	105.88
415.597	75.88
415.821	81.88
416.044	84.88
416.267	84.88
416.49	78.88
416.713	86.88
416.936	90.88
417.159	84.88
417.382	89.88
417.605	74.88
417.828	90.88
418.051	80.88
418.274	91.88
418.497	78.88
418.72	84.88
418.943	88.88
419.166	90.88
419.389	68.88
419.611	76.88
419.834	76.88
420.057	98.88
420.28	71.88
420.503	80.88
420.726	92.88
420.948	79.88
421.171	85.88
421.394	79.88
421.617	75.88
421.839	90.88
422.062	90.88
422.285	72.88
422.507	89.88
422.73	103.88
422.953	75.88
423.175	88.88
423.398	87.88
423.621	91.88
423.843	92.88
424.066	92.88
424.288	88.88
424.511	85.88
424.733	91.88
424.956	88.88
425.178	104.88
425.401	98.88
425.623	100.88
425.846	84.88
426.068	94.88
426.291	87.88
426.513	86.88
426.735	93.88
426.958	82.88
427.18	108.88
427.402	124.88
427.625	156.88
427.847	127.88
428.069	104.88
428.292	74.88
428.514	91.88
428.736	75.88
428.958	82.88
429.181	84.88
429.403	83.88
429.625	85.88
429.847	83.88
430.069	107.88
430.292	94.88
430.514	84.88
430.736	73.88
430.958	89.88
431.18	89.88
431.402	83.88
431.624	93.88
431.846	83.88
432.068	85.88
432.29	87.88
432.512	88.88
432.734	95.88
432.956	90.88
433.178	101.88
433.4	98.88
433.622	98.88
433.844	74.88
434.066	96.88
434.287	76.88
434.509	91.88
434.731	104.88
434.953	86.88
435.175	85.88
435.397	83.88
435.618	92.88
435.84	103.88
436.062	114.88
436.284	91.88
436.505	100.88
436.727	99.88
436.949	92.88
437.17	90.88
437.392	91.88
437.614	91.88
437.835	98.88
438.057	105.88
438.278	101.88
438.5	107.88
438.721	103.88
438.943	120.88
439.165	81.88
439.386	81.88
439.608	75.88
439.829	95.88
440.05	120.88
440.272	137.88
440.493	101.88
440.715	84.88
440.936	84.88
441.158	86.88
441.379	73.88
441.6	96.88
441.822	86.88
442.043	90.88
442.264	90.88
442.486	98.88
442.707	79.88
442.928	86.88
443.149	109.88
443.371	127.88
443.592	114.88
443.813	104.88
444.034	85.88
444.255	71.88
444.476	96.88
444.698	83.88
444.919	70.88
445.14	120.88
445.361	116.88
445.582	114.88
445.803	110.88
446.024	138.88
446.245	124.88
446.466	104.88
446.687	86.88
446.908	78.88
447.129	91.88
447.35	90.88
447.571	85.88
447.792	90.88
448.013	91.88
448.234	103.88
448.455	100.88
448.675	101.88
448.896	103.88
449.117	100.88
449.338	101.88
449.559	114.88
449.779	124.88
450	93.88
450.221	98.88
450.442	91.88
450.662	92.88
450.883	103.88
451.104	102.88
451.324	102.88
451.545	93.88
451.766	94.88
451.986	82.88
452.207	80.88
452.428	98.88
452.648	105.88
452.869	97.88
453.089	112.88
453.31	114.88
453.53	91.88
453.751	92.88
453.971	99.88
454.192	104.88
454.412	89.88
454.633	87.88
454.853	77.88
455.073	89.88
455.294	84.88
455.514	92.88
455.734	87.88
455.955	93.88
456.175	79.88
456.395	84.88
456.616	97.88
456.836	94.88
457.056	88.88
457.276	75.88
457.497	73.88
457.717	77.88
457.937	83.88
458.157	71.88
458.377	86.88
458.598	103.88
458.818	143.88
459.038	137.88
459.258	98.88
459.478	75.88
459.698	80.88
459.918	91.88
460.138	92.88
460.358	83.88
460.578	91.88
460.798	83.88
461.018	87.88
461.238	83.88
461.458	81.88
461.678	80.88
461.898	73.88
462.118	94.88
462.338	80.88
462.558	67.88
462.777	86.88
462.997	74.88
463.217	85.88
463.437	95.88
463.657	75.88
463.876	85.88
464.096	100.88
464.316	90.88
464.536	83.88
464.755	96.88
464.975	92.88
465.195	138.88
465.414	135.88
465.634	96.88
465.854	76.88
466.073	91.88
466.293	83.88
466.512	79.88
466.732	84.88
466.951	89.88
467.171	83.88
467.391	90.88
467.61	107.88
467.829	94.88
468.049	77.88
468.268	71.88
468.488	72.88
468.707	85.88
468.927	84.88
469.146	81.88
469.365	96.88
469.585	89.88
469.804	96.88
470.023	77.88
470.243	80.88
470.462	77.88
470.681	103.88
470.901	86.88
471.12	95.88
471.339	59.88
471.558	77.88
471.777	88.88
471.997	78.88
472.216	81.88
472.435	80.88
472.654	75.88
472.873	88.88
473.092	89.88
473.311	81.88
473.53	85.88
473.749	89.88
473.968	89.88
474.187	98.88
474.406	94.88
474.625	85.88
474.844	103.88
475.063	91.88
475.282	95.88
475.501	90.88
475.72	104.88
475.939	91.88
476.158	85.88
476.377	99.88
476.596	97.88
476.814	86.88
477.033	88.88
477.252	77.88
477.471	90.88
477.69	86.88
477.908	68.88
478.127	89.88
478.346	87.88
478.564	84.88
478.783	96.88
479.002	91.88
479.22	90.88
479.439	93.88
479.658	112.88
479.876	89.88
480.095	80.88
480.313	96.88
480.532	96.88
480.751	90.88
480.969	89.88
481.188	95.88
481.406	92.88
481.624	88.88
481.843	75.88
482.061	72.88
482.28	84.88
482.498	80.88
482.717	97.88
482.935	80.88
483.153	95.88
483.372	80.88
483.59	87.88
483.808	93.88
484.027	92.88
484.245	80.88
484.463	89.88
484.681	91.88
484.9	87.88
485.118	88.88
485.336	96.88
485.554	101.88
485.772	100.88
485.99	95.88
486.209	92.88
486.427	97.88
486.645	112.88
486.863	102.88
487.081	90.88
487.299	75.88
487.517	99.88
487.735	98.88
487.953	102.88
488.171	83.88
488.389	79.88
488.607	76.88
488.825	77.88
489.043	82.88
489.261	85.88
489.479	82.88
489.696	87.88
489.914	78.88
490.132	85.88
490.35	96.88
490.568	87.88
490.786	95.88
491.003	79.88
491.221	85.88
491.439	83.88
491.657	83.88
491.874	84.88
492.092	87.88
492.31	88.88
492.527	95.88
492.745	72.88
492.963	91.88
493.18	87.88
493.398	91.88
493.615	89.88
493.833	98.88
494.05	104.88
494.268	79.88
494.485	90.88
494.703	91.88
494.92	89.88
495.138	95.88
495.355	104.88
495.573	93.88
495.79	84.88
496.008	86.88
496.225	96.88
496.442	87.88
496.66	78.88
496.877	84.88
497.094	91.88
497.312	108.88
497.529	93.88
497.746	101.88
497.963	97.88
498.181	101.88
498.398	96.88
498.615	104.88
498.832	103.88
499.049	94.88
499.267	85.88
499.484	81.88
499.701	92.88
499.918	85.88
500.135	95.88
500.352	87.88
500.569	79.88
500.786	73.88
501.003	89.88
501.22	88.88
501.437	103.88
501.654	93.88
501.871	104.88
502.088	82.88
502.305	83.88
502.522	76.88
502.739	87.88
502.956	87.88
503.172	96.88
503.389	88.88
503.606	99.88
503.823	98.88
504.04	112.88
504.256	79.88
504.473	72.88
504.69	92.88
504.907	93.88
505.123	80.88
505.34	88.88
505.557	87.88
505.773	82.88
505.99	81.88
506.207	90.88
506.423	100.88
506.64	92.88
506.856	88.88
507.073	84.88
507.289	95.88
507.506	92.88
507.722	120.88
507.939	110.88
508.155	95.88
508.372	90.88
508.588	97.88
508.805	100.88
509.021	100.88
509.238	106.88
509.454	100.88
509.67	100.88
509.887	106.88
510.103	131.88
510.319	226.88
510.536	752.88
510.752	2419.88
510.968	688.88
511.184	151.88
511.401	106.88
511.617	99.88
511.833	106.88
512.049	89.88
512.265	99.88
512.481	85.88
512.698	92.88
512.914	93.88
513.13	93.88
513.346	88.88
513.562	98.88
513.778	84.88
513.994	85.88
514.21	125.88
514.426	119.88
514.642	120.88
514.858	134.88
515.074	164.88
515.29	464.88
515.506	1476.88
515.721	564.88
515.937	152.88
516.153	109.88
516.369	111.88
516.585	97.88
516.801	101.88
