Data from Uncirc_2006_H10_HRD10591_00079.txt Node
Date: Wed Jan 03 10:25:10 EST 2024
User: Yrep
Spectrometer: HR+D1059
Trigger mode: 1
Integration Time (sec): 1.000000E-1
Scans to average: 1
Electric dark correction enabled: true
Nonlinearity correction enabled: false
Boxcar width: 0
XAxis mode: Wavelengths
Number of Pixels in Spectrum: 2048
>>>>>Begin Spectral Data<<<<<
223.165	-25.62
223.4	-25.62
223.635	-25.62
223.869	-11.62
224.104	-23.62
224.338	-4.62
224.573	-9.62
224.808	-13.62
225.042	-1.62
225.277	-5.62
225.511	-8.62
225.746	-2.62
225.98	4.38
226.215	16.38
226.449	10.38
226.683	8.38
226.918	37.38
227.152	30.38
227.387	32.38
227.621	47.38
227.856	47.38
228.09	46.38
228.324	44.38
228.559	61.38
228.793	54.38
229.027	51.38
229.262	59.38
229.496	75.38
229.73	67.38
229.964	83.38
230.199	67.38
230.433	92.38
230.667	85.38
230.901	78.38
231.136	83.38
231.37	91.38
231.604	94.38
231.838	100.38
232.072	82.38
232.306	63.38
232.541	79.38
232.775	84.38
233.009	83.38
233.243	92.38
233.477	91.38
233.711	81.38
233.945	84.38
234.179	77.38
234.413	92.38
234.647	83.38
234.881	76.38
235.115	71.38
235.349	74.38
235.583	84.38
235.817	84.38
236.051	76.38
236.285	77.38
236.519	88.38
236.753	92.38
236.987	83.38
237.221	76.38
237.455	93.38
237.689	71.38
237.922	67.38
238.156	76.38
238.39	83.38
238.624	62.38
238.858	80.38
239.091	87.38
239.325	74.38
239.559	78.38
239.793	72.38
240.027	88.38
240.26	85.38
240.494	78.38
240.728	83.38
240.961	80.38
241.195	92.38
241.429	80.38
241.662	72.38
241.896	83.38
242.13	64.38
242.363	83.38
242.597	73.38
242.83	87.38
243.064	88.38
243.298	85.38
243.531	62.38
243.765	72.38
243.998	65.38
244.232	82.38
244.465	72.38
244.699	87.38
244.932	72.38
245.166	84.38
245.399	86.38
245.633	83.38
245.866	79.38
246.099	72.38
246.333	82.38
246.566	85.38
246.8	94.38
247.033	81.38
247.266	87.38
247.5	70.38
247.733	87.38
247.966	79.38
248.2	87.38
248.433	94.38
248.666	84.38
248.899	96.38
249.133	85.38
249.366	99.38
249.599	96.38
249.832	85.38
250.066	96.38
250.299	94.38
250.532	83.38
250.765	69.38
250.998	69.38
251.231	84.38
251.465	74.38
251.698	81.38
251.931	78.38
252.164	76.38
252.397	79.38
252.63	85.38
252.863	68.38
253.096	78.38
253.329	87.38
253.562	75.38
253.795	80.38
254.028	73.38
254.261	82.38
254.494	83.38
254.727	85.38
254.96	100.38
255.193	85.38
255.426	84.38
255.659	97.38
255.892	78.38
256.124	89.38
256.357	78.38
256.59	76.38
256.823	91.38
257.056	86.38
257.289	81.38
257.521	82.38
257.754	85.38
257.987	74.38
258.22	79.38
258.452	84.38
258.685	95.38
258.918	92.38
259.151	87.38
259.383	83.38
259.616	84.38
259.849	85.38
260.081	84.38
260.314	80.38
260.547	88.38
260.779	80.38
261.012	86.38
261.244	86.38
261.477	85.38
261.71	94.38
261.942	108.38
262.175	112.38
262.407	95.38
262.64	86.38
262.872	88.38
263.105	102.38
263.337	78.38
263.57	71.38
263.802	89.38
264.035	85.38
264.267	75.38
264.499	90.38
264.732	86.38
264.964	78.38
265.197	78.38
265.429	83.38
265.661	81.38
265.894	77.38
266.126	100.38
266.358	87.38
266.591	88.38
266.823	91.38
267.055	87.38
267.287	81.38
267.52	80.38
267.752	78.38
267.984	89.38
268.216	78.38
268.448	81.38
268.681	85.38
268.913	77.38
269.145	83.38
269.377	74.38
269.609	87.38
269.841	73.38
270.073	83.38
270.306	87.38
270.538	89.38
270.77	84.38
271.002	85.38
271.234	89.38
271.466	95.38
271.698	93.38
271.93	76.38
272.162	92.38
272.394	97.38
272.626	84.38
272.858	91.38
273.09	92.38
273.322	97.38
273.553	81.38
273.785	78.38
274.017	62.38
274.249	90.38
274.481	75.38
274.713	86.38
274.945	87.38
275.176	71.38
275.408	90.38
275.64	87.38
275.872	72.38
276.104	84.38
276.335	87.38
276.567	87.38
276.799	114.38
277.031	97.38
277.262	80.38
277.494	93.38
277.726	86.38
277.957	93.38
278.189	93.38
278.421	82.38
278.652	93.38
278.884	96.38
279.115	82.38
279.347	81.38
279.579	94.38
279.81	94.38
280.042	93.38
280.273	81.38
280.505	78.38
280.736	84.38
280.968	79.38
281.199	85.38
281.431	88.38
281.662	85.38
281.894	100.38
282.125	101.38
282.356	120.38
282.588	131.38
282.819	119.38
283.051	93.38
283.282	101.38
283.513	93.38
283.745	89.38
283.976	82.38
284.207	88.38
284.439	96.38
284.67	75.38
284.901	79.38
285.132	89.38
285.364	89.38
285.595	80.38
285.826	73.38
286.057	95.38
286.288	83.38
286.52	84.38
286.751	84.38
286.982	87.38
287.213	82.38
287.444	88.38
287.675	89.38
287.906	81.38
288.138	90.38
288.369	95.38
288.6	99.38
288.831	95.38
289.062	75.38
289.293	89.38
289.524	75.38
289.755	81.38
289.986	80.38
290.217	106.38
290.448	95.38
290.679	99.38
290.91	91.38
291.141	80.38
291.371	84.38
291.602	89.38
291.833	85.38
292.064	86.38
292.295	84.38
292.526	85.38
292.757	87.38
292.987	94.38
293.218	76.38
293.449	88.38
293.68	87.38
293.91	88.38
294.141	97.38
294.372	95.38
294.603	101.38
294.833	96.38
295.064	86.38
295.295	93.38
295.525	101.38
295.756	115.38
295.987	132.38
296.217	139.38
296.448	104.38
296.679	79.38
296.909	90.38
297.14	72.38
297.37	75.38
297.601	89.38
297.831	96.38
298.062	86.38
298.292	82.38
298.523	77.38
298.753	101.38
298.984	85.38
299.214	96.38
299.445	84.38
299.675	101.38
299.905	94.38
300.136	104.38
300.366	85.38
300.597	89.38
300.827	100.38
301.057	111.38
301.288	93.38
301.518	94.38
301.748	82.38
301.979	99.38
302.209	79.38
302.439	94.38
302.669	99.38
302.9	96.38
303.13	82.38
303.36	96.38
303.59	99.38
303.82	104.38
304.051	92.38
304.281	99.38
304.511	94.38
304.741	79.38
304.971	95.38
305.201	86.38
305.431	91.38
305.661	98.38
305.891	108.38
306.121	99.38
306.352	100.38
306.582	101.38
306.812	96.38
307.042	83.38
307.272	90.38
307.502	73.38
307.731	97.38
307.961	87.38
308.191	90.38
308.421	112.38
308.651	88.38
308.881	94.38
309.111	96.38
309.341	89.38
309.571	106.38
309.8	93.38
310.03	95.38
310.26	92.38
310.49	88.38
310.72	104.38
310.949	96.38
311.179	105.38
311.409	91.38
311.639	86.38
311.868	89.38
312.098	84.38
312.328	84.38
312.557	87.38
312.787	102.38
313.017	106.38
313.246	94.38
313.476	99.38
313.706	87.38
313.935	89.38
314.165	105.38
314.394	102.38
314.624	93.38
314.853	97.38
315.083	102.38
315.312	95.38
315.542	103.38
315.771	104.38
316.001	100.38
316.23	99.38
316.46	91.38
316.689	84.38
316.919	95.38
317.148	87.38
317.377	86.38
317.607	98.38
317.836	89.38
318.065	87.38
318.295	88.38
318.524	92.38
318.753	81.38
318.983	96.38
319.212	108.38
319.441	116.38
319.67	91.38
319.9	103.38
320.129	92.38
320.358	86.38
320.587	108.38
320.816	91.38
321.046	99.38
321.275	94.38
321.504	105.38
321.733	76.38
321.962	92.38
322.191	87.38
322.42	113.38
322.649	102.38
322.878	121.38
323.108	103.38
323.337	124.38
323.566	125.38
323.795	147.38
324.024	207.38
324.253	385.38
324.482	851.38
324.71	1706.38
324.939	2225.38
325.168	806.38
325.397	234.38
325.626	155.38
325.855	126.38
326.084	137.38
326.313	145.38
326.542	158.38
326.77	228.38
326.999	489.38
327.228	948.38
327.457	1770.38
327.686	1385.38
327.914	387.38
328.143	195.38
328.372	139.38
328.6	119.38
328.829	124.38
329.058	126.38
329.287	121.38
329.515	121.38
329.744	95.38
329.972	97.38
330.201	92.38
330.43	110.38
330.658	126.38
330.887	116.38
331.115	113.38
331.344	99.38
331.572	102.38
331.801	104.38
332.03	121.38
332.258	86.38
332.486	104.38
332.715	94.38
332.943	100.38
333.172	92.38
333.4	92.38
333.629	104.38
333.857	104.38
334.085	110.38
334.314	100.38
334.542	100.38
334.771	94.38
334.999	91.38
335.227	91.38
335.455	99.38
335.684	96.38
335.912	104.38
336.14	96.38
336.369	102.38
336.597	95.38
336.825	115.38
337.053	97.38
337.281	89.38
337.51	87.38
337.738	110.38
337.966	99.38
338.194	88.38
338.422	105.38
338.65	88.38
338.878	87.38
339.106	91.38
339.334	77.38
339.562	102.38
339.79	81.38
340.018	90.38
340.246	102.38
340.474	86.38
340.702	112.38
340.93	90.38
341.158	94.38
341.386	100.38
341.614	99.38
341.842	96.38
342.07	97.38
342.298	96.38
342.526	100.38
342.754	97.38
342.981	89.38
343.209	96.38
343.437	95.38
343.665	97.38
343.893	100.38
344.12	113.38
344.348	90.38
344.576	93.38
344.804	89.38
345.031	99.38
345.259	90.38
345.487	85.38
345.714	91.38
345.942	102.38
346.17	99.38
346.397	88.38
346.625	87.38
346.853	102.38
347.08	96.38
347.308	82.38
347.535	90.38
347.763	111.38
347.99	117.38
348.218	99.38
348.445	97.38
348.673	94.38
348.9	86.38
349.128	95.38
349.355	94.38
349.583	95.38
349.81	88.38
350.037	93.38
350.265	103.38
350.492	102.38
350.72	90.38
350.947	94.38
351.174	115.38
351.402	107.38
351.629	106.38
351.856	98.38
352.083	101.38
352.311	111.38
352.538	91.38
352.765	104.38
352.992	115.38
353.22	107.38
353.447	106.38
353.674	109.38
353.901	105.38
354.128	97.38
354.355	88.38
354.583	102.38
354.81	96.38
355.037	93.38
355.264	93.38
355.491	114.38
355.718	89.38
355.945	83.38
356.172	113.38
356.399	105.38
356.626	98.38
356.853	94.38
357.08	108.38
357.307	96.38
357.534	99.38
357.761	90.38
357.988	104.38
358.215	113.38
358.441	89.38
358.668	93.38
358.895	91.38
359.122	95.38
359.349	107.38
359.576	102.38
359.802	100.38
360.029	103.38
360.256	110.38
360.483	103.38
360.709	80.38
360.936	93.38
361.163	87.38
361.39	103.38
361.616	91.38
361.843	77.38
362.07	87.38
362.296	100.38
362.523	95.38
362.749	96.38
362.976	86.38
363.203	91.38
363.429	93.38
363.656	91.38
363.882	91.38
364.109	85.38
364.335	99.38
364.562	80.38
364.788	84.38
365.015	110.38
365.241	100.38
365.468	109.38
365.694	105.38
365.92	100.38
366.147	89.38
366.373	92.38
366.599	100.38
366.826	115.38
367.052	90.38
367.278	107.38
367.505	96.38
367.731	87.38
367.957	101.38
368.184	96.38
368.41	87.38
368.636	104.38
368.862	113.38
369.089	100.38
369.315	96.38
369.541	85.38
369.767	93.38
369.993	100.38
370.219	100.38
370.445	90.38
370.672	97.38
370.898	88.38
371.124	84.38
371.35	92.38
371.576	95.38
371.802	93.38
372.028	98.38
372.254	92.38
372.48	76.38
372.706	79.38
372.932	102.38
373.158	88.38
373.384	92.38
373.61	89.38
373.835	89.38
374.061	86.38
374.287	95.38
374.513	93.38
374.739	103.38
374.965	92.38
375.191	95.38
375.416	92.38
375.642	87.38
375.868	81.38
376.094	93.38
376.319	84.38
376.545	96.38
376.771	94.38
376.997	98.38
377.222	94.38
377.448	84.38
377.674	96.38
377.899	103.38
378.125	81.38
378.35	89.38
378.576	103.38
378.802	95.38
379.027	92.38
379.253	88.38
379.478	99.38
379.704	96.38
379.929	96.38
380.155	74.38
380.38	91.38
380.606	97.38
380.831	86.38
381.057	91.38
381.282	95.38
381.507	95.38
381.733	85.38
381.958	92.38
382.184	125.38
382.409	91.38
382.634	96.38
382.86	108.38
383.085	87.38
383.31	109.38
383.535	107.38
383.761	96.38
383.986	100.38
384.211	107.38
384.436	94.38
384.662	113.38
384.887	81.38
385.112	111.38
385.337	108.38
385.562	94.38
385.787	106.38
386.013	107.38
386.238	107.38
386.463	100.38
386.688	118.38
386.913	104.38
387.138	107.38
387.363	109.38
387.588	103.38
387.813	113.38
388.038	109.38
388.263	104.38
388.488	106.38
388.713	91.38
388.938	85.38
389.163	82.38
389.387	98.38
389.612	86.38
389.837	96.38
390.062	86.38
390.287	78.38
390.512	95.38
390.736	95.38
390.961	87.38
391.186	83.38
391.411	91.38
391.636	92.38
391.86	81.38
392.085	86.38
392.31	90.38
392.534	79.38
392.759	82.38
392.984	95.38
393.208	82.38
393.433	92.38
393.658	89.38
393.882	72.38
394.107	75.38
394.331	84.38
394.556	86.38
394.78	92.38
395.005	100.38
395.229	70.38
395.454	99.38
395.678	87.38
395.903	81.38
396.127	76.38
396.352	89.38
396.576	82.38
396.801	100.38
397.025	104.38
397.249	86.38
397.474	107.38
397.698	90.38
397.922	86.38
398.147	79.38
398.371	89.38
398.595	97.38
398.82	82.38
399.044	80.38
399.268	84.38
399.492	92.38
399.717	82.38
399.941	94.38
400.165	88.38
400.389	95.38
400.613	91.38
400.837	80.38
401.062	96.38
401.286	82.38
401.51	88.38
401.734	75.38
401.958	93.38
402.182	107.38
402.406	159.38
402.63	112.38
402.854	89.38
403.078	81.38
403.302	85.38
403.526	77.38
403.75	86.38
403.974	81.38
404.198	93.38
404.422	91.38
404.645	93.38
404.869	96.38
405.093	98.38
405.317	89.38
405.541	104.38
405.765	101.38
405.988	114.38
406.212	163.38
406.436	206.38
406.66	145.38
406.883	86.38
407.107	85.38
407.331	107.38
407.555	88.38
407.778	104.38
408.002	96.38
408.226	85.38
408.449	81.38
408.673	84.38
408.896	93.38
409.12	96.38
409.344	88.38
409.567	79.38
409.791	108.38
410.014	98.38
410.238	81.38
410.461	99.38
410.685	95.38
410.908	103.38
411.132	102.38
411.355	96.38
411.578	96.38
411.802	85.38
412.025	109.38
412.249	100.38
412.472	82.38
412.695	86.38
412.919	88.38
413.142	88.38
413.365	88.38
413.589	77.38
413.812	92.38
414.035	100.38
414.258	93.38
414.482	83.38
414.705	79.38
414.928	92.38
415.151	84.38
415.374	90.38
415.597	93.38
415.821	94.38
416.044	83.38
416.267	101.38
416.49	82.38
416.713	92.38
416.936	92.38
417.159	84.38
417.382	95.38
417.605	94.38
417.828	96.38
418.051	88.38
418.274	84.38
418.497	95.38
418.72	71.38
418.943	90.38
419.166	93.38
419.389	85.38
419.611	104.38
419.834	85.38
420.057	86.38
420.28	97.38
420.503	102.38
420.726	84.38
420.948	86.38
421.171	84.38
421.394	109.38
421.617	95.38
421.839	110.38
422.062	96.38
422.285	97.38
422.507	96.38
422.73	107.38
422.953	81.38
423.175	110.38
423.398	82.38
423.621	79.38
423.843	89.38
424.066	75.38
424.288	95.38
424.511	95.38
424.733	87.38
424.956	113.38
425.178	97.38
425.401	109.38
425.623	99.38
425.846	105.38
426.068	103.38
426.291	92.38
426.513	91.38
426.735	76.38
426.958	92.38
427.18	109.38
427.402	131.38
427.625	155.38
427.847	133.38
428.069	102.38
428.292	75.38
428.514	107.38
428.736	80.38
428.958	81.38
429.181	99.38
429.403	93.38
429.625	85.38
429.847	83.38
430.069	108.38
430.292	104.38
430.514	93.38
430.736	96.38
430.958	94.38
431.18	82.38
431.402	81.38
431.624	101.38
431.846	85.38
432.068	84.38
432.29	84.38
432.512	82.38
432.734	86.38
432.956	80.38
433.178	94.38
433.4	92.38
433.622	104.38
433.844	92.38
434.066	92.38
434.287	91.38
434.509	87.38
434.731	84.38
434.953	86.38
435.175	83.38
435.397	86.38
435.618	115.38
435.84	97.38
436.062	116.38
436.284	92.38
436.505	110.38
436.727	103.38
436.949	91.38
437.17	96.38
437.392	85.38
437.614	82.38
437.835	96.38
438.057	108.38
438.278	110.38
438.5	105.38
438.721	118.38
438.943	96.38
439.165	85.38
439.386	108.38
439.608	94.38
439.829	98.38
440.05	116.38
440.272	128.38
440.493	88.38
440.715	98.38
440.936	70.38
441.158	103.38
441.379	95.38
441.6	92.38
441.822	104.38
442.043	92.38
442.264	93.38
442.486	109.38
442.707	88.38
442.928	106.38
443.149	127.38
443.371	123.38
443.592	118.38
443.813	109.38
444.034	100.38
444.255	92.38
444.476	82.38
444.698	86.38
444.919	90.38
445.14	109.38
445.361	115.38
445.582	118.38
445.803	117.38
446.024	110.38
446.245	130.38
446.466	116.38
446.687	94.38
446.908	88.38
447.129	96.38
447.35	97.38
447.571	75.38
447.792	87.38
448.013	106.38
448.234	101.38
448.455	106.38
448.675	122.38
448.896	114.38
449.117	107.38
449.338	98.38
449.559	134.38
449.779	129.38
450	89.38
450.221	82.38
450.442	96.38
450.662	98.38
450.883	106.38
451.104	96.38
451.324	106.38
451.545	82.38
451.766	87.38
451.986	98.38
452.207	84.38
452.428	87.38
452.648	94.38
452.869	117.38
453.089	111.38
453.31	118.38
453.53	99.38
453.751	90.38
453.971	89.38
454.192	104.38
454.412	97.38
454.633	90.38
454.853	86.38
455.073	96.38
455.294	85.38
455.514	95.38
455.734	87.38
455.955	95.38
456.175	86.38
456.395	93.38
456.616	89.38
456.836	97.38
457.056	101.38
457.276	83.38
457.497	89.38
457.717	83.38
457.937	85.38
458.157	91.38
458.377	98.38
458.598	108.38
458.818	139.38
459.038	143.38
459.258	105.38
459.478	84.38
459.698	84.38
459.918	97.38
460.138	84.38
460.358	78.38
460.578	88.38
460.798	85.38
461.018	94.38
461.238	98.38
461.458	104.38
461.678	86.38
461.898	94.38
462.118	103.38
462.338	91.38
462.558	78.38
462.777	97.38
462.997	95.38
463.217	77.38
463.437	74.38
463.657	76.38
463.876	94.38
464.096	91.38
464.316	111.38
464.536	99.38
464.755	98.38
464.975	96.38
465.195	147.38
465.414	139.38
465.634	92.38
465.854	85.38
466.073	88.38
466.293	100.38
466.512	93.38
466.732	85.38
466.951	86.38
467.171	106.38
467.391	87.38
467.61	99.38
467.829	104.38
468.049	94.38
468.268	100.38
468.488	88.38
468.707	90.38
468.927	88.38
469.146	88.38
469.365	100.38
469.585	99.38
469.804	97.38
470.023	87.38
470.243	103.38
470.462	97.38
470.681	100.38
470.901	92.38
471.12	98.38
471.339	89.38
471.558	77.38
471.777	97.38
471.997	97.38
472.216	87.38
472.435	86.38
472.654	75.38
472.873	86.38
473.092	93.38
473.311	93.38
473.53	86.38
473.749	84.38
473.968	95.38
474.187	109.38
474.406	82.38
474.625	84.38
474.844	75.38
475.063	83.38
475.282	71.38
475.501	76.38
475.72	84.38
475.939	80.38
476.158	96.38
476.377	93.38
476.596	82.38
476.814	95.38
477.033	88.38
477.252	78.38
477.471	67.38
477.69	71.38
477.908	95.38
478.127	94.38
478.346	89.38
478.564	93.38
478.783	80.38
479.002	102.38
479.22	89.38
479.439	97.38
479.658	99.38
479.876	97.38
480.095	97.38
480.313	93.38
480.532	81.38
480.751	88.38
480.969	85.38
481.188	100.38
481.406	106.38
481.624	97.38
481.843	89.38
482.061	85.38
482.28	89.38
482.498	95.38
482.717	98.38
482.935	85.38
483.153	99.38
483.372	95.38
483.59	93.38
483.808	98.38
484.027	84.38
484.245	85.38
484.463	87.38
484.681	109.38
484.9	94.38
485.118	97.38
485.336	101.38
485.554	80.38
485.772	94.38
485.99	109.38
486.209	100.38
486.427	114.38
486.645	108.38
486.863	109.38
487.081	100.38
487.299	95.38
487.517	118.38
487.735	98.38
487.953	88.38
488.171	86.38
488.389	106.38
488.607	94.38
488.825	88.38
489.043	85.38
489.261	87.38
489.479	88.38
489.696	84.38
489.914	97.38
490.132	90.38
490.35	84.38
490.568	92.38
490.786	94.38
491.003	88.38
491.221	93.38
491.439	97.38
491.657	96.38
491.874	103.38
492.092	107.38
492.31	94.38
492.527	108.38
492.745	97.38
492.963	97.38
493.18	93.38
493.398	96.38
493.615	102.38
493.833	83.38
494.05	95.38
494.268	92.38
494.485	94.38
494.703	69.38
494.92	96.38
495.138	94.38
495.355	87.38
495.573	99.38
495.79	96.38
496.008	87.38
496.225	98.38
496.442	86.38
496.66	91.38
496.877	92.38
497.094	93.38
497.312	75.38
497.529	89.38
497.746	100.38
497.963	90.38
498.181	85.38
498.398	97.38
498.615	100.38
498.832	97.38
499.049	84.38
499.267	96.38
499.484	98.38
499.701	89.38
499.918	98.38
500.135	89.38
500.352	89.38
500.569	99.38
500.786	92.38
501.003	92.38
501.22	101.38
501.437	96.38
501.654	109.38
501.871	107.38
502.088	104.38
502.305	98.38
502.522	89.38
502.739	83.38
502.956	98.38
503.172	107.38
503.389	103.38
503.606	98.38
503.823	107.38
504.04	97.38
504.256	89.38
504.473	104.38
504.69	99.38
504.907	87.38
505.123	101.38
505.34	86.38
505.557	96.38
505.773	87.38
505.99	80.38
506.207	95.38
506.423	89.38
506.64	90.38
506.856	111.38
507.073	98.38
507.289	97.38
507.506	85.38
507.722	108.38
507.939	110.38
508.155	84.38
508.372	87.38
508.588	94.38
508.805	77.38
509.021	101.38
509.238	89.38
509.454	89.38
509.67	87.38
509.887	110.38
510.103	120.38
510.319	215.38
510.536	712.38
510.752	2219.38
510.968	628.38
511.184	158.38
511.401	104.38
511.617	112.38
511.833	99.38
512.049	84.38
512.265	92.38
512.481	101.38
512.698	102.38
512.914	100.38
513.13	91.38
513.346	108.38
513.562	86.38
513.778	93.38
513.994	93.38
514.21	107.38
514.426	113.38
514.642	139.38
514.858	118.38
515.074	163.38
515.29	422.38
