Data from Uncirc_2006_H10_HRD10591_00067.txt Node
Date: Wed Jan 03 10:25:08 EST 2024
User: Yrep
Spectrometer: HR+D1059
Trigger mode: 1
Integration Time (sec): 1.000000E-1
Scans to average: 1
Electric dark correction enabled: true
Nonlinearity correction enabled: false
Boxcar width: 0
XAxis mode: Wavelengths
Number of Pixels in Spectrum: 2048
>>>>>Begin Spectral Data<<<<<
223.165	-25.62
223.4	-25.62
223.635	-25.62
223.869	-12.62
224.104	-26.62
224.338	-15.62
224.573	-4.62
224.808	-3.62
225.042	-9.62
225.277	4.38
225.511	8.38
225.746	-0.62
225.98	-3.62
226.215	4.38
226.449	25.38
226.683	6.38
226.918	25.38
227.152	28.38
227.387	47.38
227.621	33.38
227.856	34.38
228.09	63.38
228.324	50.38
228.559	70.38
228.793	161.38
229.027	416.38
229.262	478.38
229.496	579.38
229.73	787.38
229.964	743.38
230.199	490.38
230.433	446.38
230.667	440.38
230.901	431.38
231.136	401.38
231.37	410.38
231.604	439.38
231.838	419.38
232.072	443.38
232.306	444.38
232.541	447.38
232.775	454.38
233.009	427.38
233.243	426.38
233.477	444.38
233.711	454.38
233.945	459.38
234.179	490.38
234.413	490.38
234.647	480.38
234.881	492.38
235.115	505.38
235.349	513.38
235.583	512.38
235.817	571.38
236.051	590.38
236.285	570.38
236.519	582.38
236.753	652.38
236.987	841.38
237.221	1267.38
237.455	1390.38
237.689	838.38
237.922	698.38
238.156	703.38
238.39	646.38
238.624	618.38
238.858	611.38
239.091	614.38
239.325	618.38
239.559	649.38
239.793	671.38
240.027	710.38
240.26	858.38
240.494	884.38
240.728	920.38
240.961	858.38
241.195	785.38
241.429	738.38
241.662	722.38
241.896	707.38
242.13	743.38
242.363	719.38
242.597	745.38
242.83	790.38
243.064	762.38
243.298	760.38
243.531	759.38
243.765	779.38
243.998	796.38
244.232	795.38
244.465	816.38
244.699	841.38
244.932	829.38
245.166	880.38
245.399	845.38
245.633	873.38
245.866	838.38
246.099	871.38
246.333	882.38
246.566	902.38
246.8	927.38
247.033	944.38
247.266	991.38
247.5	1025.38
247.733	1086.38
247.966	1086.38
248.2	1070.38
248.433	1087.38
248.666	1166.38
248.899	1240.38
249.133	1338.38
249.366	1356.38
249.599	1235.38
249.832	1136.38
250.066	1135.38
250.299	1181.38
250.532	1246.38
250.765	1419.38
250.998	1608.38
251.231	1564.38
251.465	1343.38
251.698	1332.38
251.931	1324.38
252.164	1321.38
252.397	1348.38
252.63	1354.38
252.863	1467.38
253.096	1577.38
253.329	1625.38
253.562	1576.38
253.795	1511.38
254.028	1483.38
254.261	1552.38
254.494	1727.38
254.727	2031.38
254.96	2106.38
255.193	1803.38
255.426	1616.38
255.659	1523.38
255.892	1485.38
256.124	1452.38
256.357	1431.38
256.59	1395.38
256.823	1367.38
257.056	1400.38
257.289	1422.38
257.521	1467.38
257.754	1407.38
257.987	1471.38
258.22	1439.38
258.452	1432.38
258.685	1482.38
258.918	1473.38
259.151	1552.38
259.383	1600.38
259.616	1625.38
259.849	1662.38
260.081	1855.38
260.314	1975.38
260.547	1911.38
260.779	1753.38
261.012	1679.38
261.244	1604.38
261.477	1601.38
261.71	1594.38
261.942	1615.38
262.175	1703.38
262.407	1629.38
262.64	1557.38
262.872	1567.38
263.105	1528.38
263.337	1580.38
263.57	1566.38
263.802	1615.38
264.035	1563.38
264.267	1585.38
264.499	1605.38
264.732	1610.38
264.964	1607.38
265.197	1583.38
265.429	1579.38
265.661	1639.38
265.894	1607.38
266.126	1664.38
266.358	1668.38
266.591	1695.38
266.823	1824.38
267.055	1718.38
267.287	1737.38
267.52	1730.38
267.752	1759.38
267.984	1763.38
268.216	1802.38
268.448	1832.38
268.681	1928.38
268.913	1994.38
269.145	2159.38
269.377	2260.38
269.609	2163.38
269.841	2145.38
270.073	2274.38
270.306	2489.38
270.538	2664.38
270.77	2540.38
271.002	2367.38
271.234	2339.38
271.466	2485.38
271.698	2588.38
271.93	2632.38
272.162	2603.38
272.394	2524.38
272.626	2408.38
272.858	2192.38
273.09	2182.38
273.322	2152.38
273.553	2105.38
273.785	2118.38
274.017	2140.38
274.249	2086.38
274.481	2086.38
274.713	2140.38
274.945	2160.38
275.176	2165.38
275.408	2172.38
275.64	2169.38
275.872	2134.38
276.104	2149.38
276.335	2166.38
276.567	2250.38
276.799	2392.38
277.031	2614.38
277.262	2686.38
277.494	2586.38
277.726	2410.38
277.957	2376.38
278.189	2319.38
278.421	2251.38
278.652	2241.38
278.884	2232.38
279.115	2232.38
279.347	2308.38
279.579	2235.38
279.81	2251.38
280.042	2272.38
280.273	2237.38
280.505	2277.38
280.736	2279.38
280.968	2263.38
281.199	2279.38
281.431	2329.38
281.662	2331.38
281.894	2394.38
282.125	2380.38
282.356	2540.38
282.588	2666.38
282.819	2508.38
283.051	2427.38
283.282	2396.38
283.513	2428.38
283.745	2549.38
283.976	2511.38
284.207	2502.38
284.439	2479.38
284.67	2493.38
284.901	2467.38
285.132	2479.38
285.364	2514.38
285.595	2541.38
285.826	2535.38
286.057	2509.38
286.288	2539.38
286.52	2539.38
286.751	2588.38
286.982	2570.38
287.213	2562.38
287.444	2587.38
287.675	2658.38
287.906	2721.38
288.138	2795.38
288.369	2845.38
288.6	2812.38
288.831	2771.38
289.062	2627.38
289.293	2717.38
289.524	2721.38
289.755	2685.38
289.986	2644.38
290.217	2674.38
290.448	2664.38
290.679	2655.38
290.91	2711.38
291.141	2698.38
291.371	2696.38
291.602	2667.38
291.833	2648.38
292.064	2696.38
292.295	2702.38
292.526	2703.38
292.757	2707.38
292.987	2704.38
293.218	2688.38
293.449	2763.38
293.68	2723.38
293.91	2718.38
294.141	2712.38
294.372	2719.38
294.603	2703.38
294.833	2785.38
295.064	2734.38
295.295	2790.38
295.525	2786.38
295.756	2851.38
295.987	2915.38
296.217	3048.38
296.448	2952.38
296.679	2804.38
296.909	2800.38
297.14	2853.38
297.37	2882.38
297.601	2920.38
297.831	2866.38
298.062	2906.38
298.292	2967.38
298.523	2955.38
298.753	3024.38
298.984	2961.38
299.214	2964.38
299.445	2991.38
299.675	2994.38
299.905	3001.38
300.136	2993.38
300.366	2966.38
300.597	3038.38
300.827	3092.38
301.057	3172.38
301.288	3267.38
301.518	3187.38
301.748	3155.38
301.979	3288.38
302.209	3224.38
302.439	3243.38
302.669	3155.38
302.9	3163.38
303.13	3165.38
303.36	3182.38
303.59	3201.38
303.82	3229.38
304.051	3220.38
304.281	3219.38
304.511	3139.38
304.741	3115.38
304.971	3188.38
305.201	3142.38
305.431	3171.38
305.661	3130.38
305.891	3092.38
306.121	3135.38
306.352	3210.38
306.582	3169.38
306.812	3044.38
307.042	3091.38
307.272	3146.38
307.502	3165.38
307.731	3165.38
307.961	3139.38
308.191	3129.38
308.421	3166.38
308.651	3132.38
308.881	3156.38
309.111	3168.38
309.341	3142.38
309.571	3261.38
309.8	3348.38
310.03	3433.38
310.26	3442.38
310.49	3372.38
310.72	3511.38
310.949	3578.38
311.179	3577.38
311.409	3530.38
311.639	3402.38
311.868	3439.38
312.098	3508.38
312.328	3524.38
312.557	3691.38
312.787	3753.38
313.017	3605.38
313.246	3608.38
313.476	3583.38
313.706	3604.38
313.935	3694.38
314.165	3738.38
314.394	3755.38
314.624	3726.38
314.853	3632.38
315.083	3656.38
315.312	3579.38
315.542	3581.38
315.771	3525.38
316.001	3482.38
316.23	3480.38
316.46	3508.38
316.689	3550.38
316.919	3565.38
317.148	3614.38
317.377	3595.38
317.607	3557.38
317.836	3506.38
318.065	3506.38
318.295	3537.38
318.524	3511.38
318.753	3502.38
318.983	3488.38
319.212	3522.38
319.441	3631.38
319.67	3573.38
319.9	3536.38
320.129	3551.38
320.358	3588.38
320.587	3613.38
320.816	3615.38
321.046	3663.38
321.275	3637.38
321.504	3681.38
321.733	3702.38
321.962	3730.38
322.191	3857.38
322.42	3914.38
322.649	3971.38
322.878	4081.38
323.108	4047.38
323.337	4275.38
323.566	4484.38
323.795	4730.38
324.024	5265.38
324.253	6862.38
324.482	10302.38
324.71	14823.38
324.939	15604.38
325.168	12070.38
325.397	6164.38
325.626	4938.38
325.855	4648.38
326.084	4591.38
326.313	4504.38
326.542	4742.38
326.77	5299.38
326.999	6589.38
327.228	9694.38
327.457	13818.38
327.686	13023.38
327.914	6824.38
328.143	5462.38
328.372	5041.38
328.6	4915.38
328.829	4893.38
329.058	5079.38
329.287	4980.38
329.515	4700.38
329.744	4452.38
329.972	4593.38
330.201	4575.38
330.43	4811.38
330.658	5010.38
330.887	5329.38
331.115	5094.38
331.344	4704.38
331.572	4664.38
331.801	4785.38
332.03	4742.38
332.258	4693.38
332.486	4745.38
332.715	4796.38
332.943	4952.38
333.172	5070.38
333.4	5202.38
333.629	5346.38
333.857	5384.38
334.085	5270.38
334.314	5171.38
334.542	5130.38
334.771	5088.38
334.999	5039.38
335.227	4983.38
335.455	4913.38
335.684	4833.38
335.912	4816.38
336.14	4735.38
336.369	4759.38
336.597	4733.38
336.825	4729.38
337.053	4650.38
337.281	4562.38
337.51	4490.38
337.738	4525.38
337.966	4473.38
338.194	4534.38
338.422	4384.38
338.65	4318.38
338.878	4347.38
339.106	4374.38
339.334	4404.38
339.562	4279.38
339.79	4200.38
340.018	4160.38
340.246	4199.38
340.474	4253.38
340.702	4237.38
340.93	4263.38
341.158	4199.38
341.386	4235.38
341.614	4215.38
341.842	4187.38
342.07	4078.38
342.298	4172.38
342.526	4134.38
342.754	4090.38
342.981	4123.38
343.209	4258.38
343.437	4453.38
343.665	4763.38
343.893	4952.38
344.12	4952.38
344.348	4758.38
344.576	4576.38
344.804	4483.38
345.031	4438.38
345.259	4357.38
345.487	4271.38
345.714	4193.38
345.942	4098.38
346.17	4131.38
346.397	4007.38
346.625	4005.38
346.853	3981.38
347.08	3984.38
347.308	4052.38
347.535	4064.38
347.763	4140.38
347.99	4162.38
348.218	4153.38
348.445	4186.38
348.673	4088.38
348.9	4011.38
349.128	3972.38
349.355	3903.38
349.583	3915.38
349.81	3893.38
350.037	3897.38
350.265	3867.38
350.492	3899.38
350.72	3852.38
350.947	3924.38
351.174	3984.38
351.402	4051.38
351.629	3998.38
351.856	3987.38
352.083	4017.38
352.311	4057.38
352.538	4022.38
352.765	4088.38
352.992	3983.38
353.22	3940.38
353.447	3895.38
353.674	3839.38
353.901	3736.38
354.128	3779.38
354.355	3787.38
354.583	3795.38
354.81	3746.38
355.037	3866.38
355.264	3821.38
355.491	3776.38
355.718	3768.38
355.945	3783.38
356.172	3850.38
356.399	3776.38
356.626	3841.38
356.853	3880.38
357.08	3775.38
357.307	3772.38
357.534	3752.38
357.761	3842.38
357.988	3878.38
358.215	3799.38
358.441	3798.38
358.668	3868.38
358.895	3933.38
359.122	3839.38
359.349	3988.38
359.576	4039.38
359.802	4269.38
360.029	4379.38
360.256	4346.38
360.483	4224.38
360.709	4016.38
360.936	4074.38
361.163	4000.38
361.39	4073.38
361.616	3997.38
361.843	3964.38
362.07	4041.38
362.296	4002.38
362.523	4009.38
362.749	3987.38
362.976	3951.38
363.203	3958.38
363.429	3843.38
363.656	3973.38
363.882	3926.38
364.109	3831.38
364.335	3859.38
364.562	3843.38
364.788	3839.38
365.015	3879.38
365.241	3931.38
365.468	3854.38
365.694	3969.38
365.92	3945.38
366.147	3883.38
366.373	3869.38
366.599	3843.38
366.826	3822.38
367.052	3861.38
367.278	3898.38
367.505	3971.38
367.731	3957.38
367.957	3897.38
368.184	3902.38
368.41	3970.38
368.636	4050.38
368.862	4086.38
369.089	3986.38
369.315	3939.38
369.541	3949.38
369.767	4019.38
369.993	3995.38
370.219	4047.38
370.445	4018.38
370.672	4028.38
370.898	3975.38
371.124	4098.38
371.35	4143.38
371.576	4105.38
371.802	4085.38
372.028	4070.38
372.254	4117.38
372.48	4122.38
372.706	4312.38
372.932	4295.38
373.158	4266.38
373.384	4172.38
373.61	4186.38
373.835	4180.38
374.061	4212.38
374.287	4293.38
374.513	4345.38
374.739	4513.38
374.965	4545.38
375.191	4556.38
375.416	4518.38
375.642	4324.38
375.868	4382.38
376.094	4272.38
376.319	4193.38
376.545	4175.38
376.771	4193.38
376.997	4180.38
377.222	4113.38
377.448	4114.38
377.674	4156.38
377.899	4107.38
378.125	4143.38
378.35	4089.38
378.576	4033.38
378.802	4140.38
379.027	4164.38
379.253	4136.38
379.478	4068.38
379.704	4096.38
379.929	4186.38
380.155	4191.38
380.38	4134.38
380.606	4249.38
380.831	4071.38
381.057	4174.38
381.282	4144.38
381.507	4183.38
381.733	4307.38
381.958	4240.38
382.184	4317.38
382.409	4366.38
382.634	4339.38
382.86	4362.38
383.085	4447.38
383.31	4554.38
383.535	4566.38
383.761	4626.38
383.986	4752.38
384.211	4815.38
384.436	4841.38
384.662	4863.38
384.887	5006.38
385.112	4962.38
385.337	5003.38
385.562	5013.38
385.787	5135.38
386.013	5145.38
386.238	5150.38
386.463	5113.38
386.688	5052.38
386.913	4947.38
387.138	4984.38
387.363	5010.38
387.588	4934.38
387.813	4964.38
388.038	4938.38
388.263	5070.38
388.488	4983.38
388.713	4994.38
388.938	4992.38
389.163	4980.38
389.387	4919.38
389.612	4905.38
389.837	4882.38
390.062	4895.38
390.287	4962.38
390.512	4870.38
390.736	4979.38
390.961	5043.38
391.186	5149.38
391.411	5263.38
391.636	5398.38
391.86	5574.38
392.085	5616.38
392.31	5588.38
392.534	5435.38
392.759	5368.38
392.984	5204.38
393.208	5121.38
393.433	5164.38
393.658	5155.38
393.882	5128.38
394.107	5174.38
394.331	5295.38
394.556	5243.38
394.78	5306.38
395.005	5310.38
395.229	5368.38
395.454	5560.38
395.678	5595.38
395.903	5724.38
396.127	5672.38
396.352	5499.38
396.576	5344.38
396.801	5261.38
397.025	5334.38
397.249	5452.38
397.474	5574.38
397.698	5636.38
397.922	5751.38
398.147	5904.38
398.371	5943.38
398.595	6087.38
398.82	6387.38
399.044	6944.38
399.268	7691.38
399.492	8728.38
399.717	9378.38
399.941	9162.38
400.165	8408.38
400.389	7713.38
400.613	7051.38
400.837	6534.38
401.062	6428.38
401.286	6330.38
401.51	6296.38
401.734	6266.38
401.958	6415.38
402.182	6451.38
402.406	6620.38
402.63	6701.38
402.854	6737.38
403.078	6908.38
403.302	6924.38
403.526	7065.38
403.75	7174.38
403.974	7228.38
404.198	7143.38
404.422	7235.38
404.645	7133.38
404.869	7068.38
405.093	7115.38
405.317	7249.38
405.541	7218.38
405.765	6982.38
405.988	6955.38
406.212	7177.38
406.436	7350.38
406.66	7399.38
406.883	7532.38
407.107	8060.38
407.331	8624.38
407.555	9030.38
407.778	8824.38
408.002	8124.38
408.226	7606.38
408.449	7593.38
408.673	7409.38
408.896	7533.38
409.12	7771.38
409.344	7250.38
409.567	6944.38
409.791	6893.38
410.014	6832.38
410.238	6726.38
410.461	6753.38
410.685	6800.38
410.908	6890.38
411.132	7163.38
411.355	7186.38
411.578	6777.38
411.802	6522.38
412.025	6479.38
412.249	6508.38
412.472	6494.38
412.695	6246.38
412.919	6279.38
413.142	6223.38
413.365	6221.38
413.589	6234.38
413.812	6117.38
414.035	6122.38
414.258	6099.38
414.482	6178.38
414.705	6241.38
414.928	6187.38
415.151	6192.38
415.374	6146.38
415.597	6066.38
415.821	6058.38
416.044	5985.38
416.267	6005.38
416.49	6075.38
416.713	5974.38
416.936	6132.38
417.159	6088.38
417.382	6224.38
417.605	6163.38
417.828	6241.38
418.051	6457.38
418.274	6298.38
418.497	6264.38
418.72	6328.38
418.943	6309.38
419.166	6588.38
419.389	7002.38
419.611	6898.38
419.834	6685.38
420.057	6556.38
420.28	6405.38
420.503	6215.38
420.726	6210.38
420.948	6391.38
421.171	6847.38
421.394	6779.38
421.617	6344.38
421.839	6296.38
422.062	6409.38
422.285	6543.38
422.507	7201.38
422.73	7697.38
422.953	7119.38
423.175	6738.38
423.398	6784.38
423.621	6793.38
423.843	7071.38
424.066	7020.38
424.288	6949.38
424.511	7112.38
424.733	7522.38
424.956	7982.38
425.178	7501.38
425.401	7671.38
425.623	7644.38
425.846	6592.38
426.068	6414.38
426.291	6367.38
426.513	6332.38
426.735	6363.38
426.958	6883.38
427.18	7622.38
427.402	8752.38
427.625	8670.38
427.847	7256.38
428.069	6474.38
428.292	6022.38
428.514	5839.38
428.736	5819.38
428.958	5745.38
429.181	5588.38
429.403	5638.38
429.625	5827.38
429.847	6101.38
430.069	6628.38
430.292	6157.38
430.514	5669.38
430.736	5572.38
430.958	5563.38
431.18	5452.38
431.402	5494.38
431.624	5422.38
431.846	5533.38
432.068	5547.38
432.29	5738.38
432.512	5525.38
432.734	5680.38
432.956	5540.38
433.178	5631.38
433.4	5634.38
433.622	5567.38
433.844	5593.38
434.066	5506.38
434.287	5638.38
434.509	5920.38
434.731	6165.38
434.953	6286.38
435.175	6398.38
435.397	6506.38
435.618	6438.38
435.84	6787.38
436.062	7697.38
436.284	7523.38
436.505	6322.38
436.727	5948.38
436.949	5782.38
437.17	5683.38
437.392	5575.38
437.614	5766.38
437.835	6234.38
438.057	7056.38
438.278	7775.38
438.5	7677.38
438.721	8464.38
438.943	7450.38
439.165	6211.38
439.386	6001.38
439.608	6095.38
439.829	6189.38
440.05	6427.38
440.272	6784.38
440.493	6225.38
440.715	5922.38
440.936	6009.38
441.158	5894.38
441.379	6119.38
441.6	6420.38
441.822	6589.38
442.043	7082.38
442.264	7792.38
442.486	7527.38
442.707	6726.38
442.928	6590.38
443.149	6685.38
443.371	6904.38
443.592	7435.38
443.813	8390.38
444.034	8448.38
444.255	7358.38
444.476	7119.38
444.698	7334.38
444.919	7402.38
445.14	7208.38
445.361	6978.38
445.582	7150.38
445.803	7743.38
446.024	8305.38
446.245	8004.38
446.466	7164.38
446.687	6190.38
446.908	5900.38
447.129	5652.38
447.35	5478.38
447.571	5497.38
447.792	5432.38
448.013	5447.38
448.234	5654.38
448.455	6362.38
448.675	7574.38
448.896	7947.38
449.117	6556.38
449.338	6785.38
449.559	8111.38
449.779	8230.38
450	6270.38
450.221	5646.38
450.442	5384.38
450.662	5319.38
450.883	5318.38
451.104	5426.38
451.324	5254.38
451.545	5170.38
451.766	5024.38
451.986	5012.38
452.207	4887.38
452.428	4968.38
452.648	4874.38
452.869	4858.38
453.089	4962.38
453.31	5143.38
453.53	4936.38
453.751	4852.38
453.971	4867.38
454.192	4979.38
454.412	4723.38
454.633	4762.38
454.853	4764.38
455.073	4787.38
455.294	5179.38
455.514	5627.38
455.734	5203.38
455.955	4646.38
456.175	4532.38
456.395	4470.38
456.616	4515.38
456.836	4513.38
457.056	4434.38
457.276	4391.38
457.497	4578.38
457.717	4608.38
457.937	4618.38
458.157	4664.38
458.377	4862.38
458.598	5040.38
458.818	5709.38
459.038	6534.38
459.258	6494.38
459.478	5749.38
459.698	5564.38
459.918	5705.38
460.138	5901.38
460.358	6164.38
460.578	6183.38
460.798	6144.38
461.018	6126.38
461.238	6102.38
461.458	6110.38
461.678	5973.38
461.898	6138.38
462.118	6188.38
462.338	6542.38
462.558	6619.38
462.777	6926.38
462.997	7531.38
463.217	7955.38
463.437	7711.38
463.657	7195.38
463.876	6904.38
464.096	7004.38
464.316	7021.38
464.536	6983.38
464.755	6706.38
464.975	6652.38
465.195	6767.38
465.414	6797.38
465.634	6028.38
465.854	5646.38
466.073	5509.38
466.293	5323.38
466.512	5190.38
466.732	5052.38
466.951	5095.38
467.171	4948.38
467.391	5187.38
467.61	5153.38
467.829	5165.38
468.049	5010.38
468.268	4864.38
468.488	4814.38
468.707	4808.38
468.927	4870.38
469.146	4850.38
469.365	4872.38
469.585	4882.38
469.804	5133.38
470.023	5231.38
470.243	5257.38
470.462	5351.38
470.681	5425.38
470.901	5223.38
471.12	5178.38
471.339	5097.38
471.558	5126.38
471.777	5050.38
471.997	4865.38
472.216	4845.38
472.435	4863.38
472.654	4816.38
472.873	4721.38
473.092	4762.38
473.311	4768.38
473.53	4857.38
473.749	4972.38
473.968	5444.38
474.187	6406.38
474.406	6043.38
474.625	5138.38
474.844	4863.38
475.063	4888.38
475.282	4832.38
475.501	4888.38
475.72	4992.38
475.939	5028.38
476.158	4980.38
476.377	5048.38
476.596	5058.38
476.814	5239.38
477.033	5226.38
477.252	5256.38
477.471	5395.38
477.69	5468.38
477.908	5584.38
478.127	5755.38
478.346	5726.38
478.564	5888.38
478.783	5926.38
479.002	6165.38
479.22	6123.38
479.439	6164.38
479.658	6215.38
479.876	6380.38
480.095	6522.38
480.313	6920.38
480.532	6850.38
480.751	6700.38
480.969	6490.38
481.188	6372.38
481.406	6211.38
481.624	6083.38
481.843	5906.38
482.061	5866.38
482.28	5737.38
482.498	5668.38
482.717	5698.38
482.935	5639.38
483.153	5600.38
483.372	5587.38
483.59	5606.38
483.808	5614.38
484.027	5692.38
484.245	5766.38
484.463	5667.38
484.681	5794.38
484.9	5827.38
485.118	5896.38
485.336	5971.38
485.554	5989.38
485.772	6083.38
485.99	6042.38
486.209	6076.38
486.427	6091.38
486.645	6135.38
486.863	6251.38
487.081	6095.38
487.299	6092.38
487.517	6077.38
487.735	6006.38
487.953	6083.38
