Data from Uncirc_2006_H10_HRD10591_00012.txt Node
Date: Wed Jan 03 10:24:57 EST 2024
User: Yrep
Spectrometer: HR+D1059
Trigger mode: 1
Integration Time (sec): 1.000000E-1
Scans to average: 1
Electric dark correction enabled: true
Nonlinearity correction enabled: false
Boxcar width: 0
XAxis mode: Wavelengths
Number of Pixels in Spectrum: 2048
>>>>>Begin Spectral Data<<<<<
223.165	-24.62
223.4	-24.62
223.635	-24.62
223.869	-29.62
224.104	-20.62
224.338	-11.62
224.573	-18.62
224.808	-5.62
225.042	-5.62
225.277	-6.62
225.511	-10.62
225.746	5.38
225.98	14.38
226.215	8.38
226.449	24.38
226.683	19.38
226.918	22.38
227.152	39.38
227.387	29.38
227.621	39.38
227.856	40.38
228.09	49.38
228.324	54.38
228.559	53.38
228.793	57.38
229.027	61.38
229.262	69.38
229.496	63.38
229.73	85.38
229.964	85.38
230.199	67.38
230.433	72.38
230.667	76.38
230.901	76.38
231.136	75.38
231.37	76.38
231.604	100.38
231.838	83.38
232.072	83.38
232.306	84.38
232.541	71.38
232.775	73.38
233.009	87.38
233.243	82.38
233.477	68.38
233.711	76.38
233.945	79.38
234.179	77.38
234.413	82.38
234.647	85.38
234.881	83.38
235.115	80.38
235.349	79.38
235.583	81.38
235.817	78.38
236.051	81.38
236.285	91.38
236.519	74.38
236.753	79.38
236.987	84.38
237.221	69.38
237.455	94.38
237.689	87.38
237.922	88.38
238.156	83.38
238.39	66.38
238.624	91.38
238.858	66.38
239.091	77.38
239.325	77.38
239.559	81.38
239.793	78.38
240.027	68.38
240.26	79.38
240.494	71.38
240.728	83.38
240.961	84.38
241.195	85.38
241.429	76.38
241.662	94.38
241.896	76.38
242.13	90.38
242.363	83.38
242.597	76.38
242.83	62.38
243.064	66.38
243.298	75.38
243.531	74.38
243.765	87.38
243.998	72.38
244.232	82.38
244.465	88.38
244.699	79.38
244.932	75.38
245.166	59.38
245.399	82.38
245.633	80.38
245.866	74.38
246.099	83.38
246.333	77.38
246.566	92.38
246.8	74.38
247.033	72.38
247.266	91.38
247.5	78.38
247.733	68.38
247.966	79.38
248.2	80.38
248.433	80.38
248.666	88.38
248.899	77.38
249.133	93.38
249.366	93.38
249.599	102.38
249.832	82.38
250.066	79.38
250.299	72.38
250.532	85.38
250.765	83.38
250.998	89.38
251.231	80.38
251.465	79.38
251.698	82.38
251.931	81.38
252.164	82.38
252.397	86.38
252.63	83.38
252.863	78.38
253.096	96.38
253.329	67.38
253.562	83.38
253.795	75.38
254.028	91.38
254.261	81.38
254.494	84.38
254.727	88.38
254.96	71.38
255.193	71.38
255.426	92.38
255.659	89.38
255.892	84.38
256.124	88.38
256.357	83.38
256.59	87.38
256.823	83.38
257.056	72.38
257.289	86.38
257.521	75.38
257.754	93.38
257.987	80.38
258.22	89.38
258.452	82.38
258.685	69.38
258.918	86.38
259.151	92.38
259.383	84.38
259.616	86.38
259.849	70.38
260.081	74.38
260.314	79.38
260.547	81.38
260.779	67.38
261.012	68.38
261.244	79.38
261.477	95.38
261.71	91.38
261.942	101.38
262.175	103.38
262.407	96.38
262.64	78.38
262.872	88.38
263.105	84.38
263.337	70.38
263.57	82.38
263.802	84.38
264.035	88.38
264.267	94.38
264.499	81.38
264.732	86.38
264.964	93.38
265.197	86.38
265.429	75.38
265.661	72.38
265.894	68.38
266.126	94.38
266.358	81.38
266.591	95.38
266.823	81.38
267.055	80.38
267.287	98.38
267.52	72.38
267.752	80.38
267.984	93.38
268.216	82.38
268.448	81.38
268.681	82.38
268.913	92.38
269.145	93.38
269.377	95.38
269.609	78.38
269.841	99.38
270.073	87.38
270.306	69.38
270.538	87.38
270.77	77.38
271.002	85.38
271.234	69.38
271.466	85.38
271.698	87.38
271.93	86.38
272.162	81.38
272.394	85.38
272.626	75.38
272.858	99.38
273.09	96.38
273.322	89.38
273.553	92.38
273.785	84.38
274.017	78.38
274.249	80.38
274.481	99.38
274.713	75.38
274.945	91.38
275.176	92.38
275.408	81.38
275.64	90.38
275.872	98.38
276.104	90.38
276.335	89.38
276.567	88.38
276.799	97.38
277.031	94.38
277.262	97.38
277.494	79.38
277.726	82.38
277.957	77.38
278.189	98.38
278.421	79.38
278.652	96.38
278.884	92.38
279.115	85.38
279.347	87.38
279.579	94.38
279.81	87.38
280.042	83.38
280.273	80.38
280.505	72.38
280.736	77.38
280.968	94.38
281.199	88.38
281.431	92.38
281.662	88.38
281.894	87.38
282.125	106.38
282.356	112.38
282.588	129.38
282.819	115.38
283.051	87.38
283.282	91.38
283.513	79.38
283.745	82.38
283.976	69.38
284.207	72.38
284.439	88.38
284.67	93.38
284.901	80.38
285.132	70.38
285.364	96.38
285.595	91.38
285.826	80.38
286.057	90.38
286.288	90.38
286.52	95.38
286.751	92.38
286.982	92.38
287.213	87.38
287.444	101.38
287.675	87.38
287.906	102.38
288.138	93.38
288.369	86.38
288.6	94.38
288.831	81.38
289.062	88.38
289.293	103.38
289.524	90.38
289.755	90.38
289.986	87.38
290.217	85.38
290.448	96.38
290.679	84.38
290.91	79.38
291.141	81.38
291.371	83.38
291.602	85.38
291.833	85.38
292.064	92.38
292.295	85.38
292.526	85.38
292.757	84.38
292.987	94.38
293.218	88.38
293.449	92.38
293.68	95.38
293.91	98.38
294.141	88.38
294.372	79.38
294.603	87.38
294.833	98.38
295.064	94.38
295.295	107.38
295.525	96.38
295.756	92.38
295.987	100.38
296.217	122.38
296.448	106.38
296.679	98.38
296.909	79.38
297.14	80.38
297.37	84.38
297.601	103.38
297.831	77.38
298.062	98.38
298.292	89.38
298.523	100.38
298.753	88.38
298.984	85.38
299.214	92.38
299.445	92.38
299.675	79.38
299.905	96.38
300.136	91.38
300.366	89.38
300.597	85.38
300.827	73.38
301.057	88.38
301.288	110.38
301.518	98.38
301.748	91.38
301.979	103.38
302.209	102.38
302.439	81.38
302.669	75.38
302.9	88.38
303.13	93.38
303.36	92.38
303.59	100.38
303.82	102.38
304.051	82.38
304.281	78.38
304.511	97.38
304.741	88.38
304.971	78.38
305.201	103.38
305.431	96.38
305.661	76.38
305.891	95.38
306.121	88.38
306.352	86.38
306.582	100.38
306.812	93.38
307.042	88.38
307.272	96.38
307.502	95.38
307.731	88.38
307.961	99.38
308.191	96.38
308.421	89.38
308.651	86.38
308.881	95.38
309.111	94.38
309.341	93.38
309.571	86.38
309.8	87.38
310.03	102.38
310.26	88.38
310.49	87.38
310.72	90.38
310.949	92.38
311.179	81.38
311.409	90.38
311.639	93.38
311.868	110.38
312.098	105.38
312.328	95.38
312.557	99.38
312.787	118.38
313.017	94.38
313.246	99.38
313.476	88.38
313.706	90.38
313.935	84.38
314.165	91.38
314.394	99.38
314.624	95.38
314.853	94.38
315.083	90.38
315.312	85.38
315.542	77.38
315.771	84.38
316.001	99.38
316.23	99.38
316.46	83.38
316.689	85.38
316.919	97.38
317.148	91.38
317.377	84.38
317.607	101.38
317.836	95.38
318.065	82.38
318.295	92.38
318.524	89.38
318.753	88.38
318.983	92.38
319.212	90.38
319.441	107.38
319.67	95.38
319.9	86.38
320.129	102.38
320.358	99.38
320.587	98.38
320.816	101.38
321.046	119.38
321.275	95.38
321.504	91.38
321.733	111.38
321.962	100.38
322.191	103.38
322.42	103.38
322.649	104.38
322.878	101.38
323.108	117.38
323.337	116.38
323.566	139.38
323.795	151.38
324.024	208.38
324.253	363.38
324.482	802.38
324.71	1624.38
324.939	2111.38
325.168	785.38
325.397	241.38
325.626	132.38
325.855	129.38
326.084	119.38
326.313	121.38
326.542	144.38
326.77	226.38
326.999	465.38
327.228	924.38
327.457	1662.38
327.686	1288.38
327.914	344.38
328.143	187.38
328.372	130.38
328.6	116.38
328.829	95.38
329.058	106.38
329.287	113.38
329.515	103.38
329.744	104.38
329.972	83.38
330.201	97.38
330.43	103.38
330.658	108.38
330.887	115.38
331.115	107.38
331.344	105.38
331.572	97.38
331.801	98.38
332.03	107.38
332.258	90.38
332.486	87.38
332.715	86.38
332.943	102.38
333.172	87.38
333.4	95.38
333.629	122.38
333.857	101.38
334.085	103.38
334.314	100.38
334.542	87.38
334.771	91.38
334.999	92.38
335.227	100.38
335.455	100.38
335.684	106.38
335.912	86.38
336.14	89.38
336.369	106.38
336.597	83.38
336.825	99.38
337.053	95.38
337.281	83.38
337.51	91.38
337.738	74.38
337.966	100.38
338.194	95.38
338.422	92.38
338.65	99.38
338.878	106.38
339.106	99.38
339.334	100.38
339.562	99.38
339.79	94.38
340.018	99.38
340.246	92.38
340.474	97.38
340.702	79.38
340.93	96.38
341.158	98.38
341.386	97.38
341.614	93.38
341.842	83.38
342.07	96.38
342.298	97.38
342.526	91.38
342.754	96.38
342.981	91.38
343.209	92.38
343.437	102.38
343.665	86.38
343.893	99.38
344.12	96.38
344.348	95.38
344.576	85.38
344.804	90.38
345.031	95.38
345.259	95.38
345.487	97.38
345.714	103.38
345.942	91.38
346.17	102.38
346.397	97.38
346.625	87.38
346.853	89.38
347.08	86.38
347.308	87.38
347.535	105.38
347.763	103.38
347.99	93.38
348.218	106.38
348.445	93.38
348.673	73.38
348.9	93.38
349.128	93.38
349.355	95.38
349.583	95.38
349.81	78.38
350.037	87.38
350.265	103.38
350.492	95.38
350.72	95.38
350.947	87.38
351.174	95.38
351.402	106.38
351.629	90.38
351.856	98.38
352.083	102.38
352.311	104.38
352.538	118.38
352.765	99.38
352.992	103.38
353.22	88.38
353.447	102.38
353.674	102.38
353.901	98.38
354.128	108.38
354.355	97.38
354.583	97.38
354.81	101.38
355.037	106.38
355.264	97.38
355.491	93.38
355.718	93.38
355.945	97.38
356.172	93.38
356.399	97.38
356.626	106.38
356.853	104.38
357.08	99.38
357.307	96.38
357.534	99.38
357.761	94.38
357.988	96.38
358.215	106.38
358.441	86.38
358.668	79.38
358.895	101.38
359.122	111.38
359.349	89.38
359.576	87.38
359.802	99.38
360.029	113.38
360.256	95.38
360.483	101.38
360.709	102.38
360.936	93.38
361.163	107.38
361.39	93.38
361.616	74.38
361.843	92.38
362.07	100.38
362.296	104.38
362.523	91.38
362.749	84.38
362.976	88.38
363.203	95.38
363.429	97.38
363.656	102.38
363.882	87.38
364.109	93.38
364.335	95.38
364.562	86.38
364.788	95.38
365.015	96.38
365.241	92.38
365.468	82.38
365.694	97.38
365.92	94.38
366.147	82.38
366.373	85.38
366.599	104.38
366.826	75.38
367.052	98.38
367.278	102.38
367.505	101.38
367.731	93.38
367.957	103.38
368.184	104.38
368.41	82.38
368.636	110.38
368.862	116.38
369.089	105.38
369.315	97.38
369.541	85.38
369.767	100.38
369.993	107.38
370.219	80.38
370.445	87.38
370.672	89.38
370.898	84.38
371.124	81.38
371.35	76.38
371.576	101.38
371.802	82.38
372.028	98.38
372.254	80.38
372.48	95.38
372.706	112.38
372.932	88.38
373.158	88.38
373.384	87.38
373.61	99.38
373.835	101.38
374.061	91.38
374.287	92.38
374.513	83.38
374.739	75.38
374.965	87.38
375.191	89.38
375.416	91.38
375.642	92.38
375.868	86.38
376.094	114.38
376.319	87.38
376.545	95.38
376.771	89.38
376.997	107.38
377.222	98.38
377.448	81.38
377.674	89.38
377.899	82.38
378.125	92.38
378.35	98.38
378.576	88.38
378.802	95.38
379.027	110.38
379.253	92.38
379.478	98.38
379.704	96.38
379.929	94.38
380.155	91.38
380.38	87.38
380.606	96.38
380.831	107.38
381.057	111.38
381.282	105.38
381.507	84.38
381.733	83.38
381.958	98.38
382.184	107.38
382.409	102.38
382.634	118.38
382.86	108.38
383.085	102.38
383.31	92.38
383.535	106.38
383.761	99.38
383.986	105.38
384.211	103.38
384.436	110.38
384.662	104.38
384.887	113.38
385.112	122.38
385.337	124.38
385.562	111.38
385.787	123.38
386.013	117.38
386.238	108.38
386.463	108.38
386.688	134.38
386.913	110.38
387.138	122.38
387.363	116.38
387.588	108.38
387.813	110.38
388.038	109.38
388.263	115.38
388.488	115.38
388.713	108.38
388.938	99.38
389.163	94.38
389.387	104.38
389.612	102.38
389.837	94.38
390.062	103.38
390.287	96.38
390.512	84.38
390.736	98.38
390.961	73.38
391.186	90.38
391.411	96.38
391.636	95.38
391.86	87.38
392.085	95.38
392.31	89.38
392.534	89.38
392.759	91.38
392.984	99.38
393.208	86.38
393.433	83.38
393.658	94.38
393.882	91.38
394.107	88.38
394.331	81.38
394.556	72.38
394.78	84.38
395.005	88.38
395.229	96.38
395.454	94.38
395.678	87.38
395.903	94.38
396.127	98.38
396.352	90.38
396.576	86.38
396.801	88.38
397.025	85.38
397.249	93.38
397.474	97.38
397.698	105.38
397.922	98.38
398.147	89.38
398.371	96.38
398.595	76.38
398.82	91.38
399.044	84.38
399.268	95.38
399.492	91.38
399.717	83.38
399.941	97.38
400.165	89.38
400.389	90.38
400.613	90.38
400.837	80.38
401.062	78.38
401.286	81.38
401.51	79.38
401.734	94.38
401.958	104.38
402.182	138.38
402.406	140.38
402.63	109.38
402.854	88.38
403.078	86.38
403.302	94.38
403.526	91.38
403.75	88.38
403.974	81.38
404.198	85.38
404.422	84.38
404.645	91.38
404.869	96.38
405.093	103.38
405.317	103.38
405.541	86.38
405.765	88.38
405.988	108.38
406.212	152.38
406.436	188.38
406.66	138.38
406.883	99.38
407.107	81.38
407.331	89.38
407.555	103.38
407.778	91.38
408.002	92.38
408.226	93.38
408.449	103.38
408.673	110.38
408.896	87.38
409.12	99.38
409.344	101.38
409.567	86.38
409.791	92.38
410.014	79.38
410.238	101.38
410.461	101.38
410.685	102.38
410.908	85.38
411.132	88.38
411.355	92.38
411.578	88.38
411.802	91.38
412.025	84.38
412.249	98.38
412.472	98.38
412.695	85.38
412.919	94.38
413.142	98.38
413.365	101.38
413.589	85.38
413.812	97.38
414.035	88.38
414.258	84.38
414.482	86.38
414.705	103.38
414.928	92.38
415.151	101.38
415.374	91.38
415.597	98.38
415.821	95.38
416.044	104.38
416.267	90.38
416.49	74.38
416.713	83.38
416.936	86.38
417.159	107.38
417.382	89.38
417.605	88.38
417.828	87.38
418.051	89.38
418.274	88.38
418.497	80.38
418.72	81.38
418.943	82.38
419.166	98.38
419.389	92.38
419.611	96.38
419.834	93.38
420.057	88.38
420.28	96.38
420.503	101.38
420.726	88.38
420.948	88.38
421.171	98.38
421.394	91.38
421.617	93.38
421.839	75.38
422.062	98.38
422.285	97.38
422.507	105.38
422.73	116.38
422.953	90.38
423.175	97.38
423.398	98.38
423.621	93.38
423.843	82.38
424.066	82.38
424.288	90.38
424.511	81.38
424.733	99.38
424.956	87.38
425.178	95.38
425.401	92.38
425.623	99.38
425.846	89.38
426.068	86.38
426.291	100.38
426.513	80.38
426.735	94.38
426.958	100.38
427.18	103.38
427.402	131.38
427.625	156.38
427.847	109.38
428.069	104.38
428.292	84.38
428.514	87.38
428.736	85.38
428.958	89.38
429.181	101.38
429.403	91.38
429.625	98.38
429.847	81.38
430.069	96.38
430.292	106.38
430.514	91.38
430.736	83.38
430.958	94.38
431.18	97.38
431.402	90.38
431.624	79.38
431.846	81.38
432.068	95.38
432.29	89.38
432.512	81.38
432.734	81.38
432.956	79.38
433.178	114.38
433.4	102.38
433.622	87.38
433.844	88.38
434.066	100.38
434.287	70.38
434.509	88.38
434.731	95.38
434.953	95.38
435.175	90.38
435.397	83.38
435.618	98.38
435.84	111.38
436.062	107.38
436.284	116.38
436.505	107.38
436.727	94.38
436.949	99.38
437.17	87.38
437.392	92.38
437.614	96.38
437.835	93.38
438.057	96.38
438.278	112.38
438.5	107.38
438.721	112.38
438.943	94.38
439.165	96.38
439.386	89.38
439.608	87.38
439.829	100.38
440.05	110.38
440.272	142.38
440.493	105.38
440.715	99.38
440.936	90.38
441.158	97.38
441.379	85.38
441.6	84.38
441.822	93.38
442.043	85.38
442.264	97.38
442.486	92.38
442.707	107.38
442.928	108.38
443.149	111.38
443.371	117.38
443.592	109.38
443.813	107.38
444.034	91.38
444.255	94.38
444.476	91.38
444.698	99.38
444.919	100.38
445.14	127.38
445.361	122.38
445.582	112.38
445.803	113.38
446.024	109.38
446.245	123.38
446.466	102.38
446.687	99.38
446.908	92.38
447.129	95.38
447.35	99.38
447.571	74.38
447.792	93.38
448.013	114.38
448.234	111.38
448.455	104.38
448.675	97.38
448.896	110.38
449.117	103.38
449.338	89.38
449.559	124.38
449.779	107.38
450	94.38
450.221	89.38
450.442	90.38
450.662	104.38
450.883	92.38
451.104	113.38
451.324	96.38
451.545	94.38
451.766	98.38
451.986	89.38
452.207	98.38
452.428	93.38
452.648	101.38
452.869	113.38
453.089	87.38
453.31	105.38
453.53	88.38
453.751	99.38
453.971	101.38
454.192	101.38
454.412	89.38
454.633	78.38
454.853	85.38
455.073	74.38
455.294	89.38
455.514	107.38
455.734	91.38
455.955	94.38
456.175	90.38
456.395	96.38
456.616	83.38
456.836	78.38
457.056	75.38
457.276	86.38
457.497	78.38
457.717	79.38
457.937	90.38
458.157	76.38
458.377	74.38
458.598	104.38
458.818	132.38
459.038	139.38
459.258	105.38
459.478	98.38
459.698	85.38
459.918	83.38
460.138	71.38
460.358	90.38
460.578	79.38
460.798	88.38
461.018	102.38
461.238	90.38
461.458	91.38
461.678	96.38
461.898	79.38
462.118	70.38
462.338	82.38
462.558	81.38
462.777	82.38
462.997	95.38
463.217	92.38
463.437	75.38
463.657	91.38
463.876	84.38
464.096	86.38
464.316	95.38
464.536	94.38
464.755	99.38
464.975	98.38
465.195	141.38
465.414	143.38
465.634	83.38
465.854	92.38
466.073	98.38
466.293	91.38
466.512	84.38
466.732	92.38
466.951	92.38
467.171	97.38
467.391	91.38
467.61	95.38
467.829	92.38
468.049	98.38
468.268	86.38
468.488	82.38
468.707	79.38
468.927	90.38
469.146	90.38
469.365	93.38
469.585	100.38
469.804	94.38
470.023	87.38
470.243	87.38
470.462	95.38
470.681	100.38
470.901	89.38
471.12	73.38
471.339	92.38
471.558	91.38
471.777	88.38
471.997	77.38
472.216	86.38
472.435	81.38
472.654	82.38
472.873	95.38
473.092	87.38
473.311	87.38
473.53	94.38
473.749	87.38
473.968	102.38
474.187	96.38
474.406	91.38
474.625	85.38
474.844	92.38
475.063	84.38
475.282	88.38
475.501	80.38
475.72	85.38
475.939	79.38
476.158	87.38
476.377	82.38
476.596	84.38
476.814	81.38
477.033	76.38
477.252	97.38
477.471	84.38
477.69	94.38
477.908	94.38
478.127	91.38
478.346	72.38
478.564	79.38
478.783	102.38
479.002	98.38
479.22	100.38
479.439	103.38
479.658	99.38
479.876	87.38
480.095	76.38
480.313	77.38
480.532	94.38
480.751	94.38
480.969	88.38
481.188	96.38
481.406	98.38
481.624	82.38
481.843	74.38
482.061	101.38
482.28	82.38
482.498	92.38
482.717	84.38
482.935	78.38
483.153	85.38
483.372	83.38
483.59	87.38
483.808	82.38
484.027	96.38
484.245	83.38
484.463	85.38
484.681	98.38
484.9	85.38
485.118	91.38
485.336	101.38
485.554	85.38
485.772	99.38
485.99	80.38
486.209	94.38
486.427	108.38
486.645	107.38
486.863	102.38
487.081	85.38
487.299	103.38
487.517	94.38
487.735	90.38
487.953	90.38
488.171	99.38
488.389	101.38
488.607	96.38
488.825	96.38
489.043	87.38
489.261	96.38
489.479	94.38
489.696	94.38
489.914	89.38
490.132	69.38
490.35	93.38
490.568	98.38
490.786	88.38
491.003	81.38
491.221	78.38
491.439	86.38
491.657	88.38
491.874	90.38
492.092	97.38
492.31	88.38
492.527	97.38
492.745	82.38
492.963	83.38
493.18	96.38
493.398	73.38
493.615	109.38
493.833	88.38
494.05	108.38
494.268	97.38
494.485	96.38
494.703	74.38
494.92	83.38
495.138	83.38
495.355	77.38
495.573	93.38
495.79	98.38
496.008	99.38
496.225	97.38
496.442	94.38
496.66	98.38
496.877	90.38
497.094	90.38
497.312	94.38
497.529	83.38
497.746	74.38
497.963	94.38
498.181	88.38
498.398	94.38
498.615	100.38
498.832	97.38
499.049	94.38
499.267	87.38
499.484	90.38
499.701	83.38
499.918	95.38
500.135	87.38
500.352	88.38
500.569	79.38
500.786	84.38
501.003	101.38
501.22	95.38
501.437	91.38
501.654	103.38
501.871	100.38
502.088	84.38
502.305	85.38
502.522	93.38
502.739	96.38
502.956	103.38
503.172	85.38
503.389	89.38
503.606	98.38
503.823	87.38
504.04	94.38
504.256	76.38
504.473	95.38
504.69	99.38
504.907	94.38
505.123	88.38
505.34	80.38
505.557	85.38
505.773	78.38
505.99	83.38
506.207	88.38
506.423	83.38
506.64	91.38
506.856	72.38
507.073	104.38
507.289	101.38
507.506	100.38
507.722	100.38
507.939	101.38
508.155	85.38
508.372	87.38
508.588	83.38
508.805	99.38
509.021	97.38
509.238	88.38
509.454	101.38
509.67	106.38
509.887	97.38
510.103	127.38
510.319	208.38
510.536	669.38
510.752	2081.38
510.968	593.38
511.184	157.38
511.401	101.38
511.617	102.38
511.833	109.38
512.049	92.38
512.265	98.38
512.481	90.38
512.698	94.38
512.914	90.38
513.13	82.38
513.346	93.38
513.562	99.38
513.778	101.38
513.994	95.38
514.21	105.38
514.426	103.38
514.642	124.38
514.858	126.38
515.074	145.38
515.29	393.38
515.506	1243.38
515.721	459.38
515.937	134.38
