Data from Uncirc_2006_H10_HRD10591_00058.txt Node
Date: Wed Jan 03 10:25:06 EST 2024
User: Yrep
Spectrometer: HR+D1059
Trigger mode: 1
Integration Time (sec): 1.000000E-1
Scans to average: 1
Electric dark correction enabled: true
Nonlinearity correction enabled: false
Boxcar width: 0
XAxis mode: Wavelengths
Number of Pixels in Spectrum: 2048
>>>>>Begin Spectral Data<<<<<
223.165	-14.75
223.4	-14.75
223.635	-14.75
223.869	-15.75
224.104	-31.75
224.338	-19.75
224.573	-23.75
224.808	-3.75
225.042	-19.75
225.277	-5.75
225.511	2.25
225.746	-1.75
225.98	12.25
226.215	19.25
226.449	9.25
226.683	35.25
226.918	30.25
227.152	28.25
227.387	42.25
227.621	23.25
227.856	40.25
228.09	46.25
228.324	61.25
228.559	64.25
228.793	69.25
229.027	54.25
229.262	44.25
229.496	70.25
229.73	79.25
229.964	83.25
230.199	83.25
230.433	84.25
230.667	64.25
230.901	86.25
231.136	75.25
231.37	70.25
231.604	84.25
231.838	86.25
232.072	87.25
232.306	81.25
232.541	93.25
232.775	78.25
233.009	86.25
233.243	82.25
233.477	68.25
233.711	100.25
233.945	86.25
234.179	92.25
234.413	82.25
234.647	80.25
234.881	90.25
235.115	88.25
235.349	84.25
235.583	65.25
235.817	72.25
236.051	77.25
236.285	62.25
236.519	84.25
236.753	83.25
236.987	74.25
237.221	87.25
237.455	80.25
237.689	73.25
237.922	91.25
238.156	76.25
238.39	78.25
238.624	70.25
238.858	75.25
239.091	67.25
239.325	75.25
239.559	82.25
239.793	74.25
240.027	76.25
240.26	75.25
240.494	74.25
240.728	64.25
240.961	79.25
241.195	88.25
241.429	74.25
241.662	102.25
241.896	79.25
242.13	87.25
242.363	81.25
242.597	92.25
242.83	83.25
243.064	78.25
243.298	76.25
243.531	68.25
243.765	83.25
243.998	73.25
244.232	78.25
244.465	73.25
244.699	78.25
244.932	77.25
245.166	77.25
245.399	96.25
245.633	79.25
245.866	71.25
246.099	70.25
246.333	88.25
246.566	87.25
246.8	76.25
247.033	75.25
247.266	80.25
247.5	86.25
247.733	76.25
247.966	88.25
248.2	97.25
248.433	92.25
248.666	87.25
248.899	87.25
249.133	96.25
249.366	101.25
249.599	96.25
249.832	85.25
250.066	74.25
250.299	91.25
250.532	85.25
250.765	72.25
250.998	90.25
251.231	75.25
251.465	76.25
251.698	76.25
251.931	79.25
252.164	73.25
252.397	77.25
252.63	70.25
252.863	89.25
253.096	86.25
253.329	71.25
253.562	76.25
253.795	85.25
254.028	76.25
254.261	65.25
254.494	79.25
254.727	87.25
254.96	78.25
255.193	90.25
255.426	96.25
255.659	68.25
255.892	93.25
256.124	71.25
256.357	71.25
256.59	87.25
256.823	86.25
257.056	88.25
257.289	90.25
257.521	84.25
257.754	69.25
257.987	80.25
258.22	89.25
258.452	87.25
258.685	86.25
258.918	78.25
259.151	91.25
259.383	81.25
259.616	90.25
259.849	81.25
260.081	80.25
260.314	70.25
260.547	76.25
260.779	74.25
261.012	90.25
261.244	87.25
261.477	96.25
261.71	95.25
261.942	86.25
262.175	100.25
262.407	93.25
262.64	88.25
262.872	91.25
263.105	72.25
263.337	82.25
263.57	88.25
263.802	86.25
264.035	92.25
264.267	87.25
264.499	86.25
264.732	76.25
264.964	89.25
265.197	75.25
265.429	87.25
265.661	85.25
265.894	87.25
266.126	79.25
266.358	90.25
266.591	90.25
266.823	90.25
267.055	87.25
267.287	90.25
267.52	78.25
267.752	88.25
267.984	93.25
268.216	79.25
268.448	87.25
268.681	78.25
268.913	83.25
269.145	86.25
269.377	101.25
269.609	84.25
269.841	86.25
270.073	90.25
270.306	82.25
270.538	86.25
270.77	82.25
271.002	67.25
271.234	66.25
271.466	69.25
271.698	84.25
271.93	81.25
272.162	73.25
272.394	90.25
272.626	98.25
272.858	79.25
273.09	84.25
273.322	79.25
273.553	86.25
273.785	87.25
274.017	79.25
274.249	91.25
274.481	89.25
274.713	84.25
274.945	78.25
275.176	70.25
275.408	66.25
275.64	86.25
275.872	79.25
276.104	80.25
276.335	93.25
276.567	95.25
276.799	114.25
277.031	92.25
277.262	95.25
277.494	93.25
277.726	96.25
277.957	91.25
278.189	86.25
278.421	76.25
278.652	81.25
278.884	89.25
279.115	66.25
279.347	80.25
279.579	98.25
279.81	87.25
280.042	94.25
280.273	86.25
280.505	89.25
280.736	88.25
280.968	83.25
281.199	95.25
281.431	81.25
281.662	83.25
281.894	66.25
282.125	92.25
282.356	104.25
282.588	144.25
282.819	119.25
283.051	80.25
283.282	67.25
283.513	84.25
283.745	90.25
283.976	95.25
284.207	83.25
284.439	81.25
284.67	76.25
284.901	81.25
285.132	95.25
285.364	84.25
285.595	81.25
285.826	91.25
286.057	87.25
286.288	80.25
286.52	74.25
286.751	82.25
286.982	85.25
287.213	85.25
287.444	88.25
287.675	95.25
287.906	97.25
288.138	103.25
288.369	100.25
288.6	99.25
288.831	85.25
289.062	87.25
289.293	95.25
289.524	107.25
289.755	94.25
289.986	65.25
290.217	75.25
290.448	72.25
290.679	85.25
290.91	89.25
291.141	83.25
291.371	80.25
291.602	92.25
291.833	84.25
292.064	87.25
292.295	92.25
292.526	95.25
292.757	100.25
292.987	83.25
293.218	77.25
293.449	91.25
293.68	71.25
293.91	65.25
294.141	100.25
294.372	91.25
294.603	93.25
294.833	78.25
295.064	97.25
295.295	77.25
295.525	90.25
295.756	101.25
295.987	119.25
296.217	136.25
296.448	106.25
296.679	83.25
296.909	102.25
297.14	83.25
297.37	96.25
297.601	93.25
297.831	80.25
298.062	89.25
298.292	82.25
298.523	98.25
298.753	91.25
298.984	88.25
299.214	91.25
299.445	108.25
299.675	93.25
299.905	106.25
300.136	109.25
300.366	95.25
300.597	79.25
300.827	102.25
301.057	85.25
301.288	106.25
301.518	91.25
301.748	84.25
301.979	89.25
302.209	82.25
302.439	94.25
302.669	84.25
302.9	96.25
303.13	90.25
303.36	89.25
303.59	111.25
303.82	99.25
304.051	88.25
304.281	90.25
304.511	83.25
304.741	95.25
304.971	88.25
305.201	91.25
305.431	95.25
305.661	84.25
305.891	94.25
306.121	94.25
306.352	107.25
306.582	104.25
306.812	98.25
307.042	86.25
307.272	83.25
307.502	75.25
307.731	89.25
307.961	96.25
308.191	94.25
308.421	82.25
308.651	87.25
308.881	99.25
309.111	86.25
309.341	94.25
309.571	79.25
309.8	106.25
310.03	101.25
310.26	89.25
310.49	99.25
310.72	100.25
310.949	89.25
311.179	109.25
311.409	99.25
311.639	107.25
311.868	98.25
312.098	87.25
312.328	90.25
312.557	105.25
312.787	100.25
313.017	109.25
313.246	95.25
313.476	101.25
313.706	94.25
313.935	79.25
314.165	102.25
314.394	107.25
314.624	102.25
314.853	102.25
315.083	96.25
315.312	88.25
315.542	103.25
315.771	83.25
316.001	80.25
316.23	93.25
316.46	90.25
316.689	90.25
316.919	104.25
317.148	100.25
317.377	101.25
317.607	87.25
317.836	93.25
318.065	95.25
318.295	94.25
318.524	91.25
318.753	78.25
318.983	93.25
319.212	91.25
319.441	98.25
319.67	118.25
319.9	87.25
320.129	109.25
320.358	101.25
320.587	97.25
320.816	94.25
321.046	102.25
321.275	103.25
321.504	87.25
321.733	109.25
321.962	93.25
322.191	96.25
322.42	99.25
322.649	101.25
322.878	107.25
323.108	118.25
323.337	124.25
323.566	139.25
323.795	129.25
324.024	210.25
324.253	393.25
324.482	815.25
324.71	1627.25
324.939	2171.25
325.168	807.25
325.397	242.25
325.626	138.25
325.855	128.25
326.084	127.25
326.313	130.25
326.542	156.25
326.77	225.25
326.999	446.25
327.228	931.25
327.457	1746.25
327.686	1364.25
327.914	374.25
328.143	181.25
328.372	130.25
328.6	118.25
328.829	110.25
329.058	123.25
329.287	125.25
329.515	99.25
329.744	94.25
329.972	101.25
330.201	104.25
330.43	107.25
330.658	122.25
330.887	135.25
331.115	122.25
331.344	85.25
331.572	104.25
331.801	96.25
332.03	112.25
332.258	88.25
332.486	90.25
332.715	88.25
332.943	92.25
333.172	85.25
333.4	84.25
333.629	102.25
333.857	124.25
334.085	96.25
334.314	100.25
334.542	96.25
334.771	105.25
334.999	98.25
335.227	86.25
335.455	84.25
335.684	86.25
335.912	94.25
336.14	95.25
336.369	95.25
336.597	105.25
336.825	84.25
337.053	96.25
337.281	88.25
337.51	90.25
337.738	100.25
337.966	89.25
338.194	102.25
338.422	96.25
338.65	87.25
338.878	100.25
339.106	89.25
339.334	87.25
339.562	84.25
339.79	85.25
340.018	82.25
340.246	103.25
340.474	102.25
340.702	104.25
340.93	94.25
341.158	84.25
341.386	97.25
341.614	92.25
341.842	88.25
342.07	78.25
342.298	84.25
342.526	95.25
342.754	87.25
342.981	95.25
343.209	88.25
343.437	89.25
343.665	91.25
343.893	93.25
344.12	111.25
344.348	89.25
344.576	90.25
344.804	98.25
345.031	96.25
345.259	89.25
345.487	90.25
345.714	84.25
345.942	89.25
346.17	95.25
346.397	93.25
346.625	88.25
346.853	102.25
347.08	100.25
347.308	115.25
347.535	95.25
347.763	100.25
347.99	91.25
348.218	101.25
348.445	100.25
348.673	102.25
348.9	74.25
349.128	98.25
349.355	83.25
349.583	108.25
349.81	77.25
350.037	88.25
350.265	93.25
350.492	106.25
350.72	100.25
350.947	114.25
351.174	112.25
351.402	97.25
351.629	96.25
351.856	108.25
352.083	91.25
352.311	113.25
352.538	109.25
352.765	84.25
352.992	114.25
353.22	109.25
353.447	99.25
353.674	102.25
353.901	93.25
354.128	108.25
354.355	97.25
354.583	108.25
354.81	100.25
355.037	82.25
355.264	95.25
355.491	92.25
355.718	92.25
355.945	104.25
356.172	80.25
356.399	97.25
356.626	97.25
356.853	104.25
357.08	91.25
357.307	96.25
357.534	87.25
357.761	96.25
357.988	96.25
358.215	93.25
358.441	93.25
358.668	85.25
358.895	100.25
359.122	79.25
359.349	103.25
359.576	92.25
359.802	103.25
360.029	114.25
360.256	115.25
360.483	95.25
360.709	90.25
360.936	86.25
361.163	90.25
361.39	93.25
361.616	95.25
361.843	89.25
362.07	101.25
362.296	92.25
362.523	81.25
362.749	96.25
362.976	97.25
363.203	91.25
363.429	77.25
363.656	95.25
363.882	104.25
364.109	81.25
364.335	87.25
364.562	100.25
364.788	85.25
365.015	74.25
365.241	112.25
365.468	111.25
365.694	104.25
365.92	107.25
366.147	102.25
366.373	103.25
366.599	86.25
366.826	82.25
367.052	88.25
367.278	88.25
367.505	95.25
367.731	95.25
367.957	94.25
368.184	103.25
368.41	99.25
368.636	104.25
368.862	102.25
369.089	115.25
369.315	82.25
369.541	101.25
369.767	84.25
369.993	91.25
370.219	87.25
370.445	103.25
370.672	86.25
370.898	88.25
371.124	84.25
371.35	96.25
371.576	96.25
371.802	77.25
372.028	97.25
372.254	104.25
372.48	90.25
372.706	87.25
372.932	74.25
373.158	98.25
373.384	100.25
373.61	100.25
373.835	88.25
374.061	92.25
374.287	80.25
374.513	82.25
374.739	90.25
374.965	97.25
375.191	103.25
375.416	87.25
375.642	87.25
375.868	72.25
376.094	83.25
376.319	90.25
376.545	78.25
376.771	101.25
376.997	85.25
377.222	92.25
377.448	97.25
377.674	82.25
377.899	99.25
378.125	90.25
378.35	100.25
378.576	87.25
378.802	83.25
379.027	81.25
379.253	87.25
379.478	82.25
379.704	94.25
379.929	108.25
380.155	89.25
380.38	79.25
380.606	96.25
380.831	80.25
381.057	95.25
381.282	102.25
381.507	99.25
381.733	102.25
381.958	108.25
382.184	104.25
382.409	92.25
382.634	108.25
382.86	95.25
383.085	98.25
383.31	96.25
383.535	97.25
383.761	100.25
383.986	91.25
384.211	107.25
384.436	87.25
384.662	86.25
384.887	109.25
385.112	98.25
385.337	100.25
385.562	98.25
385.787	96.25
386.013	104.25
386.238	115.25
386.463	106.25
386.688	111.25
386.913	100.25
387.138	105.25
387.363	103.25
387.588	103.25
387.813	106.25
388.038	100.25
388.263	103.25
388.488	110.25
388.713	95.25
388.938	105.25
389.163	94.25
389.387	94.25
389.612	79.25
389.837	94.25
390.062	108.25
390.287	92.25
390.512	85.25
390.736	91.25
390.961	93.25
391.186	91.25
391.411	103.25
391.636	93.25
391.86	93.25
392.085	100.25
392.31	78.25
392.534	85.25
392.759	92.25
392.984	83.25
393.208	77.25
393.433	99.25
393.658	79.25
393.882	80.25
394.107	74.25
394.331	85.25
394.556	86.25
394.78	90.25
395.005	97.25
395.229	85.25
395.454	89.25
395.678	84.25
395.903	96.25
396.127	80.25
396.352	83.25
396.576	87.25
396.801	96.25
397.025	95.25
397.249	88.25
397.474	82.25
397.698	95.25
397.922	95.25
398.147	85.25
398.371	84.25
398.595	98.25
398.82	92.25
399.044	79.25
399.268	94.25
399.492	79.25
399.717	85.25
399.941	77.25
400.165	83.25
400.389	91.25
400.613	82.25
400.837	98.25
401.062	96.25
401.286	87.25
401.51	92.25
401.734	100.25
401.958	98.25
402.182	125.25
402.406	127.25
402.63	107.25
402.854	86.25
403.078	94.25
403.302	91.25
403.526	71.25
403.75	82.25
403.974	88.25
404.198	87.25
404.422	87.25
404.645	78.25
404.869	88.25
405.093	90.25
405.317	108.25
405.541	107.25
405.765	99.25
405.988	113.25
406.212	154.25
406.436	198.25
406.66	118.25
406.883	102.25
407.107	100.25
407.331	91.25
407.555	85.25
407.778	79.25
408.002	78.25
408.226	102.25
408.449	84.25
408.673	99.25
408.896	102.25
409.12	100.25
409.344	79.25
409.567	102.25
409.791	96.25
410.014	87.25
410.238	85.25
410.461	86.25
410.685	91.25
410.908	88.25
411.132	103.25
411.355	92.25
411.578	84.25
411.802	85.25
412.025	85.25
412.249	82.25
412.472	94.25
412.695	97.25
412.919	77.25
413.142	81.25
413.365	87.25
413.589	84.25
413.812	93.25
414.035	91.25
414.258	85.25
414.482	100.25
414.705	79.25
414.928	90.25
415.151	100.25
415.374	76.25
415.597	92.25
415.821	87.25
416.044	95.25
416.267	84.25
416.49	88.25
416.713	90.25
416.936	90.25
417.159	90.25
417.382	88.25
417.605	80.25
417.828	84.25
418.051	86.25
418.274	90.25
418.497	86.25
418.72	94.25
418.943	80.25
419.166	87.25
419.389	88.25
419.611	96.25
419.834	87.25
420.057	80.25
420.28	85.25
420.503	89.25
420.726	84.25
420.948	86.25
421.171	86.25
421.394	93.25
421.617	98.25
421.839	94.25
422.062	103.25
422.285	82.25
422.507	83.25
422.73	113.25
422.953	86.25
423.175	97.25
423.398	91.25
423.621	86.25
423.843	78.25
424.066	86.25
424.288	91.25
424.511	94.25
424.733	96.25
424.956	101.25
425.178	83.25
425.401	104.25
425.623	107.25
425.846	74.25
426.068	97.25
426.291	75.25
426.513	90.25
426.735	94.25
426.958	94.25
427.18	102.25
427.402	127.25
427.625	158.25
427.847	117.25
428.069	98.25
428.292	84.25
428.514	98.25
428.736	78.25
428.958	82.25
429.181	86.25
429.403	93.25
429.625	96.25
429.847	97.25
430.069	88.25
430.292	91.25
430.514	88.25
430.736	72.25
430.958	83.25
431.18	85.25
431.402	74.25
431.624	88.25
431.846	96.25
432.068	86.25
432.29	95.25
432.512	94.25
432.734	89.25
432.956	95.25
433.178	92.25
433.4	107.25
433.622	93.25
433.844	97.25
434.066	94.25
434.287	90.25
434.509	96.25
434.731	82.25
434.953	75.25
435.175	96.25
435.397	105.25
435.618	91.25
435.84	99.25
436.062	113.25
436.284	109.25
436.505	91.25
436.727	102.25
436.949	91.25
437.17	97.25
437.392	81.25
437.614	92.25
437.835	104.25
438.057	118.25
438.278	98.25
438.5	109.25
438.721	116.25
438.943	111.25
439.165	87.25
439.386	103.25
439.608	92.25
439.829	107.25
440.05	111.25
440.272	124.25
440.493	96.25
440.715	93.25
440.936	82.25
441.158	90.25
441.379	99.25
441.6	83.25
441.822	87.25
442.043	109.25
442.264	108.25
442.486	106.25
442.707	89.25
442.928	101.25
443.149	104.25
443.371	122.25
443.592	100.25
443.813	96.25
444.034	95.25
444.255	80.25
444.476	99.25
444.698	93.25
444.919	89.25
445.14	128.25
445.361	111.25
445.582	105.25
445.803	126.25
446.024	128.25
446.245	129.25
446.466	96.25
446.687	99.25
446.908	106.25
447.129	83.25
447.35	78.25
447.571	98.25
447.792	75.25
448.013	97.25
448.234	102.25
448.455	84.25
448.675	113.25
448.896	119.25
449.117	108.25
449.338	106.25
449.559	111.25
449.779	117.25
450	106.25
450.221	82.25
450.442	102.25
450.662	97.25
450.883	113.25
451.104	104.25
451.324	99.25
451.545	87.25
451.766	89.25
451.986	83.25
452.207	88.25
452.428	85.25
452.648	91.25
452.869	118.25
453.089	105.25
453.31	121.25
453.53	81.25
453.751	88.25
453.971	90.25
454.192	83.25
454.412	92.25
454.633	92.25
454.853	86.25
455.073	90.25
455.294	90.25
455.514	101.25
455.734	81.25
455.955	96.25
456.175	92.25
456.395	82.25
456.616	94.25
456.836	76.25
457.056	77.25
457.276	87.25
457.497	97.25
457.717	69.25
457.937	82.25
458.157	104.25
458.377	81.25
458.598	104.25
458.818	144.25
459.038	137.25
459.258	100.25
459.478	104.25
459.698	91.25
459.918	93.25
460.138	77.25
460.358	84.25
460.578	75.25
460.798	86.25
461.018	88.25
461.238	83.25
461.458	93.25
461.678	89.25
461.898	97.25
462.118	97.25
462.338	86.25
462.558	97.25
462.777	82.25
462.997	94.25
463.217	76.25
463.437	80.25
463.657	91.25
463.876	83.25
464.096	92.25
464.316	106.25
464.536	82.25
464.755	101.25
464.975	108.25
465.195	152.25
465.414	152.25
465.634	107.25
465.854	117.25
466.073	95.25
466.293	101.25
466.512	103.25
466.732	103.25
466.951	84.25
467.171	95.25
467.391	101.25
467.61	102.25
467.829	90.25
468.049	84.25
468.268	104.25
468.488	103.25
468.707	82.25
468.927	83.25
469.146	94.25
469.365	85.25
469.585	99.25
469.804	79.25
470.023	88.25
470.243	83.25
470.462	101.25
470.681	116.25
470.901	99.25
471.12	84.25
471.339	94.25
471.558	92.25
471.777	81.25
471.997	85.25
472.216	76.25
472.435	88.25
472.654	81.25
472.873	95.25
473.092	81.25
473.311	92.25
473.53	83.25
473.749	83.25
473.968	90.25
474.187	103.25
474.406	91.25
474.625	82.25
474.844	89.25
475.063	81.25
475.282	81.25
475.501	88.25
475.72	87.25
475.939	82.25
476.158	84.25
476.377	80.25
476.596	86.25
476.814	80.25
477.033	93.25
477.252	68.25
477.471	95.25
477.69	86.25
477.908	76.25
478.127	86.25
478.346	86.25
478.564	82.25
478.783	97.25
479.002	95.25
479.22	87.25
479.439	94.25
479.658	93.25
479.876	82.25
480.095	83.25
480.313	79.25
480.532	93.25
480.751	95.25
480.969	105.25
481.188	93.25
481.406	90.25
481.624	90.25
481.843	86.25
482.061	78.25
482.28	86.25
482.498	91.25
482.717	90.25
482.935	94.25
483.153	89.25
483.372	98.25
483.59	88.25
483.808	86.25
484.027	87.25
484.245	85.25
484.463	94.25
484.681	93.25
484.9	88.25
485.118	94.25
485.336	84.25
485.554	102.25
485.772	104.25
485.99	97.25
486.209	95.25
486.427	109.25
486.645	110.25
486.863	106.25
487.081	95.25
487.299	104.25
487.517	93.25
487.735	97.25
487.953	100.25
488.171	99.25
488.389	110.25
488.607	99.25
488.825	96.25
489.043	86.25
489.261	92.25
489.479	92.25
489.696	95.25
489.914	101.25
490.132	76.25
490.35	85.25
490.568	93.25
490.786	77.25
491.003	98.25
491.221	96.25
491.439	88.25
491.657	98.25
491.874	82.25
492.092	92.25
492.31	80.25
492.527	88.25
492.745	85.25
492.963	80.25
493.18	83.25
493.398	112.25
493.615	106.25
493.833	107.25
494.05	94.25
494.268	84.25
494.485	72.25
494.703	90.25
494.92	100.25
495.138	92.25
495.355	91.25
495.573	78.25
495.79	94.25
496.008	81.25
496.225	83.25
496.442	88.25
496.66	105.25
496.877	85.25
497.094	92.25
497.312	87.25
497.529	103.25
497.746	97.25
497.963	95.25
498.181	86.25
498.398	87.25
498.615	111.25
498.832	95.25
499.049	93.25
499.267	94.25
499.484	82.25
499.701	98.25
499.918	90.25
500.135	94.25
500.352	101.25
500.569	91.25
500.786	81.25
501.003	94.25
501.22	92.25
501.437	110.25
501.654	101.25
501.871	106.25
502.088	85.25
502.305	79.25
502.522	89.25
502.739	86.25
502.956	89.25
503.172	90.25
503.389	95.25
503.606	103.25
503.823	88.25
504.04	104.25
504.256	94.25
504.473	96.25
504.69	93.25
504.907	85.25
505.123	101.25
505.34	96.25
505.557	89.25
505.773	96.25
505.99	82.25
506.207	82.25
506.423	90.25
506.64	88.25
506.856	98.25
507.073	88.25
507.289	92.25
507.506	87.25
507.722	99.25
507.939	100.25
508.155	100.25
508.372	99.25
508.588	85.25
508.805	87.25
509.021	85.25
509.238	100.25
509.454	101.25
509.67	115.25
509.887	94.25
510.103	122.25
510.319	215.25
510.536	714.25
510.752	2311.25
510.968	656.25
511.184	147.25
511.401	87.25
511.617	91.25
511.833	99.25
512.049	107.25
512.265	89.25
512.481	104.25
512.698	93.25
512.914	97.25
513.13	103.25
513.346	99.25
513.562	95.25
513.778	102.25
513.994	100.25
514.21	101.25
514.426	113.25
514.642	130.25
514.858	120.25
515.074	163.25
515.29	421.25
515.506	1379.25
