Data from Uncirc_2006_H10_HRD10591_00036.txt Node
Date: Wed Jan 03 10:25:02 EST 2024
User: Yrep
Spectrometer: HR+D1059
Trigger mode: 1
Integration Time (sec): 1.000000E-1
Scans to average: 1
Electric dark correction enabled: true
Nonlinearity correction enabled: false
Boxcar width: 0
XAxis mode: Wavelengths
Number of Pixels in Spectrum: 2048
>>>>>Begin Spectral Data<<<<<
223.165	-24.44
223.4	-24.44
223.635	-24.44
223.869	-20.44
224.104	-26.44
224.338	-16.44
224.573	-15.44
224.808	-8.44
225.042	0.56
225.277	-2.44
225.511	1.56
225.746	-10.44
225.98	17.56
226.215	22.56
226.449	17.56
226.683	10.56
226.918	19.56
227.152	34.56
227.387	43.56
227.621	52.56
227.856	36.56
228.09	43.56
228.324	46.56
228.559	57.56
228.793	73.56
229.027	69.56
229.262	57.56
229.496	82.56
229.73	85.56
229.964	81.56
230.199	75.56
230.433	87.56
230.667	78.56
230.901	78.56
231.136	80.56
231.37	81.56
231.604	89.56
231.838	84.56
232.072	75.56
232.306	85.56
232.541	84.56
232.775	84.56
233.009	89.56
233.243	84.56
233.477	93.56
233.711	93.56
233.945	88.56
234.179	101.56
234.413	82.56
234.647	84.56
234.881	80.56
235.115	76.56
235.349	85.56
235.583	72.56
235.817	79.56
236.051	73.56
236.285	89.56
236.519	77.56
236.753	99.56
236.987	91.56
237.221	81.56
237.455	77.56
237.689	68.56
237.922	72.56
238.156	77.56
238.39	81.56
238.624	77.56
238.858	80.56
239.091	93.56
239.325	69.56
239.559	72.56
239.793	88.56
240.027	87.56
240.26	80.56
240.494	89.56
240.728	63.56
240.961	84.56
241.195	77.56
241.429	78.56
241.662	77.56
241.896	90.56
242.13	72.56
242.363	85.56
242.597	80.56
242.83	77.56
243.064	71.56
243.298	69.56
243.531	79.56
243.765	88.56
243.998	87.56
244.232	87.56
244.465	84.56
244.699	87.56
244.932	94.56
245.166	85.56
245.399	92.56
245.633	81.56
245.866	90.56
246.099	95.56
246.333	67.56
246.566	95.56
246.8	68.56
247.033	69.56
247.266	82.56
247.5	63.56
247.733	83.56
247.966	79.56
248.2	76.56
248.433	79.56
248.666	89.56
248.899	75.56
249.133	94.56
249.366	101.56
249.599	90.56
249.832	87.56
250.066	82.56
250.299	77.56
250.532	83.56
250.765	81.56
250.998	78.56
251.231	81.56
251.465	88.56
251.698	79.56
251.931	83.56
252.164	65.56
252.397	91.56
252.63	77.56
252.863	81.56
253.096	77.56
253.329	79.56
253.562	75.56
253.795	78.56
254.028	85.56
254.261	98.56
254.494	76.56
254.727	81.56
254.96	85.56
255.193	75.56
255.426	90.56
255.659	86.56
255.892	88.56
256.124	72.56
256.357	73.56
256.59	84.56
256.823	84.56
257.056	89.56
257.289	89.56
257.521	84.56
257.754	86.56
257.987	82.56
258.22	87.56
258.452	94.56
258.685	87.56
258.918	78.56
259.151	84.56
259.383	88.56
259.616	84.56
259.849	75.56
260.081	97.56
260.314	79.56
260.547	79.56
260.779	79.56
261.012	94.56
261.244	87.56
261.477	99.56
261.71	101.56
261.942	97.56
262.175	104.56
262.407	74.56
262.64	75.56
262.872	83.56
263.105	76.56
263.337	83.56
263.57	77.56
263.802	96.56
264.035	76.56
264.267	71.56
264.499	93.56
264.732	80.56
264.964	89.56
265.197	80.56
265.429	77.56
265.661	78.56
265.894	80.56
266.126	86.56
266.358	87.56
266.591	96.56
266.823	86.56
267.055	84.56
267.287	77.56
267.52	99.56
267.752	90.56
267.984	90.56
268.216	75.56
268.448	88.56
268.681	95.56
268.913	83.56
269.145	87.56
269.377	77.56
269.609	95.56
269.841	88.56
270.073	81.56
270.306	92.56
270.538	95.56
270.77	83.56
271.002	87.56
271.234	83.56
271.466	84.56
271.698	82.56
271.93	94.56
272.162	86.56
272.394	96.56
272.626	75.56
272.858	97.56
273.09	92.56
273.322	103.56
273.553	93.56
273.785	90.56
274.017	79.56
274.249	91.56
274.481	77.56
274.713	88.56
274.945	84.56
275.176	76.56
275.408	95.56
275.64	95.56
275.872	96.56
276.104	88.56
276.335	84.56
276.567	97.56
276.799	111.56
277.031	104.56
277.262	86.56
277.494	87.56
277.726	83.56
277.957	97.56
278.189	82.56
278.421	72.56
278.652	79.56
278.884	98.56
279.115	90.56
279.347	78.56
279.579	92.56
279.81	82.56
280.042	67.56
280.273	90.56
280.505	91.56
280.736	79.56
280.968	94.56
281.199	89.56
281.431	83.56
281.662	82.56
281.894	89.56
282.125	102.56
282.356	101.56
282.588	126.56
282.819	105.56
283.051	93.56
283.282	96.56
283.513	91.56
283.745	91.56
283.976	83.56
284.207	79.56
284.439	78.56
284.67	87.56
284.901	97.56
285.132	97.56
285.364	84.56
285.595	91.56
285.826	87.56
286.057	96.56
286.288	92.56
286.52	88.56
286.751	89.56
286.982	76.56
287.213	96.56
287.444	91.56
287.675	85.56
287.906	84.56
288.138	86.56
288.369	93.56
288.6	77.56
288.831	94.56
289.062	90.56
289.293	89.56
289.524	86.56
289.755	91.56
289.986	100.56
290.217	91.56
290.448	95.56
290.679	103.56
290.91	93.56
291.141	100.56
291.371	84.56
291.602	80.56
291.833	102.56
292.064	95.56
292.295	95.56
292.526	77.56
292.757	67.56
292.987	85.56
293.218	89.56
293.449	92.56
293.68	85.56
293.91	90.56
294.141	95.56
294.372	99.56
294.603	99.56
294.833	85.56
295.064	91.56
295.295	88.56
295.525	87.56
295.756	103.56
295.987	115.56
296.217	148.56
296.448	127.56
296.679	99.56
296.909	97.56
297.14	99.56
297.37	99.56
297.601	95.56
297.831	87.56
298.062	105.56
298.292	103.56
298.523	83.56
298.753	90.56
298.984	96.56
299.214	94.56
299.445	93.56
299.675	83.56
299.905	99.56
300.136	94.56
300.366	93.56
300.597	102.56
300.827	95.56
301.057	104.56
301.288	101.56
301.518	99.56
301.748	92.56
301.979	105.56
302.209	92.56
302.439	90.56
302.669	94.56
302.9	86.56
303.13	107.56
303.36	101.56
303.59	101.56
303.82	98.56
304.051	94.56
304.281	80.56
304.511	88.56
304.741	89.56
304.971	98.56
305.201	97.56
305.431	97.56
305.661	71.56
305.891	96.56
306.121	100.56
306.352	104.56
306.582	99.56
306.812	86.56
307.042	79.56
307.272	95.56
307.502	80.56
307.731	113.56
307.961	94.56
308.191	93.56
308.421	100.56
308.651	104.56
308.881	99.56
309.111	88.56
309.341	86.56
309.571	85.56
309.8	83.56
310.03	91.56
310.26	90.56
310.49	108.56
310.72	97.56
310.949	92.56
311.179	96.56
311.409	112.56
311.639	88.56
311.868	89.56
312.098	89.56
312.328	94.56
312.557	94.56
312.787	112.56
313.017	100.56
313.246	87.56
313.476	93.56
313.706	69.56
313.935	81.56
314.165	104.56
314.394	95.56
314.624	97.56
314.853	95.56
315.083	98.56
315.312	85.56
315.542	101.56
315.771	88.56
316.001	102.56
316.23	93.56
316.46	93.56
316.689	112.56
316.919	91.56
317.148	110.56
317.377	99.56
317.607	101.56
317.836	88.56
318.065	83.56
318.295	83.56
318.524	100.56
318.753	94.56
318.983	114.56
319.212	99.56
319.441	97.56
319.67	105.56
319.9	97.56
320.129	83.56
320.358	93.56
320.587	94.56
320.816	99.56
321.046	100.56
321.275	96.56
321.504	95.56
321.733	96.56
321.962	104.56
322.191	95.56
322.42	100.56
322.649	103.56
322.878	110.56
323.108	132.56
323.337	120.56
323.566	139.56
323.795	154.56
324.024	195.56
324.253	401.56
324.482	822.56
324.71	1699.56
324.939	2275.56
325.168	841.56
325.397	244.56
325.626	139.56
325.855	124.56
326.084	130.56
326.313	146.56
326.542	168.56
326.77	230.56
326.999	469.56
327.228	957.56
327.457	1768.56
327.686	1383.56
327.914	383.56
328.143	189.56
328.372	130.56
328.6	120.56
328.829	126.56
329.058	120.56
329.287	123.56
329.515	117.56
329.744	114.56
329.972	98.56
330.201	95.56
330.43	109.56
330.658	113.56
330.887	116.56
331.115	109.56
331.344	118.56
331.572	106.56
331.801	106.56
332.03	88.56
332.258	101.56
332.486	112.56
332.715	97.56
332.943	104.56
333.172	97.56
333.4	91.56
333.629	92.56
333.857	96.56
334.085	100.56
334.314	95.56
334.542	83.56
334.771	90.56
334.999	111.56
335.227	98.56
335.455	87.56
335.684	106.56
335.912	97.56
336.14	95.56
336.369	92.56
336.597	103.56
336.825	96.56
337.053	96.56
337.281	96.56
337.51	83.56
337.738	80.56
337.966	104.56
338.194	109.56
338.422	89.56
338.65	88.56
338.878	101.56
339.106	89.56
339.334	102.56
339.562	90.56
339.79	93.56
340.018	94.56
340.246	85.56
340.474	84.56
340.702	94.56
340.93	104.56
341.158	104.56
341.386	96.56
341.614	99.56
341.842	84.56
342.07	92.56
342.298	101.56
342.526	89.56
342.754	94.56
342.981	109.56
343.209	79.56
343.437	84.56
343.665	95.56
343.893	79.56
344.12	89.56
344.348	100.56
344.576	88.56
344.804	89.56
345.031	94.56
345.259	99.56
345.487	99.56
345.714	100.56
345.942	100.56
346.17	94.56
346.397	92.56
346.625	100.56
346.853	95.56
347.08	94.56
347.308	90.56
347.535	81.56
347.763	99.56
347.99	93.56
348.218	100.56
348.445	110.56
348.673	99.56
348.9	81.56
349.128	98.56
349.355	96.56
349.583	87.56
349.81	87.56
350.037	102.56
350.265	96.56
350.492	96.56
350.72	95.56
350.947	117.56
351.174	115.56
351.402	108.56
351.629	106.56
351.856	97.56
352.083	108.56
352.311	108.56
352.538	99.56
352.765	103.56
352.992	119.56
353.22	108.56
353.447	97.56
353.674	98.56
353.901	101.56
354.128	92.56
354.355	104.56
354.583	96.56
354.81	102.56
355.037	97.56
355.264	97.56
355.491	93.56
355.718	100.56
355.945	93.56
356.172	101.56
356.399	114.56
356.626	103.56
356.853	99.56
357.08	80.56
357.307	105.56
357.534	113.56
357.761	104.56
357.988	101.56
358.215	112.56
358.441	103.56
358.668	90.56
358.895	87.56
359.122	91.56
359.349	76.56
359.576	108.56
359.802	95.56
360.029	98.56
360.256	115.56
360.483	113.56
360.709	91.56
360.936	97.56
361.163	103.56
361.39	107.56
361.616	87.56
361.843	81.56
362.07	92.56
362.296	107.56
362.523	105.56
362.749	89.56
362.976	96.56
363.203	102.56
363.429	82.56
363.656	82.56
363.882	98.56
364.109	91.56
364.335	90.56
364.562	89.56
364.788	91.56
365.015	88.56
365.241	102.56
365.468	113.56
365.694	116.56
365.92	97.56
366.147	87.56
366.373	101.56
366.599	101.56
366.826	92.56
367.052	80.56
367.278	95.56
367.505	88.56
367.731	83.56
367.957	96.56
368.184	78.56
368.41	96.56
368.636	118.56
368.862	128.56
369.089	113.56
369.315	96.56
369.541	100.56
369.767	95.56
369.993	84.56
370.219	109.56
370.445	83.56
370.672	76.56
370.898	99.56
371.124	95.56
371.35	96.56
371.576	94.56
371.802	94.56
372.028	94.56
372.254	90.56
372.48	80.56
372.706	86.56
372.932	89.56
373.158	94.56
373.384	86.56
373.61	97.56
373.835	89.56
374.061	89.56
374.287	94.56
374.513	90.56
374.739	88.56
374.965	84.56
375.191	83.56
375.416	100.56
375.642	96.56
375.868	92.56
376.094	97.56
376.319	90.56
376.545	85.56
376.771	78.56
376.997	85.56
377.222	91.56
377.448	97.56
377.674	103.56
377.899	90.56
378.125	95.56
378.35	112.56
378.576	82.56
378.802	93.56
379.027	104.56
379.253	107.56
379.478	109.56
379.704	93.56
379.929	105.56
380.155	98.56
380.38	95.56
380.606	112.56
380.831	99.56
381.057	106.56
381.282	105.56
381.507	95.56
381.733	104.56
381.958	90.56
382.184	110.56
382.409	95.56
382.634	101.56
382.86	104.56
383.085	104.56
383.31	93.56
383.535	100.56
383.761	87.56
383.986	100.56
384.211	92.56
384.436	94.56
384.662	104.56
384.887	103.56
385.112	101.56
385.337	105.56
385.562	115.56
385.787	95.56
386.013	113.56
386.238	114.56
386.463	97.56
386.688	116.56
386.913	105.56
387.138	114.56
387.363	120.56
387.588	116.56
387.813	108.56
388.038	118.56
388.263	118.56
388.488	108.56
388.713	115.56
388.938	103.56
389.163	84.56
389.387	112.56
389.612	101.56
389.837	83.56
390.062	110.56
390.287	83.56
390.512	87.56
390.736	76.56
390.961	91.56
391.186	102.56
391.411	93.56
391.636	103.56
391.86	85.56
392.085	79.56
392.31	85.56
392.534	99.56
392.759	88.56
392.984	85.56
393.208	95.56
393.433	99.56
393.658	86.56
393.882	96.56
394.107	101.56
394.331	94.56
394.556	97.56
394.78	84.56
395.005	86.56
395.229	95.56
395.454	94.56
395.678	92.56
395.903	81.56
396.127	98.56
396.352	93.56
396.576	85.56
396.801	91.56
397.025	95.56
397.249	86.56
397.474	98.56
397.698	81.56
397.922	71.56
398.147	78.56
398.371	72.56
398.595	96.56
398.82	78.56
399.044	84.56
399.268	84.56
399.492	97.56
399.717	91.56
399.941	107.56
400.165	90.56
400.389	96.56
400.613	81.56
400.837	89.56
401.062	92.56
401.286	82.56
401.51	104.56
401.734	93.56
401.958	100.56
402.182	127.56
402.406	137.56
402.63	117.56
402.854	87.56
403.078	98.56
403.302	97.56
403.526	97.56
403.75	89.56
403.974	87.56
404.198	79.56
404.422	102.56
404.645	94.56
404.869	92.56
405.093	95.56
405.317	89.56
405.541	84.56
405.765	97.56
405.988	99.56
406.212	168.56
406.436	212.56
406.66	127.56
406.883	107.56
407.107	72.56
407.331	88.56
407.555	99.56
407.778	88.56
408.002	107.56
408.226	84.56
408.449	79.56
408.673	89.56
408.896	103.56
409.12	93.56
409.344	85.56
409.567	103.56
409.791	89.56
410.014	105.56
410.238	100.56
410.461	88.56
410.685	94.56
410.908	104.56
411.132	103.56
411.355	112.56
411.578	92.56
411.802	87.56
412.025	97.56
412.249	98.56
412.472	102.56
412.695	98.56
412.919	85.56
413.142	83.56
413.365	74.56
413.589	94.56
413.812	87.56
414.035	92.56
414.258	88.56
414.482	77.56
414.705	96.56
414.928	89.56
415.151	95.56
415.374	101.56
415.597	93.56
415.821	83.56
416.044	99.56
416.267	87.56
416.49	85.56
416.713	90.56
416.936	81.56
417.159	94.56
417.382	100.56
417.605	96.56
417.828	110.56
418.051	83.56
418.274	91.56
418.497	102.56
418.72	101.56
418.943	105.56
419.166	89.56
419.389	104.56
419.611	97.56
419.834	91.56
420.057	92.56
420.28	82.56
420.503	95.56
420.726	87.56
420.948	97.56
421.171	97.56
421.394	88.56
421.617	88.56
421.839	94.56
422.062	96.56
422.285	80.56
422.507	92.56
422.73	105.56
422.953	95.56
423.175	107.56
423.398	87.56
423.621	89.56
423.843	67.56
424.066	90.56
424.288	88.56
424.511	91.56
424.733	77.56
424.956	103.56
425.178	108.56
425.401	99.56
425.623	101.56
425.846	101.56
426.068	95.56
426.291	97.56
426.513	116.56
426.735	98.56
426.958	93.56
427.18	123.56
427.402	133.56
427.625	141.56
427.847	112.56
428.069	91.56
428.292	96.56
428.514	90.56
428.736	76.56
428.958	91.56
429.181	83.56
429.403	82.56
429.625	98.56
429.847	88.56
430.069	94.56
430.292	100.56
430.514	99.56
430.736	92.56
430.958	67.56
431.18	87.56
431.402	94.56
431.624	87.56
431.846	86.56
432.068	92.56
432.29	91.56
432.512	90.56
432.734	78.56
432.956	87.56
433.178	87.56
433.4	84.56
433.622	91.56
433.844	92.56
434.066	96.56
434.287	81.56
434.509	80.56
434.731	93.56
434.953	85.56
435.175	91.56
435.397	86.56
435.618	93.56
435.84	109.56
436.062	128.56
436.284	117.56
436.505	101.56
436.727	109.56
436.949	99.56
437.17	86.56
437.392	77.56
437.614	89.56
437.835	103.56
438.057	100.56
438.278	110.56
438.5	98.56
438.721	134.56
438.943	103.56
439.165	80.56
439.386	88.56
439.608	82.56
439.829	93.56
440.05	107.56
440.272	133.56
440.493	90.56
440.715	82.56
440.936	96.56
441.158	98.56
441.379	93.56
441.6	99.56
441.822	95.56
442.043	92.56
442.264	106.56
442.486	95.56
442.707	95.56
442.928	88.56
443.149	112.56
443.371	117.56
443.592	110.56
443.813	116.56
444.034	107.56
444.255	84.56
444.476	82.56
444.698	84.56
444.919	81.56
445.14	125.56
445.361	127.56
445.582	108.56
445.803	133.56
446.024	125.56
446.245	133.56
446.466	109.56
446.687	92.56
446.908	84.56
447.129	95.56
447.35	95.56
447.571	85.56
447.792	99.56
448.013	114.56
448.234	106.56
448.455	100.56
448.675	114.56
448.896	111.56
449.117	110.56
449.338	99.56
449.559	114.56
449.779	126.56
450	100.56
450.221	77.56
450.442	95.56
450.662	101.56
450.883	100.56
451.104	102.56
451.324	91.56
451.545	90.56
451.766	77.56
451.986	82.56
452.207	80.56
452.428	95.56
452.648	110.56
452.869	114.56
453.089	104.56
453.31	103.56
453.53	92.56
453.751	95.56
453.971	96.56
454.192	102.56
454.412	84.56
454.633	107.56
454.853	88.56
455.073	92.56
455.294	100.56
455.514	94.56
455.734	94.56
455.955	84.56
456.175	94.56
456.395	89.56
456.616	98.56
456.836	84.56
457.056	72.56
457.276	79.56
457.497	95.56
457.717	86.56
457.937	80.56
458.157	90.56
458.377	93.56
458.598	98.56
458.818	131.56
459.038	145.56
459.258	100.56
459.478	81.56
459.698	85.56
459.918	89.56
460.138	90.56
460.358	94.56
460.578	89.56
460.798	97.56
461.018	97.56
461.238	83.56
461.458	87.56
461.678	84.56
461.898	99.56
462.118	72.56
462.338	91.56
462.558	81.56
462.777	98.56
462.997	88.56
463.217	89.56
463.437	77.56
463.657	91.56
463.876	100.56
464.096	91.56
464.316	69.56
464.536	100.56
464.755	96.56
464.975	91.56
465.195	157.56
465.414	124.56
465.634	84.56
465.854	84.56
466.073	94.56
466.293	96.56
466.512	89.56
466.732	109.56
466.951	84.56
467.171	96.56
467.391	97.56
467.61	100.56
467.829	87.56
468.049	86.56
468.268	88.56
468.488	84.56
468.707	91.56
468.927	86.56
469.146	78.56
469.365	86.56
469.585	74.56
469.804	96.56
470.023	97.56
470.243	98.56
470.462	89.56
470.681	113.56
470.901	79.56
471.12	85.56
471.339	99.56
471.558	80.56
471.777	95.56
471.997	89.56
472.216	73.56
472.435	101.56
472.654	99.56
472.873	83.56
473.092	88.56
473.311	96.56
473.53	80.56
473.749	94.56
473.968	91.56
474.187	111.56
474.406	101.56
474.625	89.56
474.844	94.56
475.063	87.56
475.282	86.56
475.501	67.56
475.72	85.56
475.939	85.56
476.158	102.56
476.377	98.56
476.596	81.56
476.814	90.56
477.033	86.56
477.252	93.56
477.471	93.56
477.69	84.56
477.908	77.56
478.127	93.56
478.346	84.56
478.564	88.56
478.783	104.56
479.002	88.56
479.22	83.56
479.439	95.56
479.658	116.56
479.876	101.56
480.095	93.56
480.313	88.56
480.532	93.56
480.751	104.56
480.969	91.56
481.188	103.56
481.406	105.56
481.624	95.56
481.843	94.56
482.061	81.56
482.28	87.56
482.498	83.56
482.717	83.56
482.935	99.56
483.153	103.56
483.372	101.56
483.59	100.56
483.808	81.56
484.027	99.56
484.245	80.56
484.463	85.56
484.681	88.56
484.9	81.56
485.118	103.56
485.336	97.56
485.554	103.56
485.772	97.56
485.99	110.56
486.209	78.56
486.427	88.56
486.645	99.56
486.863	91.56
487.081	103.56
487.299	98.56
487.517	88.56
487.735	91.56
487.953	104.56
488.171	88.56
488.389	96.56
488.607	96.56
488.825	96.56
489.043	87.56
489.261	84.56
489.479	101.56
489.696	91.56
489.914	89.56
490.132	105.56
490.35	95.56
490.568	84.56
490.786	79.56
491.003	93.56
491.221	93.56
491.439	88.56
491.657	91.56
491.874	83.56
492.092	93.56
492.31	92.56
492.527	92.56
492.745	94.56
492.963	97.56
493.18	101.56
493.398	92.56
493.615	95.56
493.833	98.56
494.05	91.56
494.268	88.56
494.485	93.56
494.703	94.56
494.92	87.56
495.138	96.56
495.355	90.56
495.573	84.56
495.79	106.56
496.008	84.56
496.225	104.56
496.442	97.56
496.66	83.56
496.877	103.56
497.094	99.56
497.312	88.56
497.529	94.56
497.746	92.56
497.963	92.56
498.181	104.56
498.398	96.56
498.615	116.56
498.832	105.56
499.049	94.56
499.267	104.56
499.484	95.56
499.701	93.56
499.918	100.56
500.135	90.56
500.352	90.56
500.569	91.56
500.786	102.56
501.003	94.56
501.22	100.56
501.437	97.56
501.654	95.56
501.871	110.56
502.088	107.56
502.305	97.56
502.522	93.56
502.739	92.56
502.956	85.56
503.172	95.56
503.389	87.56
503.606	105.56
503.823	103.56
504.04	100.56
504.256	97.56
504.473	97.56
504.69	102.56
504.907	95.56
505.123	92.56
505.34	91.56
505.557	88.56
505.773	93.56
505.99	88.56
506.207	108.56
506.423	109.56
506.64	94.56
506.856	72.56
507.073	84.56
507.289	94.56
507.506	84.56
507.722	113.56
507.939	112.56
508.155	96.56
508.372	98.56
508.588	77.56
508.805	93.56
509.021	102.56
509.238	114.56
509.454	91.56
509.67	91.56
509.887	117.56
510.103	141.56
510.319	225.56
510.536	736.56
510.752	2257.56
510.968	651.56
511.184	169.56
511.401	111.56
511.617	105.56
511.833	100.56
512.049	97.56
512.265	103.56
512.481	88.56
512.698	84.56
512.914	102.56
513.13	91.56
513.346	96.56
513.562	87.56
513.778	110.56
513.994	107.56
514.21	103.56
514.426	123.56
514.642	124.56
514.858	120.56
515.074	164.56
