Data from Uncirc_2006_H10_HRD10591_00054.txt Node
Date: Wed Jan 03 10:25:05 EST 2024
User: Yrep
Spectrometer: HR+D1059
Trigger mode: 1
Integration Time (sec): 1.000000E-1
Scans to average: 1
Electric dark correction enabled: true
Nonlinearity correction enabled: false
Boxcar width: 0
XAxis mode: Wavelengths
Number of Pixels in Spectrum: 2048
>>>>>Begin Spectral Data<<<<<
223.165	-13.56
223.4	-13.56
223.635	-13.56
223.869	-18.56
224.104	-13.56
224.338	-12.56
224.573	-6.56
224.808	-5.56
225.042	-12.56
225.277	-1.56
225.511	-21.56
225.746	-9.56
225.98	9.44
226.215	5.44
226.449	16.44
226.683	28.44
226.918	26.44
227.152	29.44
227.387	30.44
227.621	30.44
227.856	38.44
228.09	43.44
228.324	48.44
228.559	66.44
228.793	79.44
229.027	58.44
229.262	75.44
229.496	74.44
229.73	89.44
229.964	83.44
230.199	68.44
230.433	71.44
230.667	85.44
230.901	67.44
231.136	74.44
231.37	87.44
231.604	97.44
231.838	75.44
232.072	78.44
232.306	85.44
232.541	91.44
232.775	83.44
233.009	90.44
233.243	83.44
233.477	64.44
233.711	66.44
233.945	88.44
234.179	86.44
234.413	76.44
234.647	72.44
234.881	81.44
235.115	69.44
235.349	71.44
235.583	86.44
235.817	89.44
236.051	71.44
236.285	60.44
236.519	78.44
236.753	80.44
236.987	85.44
237.221	77.44
237.455	79.44
237.689	70.44
237.922	74.44
238.156	64.44
238.39	79.44
238.624	95.44
238.858	74.44
239.091	83.44
239.325	96.44
239.559	76.44
239.793	67.44
240.027	87.44
240.26	85.44
240.494	76.44
240.728	73.44
240.961	84.44
241.195	77.44
241.429	82.44
241.662	76.44
241.896	66.44
242.13	51.44
242.363	73.44
242.597	76.44
242.83	98.44
243.064	81.44
243.298	71.44
243.531	75.44
243.765	83.44
243.998	86.44
244.232	79.44
244.465	87.44
244.699	63.44
244.932	66.44
245.166	84.44
245.399	69.44
245.633	74.44
245.866	88.44
246.099	81.44
246.333	75.44
246.566	73.44
246.8	79.44
247.033	83.44
247.266	82.44
247.5	75.44
247.733	86.44
247.966	82.44
248.2	84.44
248.433	82.44
248.666	81.44
248.899	85.44
249.133	79.44
249.366	91.44
249.599	89.44
249.832	83.44
250.066	80.44
250.299	73.44
250.532	70.44
250.765	60.44
250.998	70.44
251.231	75.44
251.465	72.44
251.698	71.44
251.931	76.44
252.164	79.44
252.397	79.44
252.63	82.44
252.863	72.44
253.096	53.44
253.329	88.44
253.562	78.44
253.795	71.44
254.028	84.44
254.261	68.44
254.494	69.44
254.727	71.44
254.96	82.44
255.193	88.44
255.426	81.44
255.659	83.44
255.892	85.44
256.124	88.44
256.357	83.44
256.59	83.44
256.823	65.44
257.056	80.44
257.289	87.44
257.521	78.44
257.754	85.44
257.987	84.44
258.22	88.44
258.452	84.44
258.685	78.44
258.918	83.44
259.151	73.44
259.383	80.44
259.616	88.44
259.849	86.44
260.081	96.44
260.314	85.44
260.547	83.44
260.779	70.44
261.012	80.44
261.244	72.44
261.477	93.44
261.71	107.44
261.942	103.44
262.175	118.44
262.407	78.44
262.64	90.44
262.872	77.44
263.105	86.44
263.337	72.44
263.57	84.44
263.802	101.44
264.035	92.44
264.267	85.44
264.499	81.44
264.732	74.44
264.964	87.44
265.197	80.44
265.429	93.44
265.661	68.44
265.894	87.44
266.126	83.44
266.358	83.44
266.591	89.44
266.823	92.44
267.055	88.44
267.287	91.44
267.52	92.44
267.752	76.44
267.984	75.44
268.216	92.44
268.448	75.44
268.681	71.44
268.913	83.44
269.145	83.44
269.377	83.44
269.609	70.44
269.841	88.44
270.073	76.44
270.306	84.44
270.538	77.44
270.77	69.44
271.002	79.44
271.234	84.44
271.466	95.44
271.698	96.44
271.93	73.44
272.162	80.44
272.394	93.44
272.626	88.44
272.858	84.44
273.09	88.44
273.322	81.44
273.553	92.44
273.785	89.44
274.017	77.44
274.249	86.44
274.481	77.44
274.713	91.44
274.945	83.44
275.176	85.44
275.408	87.44
275.64	89.44
275.872	79.44
276.104	80.44
276.335	77.44
276.567	97.44
276.799	95.44
277.031	98.44
277.262	94.44
277.494	91.44
277.726	70.44
277.957	95.44
278.189	95.44
278.421	86.44
278.652	101.44
278.884	78.44
279.115	85.44
279.347	92.44
279.579	90.44
279.81	96.44
280.042	75.44
280.273	82.44
280.505	79.44
280.736	87.44
280.968	100.44
281.199	93.44
281.431	87.44
281.662	86.44
281.894	89.44
282.125	98.44
282.356	116.44
282.588	119.44
282.819	109.44
283.051	91.44
283.282	87.44
283.513	96.44
283.745	95.44
283.976	87.44
284.207	96.44
284.439	93.44
284.67	93.44
284.901	98.44
285.132	102.44
285.364	82.44
285.595	83.44
285.826	76.44
286.057	86.44
286.288	98.44
286.52	89.44
286.751	85.44
286.982	85.44
287.213	91.44
287.444	92.44
287.675	95.44
287.906	83.44
288.138	86.44
288.369	86.44
288.6	104.44
288.831	84.44
289.062	84.44
289.293	95.44
289.524	89.44
289.755	90.44
289.986	96.44
290.217	84.44
290.448	74.44
290.679	85.44
290.91	76.44
291.141	78.44
291.371	84.44
291.602	87.44
291.833	81.44
292.064	83.44
292.295	84.44
292.526	87.44
292.757	79.44
292.987	88.44
293.218	87.44
293.449	78.44
293.68	91.44
293.91	88.44
294.141	83.44
294.372	85.44
294.603	76.44
294.833	92.44
295.064	85.44
295.295	96.44
295.525	108.44
295.756	91.44
295.987	110.44
296.217	114.44
296.448	104.44
296.679	98.44
296.909	86.44
297.14	87.44
297.37	84.44
297.601	102.44
297.831	108.44
298.062	93.44
298.292	75.44
298.523	75.44
298.753	72.44
298.984	70.44
299.214	94.44
299.445	95.44
299.675	85.44
299.905	92.44
300.136	89.44
300.366	74.44
300.597	91.44
300.827	83.44
301.057	103.44
301.288	91.44
301.518	89.44
301.748	87.44
301.979	84.44
302.209	77.44
302.439	98.44
302.669	103.44
302.9	82.44
303.13	84.44
303.36	85.44
303.59	101.44
303.82	84.44
304.051	100.44
304.281	78.44
304.511	87.44
304.741	78.44
304.971	81.44
305.201	98.44
305.431	94.44
305.661	96.44
305.891	90.44
306.121	99.44
306.352	93.44
306.582	112.44
306.812	87.44
307.042	80.44
307.272	84.44
307.502	101.44
307.731	93.44
307.961	104.44
308.191	101.44
308.421	86.44
308.651	92.44
308.881	97.44
309.111	81.44
309.341	96.44
309.571	89.44
309.8	88.44
310.03	103.44
310.26	102.44
310.49	100.44
310.72	94.44
310.949	108.44
311.179	88.44
311.409	77.44
311.639	93.44
311.868	109.44
312.098	112.44
312.328	110.44
312.557	93.44
312.787	89.44
313.017	95.44
313.246	88.44
313.476	88.44
313.706	91.44
313.935	94.44
314.165	93.44
314.394	105.44
314.624	107.44
314.853	105.44
315.083	95.44
315.312	87.44
315.542	100.44
315.771	78.44
316.001	96.44
316.23	76.44
316.46	93.44
316.689	87.44
316.919	98.44
317.148	104.44
317.377	96.44
317.607	95.44
317.836	95.44
318.065	93.44
318.295	76.44
318.524	93.44
318.753	90.44
318.983	92.44
319.212	101.44
319.441	105.44
319.67	103.44
319.9	99.44
320.129	99.44
320.358	105.44
320.587	104.44
320.816	95.44
321.046	98.44
321.275	98.44
321.504	105.44
321.733	101.44
321.962	96.44
322.191	103.44
322.42	106.44
322.649	94.44
322.878	98.44
323.108	100.44
323.337	127.44
323.566	123.44
323.795	138.44
324.024	191.44
324.253	388.44
324.482	802.44
324.71	1640.44
324.939	2144.44
325.168	813.44
325.397	237.44
325.626	135.44
325.855	133.44
326.084	118.44
326.313	112.44
326.542	142.44
326.77	224.44
326.999	431.44
327.228	931.44
327.457	1668.44
327.686	1333.44
327.914	370.44
328.143	182.44
328.372	128.44
328.6	120.44
328.829	103.44
329.058	118.44
329.287	115.44
329.515	110.44
329.744	96.44
329.972	109.44
330.201	110.44
330.43	102.44
330.658	115.44
330.887	125.44
331.115	104.44
331.344	92.44
331.572	92.44
331.801	100.44
332.03	102.44
332.258	109.44
332.486	93.44
332.715	93.44
332.943	87.44
333.172	91.44
333.4	90.44
333.629	103.44
333.857	109.44
334.085	99.44
334.314	92.44
334.542	93.44
334.771	106.44
334.999	88.44
335.227	92.44
335.455	106.44
335.684	97.44
335.912	85.44
336.14	98.44
336.369	100.44
336.597	97.44
336.825	87.44
337.053	98.44
337.281	105.44
337.51	101.44
337.738	92.44
337.966	87.44
338.194	90.44
338.422	97.44
338.65	90.44
338.878	99.44
339.106	90.44
339.334	101.44
339.562	92.44
339.79	94.44
340.018	97.44
340.246	84.44
340.474	85.44
340.702	88.44
340.93	86.44
341.158	86.44
341.386	102.44
341.614	107.44
341.842	96.44
342.07	87.44
342.298	88.44
342.526	87.44
342.754	88.44
342.981	83.44
343.209	100.44
343.437	108.44
343.665	86.44
343.893	103.44
344.12	102.44
344.348	95.44
344.576	105.44
344.804	96.44
345.031	100.44
345.259	98.44
345.487	80.44
345.714	110.44
345.942	91.44
346.17	101.44
346.397	100.44
346.625	96.44
346.853	91.44
347.08	87.44
347.308	96.44
347.535	96.44
347.763	101.44
347.99	94.44
348.218	99.44
348.445	100.44
348.673	87.44
348.9	94.44
349.128	96.44
349.355	84.44
349.583	94.44
349.81	90.44
350.037	89.44
350.265	100.44
350.492	105.44
350.72	94.44
350.947	103.44
351.174	110.44
351.402	113.44
351.629	97.44
351.856	107.44
352.083	95.44
352.311	110.44
352.538	100.44
352.765	115.44
352.992	104.44
353.22	119.44
353.447	113.44
353.674	111.44
353.901	95.44
354.128	100.44
354.355	91.44
354.583	100.44
354.81	108.44
355.037	85.44
355.264	93.44
355.491	97.44
355.718	102.44
355.945	101.44
356.172	77.44
356.399	106.44
356.626	93.44
356.853	96.44
357.08	93.44
357.307	85.44
357.534	99.44
357.761	94.44
357.988	83.44
358.215	100.44
358.441	99.44
358.668	93.44
358.895	96.44
359.122	91.44
359.349	92.44
359.576	89.44
359.802	98.44
360.029	108.44
360.256	91.44
360.483	87.44
360.709	91.44
360.936	100.44
361.163	93.44
361.39	88.44
361.616	87.44
361.843	81.44
362.07	106.44
362.296	81.44
362.523	83.44
362.749	87.44
362.976	94.44
363.203	89.44
363.429	91.44
363.656	99.44
363.882	90.44
364.109	100.44
364.335	105.44
364.562	93.44
364.788	84.44
365.015	96.44
365.241	93.44
365.468	115.44
365.694	110.44
365.92	86.44
366.147	84.44
366.373	96.44
366.599	92.44
366.826	93.44
367.052	95.44
367.278	93.44
367.505	94.44
367.731	99.44
367.957	74.44
368.184	92.44
368.41	92.44
368.636	111.44
368.862	114.44
369.089	96.44
369.315	95.44
369.541	87.44
369.767	84.44
369.993	81.44
370.219	81.44
370.445	89.44
370.672	91.44
370.898	101.44
371.124	92.44
371.35	77.44
371.576	84.44
371.802	78.44
372.028	74.44
372.254	83.44
372.48	88.44
372.706	104.44
372.932	74.44
373.158	100.44
373.384	98.44
373.61	78.44
373.835	85.44
374.061	85.44
374.287	95.44
374.513	90.44
374.739	84.44
374.965	91.44
375.191	84.44
375.416	81.44
375.642	83.44
375.868	90.44
376.094	96.44
376.319	98.44
376.545	91.44
376.771	92.44
376.997	92.44
377.222	101.44
377.448	98.44
377.674	73.44
377.899	100.44
378.125	89.44
378.35	85.44
378.576	108.44
378.802	93.44
379.027	92.44
379.253	91.44
379.478	93.44
379.704	107.44
379.929	96.44
380.155	100.44
380.38	102.44
380.606	90.44
380.831	86.44
381.057	94.44
381.282	94.44
381.507	98.44
381.733	94.44
381.958	95.44
382.184	98.44
382.409	95.44
382.634	99.44
382.86	116.44
383.085	107.44
383.31	107.44
383.535	109.44
383.761	104.44
383.986	113.44
384.211	113.44
384.436	92.44
384.662	96.44
384.887	104.44
385.112	100.44
385.337	110.44
385.562	103.44
385.787	103.44
386.013	94.44
386.238	109.44
386.463	111.44
386.688	116.44
386.913	114.44
387.138	101.44
387.363	100.44
387.588	105.44
387.813	108.44
388.038	108.44
388.263	123.44
388.488	115.44
388.713	85.44
388.938	98.44
389.163	109.44
389.387	94.44
389.612	98.44
389.837	102.44
390.062	85.44
390.287	100.44
390.512	105.44
390.736	91.44
390.961	97.44
391.186	92.44
391.411	91.44
391.636	92.44
391.86	99.44
392.085	95.44
392.31	87.44
392.534	100.44
392.759	99.44
392.984	81.44
393.208	96.44
393.433	87.44
393.658	96.44
393.882	64.44
394.107	90.44
394.331	97.44
394.556	93.44
394.78	86.44
395.005	86.44
395.229	77.44
395.454	86.44
395.678	88.44
395.903	85.44
396.127	97.44
396.352	81.44
396.576	100.44
396.801	88.44
397.025	75.44
397.249	92.44
397.474	91.44
397.698	83.44
397.922	79.44
398.147	77.44
398.371	83.44
398.595	95.44
398.82	93.44
399.044	88.44
399.268	91.44
399.492	89.44
399.717	93.44
399.941	91.44
400.165	103.44
400.389	89.44
400.613	86.44
400.837	87.44
401.062	99.44
401.286	102.44
401.51	88.44
401.734	83.44
401.958	110.44
402.182	130.44
402.406	159.44
402.63	106.44
402.854	104.44
403.078	102.44
403.302	91.44
403.526	87.44
403.75	97.44
403.974	85.44
404.198	92.44
404.422	86.44
404.645	81.44
404.869	92.44
405.093	102.44
405.317	98.44
405.541	97.44
405.765	94.44
405.988	98.44
406.212	174.44
406.436	200.44
406.66	129.44
406.883	95.44
407.107	105.44
407.331	101.44
407.555	105.44
407.778	84.44
408.002	90.44
408.226	94.44
408.449	88.44
408.673	88.44
408.896	84.44
409.12	94.44
409.344	97.44
409.567	93.44
409.791	90.44
410.014	90.44
410.238	100.44
410.461	80.44
410.685	90.44
410.908	94.44
411.132	103.44
411.355	106.44
411.578	108.44
411.802	92.44
412.025	87.44
412.249	95.44
412.472	85.44
412.695	85.44
412.919	85.44
413.142	95.44
413.365	92.44
413.589	82.44
413.812	70.44
414.035	93.44
414.258	78.44
414.482	81.44
414.705	87.44
414.928	94.44
415.151	95.44
415.374	106.44
415.597	87.44
415.821	82.44
416.044	80.44
416.267	105.44
416.49	84.44
416.713	104.44
416.936	100.44
417.159	100.44
417.382	95.44
417.605	79.44
417.828	89.44
418.051	93.44
418.274	88.44
418.497	93.44
418.72	81.44
418.943	91.44
419.166	96.44
419.389	84.44
419.611	88.44
419.834	97.44
420.057	95.44
420.28	84.44
420.503	94.44
420.726	87.44
420.948	75.44
421.171	87.44
421.394	80.44
421.617	78.44
421.839	87.44
422.062	94.44
422.285	85.44
422.507	80.44
422.73	105.44
422.953	96.44
423.175	74.44
423.398	78.44
423.621	92.44
423.843	98.44
424.066	92.44
424.288	92.44
424.511	104.44
424.733	106.44
424.956	109.44
425.178	102.44
425.401	104.44
425.623	96.44
425.846	92.44
426.068	89.44
426.291	103.44
426.513	93.44
426.735	91.44
426.958	102.44
427.18	105.44
427.402	128.44
427.625	154.44
427.847	124.44
428.069	95.44
428.292	79.44
428.514	90.44
428.736	86.44
428.958	99.44
429.181	84.44
429.403	86.44
429.625	80.44
429.847	80.44
430.069	83.44
430.292	93.44
430.514	101.44
430.736	95.44
430.958	97.44
431.18	94.44
431.402	95.44
431.624	87.44
431.846	67.44
432.068	97.44
432.29	79.44
432.512	105.44
432.734	98.44
432.956	89.44
433.178	95.44
433.4	96.44
433.622	103.44
433.844	84.44
434.066	78.44
434.287	92.44
434.509	95.44
434.731	78.44
434.953	85.44
435.175	85.44
435.397	108.44
435.618	76.44
435.84	97.44
436.062	105.44
436.284	92.44
436.505	101.44
436.727	106.44
436.949	98.44
437.17	83.44
437.392	90.44
437.614	94.44
437.835	91.44
438.057	106.44
438.278	110.44
438.5	104.44
438.721	134.44
438.943	94.44
439.165	86.44
439.386	87.44
439.608	91.44
439.829	107.44
440.05	118.44
440.272	138.44
440.493	96.44
440.715	99.44
440.936	88.44
441.158	98.44
441.379	83.44
441.6	86.44
441.822	85.44
442.043	92.44
442.264	84.44
442.486	95.44
442.707	99.44
442.928	100.44
443.149	123.44
443.371	110.44
443.592	92.44
443.813	94.44
444.034	105.44
444.255	99.44
444.476	101.44
444.698	91.44
444.919	77.44
445.14	131.44
445.361	129.44
445.582	103.44
445.803	118.44
446.024	118.44
446.245	136.44
446.466	112.44
446.687	87.44
446.908	90.44
447.129	85.44
447.35	77.44
447.571	95.44
447.792	95.44
448.013	92.44
448.234	110.44
448.455	101.44
448.675	104.44
448.896	107.44
449.117	92.44
449.338	103.44
449.559	111.44
449.779	120.44
450	84.44
450.221	85.44
450.442	89.44
450.662	85.44
450.883	102.44
451.104	106.44
451.324	93.44
451.545	92.44
451.766	91.44
451.986	96.44
452.207	92.44
452.428	83.44
452.648	110.44
452.869	89.44
453.089	110.44
453.31	104.44
453.53	87.44
453.751	98.44
453.971	91.44
454.192	104.44
454.412	78.44
454.633	77.44
454.853	81.44
455.073	82.44
455.294	80.44
455.514	88.44
455.734	91.44
455.955	87.44
456.175	89.44
456.395	93.44
456.616	91.44
456.836	95.44
457.056	86.44
457.276	95.44
457.497	88.44
457.717	82.44
457.937	78.44
458.157	86.44
458.377	88.44
458.598	115.44
458.818	149.44
459.038	152.44
459.258	100.44
459.478	81.44
459.698	74.44
459.918	94.44
460.138	76.44
460.358	72.44
460.578	91.44
460.798	81.44
461.018	87.44
461.238	68.44
461.458	79.44
461.678	78.44
461.898	94.44
462.118	99.44
462.338	94.44
462.558	86.44
462.777	99.44
462.997	82.44
463.217	84.44
463.437	96.44
463.657	94.44
463.876	89.44
464.096	97.44
464.316	81.44
464.536	78.44
464.755	98.44
464.975	97.44
465.195	164.44
465.414	132.44
465.634	90.44
465.854	98.44
466.073	92.44
466.293	85.44
466.512	97.44
466.732	95.44
466.951	84.44
467.171	94.44
467.391	90.44
467.61	75.44
467.829	86.44
468.049	96.44
468.268	92.44
468.488	99.44
468.707	83.44
468.927	85.44
469.146	87.44
469.365	87.44
469.585	82.44
469.804	77.44
470.023	94.44
470.243	93.44
470.462	95.44
470.681	103.44
470.901	106.44
471.12	87.44
471.339	95.44
471.558	89.44
471.777	81.44
471.997	104.44
472.216	86.44
472.435	78.44
472.654	82.44
472.873	83.44
473.092	93.44
473.311	88.44
473.53	90.44
473.749	84.44
473.968	88.44
474.187	90.44
474.406	92.44
474.625	82.44
474.844	79.44
475.063	73.44
475.282	95.44
475.501	85.44
475.72	87.44
475.939	98.44
476.158	76.44
476.377	100.44
476.596	79.44
476.814	91.44
477.033	88.44
477.252	78.44
477.471	92.44
477.69	79.44
477.908	82.44
478.127	91.44
478.346	80.44
478.564	95.44
478.783	98.44
479.002	99.44
479.22	95.44
479.439	88.44
479.658	86.44
479.876	92.44
480.095	74.44
480.313	75.44
480.532	88.44
480.751	67.44
480.969	99.44
481.188	86.44
481.406	96.44
481.624	96.44
481.843	88.44
482.061	81.44
482.28	86.44
482.498	86.44
482.717	94.44
482.935	92.44
483.153	82.44
483.372	78.44
483.59	79.44
483.808	86.44
484.027	94.44
484.245	95.44
484.463	95.44
484.681	102.44
484.9	94.44
485.118	92.44
485.336	95.44
485.554	89.44
485.772	94.44
485.99	97.44
486.209	96.44
486.427	100.44
486.645	102.44
486.863	115.44
487.081	87.44
487.299	82.44
487.517	86.44
487.735	95.44
487.953	100.44
488.171	77.44
488.389	95.44
488.607	97.44
488.825	85.44
489.043	83.44
489.261	87.44
489.479	85.44
489.696	87.44
489.914	83.44
490.132	94.44
490.35	92.44
490.568	98.44
490.786	83.44
491.003	97.44
491.221	100.44
491.439	88.44
491.657	99.44
491.874	90.44
492.092	98.44
492.31	91.44
492.527	100.44
492.745	92.44
492.963	92.44
493.18	90.44
493.398	86.44
493.615	103.44
493.833	90.44
494.05	92.44
494.268	95.44
494.485	78.44
494.703	98.44
494.92	94.44
495.138	77.44
495.355	98.44
495.573	103.44
495.79	89.44
496.008	73.44
496.225	81.44
496.442	85.44
496.66	97.44
496.877	93.44
497.094	87.44
497.312	99.44
497.529	82.44
497.746	81.44
497.963	88.44
498.181	96.44
498.398	95.44
498.615	111.44
498.832	107.44
499.049	88.44
499.267	111.44
499.484	85.44
499.701	90.44
499.918	89.44
500.135	103.44
500.352	94.44
500.569	97.44
500.786	92.44
501.003	81.44
501.22	83.44
501.437	85.44
501.654	92.44
501.871	102.44
502.088	82.44
502.305	98.44
502.522	105.44
502.739	98.44
502.956	102.44
503.172	83.44
503.389	95.44
503.606	83.44
503.823	95.44
504.04	90.44
504.256	83.44
504.473	86.44
504.69	85.44
504.907	87.44
505.123	94.44
505.34	96.44
505.557	86.44
505.773	93.44
505.99	78.44
506.207	86.44
506.423	99.44
506.64	88.44
506.856	80.44
507.073	96.44
507.289	92.44
507.506	105.44
507.722	102.44
507.939	99.44
508.155	89.44
508.372	98.44
508.588	92.44
508.805	94.44
509.021	102.44
509.238	101.44
509.454	85.44
509.67	83.44
509.887	88.44
510.103	127.44
510.319	197.44
510.536	714.44
510.752	2173.44
510.968	631.44
511.184	142.44
511.401	122.44
511.617	100.44
511.833	85.44
512.049	94.44
512.265	90.44
512.481	111.44
512.698	86.44
512.914	93.44
513.13	96.44
513.346	88.44
513.562	97.44
513.778	107.44
513.994	88.44
514.21	88.44
514.426	126.44
514.642	133.44
514.858	130.44
515.074	170.44
515.29	409.44
515.506	1299.44
515.721	497.44
515.937	147.44
