Data from Uncirc_2006_H10_HRD10591_00055.txt Node
Date: Wed Jan 03 10:25:06 EST 2024
User: Yrep
Spectrometer: HR+D1059
Trigger mode: 1
Integration Time (sec): 1.000000E-1
Scans to average: 1
Electric dark correction enabled: true
Nonlinearity correction enabled: false
Boxcar width: 0
XAxis mode: Wavelengths
Number of Pixels in Spectrum: 2048
>>>>>Begin Spectral Data<<<<<
223.165	-13.94
223.4	-13.94
223.635	-13.94
223.869	-18.94
224.104	-25.94
224.338	-12.94
224.573	-11.94
224.808	-18.94
225.042	-4.94
225.277	2.06
225.511	-1.94
225.746	8.06
225.98	6.06
226.215	13.06
226.449	17.06
226.683	15.06
226.918	22.06
227.152	26.06
227.387	44.06
227.621	46.06
227.856	45.06
228.09	49.06
228.324	59.06
228.559	60.06
228.793	56.06
229.027	58.06
229.262	64.06
229.496	59.06
229.73	74.06
229.964	77.06
230.199	67.06
230.433	78.06
230.667	70.06
230.901	64.06
231.136	73.06
231.37	74.06
231.604	79.06
231.838	83.06
232.072	80.06
232.306	88.06
232.541	66.06
232.775	67.06
233.009	86.06
233.243	81.06
233.477	82.06
233.711	85.06
233.945	93.06
234.179	68.06
234.413	79.06
234.647	58.06
234.881	77.06
235.115	73.06
235.349	61.06
235.583	71.06
235.817	72.06
236.051	84.06
236.285	77.06
236.519	79.06
236.753	73.06
236.987	70.06
237.221	90.06
237.455	88.06
237.689	68.06
237.922	74.06
238.156	73.06
238.39	73.06
238.624	69.06
238.858	81.06
239.091	63.06
239.325	77.06
239.559	77.06
239.793	77.06
240.027	66.06
240.26	70.06
240.494	72.06
240.728	71.06
240.961	72.06
241.195	85.06
241.429	62.06
241.662	81.06
241.896	81.06
242.13	78.06
242.363	86.06
242.597	75.06
242.83	72.06
243.064	81.06
243.298	75.06
243.531	58.06
243.765	58.06
243.998	75.06
244.232	58.06
244.465	94.06
244.699	89.06
244.932	89.06
245.166	74.06
245.399	83.06
245.633	84.06
245.866	81.06
246.099	82.06
246.333	85.06
246.566	86.06
246.8	84.06
247.033	75.06
247.266	72.06
247.5	80.06
247.733	72.06
247.966	83.06
248.2	74.06
248.433	69.06
248.666	76.06
248.899	97.06
249.133	83.06
249.366	81.06
249.599	90.06
249.832	87.06
250.066	89.06
250.299	82.06
250.532	70.06
250.765	69.06
250.998	75.06
251.231	78.06
251.465	78.06
251.698	81.06
251.931	73.06
252.164	86.06
252.397	81.06
252.63	76.06
252.863	78.06
253.096	67.06
253.329	64.06
253.562	78.06
253.795	81.06
254.028	82.06
254.261	70.06
254.494	69.06
254.727	78.06
254.96	71.06
255.193	80.06
255.426	76.06
255.659	84.06
255.892	72.06
256.124	77.06
256.357	87.06
256.59	81.06
256.823	76.06
257.056	75.06
257.289	73.06
257.521	85.06
257.754	82.06
257.987	75.06
258.22	79.06
258.452	80.06
258.685	74.06
258.918	75.06
259.151	71.06
259.383	74.06
259.616	83.06
259.849	68.06
260.081	73.06
260.314	92.06
260.547	80.06
260.779	81.06
261.012	93.06
261.244	89.06
261.477	85.06
261.71	88.06
261.942	101.06
262.175	114.06
262.407	107.06
262.64	76.06
262.872	70.06
263.105	85.06
263.337	81.06
263.57	90.06
263.802	85.06
264.035	90.06
264.267	75.06
264.499	84.06
264.732	77.06
264.964	86.06
265.197	92.06
265.429	76.06
265.661	84.06
265.894	77.06
266.126	86.06
266.358	80.06
266.591	68.06
266.823	81.06
267.055	62.06
267.287	84.06
267.52	79.06
267.752	85.06
267.984	81.06
268.216	81.06
268.448	68.06
268.681	73.06
268.913	98.06
269.145	82.06
269.377	79.06
269.609	88.06
269.841	81.06
270.073	89.06
270.306	67.06
270.538	74.06
270.77	85.06
271.002	85.06
271.234	93.06
271.466	88.06
271.698	91.06
271.93	78.06
272.162	90.06
272.394	86.06
272.626	90.06
272.858	80.06
273.09	78.06
273.322	85.06
273.553	90.06
273.785	99.06
274.017	87.06
274.249	93.06
274.481	86.06
274.713	89.06
274.945	85.06
275.176	98.06
275.408	101.06
275.64	91.06
275.872	89.06
276.104	101.06
276.335	99.06
276.567	100.06
276.799	106.06
277.031	89.06
277.262	77.06
277.494	87.06
277.726	71.06
277.957	74.06
278.189	90.06
278.421	72.06
278.652	82.06
278.884	78.06
279.115	81.06
279.347	101.06
279.579	104.06
279.81	81.06
280.042	97.06
280.273	85.06
280.505	78.06
280.736	79.06
280.968	80.06
281.199	78.06
281.431	82.06
281.662	89.06
281.894	96.06
282.125	93.06
282.356	124.06
282.588	131.06
282.819	104.06
283.051	75.06
283.282	77.06
283.513	102.06
283.745	82.06
283.976	63.06
284.207	78.06
284.439	87.06
284.67	81.06
284.901	80.06
285.132	86.06
285.364	92.06
285.595	83.06
285.826	90.06
286.057	90.06
286.288	81.06
286.52	84.06
286.751	89.06
286.982	76.06
287.213	90.06
287.444	78.06
287.675	83.06
287.906	85.06
288.138	78.06
288.369	75.06
288.6	89.06
288.831	92.06
289.062	101.06
289.293	81.06
289.524	79.06
289.755	78.06
289.986	64.06
290.217	74.06
290.448	85.06
290.679	81.06
290.91	91.06
291.141	91.06
291.371	92.06
291.602	81.06
291.833	77.06
292.064	90.06
292.295	89.06
292.526	80.06
292.757	86.06
292.987	78.06
293.218	86.06
293.449	98.06
293.68	89.06
293.91	89.06
294.141	87.06
294.372	78.06
294.603	88.06
294.833	90.06
295.064	104.06
295.295	86.06
295.525	91.06
295.756	101.06
295.987	105.06
296.217	109.06
296.448	101.06
296.679	93.06
296.909	84.06
297.14	91.06
297.37	80.06
297.601	86.06
297.831	83.06
298.062	102.06
298.292	86.06
298.523	90.06
298.753	90.06
298.984	80.06
299.214	83.06
299.445	76.06
299.675	94.06
299.905	94.06
300.136	98.06
300.366	96.06
300.597	90.06
300.827	97.06
301.057	89.06
301.288	96.06
301.518	109.06
301.748	92.06
301.979	107.06
302.209	87.06
302.439	88.06
302.669	98.06
302.9	81.06
303.13	93.06
303.36	89.06
303.59	97.06
303.82	97.06
304.051	89.06
304.281	81.06
304.511	95.06
304.741	88.06
304.971	113.06
305.201	101.06
305.431	92.06
305.661	102.06
305.891	98.06
306.121	102.06
306.352	85.06
306.582	94.06
306.812	86.06
307.042	91.06
307.272	88.06
307.502	82.06
307.731	107.06
307.961	91.06
308.191	69.06
308.421	89.06
308.651	87.06
308.881	85.06
309.111	90.06
309.341	93.06
309.571	93.06
309.8	94.06
310.03	83.06
310.26	101.06
310.49	82.06
310.72	96.06
310.949	89.06
311.179	90.06
311.409	74.06
311.639	105.06
311.868	91.06
312.098	109.06
312.328	105.06
312.557	98.06
312.787	83.06
313.017	95.06
313.246	77.06
313.476	99.06
313.706	84.06
313.935	87.06
314.165	81.06
314.394	99.06
314.624	88.06
314.853	95.06
315.083	83.06
315.312	73.06
315.542	73.06
315.771	103.06
316.001	95.06
316.23	96.06
316.46	90.06
316.689	84.06
316.919	76.06
317.148	94.06
317.377	98.06
317.607	93.06
317.836	85.06
318.065	92.06
318.295	82.06
318.524	97.06
318.753	89.06
318.983	85.06
319.212	99.06
319.441	102.06
319.67	95.06
319.9	99.06
320.129	101.06
320.358	93.06
320.587	90.06
320.816	95.06
321.046	98.06
321.275	85.06
321.504	81.06
321.733	85.06
321.962	78.06
322.191	91.06
322.42	107.06
322.649	115.06
322.878	89.06
323.108	119.06
323.337	122.06
323.566	112.06
323.795	154.06
324.024	204.06
324.253	378.06
324.482	808.06
324.71	1621.06
324.939	2099.06
325.168	794.06
325.397	235.06
325.626	150.06
325.855	142.06
326.084	123.06
326.313	129.06
326.542	136.06
326.77	213.06
326.999	436.06
327.228	929.06
327.457	1619.06
327.686	1317.06
327.914	348.06
328.143	190.06
328.372	138.06
328.6	107.06
328.829	101.06
329.058	113.06
329.287	118.06
329.515	105.06
329.744	108.06
329.972	92.06
330.201	89.06
330.43	88.06
330.658	109.06
330.887	124.06
331.115	109.06
331.344	82.06
331.572	117.06
331.801	99.06
332.03	109.06
332.258	99.06
332.486	107.06
332.715	86.06
332.943	92.06
333.172	95.06
333.4	93.06
333.629	95.06
333.857	92.06
334.085	97.06
334.314	79.06
334.542	78.06
334.771	89.06
334.999	107.06
335.227	87.06
335.455	98.06
335.684	82.06
335.912	104.06
336.14	89.06
336.369	85.06
336.597	94.06
336.825	84.06
337.053	95.06
337.281	92.06
337.51	91.06
337.738	96.06
337.966	93.06
338.194	91.06
338.422	98.06
338.65	101.06
338.878	81.06
339.106	93.06
339.334	79.06
339.562	85.06
339.79	88.06
340.018	88.06
340.246	85.06
340.474	85.06
340.702	90.06
340.93	88.06
341.158	86.06
341.386	85.06
341.614	74.06
341.842	87.06
342.07	86.06
342.298	98.06
342.526	77.06
342.754	89.06
342.981	85.06
343.209	88.06
343.437	105.06
343.665	85.06
343.893	86.06
344.12	83.06
344.348	90.06
344.576	84.06
344.804	89.06
345.031	79.06
345.259	91.06
345.487	94.06
345.714	84.06
345.942	84.06
346.17	89.06
346.397	91.06
346.625	81.06
346.853	82.06
347.08	85.06
347.308	91.06
347.535	86.06
347.763	110.06
347.99	99.06
348.218	87.06
348.445	95.06
348.673	92.06
348.9	90.06
349.128	105.06
349.355	87.06
349.583	91.06
349.81	94.06
350.037	95.06
350.265	101.06
350.492	95.06
350.72	93.06
350.947	114.06
351.174	94.06
351.402	106.06
351.629	105.06
351.856	100.06
352.083	101.06
352.311	108.06
352.538	101.06
352.765	114.06
352.992	114.06
353.22	100.06
353.447	109.06
353.674	108.06
353.901	86.06
354.128	96.06
354.355	77.06
354.583	94.06
354.81	97.06
355.037	100.06
355.264	114.06
355.491	95.06
355.718	69.06
355.945	86.06
356.172	95.06
356.399	100.06
356.626	90.06
356.853	107.06
357.08	84.06
357.307	78.06
357.534	92.06
357.761	91.06
357.988	86.06
358.215	93.06
358.441	104.06
358.668	96.06
358.895	73.06
359.122	80.06
359.349	84.06
359.576	85.06
359.802	95.06
360.029	90.06
360.256	109.06
360.483	94.06
360.709	92.06
360.936	89.06
361.163	88.06
361.39	87.06
361.616	102.06
361.843	84.06
362.07	92.06
362.296	86.06
362.523	88.06
362.749	81.06
362.976	91.06
363.203	93.06
363.429	83.06
363.656	92.06
363.882	91.06
364.109	94.06
364.335	93.06
364.562	91.06
364.788	74.06
365.015	96.06
365.241	98.06
365.468	94.06
365.694	94.06
365.92	90.06
366.147	83.06
366.373	86.06
366.599	85.06
366.826	73.06
367.052	80.06
367.278	83.06
367.505	84.06
367.731	85.06
367.957	89.06
368.184	90.06
368.41	94.06
368.636	115.06
368.862	115.06
369.089	89.06
369.315	92.06
369.541	93.06
369.767	86.06
369.993	104.06
370.219	78.06
370.445	73.06
370.672	92.06
370.898	98.06
371.124	84.06
371.35	92.06
371.576	105.06
371.802	78.06
372.028	105.06
372.254	87.06
372.48	93.06
372.706	78.06
372.932	81.06
373.158	86.06
373.384	92.06
373.61	90.06
373.835	54.06
374.061	88.06
374.287	92.06
374.513	80.06
374.739	100.06
374.965	92.06
375.191	98.06
375.416	80.06
375.642	86.06
375.868	85.06
376.094	85.06
376.319	84.06
376.545	76.06
376.771	82.06
376.997	96.06
377.222	91.06
377.448	80.06
377.674	105.06
377.899	79.06
378.125	96.06
378.35	99.06
378.576	95.06
378.802	79.06
379.027	97.06
379.253	96.06
379.478	90.06
379.704	89.06
379.929	86.06
380.155	89.06
380.38	96.06
380.606	98.06
380.831	92.06
381.057	100.06
381.282	94.06
381.507	93.06
381.733	106.06
381.958	94.06
382.184	105.06
382.409	103.06
382.634	99.06
382.86	100.06
383.085	99.06
383.31	92.06
383.535	96.06
383.761	109.06
383.986	98.06
384.211	92.06
384.436	97.06
384.662	102.06
384.887	99.06
385.112	85.06
385.337	108.06
385.562	98.06
385.787	103.06
386.013	102.06
386.238	114.06
386.463	101.06
386.688	95.06
386.913	103.06
387.138	105.06
387.363	108.06
387.588	83.06
387.813	89.06
388.038	114.06
388.263	124.06
388.488	92.06
388.713	101.06
388.938	106.06
389.163	93.06
389.387	86.06
389.612	98.06
389.837	95.06
390.062	87.06
390.287	92.06
390.512	89.06
390.736	102.06
390.961	97.06
391.186	112.06
391.411	84.06
391.636	91.06
391.86	98.06
392.085	79.06
392.31	85.06
392.534	92.06
392.759	82.06
392.984	72.06
393.208	93.06
393.433	87.06
393.658	85.06
393.882	77.06
394.107	78.06
394.331	92.06
394.556	86.06
394.78	90.06
395.005	86.06
395.229	78.06
395.454	83.06
395.678	95.06
395.903	81.06
396.127	95.06
396.352	78.06
396.576	82.06
396.801	77.06
397.025	99.06
397.249	77.06
397.474	93.06
397.698	91.06
397.922	87.06
398.147	80.06
398.371	82.06
398.595	89.06
398.82	93.06
399.044	89.06
399.268	79.06
399.492	88.06
399.717	81.06
399.941	88.06
400.165	104.06
400.389	95.06
400.613	64.06
400.837	95.06
401.062	86.06
401.286	76.06
401.51	100.06
401.734	102.06
401.958	90.06
402.182	118.06
402.406	149.06
402.63	96.06
402.854	99.06
403.078	81.06
403.302	93.06
403.526	79.06
403.75	96.06
403.974	88.06
404.198	78.06
404.422	92.06
404.645	92.06
404.869	83.06
405.093	86.06
405.317	93.06
405.541	76.06
405.765	83.06
405.988	105.06
406.212	150.06
406.436	202.06
406.66	139.06
406.883	91.06
407.107	85.06
407.331	88.06
407.555	94.06
407.778	98.06
408.002	86.06
408.226	88.06
408.449	84.06
408.673	91.06
408.896	94.06
409.12	97.06
409.344	92.06
409.567	81.06
409.791	91.06
410.014	88.06
410.238	100.06
410.461	95.06
410.685	84.06
410.908	96.06
411.132	102.06
411.355	95.06
411.578	86.06
411.802	79.06
412.025	80.06
412.249	76.06
412.472	82.06
412.695	78.06
412.919	85.06
413.142	80.06
413.365	76.06
413.589	90.06
413.812	84.06
414.035	86.06
414.258	84.06
414.482	75.06
414.705	92.06
414.928	93.06
415.151	91.06
415.374	77.06
415.597	80.06
415.821	89.06
416.044	92.06
416.267	85.06
416.49	76.06
416.713	98.06
416.936	78.06
417.159	78.06
417.382	71.06
417.605	88.06
417.828	85.06
418.051	87.06
418.274	92.06
418.497	82.06
418.72	100.06
418.943	81.06
419.166	88.06
419.389	87.06
419.611	85.06
419.834	85.06
420.057	75.06
420.28	87.06
420.503	86.06
420.726	75.06
420.948	74.06
421.171	87.06
421.394	97.06
421.617	92.06
421.839	91.06
422.062	97.06
422.285	96.06
422.507	87.06
422.73	108.06
422.953	89.06
423.175	91.06
423.398	90.06
423.621	84.06
423.843	89.06
424.066	85.06
424.288	81.06
424.511	84.06
424.733	97.06
424.956	107.06
425.178	114.06
425.401	97.06
425.623	90.06
425.846	94.06
426.068	93.06
426.291	86.06
426.513	90.06
426.735	87.06
426.958	89.06
427.18	110.06
427.402	113.06
427.625	134.06
427.847	117.06
428.069	94.06
428.292	81.06
428.514	90.06
428.736	100.06
428.958	81.06
429.181	82.06
429.403	96.06
429.625	84.06
429.847	78.06
430.069	95.06
430.292	88.06
430.514	90.06
430.736	78.06
430.958	82.06
431.18	83.06
431.402	91.06
431.624	80.06
431.846	97.06
432.068	94.06
432.29	88.06
432.512	84.06
432.734	83.06
432.956	88.06
433.178	86.06
433.4	92.06
433.622	84.06
433.844	92.06
434.066	94.06
434.287	79.06
434.509	97.06
434.731	76.06
434.953	81.06
435.175	94.06
435.397	98.06
435.618	84.06
435.84	93.06
436.062	116.06
436.284	107.06
436.505	108.06
436.727	89.06
436.949	83.06
437.17	80.06
437.392	82.06
437.614	82.06
437.835	100.06
438.057	87.06
438.278	101.06
438.5	93.06
438.721	125.06
438.943	99.06
439.165	92.06
439.386	82.06
439.608	92.06
439.829	80.06
440.05	102.06
440.272	128.06
440.493	98.06
440.715	84.06
440.936	80.06
441.158	84.06
441.379	78.06
441.6	73.06
441.822	90.06
442.043	92.06
442.264	90.06
442.486	91.06
442.707	87.06
442.928	97.06
443.149	113.06
443.371	120.06
443.592	96.06
443.813	100.06
444.034	105.06
444.255	94.06
444.476	65.06
444.698	81.06
444.919	77.06
445.14	127.06
445.361	123.06
445.582	99.06
445.803	128.06
446.024	131.06
446.245	129.06
446.466	120.06
446.687	75.06
446.908	89.06
447.129	93.06
447.35	82.06
447.571	72.06
447.792	78.06
448.013	103.06
448.234	90.06
448.455	100.06
448.675	110.06
448.896	107.06
449.117	95.06
449.338	101.06
449.559	121.06
449.779	126.06
450	93.06
450.221	92.06
450.442	83.06
450.662	89.06
450.883	88.06
451.104	102.06
451.324	94.06
451.545	98.06
451.766	76.06
451.986	90.06
452.207	89.06
452.428	87.06
452.648	86.06
452.869	103.06
453.089	88.06
453.31	117.06
453.53	90.06
453.751	88.06
453.971	98.06
454.192	107.06
454.412	97.06
454.633	99.06
454.853	91.06
455.073	77.06
455.294	91.06
455.514	102.06
455.734	77.06
455.955	85.06
456.175	75.06
456.395	96.06
456.616	81.06
456.836	85.06
457.056	74.06
457.276	90.06
457.497	76.06
457.717	94.06
457.937	92.06
458.157	91.06
458.377	89.06
458.598	95.06
458.818	132.06
459.038	142.06
459.258	120.06
459.478	90.06
459.698	81.06
459.918	78.06
460.138	77.06
460.358	76.06
460.578	96.06
460.798	98.06
461.018	91.06
461.238	83.06
461.458	92.06
461.678	96.06
461.898	95.06
462.118	82.06
462.338	72.06
462.558	85.06
462.777	81.06
462.997	86.06
463.217	83.06
463.437	85.06
463.657	79.06
463.876	93.06
464.096	89.06
464.316	88.06
464.536	86.06
464.755	98.06
464.975	102.06
465.195	165.06
465.414	141.06
465.634	102.06
465.854	94.06
466.073	85.06
466.293	77.06
466.512	78.06
466.732	78.06
466.951	74.06
467.171	91.06
467.391	98.06
467.61	96.06
467.829	87.06
468.049	82.06
468.268	86.06
468.488	80.06
468.707	87.06
468.927	95.06
469.146	85.06
469.365	82.06
469.585	92.06
469.804	77.06
470.023	100.06
470.243	82.06
470.462	101.06
470.681	104.06
470.901	81.06
471.12	85.06
471.339	90.06
471.558	90.06
471.777	75.06
471.997	75.06
472.216	91.06
472.435	81.06
472.654	82.06
472.873	93.06
473.092	96.06
473.311	77.06
473.53	103.06
473.749	83.06
473.968	91.06
474.187	95.06
474.406	98.06
474.625	77.06
474.844	93.06
475.063	78.06
475.282	77.06
475.501	76.06
475.72	106.06
475.939	89.06
476.158	81.06
476.377	90.06
476.596	82.06
476.814	73.06
477.033	103.06
477.252	91.06
477.471	86.06
477.69	94.06
477.908	88.06
478.127	97.06
478.346	75.06
478.564	95.06
478.783	96.06
479.002	101.06
479.22	92.06
479.439	91.06
479.658	98.06
479.876	95.06
480.095	86.06
480.313	96.06
480.532	99.06
480.751	79.06
480.969	90.06
481.188	94.06
481.406	82.06
481.624	87.06
481.843	93.06
482.061	91.06
482.28	78.06
482.498	90.06
482.717	85.06
482.935	75.06
483.153	90.06
483.372	90.06
483.59	84.06
483.808	97.06
484.027	96.06
484.245	95.06
484.463	104.06
484.681	97.06
484.9	92.06
485.118	78.06
485.336	93.06
485.554	102.06
485.772	99.06
485.99	97.06
486.209	100.06
486.427	105.06
486.645	108.06
486.863	89.06
487.081	99.06
487.299	93.06
487.517	84.06
487.735	92.06
487.953	95.06
488.171	98.06
488.389	121.06
488.607	104.06
488.825	85.06
489.043	90.06
489.261	93.06
489.479	79.06
489.696	93.06
489.914	104.06
490.132	84.06
490.35	83.06
490.568	87.06
490.786	80.06
491.003	83.06
491.221	88.06
491.439	85.06
491.657	89.06
491.874	78.06
492.092	86.06
492.31	93.06
492.527	92.06
492.745	79.06
492.963	77.06
493.18	100.06
493.398	96.06
493.615	97.06
493.833	86.06
494.05	80.06
494.268	79.06
494.485	96.06
494.703	90.06
494.92	78.06
495.138	88.06
495.355	81.06
495.573	95.06
495.79	94.06
496.008	92.06
496.225	84.06
496.442	95.06
496.66	101.06
496.877	92.06
497.094	99.06
497.312	93.06
497.529	83.06
497.746	99.06
497.963	84.06
498.181	103.06
498.398	101.06
498.615	104.06
498.832	108.06
499.049	81.06
499.267	81.06
499.484	88.06
499.701	80.06
499.918	96.06
500.135	98.06
500.352	87.06
500.569	100.06
500.786	105.06
501.003	93.06
501.22	83.06
501.437	98.06
501.654	86.06
501.871	103.06
502.088	82.06
502.305	96.06
502.522	93.06
502.739	100.06
502.956	90.06
503.172	88.06
503.389	96.06
503.606	92.06
503.823	87.06
504.04	92.06
504.256	96.06
504.473	103.06
504.69	77.06
504.907	85.06
505.123	97.06
505.34	80.06
505.557	70.06
505.773	96.06
505.99	86.06
506.207	89.06
506.423	78.06
506.64	77.06
506.856	77.06
507.073	84.06
507.289	83.06
507.506	82.06
507.722	97.06
507.939	104.06
508.155	86.06
508.372	92.06
508.588	107.06
508.805	106.06
509.021	84.06
509.238	99.06
509.454	98.06
509.67	101.06
509.887	109.06
510.103	115.06
510.319	196.06
510.536	718.06
510.752	2190.06
510.968	612.06
511.184	136.06
511.401	109.06
511.617	102.06
511.833	88.06
512.049	83.06
512.265	96.06
512.481	85.06
512.698	85.06
512.914	79.06
513.13	95.06
513.346	79.06
513.562	105.06
513.778	104.06
513.994	94.06
514.21	95.06
514.426	106.06
514.642	128.06
514.858	108.06
515.074	160.06
515.29	394.06
515.506	1318.06
515.721	496.06
515.937	143.06
516.153	113.06
516.369	83.06
516.585	82.06
516.801	86.06
