Data from Uncirc_2006_H10_HRD10591_00022.txt Node
Date: Wed Jan 03 10:24:59 EST 2024
User: Yrep
Spectrometer: HR+D1059
Trigger mode: 1
Integration Time (sec): 1.000000E-1
Scans to average: 1
Electric dark correction enabled: true
Nonlinearity correction enabled: false
Boxcar width: 0
XAxis mode: Wavelengths
Number of Pixels in Spectrum: 2048
>>>>>Begin Spectral Data<<<<<
223.165	-5.38
223.4	-5.38
223.635	-5.38
223.869	-18.38
224.104	-17.38
224.338	-16.38
224.573	-4.38
224.808	-6.38
225.042	-13.38
225.277	4.62
225.511	-9.38
225.746	1.62
225.98	-1.38
226.215	3.62
226.449	15.62
226.683	25.62
226.918	9.62
227.152	31.62
227.387	27.62
227.621	34.62
227.856	59.62
228.09	54.62
228.324	39.62
228.559	62.62
228.793	60.62
229.027	57.62
229.262	55.62
229.496	75.62
229.73	77.62
229.964	78.62
230.199	76.62
230.433	84.62
230.667	71.62
230.901	80.62
231.136	85.62
231.37	80.62
231.604	71.62
231.838	82.62
232.072	81.62
232.306	73.62
232.541	78.62
232.775	83.62
233.009	85.62
233.243	87.62
233.477	77.62
233.711	82.62
233.945	67.62
234.179	85.62
234.413	92.62
234.647	86.62
234.881	102.62
235.115	77.62
235.349	70.62
235.583	87.62
235.817	85.62
236.051	86.62
236.285	84.62
236.519	72.62
236.753	93.62
236.987	76.62
237.221	86.62
237.455	85.62
237.689	75.62
237.922	83.62
238.156	75.62
238.39	67.62
238.624	88.62
238.858	84.62
239.091	97.62
239.325	79.62
239.559	79.62
239.793	93.62
240.027	81.62
240.26	74.62
240.494	73.62
240.728	60.62
240.961	74.62
241.195	75.62
241.429	71.62
241.662	76.62
241.896	73.62
242.13	82.62
242.363	85.62
242.597	81.62
242.83	78.62
243.064	81.62
243.298	63.62
243.531	66.62
243.765	65.62
243.998	86.62
244.232	78.62
244.465	94.62
244.699	78.62
244.932	79.62
245.166	65.62
245.399	68.62
245.633	73.62
245.866	82.62
246.099	78.62
246.333	76.62
246.566	85.62
246.8	76.62
247.033	84.62
247.266	75.62
247.5	78.62
247.733	76.62
247.966	73.62
248.2	85.62
248.433	78.62
248.666	85.62
248.899	87.62
249.133	87.62
249.366	93.62
249.599	110.62
249.832	71.62
250.066	77.62
250.299	72.62
250.532	79.62
250.765	70.62
250.998	65.62
251.231	90.62
251.465	91.62
251.698	86.62
251.931	84.62
252.164	81.62
252.397	76.62
252.63	81.62
252.863	93.62
253.096	68.62
253.329	95.62
253.562	70.62
253.795	74.62
254.028	77.62
254.261	82.62
254.494	90.62
254.727	90.62
254.96	76.62
255.193	82.62
255.426	91.62
255.659	86.62
255.892	74.62
256.124	82.62
256.357	78.62
256.59	78.62
256.823	82.62
257.056	85.62
257.289	78.62
257.521	82.62
257.754	82.62
257.987	83.62
258.22	83.62
258.452	80.62
258.685	84.62
258.918	83.62
259.151	81.62
259.383	80.62
259.616	85.62
259.849	72.62
260.081	81.62
260.314	78.62
260.547	85.62
260.779	75.62
261.012	70.62
261.244	79.62
261.477	93.62
261.71	115.62
261.942	90.62
262.175	102.62
262.407	86.62
262.64	91.62
262.872	83.62
263.105	94.62
263.337	85.62
263.57	73.62
263.802	85.62
264.035	75.62
264.267	77.62
264.499	77.62
264.732	71.62
264.964	67.62
265.197	69.62
265.429	86.62
265.661	81.62
265.894	96.62
266.126	91.62
266.358	85.62
266.591	78.62
266.823	76.62
267.055	90.62
267.287	80.62
267.52	83.62
267.752	72.62
267.984	84.62
268.216	78.62
268.448	93.62
268.681	87.62
268.913	69.62
269.145	77.62
269.377	78.62
269.609	79.62
269.841	83.62
270.073	94.62
270.306	78.62
270.538	91.62
270.77	79.62
271.002	87.62
271.234	77.62
271.466	77.62
271.698	76.62
271.93	96.62
272.162	94.62
272.394	80.62
272.626	76.62
272.858	80.62
273.09	73.62
273.322	84.62
273.553	85.62
273.785	84.62
274.017	73.62
274.249	98.62
274.481	95.62
274.713	87.62
274.945	89.62
275.176	82.62
275.408	98.62
275.64	93.62
275.872	105.62
276.104	91.62
276.335	76.62
276.567	86.62
276.799	111.62
277.031	85.62
277.262	89.62
277.494	86.62
277.726	85.62
277.957	73.62
278.189	93.62
278.421	91.62
278.652	96.62
278.884	81.62
279.115	73.62
279.347	82.62
279.579	79.62
279.81	78.62
280.042	81.62
280.273	94.62
280.505	79.62
280.736	72.62
280.968	82.62
281.199	95.62
281.431	79.62
281.662	94.62
281.894	96.62
282.125	108.62
282.356	118.62
282.588	131.62
282.819	113.62
283.051	85.62
283.282	90.62
283.513	96.62
283.745	90.62
283.976	94.62
284.207	89.62
284.439	78.62
284.67	89.62
284.901	82.62
285.132	88.62
285.364	88.62
285.595	77.62
285.826	91.62
286.057	81.62
286.288	83.62
286.52	79.62
286.751	87.62
286.982	81.62
287.213	94.62
287.444	85.62
287.675	79.62
287.906	82.62
288.138	85.62
288.369	100.62
288.6	87.62
288.831	90.62
289.062	92.62
289.293	91.62
289.524	104.62
289.755	98.62
289.986	81.62
290.217	97.62
290.448	84.62
290.679	92.62
290.91	87.62
291.141	92.62
291.371	84.62
291.602	66.62
291.833	98.62
292.064	79.62
292.295	90.62
292.526	90.62
292.757	83.62
292.987	99.62
293.218	86.62
293.449	85.62
293.68	82.62
293.91	86.62
294.141	87.62
294.372	93.62
294.603	82.62
294.833	95.62
295.064	92.62
295.295	81.62
295.525	76.62
295.756	95.62
295.987	92.62
296.217	126.62
296.448	106.62
296.679	97.62
296.909	97.62
297.14	95.62
297.37	89.62
297.601	82.62
297.831	89.62
298.062	91.62
298.292	92.62
298.523	89.62
298.753	94.62
298.984	84.62
299.214	90.62
299.445	98.62
299.675	96.62
299.905	90.62
300.136	101.62
300.366	87.62
300.597	99.62
300.827	114.62
301.057	104.62
301.288	101.62
301.518	91.62
301.748	70.62
301.979	98.62
302.209	94.62
302.439	95.62
302.669	87.62
302.9	97.62
303.13	83.62
303.36	87.62
303.59	114.62
303.82	101.62
304.051	87.62
304.281	91.62
304.511	86.62
304.741	77.62
304.971	98.62
305.201	87.62
305.431	91.62
305.661	90.62
305.891	86.62
306.121	86.62
306.352	90.62
306.582	105.62
306.812	90.62
307.042	82.62
307.272	100.62
307.502	85.62
307.731	90.62
307.961	81.62
308.191	89.62
308.421	101.62
308.651	87.62
308.881	78.62
309.111	94.62
309.341	108.62
309.571	90.62
309.8	90.62
310.03	90.62
310.26	99.62
310.49	89.62
310.72	100.62
310.949	91.62
311.179	94.62
311.409	98.62
311.639	87.62
311.868	73.62
312.098	87.62
312.328	99.62
312.557	100.62
312.787	92.62
313.017	104.62
313.246	84.62
313.476	101.62
313.706	91.62
313.935	93.62
314.165	97.62
314.394	93.62
314.624	99.62
314.853	105.62
315.083	99.62
315.312	98.62
315.542	85.62
315.771	100.62
316.001	96.62
316.23	90.62
316.46	93.62
316.689	85.62
316.919	102.62
317.148	94.62
317.377	100.62
317.607	90.62
317.836	92.62
318.065	94.62
318.295	108.62
318.524	97.62
318.753	73.62
318.983	87.62
319.212	97.62
319.441	88.62
319.67	113.62
319.9	100.62
320.129	96.62
320.358	82.62
320.587	93.62
320.816	108.62
321.046	94.62
321.275	100.62
321.504	87.62
321.733	92.62
321.962	91.62
322.191	91.62
322.42	100.62
322.649	112.62
322.878	91.62
323.108	107.62
323.337	126.62
323.566	123.62
323.795	149.62
324.024	202.62
324.253	363.62
324.482	795.62
324.71	1596.62
324.939	2086.62
325.168	757.62
325.397	220.62
325.626	121.62
325.855	118.62
326.084	125.62
326.313	131.62
326.542	160.62
326.77	238.62
326.999	452.62
327.228	905.62
327.457	1628.62
327.686	1285.62
327.914	342.62
328.143	164.62
328.372	134.62
328.6	101.62
328.829	105.62
329.058	122.62
329.287	124.62
329.515	109.62
329.744	107.62
329.972	89.62
330.201	101.62
330.43	104.62
330.658	127.62
330.887	109.62
331.115	122.62
331.344	98.62
331.572	100.62
331.801	98.62
332.03	107.62
332.258	103.62
332.486	102.62
332.715	89.62
332.943	96.62
333.172	105.62
333.4	97.62
333.629	106.62
333.857	93.62
334.085	89.62
334.314	102.62
334.542	102.62
334.771	84.62
334.999	92.62
335.227	99.62
335.455	101.62
335.684	98.62
335.912	105.62
336.14	105.62
336.369	104.62
336.597	102.62
336.825	102.62
337.053	99.62
337.281	73.62
337.51	91.62
337.738	99.62
337.966	91.62
338.194	97.62
338.422	96.62
338.65	92.62
338.878	99.62
339.106	104.62
339.334	81.62
339.562	94.62
339.79	103.62
340.018	95.62
340.246	90.62
340.474	95.62
340.702	98.62
340.93	101.62
341.158	92.62
341.386	91.62
341.614	92.62
341.842	93.62
342.07	100.62
342.298	95.62
342.526	81.62
342.754	97.62
342.981	81.62
343.209	85.62
343.437	108.62
343.665	76.62
343.893	81.62
344.12	75.62
344.348	92.62
344.576	102.62
344.804	97.62
345.031	109.62
345.259	101.62
345.487	78.62
345.714	104.62
345.942	98.62
346.17	88.62
346.397	80.62
346.625	90.62
346.853	89.62
347.08	96.62
347.308	99.62
347.535	102.62
347.763	103.62
347.99	101.62
348.218	100.62
348.445	106.62
348.673	100.62
348.9	98.62
349.128	99.62
349.355	95.62
349.583	91.62
349.81	94.62
350.037	88.62
350.265	91.62
350.492	89.62
350.72	92.62
350.947	86.62
351.174	114.62
351.402	116.62
351.629	95.62
351.856	104.62
352.083	98.62
352.311	109.62
352.538	111.62
352.765	91.62
352.992	104.62
353.22	101.62
353.447	100.62
353.674	101.62
353.901	113.62
354.128	97.62
354.355	101.62
354.583	86.62
354.81	99.62
355.037	107.62
355.264	88.62
355.491	83.62
355.718	84.62
355.945	75.62
356.172	105.62
356.399	84.62
356.626	105.62
356.853	82.62
357.08	85.62
357.307	94.62
357.534	99.62
357.761	100.62
357.988	93.62
358.215	87.62
358.441	99.62
358.668	87.62
358.895	86.62
359.122	93.62
359.349	94.62
359.576	106.62
359.802	101.62
360.029	108.62
360.256	121.62
360.483	98.62
360.709	89.62
360.936	87.62
361.163	85.62
361.39	93.62
361.616	92.62
361.843	90.62
362.07	84.62
362.296	90.62
362.523	101.62
362.749	91.62
362.976	85.62
363.203	87.62
363.429	85.62
363.656	83.62
363.882	89.62
364.109	98.62
364.335	91.62
364.562	90.62
364.788	78.62
365.015	95.62
365.241	91.62
365.468	112.62
365.694	109.62
365.92	96.62
366.147	89.62
366.373	87.62
366.599	85.62
366.826	101.62
367.052	93.62
367.278	84.62
367.505	82.62
367.731	76.62
367.957	103.62
368.184	89.62
368.41	97.62
368.636	103.62
368.862	119.62
369.089	104.62
369.315	100.62
369.541	96.62
369.767	88.62
369.993	83.62
370.219	90.62
370.445	92.62
370.672	77.62
370.898	91.62
371.124	85.62
371.35	74.62
371.576	100.62
371.802	70.62
372.028	94.62
372.254	90.62
372.48	91.62
372.706	85.62
372.932	90.62
373.158	73.62
373.384	94.62
373.61	89.62
373.835	87.62
374.061	76.62
374.287	102.62
374.513	91.62
374.739	84.62
374.965	77.62
375.191	92.62
375.416	99.62
375.642	98.62
375.868	82.62
376.094	96.62
376.319	98.62
376.545	101.62
376.771	84.62
376.997	100.62
377.222	106.62
377.448	89.62
377.674	97.62
377.899	97.62
378.125	102.62
378.35	78.62
378.576	92.62
378.802	80.62
379.027	81.62
379.253	87.62
379.478	106.62
379.704	90.62
379.929	102.62
380.155	99.62
380.38	93.62
380.606	89.62
380.831	102.62
381.057	104.62
381.282	95.62
381.507	81.62
381.733	95.62
381.958	93.62
382.184	95.62
382.409	98.62
382.634	105.62
382.86	94.62
383.085	102.62
383.31	117.62
383.535	106.62
383.761	101.62
383.986	112.62
384.211	87.62
384.436	90.62
384.662	98.62
384.887	102.62
385.112	113.62
385.337	114.62
385.562	100.62
385.787	94.62
386.013	114.62
386.238	112.62
386.463	114.62
386.688	108.62
386.913	121.62
387.138	106.62
387.363	96.62
387.588	103.62
387.813	113.62
388.038	118.62
388.263	126.62
388.488	123.62
388.713	100.62
388.938	114.62
389.163	85.62
389.387	92.62
389.612	90.62
389.837	97.62
390.062	102.62
390.287	94.62
390.512	93.62
390.736	102.62
390.961	95.62
391.186	89.62
391.411	100.62
391.636	100.62
391.86	86.62
392.085	86.62
392.31	72.62
392.534	77.62
392.759	93.62
392.984	91.62
393.208	95.62
393.433	91.62
393.658	96.62
393.882	90.62
394.107	93.62
394.331	94.62
394.556	93.62
394.78	83.62
395.005	84.62
395.229	86.62
395.454	89.62
395.678	80.62
395.903	83.62
396.127	90.62
396.352	86.62
396.576	83.62
396.801	82.62
397.025	87.62
397.249	109.62
397.474	94.62
397.698	78.62
397.922	92.62
398.147	77.62
398.371	88.62
398.595	87.62
398.82	90.62
399.044	86.62
399.268	86.62
399.492	86.62
399.717	85.62
399.941	97.62
400.165	96.62
400.389	82.62
400.613	106.62
400.837	79.62
401.062	78.62
401.286	73.62
401.51	80.62
401.734	93.62
401.958	107.62
402.182	117.62
402.406	139.62
402.63	113.62
402.854	88.62
403.078	101.62
403.302	92.62
403.526	93.62
403.75	102.62
403.974	95.62
404.198	94.62
404.422	85.62
404.645	83.62
404.869	65.62
405.093	102.62
405.317	91.62
405.541	90.62
405.765	100.62
405.988	123.62
406.212	162.62
406.436	192.62
406.66	135.62
406.883	103.62
407.107	93.62
407.331	84.62
407.555	105.62
407.778	96.62
408.002	90.62
408.226	94.62
408.449	93.62
408.673	95.62
408.896	80.62
409.12	89.62
409.344	106.62
409.567	97.62
409.791	98.62
410.014	100.62
410.238	91.62
410.461	77.62
410.685	95.62
410.908	103.62
411.132	94.62
411.355	89.62
411.578	97.62
411.802	97.62
412.025	96.62
412.249	90.62
412.472	87.62
412.695	83.62
412.919	87.62
413.142	95.62
413.365	90.62
413.589	80.62
413.812	79.62
414.035	91.62
414.258	90.62
414.482	85.62
414.705	88.62
414.928	85.62
415.151	98.62
415.374	94.62
415.597	78.62
415.821	83.62
416.044	78.62
416.267	98.62
416.49	69.62
416.713	91.62
416.936	97.62
417.159	95.62
417.382	82.62
417.605	91.62
417.828	83.62
418.051	100.62
418.274	97.62
418.497	77.62
418.72	86.62
418.943	85.62
419.166	94.62
419.389	93.62
419.611	99.62
419.834	83.62
420.057	80.62
420.28	89.62
420.503	83.62
420.726	83.62
420.948	77.62
421.171	82.62
421.394	93.62
421.617	73.62
421.839	81.62
422.062	88.62
422.285	87.62
422.507	102.62
422.73	89.62
422.953	95.62
423.175	82.62
423.398	90.62
423.621	93.62
423.843	87.62
424.066	104.62
424.288	93.62
424.511	105.62
424.733	84.62
424.956	90.62
425.178	105.62
425.401	78.62
425.623	103.62
425.846	96.62
426.068	97.62
426.291	82.62
426.513	84.62
426.735	98.62
426.958	99.62
427.18	103.62
427.402	124.62
427.625	147.62
427.847	114.62
428.069	94.62
428.292	75.62
428.514	87.62
428.736	94.62
428.958	80.62
429.181	83.62
429.403	73.62
429.625	98.62
429.847	95.62
430.069	98.62
430.292	89.62
430.514	81.62
430.736	85.62
430.958	91.62
431.18	96.62
431.402	79.62
431.624	83.62
431.846	90.62
432.068	83.62
432.29	69.62
432.512	87.62
432.734	79.62
432.956	84.62
433.178	105.62
433.4	105.62
433.622	70.62
433.844	83.62
434.066	90.62
434.287	104.62
434.509	86.62
434.731	92.62
434.953	69.62
435.175	83.62
435.397	85.62
435.618	87.62
435.84	93.62
436.062	110.62
436.284	104.62
436.505	93.62
436.727	101.62
436.949	92.62
437.17	91.62
437.392	93.62
437.614	97.62
437.835	106.62
438.057	119.62
438.278	107.62
438.5	94.62
438.721	108.62
438.943	97.62
439.165	84.62
439.386	87.62
439.608	98.62
439.829	97.62
440.05	102.62
440.272	117.62
440.493	106.62
440.715	84.62
440.936	79.62
441.158	90.62
441.379	100.62
441.6	99.62
441.822	91.62
442.043	93.62
442.264	94.62
442.486	95.62
442.707	81.62
442.928	96.62
443.149	112.62
443.371	126.62
443.592	114.62
443.813	99.62
444.034	104.62
444.255	95.62
444.476	87.62
444.698	89.62
444.919	95.62
445.14	131.62
445.361	116.62
445.582	107.62
445.803	102.62
446.024	121.62
446.245	117.62
446.466	109.62
446.687	82.62
446.908	93.62
447.129	79.62
447.35	87.62
447.571	94.62
447.792	93.62
448.013	109.62
448.234	85.62
448.455	83.62
448.675	105.62
448.896	117.62
449.117	112.62
449.338	83.62
449.559	109.62
449.779	117.62
450	92.62
450.221	89.62
450.442	88.62
450.662	86.62
450.883	90.62
451.104	115.62
451.324	98.62
451.545	96.62
451.766	92.62
451.986	77.62
452.207	99.62
452.428	86.62
452.648	85.62
452.869	124.62
453.089	104.62
453.31	105.62
453.53	86.62
453.751	85.62
453.971	97.62
454.192	110.62
454.412	86.62
454.633	84.62
454.853	98.62
455.073	87.62
455.294	91.62
455.514	108.62
455.734	95.62
455.955	83.62
456.175	98.62
456.395	81.62
456.616	88.62
456.836	88.62
457.056	87.62
457.276	94.62
457.497	70.62
457.717	94.62
457.937	89.62
458.157	76.62
458.377	96.62
458.598	117.62
458.818	138.62
459.038	150.62
459.258	94.62
459.478	94.62
459.698	89.62
459.918	87.62
460.138	94.62
460.358	86.62
460.578	79.62
460.798	90.62
461.018	84.62
461.238	97.62
461.458	70.62
461.678	84.62
461.898	71.62
462.118	92.62
462.338	89.62
462.558	79.62
462.777	81.62
462.997	84.62
463.217	85.62
463.437	87.62
463.657	103.62
463.876	102.62
464.096	87.62
464.316	94.62
464.536	88.62
464.755	86.62
464.975	116.62
465.195	148.62
465.414	141.62
465.634	99.62
465.854	66.62
466.073	75.62
466.293	81.62
466.512	75.62
466.732	74.62
466.951	88.62
467.171	109.62
467.391	92.62
467.61	107.62
467.829	98.62
468.049	103.62
468.268	93.62
468.488	88.62
468.707	91.62
468.927	88.62
469.146	91.62
469.365	78.62
469.585	89.62
469.804	93.62
470.023	85.62
470.243	82.62
470.462	91.62
470.681	111.62
470.901	106.62
471.12	86.62
471.339	84.62
471.558	78.62
471.777	96.62
471.997	88.62
472.216	99.62
472.435	91.62
472.654	73.62
472.873	85.62
473.092	99.62
473.311	73.62
473.53	87.62
473.749	92.62
473.968	93.62
474.187	100.62
474.406	96.62
474.625	83.62
474.844	84.62
475.063	82.62
475.282	101.62
475.501	98.62
475.72	74.62
475.939	80.62
476.158	91.62
476.377	83.62
476.596	83.62
476.814	69.62
477.033	100.62
477.252	103.62
477.471	102.62
477.69	96.62
477.908	76.62
478.127	85.62
478.346	98.62
478.564	84.62
478.783	91.62
479.002	84.62
479.22	95.62
479.439	98.62
479.658	92.62
479.876	95.62
480.095	88.62
480.313	90.62
480.532	93.62
480.751	80.62
480.969	95.62
481.188	91.62
481.406	102.62
481.624	96.62
481.843	98.62
482.061	92.62
482.28	76.62
482.498	101.62
482.717	81.62
482.935	88.62
483.153	94.62
483.372	92.62
483.59	100.62
483.808	89.62
484.027	101.62
484.245	95.62
484.463	89.62
484.681	87.62
484.9	96.62
485.118	92.62
485.336	91.62
485.554	106.62
485.772	94.62
485.99	103.62
486.209	106.62
486.427	101.62
486.645	98.62
486.863	95.62
487.081	92.62
487.299	93.62
487.517	84.62
487.735	102.62
487.953	94.62
488.171	96.62
488.389	98.62
488.607	91.62
488.825	90.62
489.043	105.62
489.261	92.62
489.479	87.62
489.696	87.62
489.914	90.62
490.132	94.62
490.35	95.62
490.568	92.62
490.786	99.62
491.003	85.62
491.221	83.62
491.439	100.62
491.657	87.62
491.874	79.62
492.092	91.62
492.31	87.62
492.527	85.62
492.745	77.62
492.963	92.62
493.18	87.62
493.398	102.62
493.615	112.62
493.833	86.62
494.05	95.62
494.268	93.62
494.485	86.62
494.703	85.62
494.92	88.62
495.138	90.62
495.355	101.62
495.573	91.62
495.79	97.62
496.008	98.62
496.225	83.62
496.442	93.62
496.66	95.62
496.877	84.62
497.094	86.62
497.312	90.62
497.529	91.62
497.746	105.62
497.963	86.62
498.181	87.62
498.398	98.62
498.615	105.62
498.832	92.62
499.049	92.62
499.267	84.62
499.484	93.62
499.701	93.62
499.918	94.62
500.135	93.62
500.352	101.62
500.569	91.62
500.786	86.62
501.003	94.62
501.22	97.62
501.437	93.62
501.654	99.62
501.871	91.62
502.088	74.62
502.305	86.62
502.522	91.62
502.739	89.62
502.956	94.62
503.172	93.62
503.389	87.62
503.606	102.62
503.823	84.62
504.04	83.62
504.256	92.62
504.473	85.62
504.69	87.62
504.907	94.62
505.123	105.62
505.34	93.62
505.557	75.62
505.773	91.62
505.99	88.62
506.207	92.62
506.423	91.62
506.64	93.62
506.856	80.62
507.073	90.62
507.289	89.62
507.506	90.62
507.722	123.62
507.939	102.62
508.155	106.62
508.372	95.62
508.588	89.62
508.805	98.62
509.021	96.62
509.238	87.62
509.454	99.62
509.67	98.62
509.887	113.62
510.103	131.62
510.319	177.62
510.536	701.62
510.752	2148.62
510.968	603.62
511.184	147.62
511.401	88.62
511.617	108.62
511.833	98.62
512.049	95.62
512.265	87.62
512.481	85.62
512.698	96.62
512.914	90.62
513.13	101.62
513.346	87.62
513.562	92.62
513.778	91.62
513.994	93.62
514.21	102.62
514.426	127.62
514.642	121.62
514.858	129.62
515.074	164.62
515.29	414.62
515.506	1311.62
515.721	491.62
515.937	154.62
