Data from Uncirc_2006_H10_HRD10591_00078.txt Node
Date: Wed Jan 03 10:25:10 EST 2024
User: Yrep
Spectrometer: HR+D1059
Trigger mode: 1
Integration Time (sec): 1.000000E-1
Scans to average: 1
Electric dark correction enabled: true
Nonlinearity correction enabled: false
Boxcar width: 0
XAxis mode: Wavelengths
Number of Pixels in Spectrum: 2048
>>>>>Begin Spectral Data<<<<<
223.165	-17.31
223.4	-17.31
223.635	-17.31
223.869	-24.31
224.104	-11.31
224.338	-4.31
224.573	-11.31
224.808	-9.31
225.042	-14.31
225.277	-20.31
225.511	-10.31
225.746	2.69
225.98	6.69
226.215	16.69
226.449	21.69
226.683	13.69
226.918	24.69
227.152	36.69
227.387	32.69
227.621	39.69
227.856	30.69
228.09	53.69
228.324	51.69
228.559	53.69
228.793	58.69
229.027	68.69
229.262	57.69
229.496	64.69
229.73	75.69
229.964	66.69
230.199	84.69
230.433	64.69
230.667	61.69
230.901	77.69
231.136	75.69
231.37	79.69
231.604	83.69
231.838	74.69
232.072	84.69
232.306	76.69
232.541	79.69
232.775	74.69
233.009	81.69
233.243	87.69
233.477	68.69
233.711	70.69
233.945	86.69
234.179	73.69
234.413	70.69
234.647	82.69
234.881	79.69
235.115	75.69
235.349	70.69
235.583	76.69
235.817	79.69
236.051	83.69
236.285	68.69
236.519	80.69
236.753	61.69
236.987	77.69
237.221	73.69
237.455	79.69
237.689	69.69
237.922	70.69
238.156	76.69
238.39	65.69
238.624	75.69
238.858	82.69
239.091	68.69
239.325	81.69
239.559	80.69
239.793	71.69
240.027	67.69
240.26	68.69
240.494	79.69
240.728	78.69
240.961	70.69
241.195	78.69
241.429	70.69
241.662	66.69
241.896	75.69
242.13	62.69
242.363	89.69
242.597	79.69
242.83	74.69
243.064	80.69
243.298	73.69
243.531	71.69
243.765	79.69
243.998	78.69
244.232	76.69
244.465	79.69
244.699	92.69
244.932	74.69
245.166	78.69
245.399	68.69
245.633	90.69
245.866	65.69
246.099	76.69
246.333	76.69
246.566	82.69
246.8	75.69
247.033	70.69
247.266	77.69
247.5	90.69
247.733	62.69
247.966	72.69
248.2	75.69
248.433	86.69
248.666	71.69
248.899	67.69
249.133	84.69
249.366	79.69
249.599	92.69
249.832	78.69
250.066	77.69
250.299	85.69
250.532	78.69
250.765	74.69
250.998	76.69
251.231	76.69
251.465	73.69
251.698	60.69
251.931	75.69
252.164	71.69
252.397	94.69
252.63	77.69
252.863	70.69
253.096	75.69
253.329	76.69
253.562	78.69
253.795	88.69
254.028	70.69
254.261	70.69
254.494	74.69
254.727	82.69
254.96	80.69
255.193	78.69
255.426	77.69
255.659	66.69
255.892	72.69
256.124	74.69
256.357	88.69
256.59	84.69
256.823	72.69
257.056	68.69
257.289	83.69
257.521	68.69
257.754	76.69
257.987	84.69
258.22	81.69
258.452	85.69
258.685	76.69
258.918	73.69
259.151	79.69
259.383	72.69
259.616	77.69
259.849	87.69
260.081	68.69
260.314	72.69
260.547	76.69
260.779	78.69
261.012	70.69
261.244	74.69
261.477	90.69
261.71	75.69
261.942	117.69
262.175	102.69
262.407	81.69
262.64	76.69
262.872	92.69
263.105	78.69
263.337	85.69
263.57	86.69
263.802	79.69
264.035	92.69
264.267	66.69
264.499	77.69
264.732	78.69
264.964	76.69
265.197	83.69
265.429	93.69
265.661	78.69
265.894	72.69
266.126	76.69
266.358	94.69
266.591	95.69
266.823	70.69
267.055	84.69
267.287	70.69
267.52	83.69
267.752	81.69
267.984	67.69
268.216	85.69
268.448	85.69
268.681	90.69
268.913	92.69
269.145	88.69
269.377	77.69
269.609	88.69
269.841	78.69
270.073	75.69
270.306	100.69
270.538	80.69
270.77	76.69
271.002	76.69
271.234	80.69
271.466	81.69
271.698	82.69
271.93	81.69
272.162	93.69
272.394	96.69
272.626	90.69
272.858	86.69
273.09	75.69
273.322	74.69
273.553	85.69
273.785	73.69
274.017	60.69
274.249	87.69
274.481	93.69
274.713	74.69
274.945	88.69
275.176	76.69
275.408	73.69
275.64	91.69
275.872	78.69
276.104	82.69
276.335	81.69
276.567	91.69
276.799	97.69
277.031	91.69
277.262	83.69
277.494	81.69
277.726	77.69
277.957	81.69
278.189	74.69
278.421	77.69
278.652	84.69
278.884	80.69
279.115	93.69
279.347	94.69
279.579	78.69
279.81	70.69
280.042	81.69
280.273	82.69
280.505	75.69
280.736	68.69
280.968	67.69
281.199	71.69
281.431	84.69
281.662	82.69
281.894	79.69
282.125	90.69
282.356	114.69
282.588	140.69
282.819	104.69
283.051	84.69
283.282	91.69
283.513	81.69
283.745	74.69
283.976	78.69
284.207	86.69
284.439	81.69
284.67	89.69
284.901	77.69
285.132	89.69
285.364	82.69
285.595	89.69
285.826	92.69
286.057	76.69
286.288	82.69
286.52	82.69
286.751	84.69
286.982	91.69
287.213	82.69
287.444	107.69
287.675	88.69
287.906	89.69
288.138	97.69
288.369	86.69
288.6	93.69
288.831	88.69
289.062	76.69
289.293	105.69
289.524	93.69
289.755	82.69
289.986	75.69
290.217	82.69
290.448	80.69
290.679	89.69
290.91	81.69
291.141	84.69
291.371	79.69
291.602	74.69
291.833	91.69
292.064	92.69
292.295	78.69
292.526	86.69
292.757	78.69
292.987	77.69
293.218	100.69
293.449	99.69
293.68	91.69
293.91	84.69
294.141	92.69
294.372	83.69
294.603	99.69
294.833	83.69
295.064	83.69
295.295	95.69
295.525	87.69
295.756	112.69
295.987	105.69
296.217	121.69
296.448	121.69
296.679	86.69
296.909	87.69
297.14	88.69
297.37	100.69
297.601	87.69
297.831	74.69
298.062	76.69
298.292	91.69
298.523	91.69
298.753	86.69
298.984	103.69
299.214	89.69
299.445	95.69
299.675	89.69
299.905	91.69
300.136	95.69
300.366	88.69
300.597	86.69
300.827	85.69
301.057	101.69
301.288	119.69
301.518	94.69
301.748	96.69
301.979	83.69
302.209	86.69
302.439	77.69
302.669	91.69
302.9	86.69
303.13	90.69
303.36	84.69
303.59	102.69
303.82	103.69
304.051	74.69
304.281	93.69
304.511	99.69
304.741	66.69
304.971	74.69
305.201	94.69
305.431	90.69
305.661	78.69
305.891	83.69
306.121	99.69
306.352	106.69
306.582	86.69
306.812	87.69
307.042	88.69
307.272	89.69
307.502	82.69
307.731	88.69
307.961	86.69
308.191	82.69
308.421	94.69
308.651	81.69
308.881	97.69
309.111	91.69
309.341	98.69
309.571	96.69
309.8	90.69
310.03	95.69
310.26	92.69
310.49	87.69
310.72	101.69
310.949	86.69
311.179	104.69
311.409	109.69
311.639	98.69
311.868	81.69
312.098	88.69
312.328	88.69
312.557	98.69
312.787	97.69
313.017	92.69
313.246	80.69
313.476	91.69
313.706	78.69
313.935	92.69
314.165	105.69
314.394	94.69
314.624	99.69
314.853	100.69
315.083	96.69
315.312	94.69
315.542	90.69
315.771	86.69
316.001	91.69
316.23	95.69
316.46	86.69
316.689	99.69
316.919	81.69
317.148	86.69
317.377	90.69
317.607	86.69
317.836	80.69
318.065	83.69
318.295	86.69
318.524	98.69
318.753	64.69
318.983	86.69
319.212	109.69
319.441	105.69
319.67	104.69
319.9	94.69
320.129	85.69
320.358	103.69
320.587	105.69
320.816	100.69
321.046	102.69
321.275	106.69
321.504	99.69
321.733	100.69
321.962	90.69
322.191	93.69
322.42	93.69
322.649	104.69
322.878	106.69
323.108	109.69
323.337	111.69
323.566	123.69
323.795	136.69
324.024	201.69
324.253	404.69
324.482	848.69
324.71	1742.69
324.939	2263.69
325.168	815.69
325.397	254.69
325.626	142.69
325.855	128.69
326.084	127.69
326.313	116.69
326.542	144.69
326.77	225.69
326.999	482.69
327.228	979.69
327.457	1749.69
327.686	1426.69
327.914	380.69
328.143	182.69
328.372	136.69
328.6	127.69
328.829	112.69
329.058	114.69
329.287	108.69
329.515	118.69
329.744	97.69
329.972	96.69
330.201	98.69
330.43	95.69
330.658	107.69
330.887	127.69
331.115	122.69
331.344	85.69
331.572	96.69
331.801	105.69
332.03	106.69
332.258	94.69
332.486	95.69
332.715	99.69
332.943	92.69
333.172	96.69
333.4	92.69
333.629	107.69
333.857	110.69
334.085	97.69
334.314	96.69
334.542	99.69
334.771	91.69
334.999	97.69
335.227	102.69
335.455	100.69
335.684	101.69
335.912	92.69
336.14	92.69
336.369	99.69
336.597	87.69
336.825	95.69
337.053	82.69
337.281	91.69
337.51	100.69
337.738	98.69
337.966	89.69
338.194	108.69
338.422	99.69
338.65	93.69
338.878	97.69
339.106	91.69
339.334	94.69
339.562	98.69
339.79	83.69
340.018	78.69
340.246	84.69
340.474	96.69
340.702	93.69
340.93	93.69
341.158	91.69
341.386	96.69
341.614	102.69
341.842	98.69
342.07	98.69
342.298	97.69
342.526	90.69
342.754	80.69
342.981	91.69
343.209	85.69
343.437	94.69
343.665	85.69
343.893	88.69
344.12	99.69
344.348	93.69
344.576	88.69
344.804	76.69
345.031	92.69
345.259	90.69
345.487	75.69
345.714	84.69
345.942	96.69
346.17	94.69
346.397	94.69
346.625	98.69
346.853	85.69
347.08	105.69
347.308	91.69
347.535	81.69
347.763	109.69
347.99	97.69
348.218	92.69
348.445	96.69
348.673	94.69
348.9	99.69
349.128	108.69
349.355	89.69
349.583	96.69
349.81	100.69
350.037	84.69
350.265	90.69
350.492	98.69
350.72	86.69
350.947	96.69
351.174	109.69
351.402	90.69
351.629	117.69
351.856	101.69
352.083	111.69
352.311	99.69
352.538	100.69
352.765	93.69
352.992	100.69
353.22	105.69
353.447	90.69
353.674	83.69
353.901	92.69
354.128	88.69
354.355	83.69
354.583	90.69
354.81	107.69
355.037	91.69
355.264	113.69
355.491	95.69
355.718	79.69
355.945	96.69
356.172	96.69
356.399	96.69
356.626	80.69
356.853	98.69
357.08	90.69
357.307	88.69
357.534	88.69
357.761	97.69
357.988	93.69
358.215	97.69
358.441	86.69
358.668	86.69
358.895	92.69
359.122	83.69
359.349	75.69
359.576	78.69
359.802	101.69
360.029	117.69
360.256	113.69
360.483	100.69
360.709	93.69
360.936	83.69
361.163	84.69
361.39	93.69
361.616	108.69
361.843	86.69
362.07	100.69
362.296	89.69
362.523	84.69
362.749	77.69
362.976	82.69
363.203	87.69
363.429	78.69
363.656	88.69
363.882	107.69
364.109	92.69
364.335	93.69
364.562	88.69
364.788	80.69
365.015	99.69
365.241	92.69
365.468	89.69
365.694	94.69
365.92	100.69
366.147	108.69
366.373	77.69
366.599	81.69
366.826	100.69
367.052	78.69
367.278	85.69
367.505	88.69
367.731	85.69
367.957	88.69
368.184	93.69
368.41	101.69
368.636	109.69
368.862	110.69
369.089	106.69
369.315	99.69
369.541	80.69
369.767	77.69
369.993	88.69
370.219	94.69
370.445	72.69
370.672	90.69
370.898	85.69
371.124	102.69
371.35	84.69
371.576	92.69
371.802	95.69
372.028	90.69
372.254	105.69
372.48	85.69
372.706	84.69
372.932	66.69
373.158	84.69
373.384	89.69
373.61	93.69
373.835	89.69
374.061	81.69
374.287	64.69
374.513	90.69
374.739	96.69
374.965	92.69
375.191	100.69
375.416	94.69
375.642	87.69
375.868	96.69
376.094	91.69
376.319	90.69
376.545	88.69
376.771	87.69
376.997	82.69
377.222	86.69
377.448	95.69
377.674	96.69
377.899	84.69
378.125	97.69
378.35	93.69
378.576	87.69
378.802	84.69
379.027	80.69
379.253	95.69
379.478	96.69
379.704	92.69
379.929	94.69
380.155	84.69
380.38	92.69
380.606	88.69
380.831	98.69
381.057	98.69
381.282	85.69
381.507	93.69
381.733	89.69
381.958	105.69
382.184	90.69
382.409	101.69
382.634	104.69
382.86	100.69
383.085	105.69
383.31	94.69
383.535	98.69
383.761	75.69
383.986	106.69
384.211	73.69
384.436	111.69
384.662	105.69
384.887	101.69
385.112	90.69
385.337	101.69
385.562	94.69
385.787	99.69
386.013	112.69
386.238	112.69
386.463	108.69
386.688	107.69
386.913	95.69
387.138	91.69
387.363	95.69
387.588	110.69
387.813	108.69
388.038	120.69
388.263	103.69
388.488	99.69
388.713	98.69
388.938	91.69
389.163	91.69
389.387	89.69
389.612	105.69
389.837	89.69
390.062	95.69
390.287	90.69
390.512	95.69
390.736	88.69
390.961	87.69
391.186	96.69
391.411	89.69
391.636	78.69
391.86	85.69
392.085	92.69
392.31	85.69
392.534	85.69
392.759	80.69
392.984	83.69
393.208	97.69
393.433	97.69
393.658	100.69
393.882	72.69
394.107	92.69
394.331	75.69
394.556	95.69
394.78	95.69
395.005	92.69
395.229	75.69
395.454	80.69
395.678	94.69
395.903	81.69
396.127	101.69
396.352	96.69
396.576	96.69
396.801	84.69
397.025	89.69
397.249	86.69
397.474	82.69
397.698	85.69
397.922	74.69
398.147	88.69
398.371	88.69
398.595	97.69
398.82	74.69
399.044	88.69
399.268	92.69
399.492	83.69
399.717	95.69
399.941	79.69
400.165	96.69
400.389	88.69
400.613	89.69
400.837	88.69
401.062	98.69
401.286	76.69
401.51	89.69
401.734	105.69
401.958	97.69
402.182	127.69
402.406	157.69
402.63	115.69
402.854	99.69
403.078	89.69
403.302	83.69
403.526	72.69
403.75	75.69
403.974	92.69
404.198	98.69
404.422	85.69
404.645	89.69
404.869	87.69
405.093	105.69
405.317	113.69
405.541	82.69
405.765	96.69
405.988	117.69
406.212	173.69
406.436	219.69
406.66	149.69
406.883	102.69
407.107	90.69
407.331	92.69
407.555	94.69
407.778	88.69
408.002	85.69
408.226	96.69
408.449	91.69
408.673	89.69
408.896	103.69
409.12	92.69
409.344	92.69
409.567	91.69
409.791	84.69
410.014	93.69
410.238	80.69
410.461	96.69
410.685	107.69
410.908	94.69
411.132	93.69
411.355	110.69
411.578	82.69
411.802	91.69
412.025	92.69
412.249	99.69
412.472	81.69
412.695	83.69
412.919	91.69
413.142	86.69
413.365	80.69
413.589	88.69
413.812	93.69
414.035	97.69
414.258	83.69
414.482	88.69
414.705	90.69
414.928	88.69
415.151	89.69
415.374	87.69
415.597	91.69
415.821	84.69
416.044	99.69
416.267	96.69
416.49	94.69
416.713	87.69
416.936	80.69
417.159	85.69
417.382	81.69
417.605	85.69
417.828	83.69
418.051	93.69
418.274	89.69
418.497	92.69
418.72	90.69
418.943	87.69
419.166	86.69
419.389	82.69
419.611	91.69
419.834	71.69
420.057	89.69
420.28	81.69
420.503	87.69
420.726	83.69
420.948	85.69
421.171	85.69
421.394	78.69
421.617	67.69
421.839	77.69
422.062	83.69
422.285	72.69
422.507	89.69
422.73	98.69
422.953	93.69
423.175	85.69
423.398	77.69
423.621	90.69
423.843	74.69
424.066	81.69
424.288	68.69
424.511	80.69
424.733	85.69
424.956	105.69
425.178	98.69
425.401	92.69
425.623	86.69
425.846	91.69
426.068	97.69
426.291	80.69
426.513	85.69
426.735	91.69
426.958	92.69
427.18	94.69
427.402	125.69
427.625	129.69
427.847	128.69
428.069	81.69
428.292	95.69
428.514	90.69
428.736	86.69
428.958	80.69
429.181	78.69
429.403	82.69
429.625	90.69
429.847	86.69
430.069	100.69
430.292	86.69
430.514	76.69
430.736	85.69
430.958	85.69
431.18	83.69
431.402	73.69
431.624	73.69
431.846	87.69
432.068	96.69
432.29	90.69
432.512	90.69
432.734	97.69
432.956	104.69
433.178	91.69
433.4	113.69
433.622	85.69
433.844	90.69
434.066	97.69
434.287	98.69
434.509	82.69
434.731	76.69
434.953	78.69
435.175	95.69
435.397	86.69
435.618	85.69
435.84	91.69
436.062	101.69
436.284	103.69
436.505	101.69
436.727	92.69
436.949	99.69
437.17	84.69
437.392	78.69
437.614	89.69
437.835	110.69
438.057	119.69
438.278	96.69
438.5	89.69
438.721	118.69
438.943	99.69
439.165	77.69
439.386	86.69
439.608	92.69
439.829	96.69
440.05	98.69
440.272	126.69
440.493	87.69
440.715	88.69
440.936	98.69
441.158	88.69
441.379	100.69
441.6	86.69
441.822	101.69
442.043	94.69
442.264	92.69
442.486	106.69
442.707	91.69
442.928	85.69
443.149	133.69
443.371	133.69
443.592	96.69
443.813	107.69
444.034	104.69
444.255	83.69
444.476	91.69
444.698	81.69
444.919	81.69
445.14	127.69
445.361	109.69
445.582	96.69
445.803	112.69
446.024	113.69
446.245	133.69
446.466	102.69
446.687	79.69
446.908	83.69
447.129	85.69
447.35	95.69
447.571	97.69
447.792	104.69
448.013	98.69
448.234	109.69
448.455	101.69
448.675	106.69
448.896	111.69
449.117	92.69
449.338	106.69
449.559	132.69
449.779	128.69
450	80.69
450.221	80.69
450.442	85.69
450.662	92.69
450.883	99.69
451.104	104.69
451.324	75.69
451.545	86.69
451.766	94.69
451.986	81.69
452.207	97.69
452.428	79.69
452.648	81.69
452.869	104.69
453.089	113.69
453.31	104.69
453.53	81.69
453.751	72.69
453.971	86.69
454.192	106.69
454.412	93.69
454.633	90.69
454.853	86.69
455.073	97.69
455.294	82.69
455.514	97.69
455.734	95.69
455.955	86.69
456.175	78.69
456.395	85.69
456.616	74.69
456.836	85.69
457.056	96.69
457.276	82.69
457.497	85.69
457.717	66.69
457.937	83.69
458.157	75.69
458.377	87.69
458.598	100.69
458.818	134.69
459.038	149.69
459.258	99.69
459.478	79.69
459.698	84.69
459.918	80.69
460.138	79.69
460.358	90.69
460.578	83.69
460.798	82.69
461.018	96.69
461.238	95.69
461.458	79.69
461.678	86.69
461.898	72.69
462.118	96.69
462.338	89.69
462.558	86.69
462.777	74.69
462.997	78.69
463.217	81.69
463.437	74.69
463.657	69.69
463.876	87.69
464.096	95.69
464.316	83.69
464.536	85.69
464.755	81.69
464.975	106.69
465.195	150.69
465.414	145.69
465.634	83.69
465.854	92.69
466.073	73.69
466.293	95.69
466.512	86.69
466.732	89.69
466.951	91.69
467.171	102.69
467.391	93.69
467.61	93.69
467.829	91.69
468.049	83.69
468.268	85.69
468.488	89.69
468.707	82.69
468.927	75.69
469.146	105.69
469.365	84.69
469.585	84.69
469.804	84.69
470.023	89.69
470.243	86.69
470.462	115.69
470.681	101.69
470.901	84.69
471.12	66.69
471.339	91.69
471.558	81.69
471.777	92.69
471.997	83.69
472.216	78.69
472.435	95.69
472.654	85.69
472.873	86.69
473.092	84.69
473.311	66.69
473.53	91.69
473.749	85.69
473.968	92.69
474.187	90.69
474.406	88.69
474.625	78.69
474.844	82.69
475.063	73.69
475.282	86.69
475.501	93.69
475.72	79.69
475.939	81.69
476.158	82.69
476.377	84.69
476.596	86.69
476.814	85.69
477.033	83.69
477.252	90.69
477.471	97.69
477.69	92.69
477.908	73.69
478.127	78.69
478.346	93.69
478.564	93.69
478.783	88.69
479.002	81.69
479.22	86.69
479.439	96.69
479.658	94.69
479.876	103.69
480.095	85.69
480.313	83.69
480.532	90.69
480.751	86.69
480.969	81.69
481.188	89.69
481.406	84.69
481.624	100.69
481.843	86.69
482.061	87.69
482.28	107.69
482.498	92.69
482.717	88.69
482.935	89.69
483.153	81.69
483.372	87.69
483.59	94.69
483.808	100.69
484.027	91.69
484.245	78.69
484.463	92.69
484.681	82.69
484.9	85.69
485.118	106.69
485.336	88.69
485.554	96.69
485.772	99.69
485.99	102.69
486.209	89.69
486.427	109.69
486.645	94.69
486.863	102.69
487.081	96.69
487.299	109.69
487.517	109.69
487.735	94.69
487.953	93.69
488.171	70.69
488.389	95.69
488.607	102.69
488.825	78.69
489.043	78.69
489.261	90.69
489.479	84.69
489.696	98.69
489.914	74.69
490.132	84.69
490.35	85.69
490.568	79.69
490.786	84.69
491.003	91.69
491.221	91.69
491.439	97.69
491.657	83.69
491.874	92.69
492.092	93.69
492.31	83.69
492.527	96.69
492.745	96.69
492.963	89.69
493.18	83.69
493.398	98.69
493.615	95.69
493.833	71.69
494.05	87.69
494.268	99.69
494.485	97.69
494.703	77.69
494.92	92.69
495.138	105.69
495.355	95.69
495.573	90.69
495.79	84.69
496.008	85.69
496.225	83.69
496.442	77.69
496.66	84.69
496.877	85.69
497.094	78.69
497.312	70.69
497.529	97.69
497.746	90.69
497.963	90.69
498.181	76.69
498.398	84.69
498.615	102.69
498.832	107.69
499.049	78.69
499.267	86.69
499.484	93.69
499.701	93.69
499.918	86.69
500.135	78.69
500.352	91.69
500.569	81.69
500.786	94.69
501.003	90.69
501.22	92.69
501.437	84.69
501.654	88.69
501.871	85.69
502.088	88.69
502.305	83.69
502.522	103.69
502.739	88.69
502.956	89.69
503.172	84.69
503.389	92.69
503.606	112.69
503.823	95.69
504.04	80.69
504.256	94.69
504.473	100.69
504.69	84.69
504.907	71.69
505.123	101.69
505.34	75.69
505.557	84.69
505.773	93.69
505.99	83.69
506.207	75.69
506.423	89.69
506.64	76.69
506.856	92.69
507.073	100.69
507.289	96.69
507.506	86.69
507.722	98.69
507.939	102.69
508.155	98.69
508.372	85.69
508.588	81.69
508.805	84.69
509.021	103.69
509.238	102.69
509.454	92.69
509.67	99.69
509.887	106.69
510.103	132.69
510.319	205.69
510.536	762.69
510.752	2399.69
510.968	666.69
511.184	161.69
511.401	109.69
511.617	110.69
511.833	87.69
512.049	84.69
512.265	94.69
512.481	86.69
512.698	93.69
512.914	81.69
513.13	89.69
513.346	97.69
513.562	99.69
513.778	84.69
513.994	90.69
514.21	90.69
514.426	109.69
514.642	120.69
514.858	138.69
515.074	171.69
515.29	446.69
515.506	1484.69
515.721	538.69
515.937	159.69
516.153	116.69
516.369	102.69
516.585	88.69
516.801	83.69
