Data from Uncirc_2006_H10_HRD10591_00097.txt Node
Date: Wed Jan 03 10:25:14 EST 2024
User: Yrep
Spectrometer: HR+D1059
Trigger mode: 1
Integration Time (sec): 1.000000E-1
Scans to average: 1
Electric dark correction enabled: true
Nonlinearity correction enabled: false
Boxcar width: 0
XAxis mode: Wavelengths
Number of Pixels in Spectrum: 2048
>>>>>Begin Spectral Data<<<<<
223.165	-10.75
223.4	-10.75
223.635	-10.75
223.869	-20.75
224.104	-20.75
224.338	-15.75
224.573	-9.75
224.808	-11.75
225.042	-5.75
225.277	4.25
225.511	-9.75
225.746	10.25
225.98	-2.75
226.215	6.25
226.449	13.25
226.683	10.25
226.918	31.25
227.152	32.25
227.387	40.25
227.621	42.25
227.856	32.25
228.09	35.25
228.324	39.25
228.559	61.25
228.793	66.25
229.027	70.25
229.262	67.25
229.496	71.25
229.73	81.25
229.964	76.25
230.199	74.25
230.433	82.25
230.667	82.25
230.901	91.25
231.136	83.25
231.37	82.25
231.604	74.25
231.838	60.25
232.072	80.25
232.306	74.25
232.541	85.25
232.775	89.25
233.009	88.25
233.243	100.25
233.477	85.25
233.711	82.25
233.945	77.25
234.179	87.25
234.413	79.25
234.647	90.25
234.881	87.25
235.115	62.25
235.349	58.25
235.583	71.25
235.817	74.25
236.051	75.25
236.285	79.25
236.519	69.25
236.753	80.25
236.987	81.25
237.221	81.25
237.455	97.25
237.689	76.25
237.922	75.25
238.156	74.25
238.39	75.25
238.624	75.25
238.858	91.25
239.091	65.25
239.325	76.25
239.559	82.25
239.793	67.25
240.027	83.25
240.26	76.25
240.494	79.25
240.728	83.25
240.961	68.25
241.195	82.25
241.429	77.25
241.662	82.25
241.896	68.25
242.13	77.25
242.363	78.25
242.597	95.25
242.83	88.25
243.064	79.25
243.298	53.25
243.531	83.25
243.765	74.25
243.998	77.25
244.232	80.25
244.465	82.25
244.699	78.25
244.932	59.25
245.166	85.25
245.399	80.25
245.633	87.25
245.866	76.25
246.099	81.25
246.333	82.25
246.566	45.25
246.8	73.25
247.033	86.25
247.266	77.25
247.5	70.25
247.733	76.25
247.966	86.25
248.2	79.25
248.433	83.25
248.666	77.25
248.899	74.25
249.133	91.25
249.366	80.25
249.599	100.25
249.832	84.25
250.066	75.25
250.299	70.25
250.532	72.25
250.765	76.25
250.998	75.25
251.231	77.25
251.465	82.25
251.698	75.25
251.931	82.25
252.164	71.25
252.397	78.25
252.63	70.25
252.863	80.25
253.096	85.25
253.329	91.25
253.562	75.25
253.795	73.25
254.028	69.25
254.261	93.25
254.494	84.25
254.727	80.25
254.96	83.25
255.193	91.25
255.426	79.25
255.659	78.25
255.892	68.25
256.124	70.25
256.357	85.25
256.59	87.25
256.823	68.25
257.056	76.25
257.289	68.25
257.521	75.25
257.754	82.25
257.987	90.25
258.22	86.25
258.452	79.25
258.685	78.25
258.918	75.25
259.151	86.25
259.383	86.25
259.616	77.25
259.849	88.25
260.081	101.25
260.314	82.25
260.547	74.25
260.779	95.25
261.012	91.25
261.244	75.25
261.477	93.25
261.71	97.25
261.942	99.25
262.175	100.25
262.407	81.25
262.64	79.25
262.872	83.25
263.105	75.25
263.337	77.25
263.57	78.25
263.802	70.25
264.035	90.25
264.267	87.25
264.499	81.25
264.732	81.25
264.964	82.25
265.197	84.25
265.429	88.25
265.661	87.25
265.894	77.25
266.126	75.25
266.358	79.25
266.591	72.25
266.823	87.25
267.055	74.25
267.287	82.25
267.52	86.25
267.752	97.25
267.984	79.25
268.216	80.25
268.448	81.25
268.681	85.25
268.913	82.25
269.145	87.25
269.377	94.25
269.609	83.25
269.841	88.25
270.073	80.25
270.306	88.25
270.538	90.25
270.77	82.25
271.002	87.25
271.234	79.25
271.466	100.25
271.698	91.25
271.93	76.25
272.162	85.25
272.394	89.25
272.626	90.25
272.858	84.25
273.09	81.25
273.322	88.25
273.553	90.25
273.785	87.25
274.017	71.25
274.249	92.25
274.481	98.25
274.713	67.25
274.945	87.25
275.176	88.25
275.408	96.25
275.64	83.25
275.872	81.25
276.104	72.25
276.335	95.25
276.567	102.25
276.799	98.25
277.031	93.25
277.262	96.25
277.494	82.25
277.726	83.25
277.957	87.25
278.189	97.25
278.421	81.25
278.652	88.25
278.884	81.25
279.115	80.25
279.347	100.25
279.579	94.25
279.81	74.25
280.042	94.25
280.273	94.25
280.505	76.25
280.736	74.25
280.968	81.25
281.199	91.25
281.431	86.25
281.662	100.25
281.894	91.25
282.125	81.25
282.356	95.25
282.588	131.25
282.819	94.25
283.051	86.25
283.282	92.25
283.513	80.25
283.745	116.25
283.976	64.25
284.207	91.25
284.439	89.25
284.67	80.25
284.901	102.25
285.132	92.25
285.364	78.25
285.595	85.25
285.826	86.25
286.057	79.25
286.288	90.25
286.52	98.25
286.751	81.25
286.982	108.25
287.213	94.25
287.444	95.25
287.675	94.25
287.906	88.25
288.138	98.25
288.369	94.25
288.6	96.25
288.831	92.25
289.062	81.25
289.293	95.25
289.524	78.25
289.755	88.25
289.986	85.25
290.217	89.25
290.448	86.25
290.679	92.25
290.91	80.25
291.141	79.25
291.371	82.25
291.602	70.25
291.833	82.25
292.064	82.25
292.295	98.25
292.526	87.25
292.757	96.25
292.987	91.25
293.218	91.25
293.449	96.25
293.68	90.25
293.91	84.25
294.141	101.25
294.372	88.25
294.603	87.25
294.833	92.25
295.064	99.25
295.295	95.25
295.525	91.25
295.756	103.25
295.987	106.25
296.217	122.25
296.448	108.25
296.679	88.25
296.909	102.25
297.14	100.25
297.37	79.25
297.601	94.25
297.831	99.25
298.062	98.25
298.292	86.25
298.523	88.25
298.753	82.25
298.984	103.25
299.214	85.25
299.445	92.25
299.675	92.25
299.905	98.25
300.136	81.25
300.366	86.25
300.597	86.25
300.827	94.25
301.057	102.25
301.288	97.25
301.518	95.25
301.748	92.25
301.979	98.25
302.209	102.25
302.439	81.25
302.669	92.25
302.9	74.25
303.13	80.25
303.36	93.25
303.59	99.25
303.82	114.25
304.051	91.25
304.281	93.25
304.511	91.25
304.741	93.25
304.971	91.25
305.201	96.25
305.431	95.25
305.661	96.25
305.891	93.25
306.121	99.25
306.352	94.25
306.582	96.25
306.812	108.25
307.042	83.25
307.272	100.25
307.502	91.25
307.731	98.25
307.961	82.25
308.191	88.25
308.421	94.25
308.651	90.25
308.881	92.25
309.111	91.25
309.341	99.25
309.571	87.25
309.8	93.25
310.03	90.25
310.26	93.25
310.49	84.25
310.72	102.25
310.949	93.25
311.179	95.25
311.409	76.25
311.639	90.25
311.868	95.25
312.098	100.25
312.328	88.25
312.557	103.25
312.787	104.25
313.017	94.25
313.246	99.25
313.476	94.25
313.706	76.25
313.935	104.25
314.165	104.25
314.394	90.25
314.624	95.25
314.853	92.25
315.083	98.25
315.312	95.25
315.542	98.25
315.771	94.25
316.001	94.25
316.23	92.25
316.46	92.25
316.689	95.25
316.919	106.25
317.148	94.25
317.377	107.25
317.607	104.25
317.836	87.25
318.065	101.25
318.295	88.25
318.524	94.25
318.753	84.25
318.983	90.25
319.212	97.25
319.441	115.25
319.67	108.25
319.9	87.25
320.129	95.25
320.358	107.25
320.587	99.25
320.816	108.25
321.046	93.25
321.275	87.25
321.504	95.25
321.733	92.25
321.962	103.25
322.191	111.25
322.42	104.25
322.649	87.25
322.878	99.25
323.108	108.25
323.337	118.25
323.566	136.25
323.795	138.25
324.024	195.25
324.253	362.25
324.482	830.25
324.71	1645.25
324.939	2244.25
325.168	798.25
325.397	266.25
325.626	159.25
325.855	126.25
326.084	119.25
326.313	132.25
326.542	165.25
326.77	221.25
326.999	485.25
327.228	981.25
327.457	1728.25
327.686	1350.25
327.914	354.25
328.143	173.25
328.372	142.25
328.6	122.25
328.829	113.25
329.058	125.25
329.287	118.25
329.515	93.25
329.744	98.25
329.972	102.25
330.201	92.25
330.43	107.25
330.658	112.25
330.887	114.25
331.115	105.25
331.344	95.25
331.572	91.25
331.801	113.25
332.03	108.25
332.258	92.25
332.486	101.25
332.715	102.25
332.943	100.25
333.172	104.25
333.4	100.25
333.629	129.25
333.857	115.25
334.085	94.25
334.314	93.25
334.542	100.25
334.771	114.25
334.999	86.25
335.227	93.25
335.455	97.25
335.684	100.25
335.912	101.25
336.14	93.25
336.369	112.25
336.597	101.25
336.825	98.25
337.053	102.25
337.281	105.25
337.51	92.25
337.738	106.25
337.966	100.25
338.194	94.25
338.422	109.25
338.65	105.25
338.878	106.25
339.106	94.25
339.334	108.25
339.562	69.25
339.79	79.25
340.018	93.25
340.246	99.25
340.474	95.25
340.702	96.25
340.93	94.25
341.158	80.25
341.386	82.25
341.614	107.25
341.842	93.25
342.07	97.25
342.298	106.25
342.526	76.25
342.754	91.25
342.981	88.25
343.209	76.25
343.437	96.25
343.665	79.25
343.893	89.25
344.12	94.25
344.348	104.25
344.576	90.25
344.804	96.25
345.031	99.25
345.259	107.25
345.487	100.25
345.714	86.25
345.942	92.25
346.17	86.25
346.397	87.25
346.625	88.25
346.853	86.25
347.08	101.25
347.308	101.25
347.535	96.25
347.763	84.25
347.99	92.25
348.218	101.25
348.445	104.25
348.673	90.25
348.9	89.25
349.128	79.25
349.355	81.25
349.583	80.25
349.81	97.25
350.037	95.25
350.265	91.25
350.492	97.25
350.72	116.25
350.947	106.25
351.174	112.25
351.402	115.25
351.629	115.25
351.856	109.25
352.083	100.25
352.311	109.25
352.538	105.25
352.765	125.25
352.992	123.25
353.22	104.25
353.447	102.25
353.674	108.25
353.901	94.25
354.128	85.25
354.355	92.25
354.583	112.25
354.81	103.25
355.037	100.25
355.264	93.25
355.491	87.25
355.718	90.25
355.945	87.25
356.172	95.25
356.399	88.25
356.626	105.25
356.853	82.25
357.08	91.25
357.307	91.25
357.534	88.25
357.761	99.25
357.988	98.25
358.215	84.25
358.441	99.25
358.668	95.25
358.895	93.25
359.122	81.25
359.349	90.25
359.576	90.25
359.802	92.25
360.029	97.25
360.256	122.25
360.483	96.25
360.709	94.25
360.936	95.25
361.163	86.25
361.39	76.25
361.616	87.25
361.843	85.25
362.07	99.25
362.296	87.25
362.523	87.25
362.749	80.25
362.976	98.25
363.203	96.25
363.429	79.25
363.656	88.25
363.882	84.25
364.109	94.25
364.335	91.25
364.562	95.25
364.788	99.25
365.015	100.25
365.241	91.25
365.468	101.25
365.694	75.25
365.92	97.25
366.147	84.25
366.373	95.25
366.599	96.25
366.826	94.25
367.052	75.25
367.278	87.25
367.505	87.25
367.731	91.25
367.957	86.25
368.184	94.25
368.41	104.25
368.636	101.25
368.862	109.25
369.089	106.25
369.315	82.25
369.541	99.25
369.767	100.25
369.993	102.25
370.219	84.25
370.445	91.25
370.672	89.25
370.898	87.25
371.124	94.25
371.35	77.25
371.576	108.25
371.802	86.25
372.028	98.25
372.254	91.25
372.48	102.25
372.706	89.25
372.932	87.25
373.158	88.25
373.384	82.25
373.61	80.25
373.835	91.25
374.061	95.25
374.287	83.25
374.513	86.25
374.739	82.25
374.965	108.25
375.191	97.25
375.416	88.25
375.642	113.25
375.868	93.25
376.094	95.25
376.319	96.25
376.545	90.25
376.771	97.25
376.997	84.25
377.222	83.25
377.448	90.25
377.674	106.25
377.899	93.25
378.125	96.25
378.35	77.25
378.576	102.25
378.802	97.25
379.027	87.25
379.253	101.25
379.478	95.25
379.704	93.25
379.929	102.25
380.155	108.25
380.38	83.25
380.606	90.25
380.831	105.25
381.057	106.25
381.282	97.25
381.507	101.25
381.733	94.25
381.958	98.25
382.184	104.25
382.409	101.25
382.634	94.25
382.86	91.25
383.085	97.25
383.31	108.25
383.535	95.25
383.761	96.25
383.986	97.25
384.211	109.25
384.436	93.25
384.662	91.25
384.887	104.25
385.112	119.25
385.337	103.25
385.562	102.25
385.787	111.25
386.013	94.25
386.238	106.25
386.463	113.25
386.688	104.25
386.913	99.25
387.138	95.25
387.363	101.25
387.588	95.25
387.813	100.25
388.038	100.25
388.263	106.25
388.488	98.25
388.713	85.25
388.938	109.25
389.163	105.25
389.387	91.25
389.612	97.25
389.837	94.25
390.062	99.25
390.287	102.25
390.512	90.25
390.736	82.25
390.961	94.25
391.186	90.25
391.411	97.25
391.636	98.25
391.86	79.25
392.085	99.25
392.31	81.25
392.534	92.25
392.759	92.25
392.984	102.25
393.208	98.25
393.433	96.25
393.658	98.25
393.882	99.25
394.107	82.25
394.331	90.25
394.556	93.25
394.78	104.25
395.005	84.25
395.229	82.25
395.454	101.25
395.678	70.25
395.903	90.25
396.127	87.25
396.352	68.25
396.576	83.25
396.801	86.25
397.025	107.25
397.249	95.25
397.474	88.25
397.698	100.25
397.922	92.25
398.147	78.25
398.371	86.25
398.595	75.25
398.82	90.25
399.044	83.25
399.268	86.25
399.492	95.25
399.717	85.25
399.941	86.25
400.165	92.25
400.389	99.25
400.613	86.25
400.837	86.25
401.062	90.25
401.286	96.25
401.51	84.25
401.734	78.25
401.958	92.25
402.182	118.25
402.406	133.25
402.63	106.25
402.854	88.25
403.078	100.25
403.302	70.25
403.526	88.25
403.75	80.25
403.974	79.25
404.198	95.25
404.422	99.25
404.645	88.25
404.869	91.25
405.093	98.25
405.317	99.25
405.541	99.25
405.765	90.25
405.988	106.25
406.212	161.25
406.436	208.25
406.66	134.25
406.883	110.25
407.107	101.25
407.331	98.25
407.555	96.25
407.778	100.25
408.002	92.25
408.226	96.25
408.449	99.25
408.673	88.25
408.896	91.25
409.12	82.25
409.344	106.25
409.567	93.25
409.791	103.25
410.014	81.25
410.238	89.25
410.461	94.25
410.685	97.25
410.908	99.25
411.132	108.25
411.355	84.25
411.578	86.25
411.802	79.25
412.025	79.25
412.249	76.25
412.472	88.25
412.695	75.25
412.919	98.25
413.142	86.25
413.365	87.25
413.589	96.25
413.812	78.25
414.035	95.25
414.258	76.25
414.482	93.25
414.705	103.25
414.928	85.25
415.151	82.25
415.374	100.25
415.597	82.25
415.821	87.25
416.044	94.25
416.267	93.25
416.49	82.25
416.713	83.25
416.936	91.25
417.159	110.25
417.382	81.25
417.605	94.25
417.828	95.25
418.051	93.25
418.274	94.25
418.497	95.25
418.72	91.25
418.943	84.25
419.166	91.25
419.389	86.25
419.611	86.25
419.834	87.25
420.057	91.25
420.28	85.25
420.503	87.25
420.726	97.25
420.948	88.25
421.171	94.25
421.394	83.25
421.617	94.25
421.839	85.25
422.062	91.25
422.285	82.25
422.507	112.25
422.73	103.25
422.953	91.25
423.175	98.25
423.398	103.25
423.621	93.25
423.843	91.25
424.066	90.25
424.288	101.25
424.511	93.25
424.733	91.25
424.956	97.25
425.178	96.25
425.401	94.25
425.623	98.25
425.846	98.25
426.068	83.25
426.291	88.25
426.513	89.25
426.735	92.25
426.958	74.25
427.18	90.25
427.402	127.25
427.625	156.25
427.847	113.25
428.069	101.25
428.292	85.25
428.514	84.25
428.736	101.25
428.958	96.25
429.181	89.25
429.403	87.25
429.625	90.25
429.847	96.25
430.069	93.25
430.292	103.25
430.514	100.25
430.736	85.25
430.958	80.25
431.18	88.25
431.402	91.25
431.624	81.25
431.846	110.25
432.068	99.25
432.29	100.25
432.512	99.25
432.734	87.25
432.956	84.25
433.178	87.25
433.4	97.25
433.622	90.25
433.844	92.25
434.066	78.25
434.287	86.25
434.509	100.25
434.731	84.25
434.953	91.25
435.175	97.25
435.397	87.25
435.618	76.25
435.84	88.25
436.062	108.25
436.284	104.25
436.505	84.25
436.727	95.25
436.949	106.25
437.17	108.25
437.392	94.25
437.614	87.25
437.835	106.25
438.057	119.25
438.278	103.25
438.5	111.25
438.721	98.25
438.943	99.25
439.165	81.25
439.386	86.25
439.608	86.25
439.829	113.25
440.05	129.25
440.272	123.25
440.493	94.25
440.715	91.25
440.936	87.25
441.158	95.25
441.379	88.25
441.6	82.25
441.822	102.25
442.043	94.25
442.264	102.25
442.486	110.25
442.707	90.25
442.928	106.25
443.149	123.25
443.371	124.25
443.592	89.25
443.813	119.25
444.034	98.25
444.255	92.25
444.476	85.25
444.698	88.25
444.919	98.25
445.14	123.25
445.361	117.25
445.582	104.25
445.803	129.25
446.024	122.25
446.245	129.25
446.466	99.25
446.687	101.25
446.908	81.25
447.129	110.25
447.35	98.25
447.571	102.25
447.792	102.25
448.013	96.25
448.234	94.25
448.455	101.25
448.675	111.25
448.896	101.25
449.117	102.25
449.338	98.25
449.559	112.25
449.779	122.25
450	103.25
450.221	98.25
450.442	97.25
450.662	74.25
450.883	110.25
451.104	105.25
451.324	96.25
451.545	70.25
451.766	84.25
451.986	98.25
452.207	90.25
452.428	78.25
452.648	79.25
452.869	103.25
453.089	109.25
453.31	101.25
453.53	87.25
453.751	68.25
453.971	92.25
454.192	111.25
454.412	93.25
454.633	91.25
454.853	83.25
455.073	96.25
455.294	81.25
455.514	94.25
455.734	93.25
455.955	92.25
456.175	95.25
456.395	88.25
456.616	82.25
456.836	80.25
457.056	68.25
457.276	95.25
457.497	91.25
457.717	96.25
457.937	82.25
458.157	83.25
458.377	93.25
458.598	95.25
458.818	124.25
459.038	141.25
459.258	98.25
459.478	94.25
459.698	92.25
459.918	96.25
460.138	87.25
460.358	84.25
460.578	84.25
460.798	92.25
461.018	102.25
461.238	85.25
461.458	84.25
461.678	86.25
461.898	72.25
462.118	76.25
462.338	94.25
462.558	87.25
462.777	72.25
462.997	87.25
463.217	85.25
463.437	99.25
463.657	92.25
463.876	83.25
464.096	90.25
464.316	92.25
464.536	80.25
464.755	108.25
464.975	109.25
465.195	150.25
465.414	151.25
465.634	93.25
465.854	74.25
466.073	87.25
466.293	100.25
466.512	73.25
466.732	86.25
466.951	77.25
467.171	83.25
467.391	92.25
467.61	92.25
467.829	92.25
468.049	98.25
468.268	88.25
468.488	92.25
468.707	80.25
468.927	83.25
469.146	86.25
469.365	92.25
469.585	101.25
469.804	95.25
470.023	98.25
470.243	87.25
470.462	84.25
470.681	94.25
470.901	86.25
471.12	86.25
471.339	91.25
471.558	88.25
471.777	80.25
471.997	102.25
472.216	103.25
472.435	71.25
472.654	84.25
472.873	88.25
473.092	80.25
473.311	84.25
473.53	77.25
473.749	76.25
473.968	99.25
474.187	105.25
474.406	86.25
474.625	85.25
474.844	83.25
475.063	81.25
475.282	94.25
475.501	86.25
475.72	98.25
475.939	93.25
476.158	88.25
476.377	81.25
476.596	94.25
476.814	83.25
477.033	76.25
477.252	88.25
477.471	93.25
477.69	90.25
477.908	78.25
478.127	101.25
478.346	99.25
478.564	85.25
478.783	86.25
479.002	84.25
479.22	98.25
479.439	95.25
479.658	93.25
479.876	76.25
480.095	99.25
480.313	96.25
480.532	86.25
480.751	91.25
480.969	86.25
481.188	95.25
481.406	86.25
481.624	98.25
481.843	86.25
482.061	83.25
482.28	94.25
482.498	102.25
482.717	84.25
482.935	96.25
483.153	96.25
483.372	85.25
483.59	97.25
483.808	99.25
484.027	85.25
484.245	95.25
484.463	103.25
484.681	106.25
484.9	88.25
485.118	100.25
485.336	94.25
485.554	108.25
485.772	95.25
485.99	84.25
486.209	99.25
486.427	92.25
486.645	99.25
486.863	86.25
487.081	99.25
487.299	101.25
487.517	89.25
487.735	92.25
487.953	95.25
488.171	100.25
488.389	90.25
488.607	93.25
488.825	86.25
489.043	88.25
489.261	93.25
489.479	89.25
489.696	71.25
489.914	67.25
490.132	79.25
490.35	86.25
490.568	93.25
490.786	92.25
491.003	97.25
491.221	85.25
491.439	93.25
491.657	100.25
491.874	94.25
492.092	95.25
492.31	97.25
492.527	82.25
492.745	79.25
492.963	90.25
493.18	95.25
493.398	90.25
493.615	91.25
493.833	90.25
494.05	98.25
494.268	88.25
494.485	90.25
494.703	87.25
494.92	91.25
495.138	98.25
495.355	105.25
495.573	97.25
495.79	80.25
496.008	102.25
496.225	83.25
496.442	89.25
496.66	99.25
496.877	84.25
497.094	91.25
497.312	83.25
497.529	82.25
497.746	92.25
497.963	99.25
498.181	99.25
498.398	98.25
498.615	112.25
498.832	99.25
499.049	98.25
499.267	88.25
499.484	78.25
499.701	88.25
499.918	88.25
500.135	95.25
500.352	88.25
500.569	96.25
500.786	90.25
501.003	95.25
501.22	93.25
501.437	83.25
501.654	81.25
501.871	100.25
502.088	94.25
502.305	102.25
502.522	83.25
502.739	82.25
502.956	85.25
503.172	78.25
503.389	95.25
503.606	101.25
503.823	101.25
504.04	74.25
504.256	82.25
504.473	86.25
504.69	91.25
504.907	99.25
505.123	87.25
505.34	89.25
505.557	78.25
505.773	96.25
505.99	79.25
506.207	87.25
506.423	96.25
506.64	96.25
506.856	82.25
507.073	94.25
507.289	89.25
507.506	86.25
507.722	90.25
507.939	105.25
508.155	95.25
508.372	112.25
508.588	99.25
508.805	98.25
509.021	98.25
509.238	81.25
509.454	102.25
509.67	103.25
509.887	116.25
510.103	141.25
510.319	214.25
510.536	721.25
510.752	2170.25
510.968	612.25
511.184	154.25
511.401	109.25
511.617	100.25
511.833	81.25
512.049	68.25
512.265	71.25
512.481	94.25
512.698	94.25
512.914	94.25
513.13	83.25
513.346	85.25
513.562	81.25
513.778	96.25
513.994	95.25
514.21	115.25
514.426	131.25
514.642	127.25
514.858	114.25
515.074	159.25
515.29	394.25
515.506	1294.25
515.721	484.25
515.937	153.25
