Data from Uncirc_2006_H10_HRD10591_00073.txt Node
Date: Wed Jan 03 10:25:09 EST 2024
User: Yrep
Spectrometer: HR+D1059
Trigger mode: 1
Integration Time (sec): 1.000000E-1
Scans to average: 1
Electric dark correction enabled: true
Nonlinearity correction enabled: false
Boxcar width: 0
XAxis mode: Wavelengths
Number of Pixels in Spectrum: 2048
>>>>>Begin Spectral Data<<<<<
223.165	-16.56
223.4	-16.56
223.635	-16.56
223.869	-21.56
224.104	-23.56
224.338	-17.56
224.573	-12.56
224.808	-6.56
225.042	-9.56
225.277	-7.56
225.511	-2.56
225.746	19.44
225.98	10.44
226.215	5.44
226.449	20.44
226.683	10.44
226.918	25.44
227.152	26.44
227.387	40.44
227.621	34.44
227.856	25.44
228.09	53.44
228.324	44.44
228.559	57.44
228.793	56.44
229.027	59.44
229.262	74.44
229.496	76.44
229.73	82.44
229.964	84.44
230.199	78.44
230.433	87.44
230.667	81.44
230.901	78.44
231.136	73.44
231.37	83.44
231.604	80.44
231.838	80.44
232.072	67.44
232.306	71.44
232.541	81.44
232.775	79.44
233.009	80.44
233.243	77.44
233.477	77.44
233.711	80.44
233.945	79.44
234.179	60.44
234.413	67.44
234.647	97.44
234.881	76.44
235.115	67.44
235.349	78.44
235.583	85.44
235.817	81.44
236.051	83.44
236.285	55.44
236.519	82.44
236.753	80.44
236.987	76.44
237.221	62.44
237.455	86.44
237.689	78.44
237.922	81.44
238.156	73.44
238.39	79.44
238.624	73.44
238.858	67.44
239.091	74.44
239.325	91.44
239.559	90.44
239.793	83.44
240.027	78.44
240.26	50.44
240.494	74.44
240.728	72.44
240.961	70.44
241.195	75.44
241.429	78.44
241.662	75.44
241.896	69.44
242.13	93.44
242.363	78.44
242.597	63.44
242.83	83.44
243.064	88.44
243.298	68.44
243.531	86.44
243.765	68.44
243.998	66.44
244.232	66.44
244.465	86.44
244.699	77.44
244.932	77.44
245.166	74.44
245.399	89.44
245.633	79.44
245.866	73.44
246.099	86.44
246.333	72.44
246.566	69.44
246.8	85.44
247.033	82.44
247.266	77.44
247.5	89.44
247.733	72.44
247.966	78.44
248.2	85.44
248.433	66.44
248.666	78.44
248.899	82.44
249.133	85.44
249.366	72.44
249.599	84.44
249.832	69.44
250.066	72.44
250.299	69.44
250.532	93.44
250.765	69.44
250.998	64.44
251.231	92.44
251.465	82.44
251.698	75.44
251.931	80.44
252.164	73.44
252.397	67.44
252.63	73.44
252.863	82.44
253.096	87.44
253.329	84.44
253.562	73.44
253.795	81.44
254.028	88.44
254.261	84.44
254.494	76.44
254.727	73.44
254.96	80.44
255.193	82.44
255.426	75.44
255.659	70.44
255.892	66.44
256.124	73.44
256.357	85.44
256.59	77.44
256.823	76.44
257.056	83.44
257.289	80.44
257.521	97.44
257.754	80.44
257.987	85.44
258.22	77.44
258.452	96.44
258.685	81.44
258.918	93.44
259.151	70.44
259.383	92.44
259.616	76.44
259.849	97.44
260.081	72.44
260.314	78.44
260.547	92.44
260.779	70.44
261.012	65.44
261.244	75.44
261.477	76.44
261.71	100.44
261.942	104.44
262.175	107.44
262.407	80.44
262.64	78.44
262.872	98.44
263.105	80.44
263.337	80.44
263.57	72.44
263.802	64.44
264.035	85.44
264.267	65.44
264.499	79.44
264.732	76.44
264.964	88.44
265.197	77.44
265.429	76.44
265.661	81.44
265.894	83.44
266.126	76.44
266.358	81.44
266.591	89.44
266.823	75.44
267.055	75.44
267.287	84.44
267.52	76.44
267.752	69.44
267.984	73.44
268.216	106.44
268.448	85.44
268.681	86.44
268.913	96.44
269.145	100.44
269.377	97.44
269.609	86.44
269.841	99.44
270.073	93.44
270.306	86.44
270.538	71.44
270.77	75.44
271.002	72.44
271.234	86.44
271.466	83.44
271.698	80.44
271.93	76.44
272.162	84.44
272.394	86.44
272.626	67.44
272.858	90.44
273.09	86.44
273.322	83.44
273.553	80.44
273.785	94.44
274.017	83.44
274.249	79.44
274.481	82.44
274.713	77.44
274.945	95.44
275.176	81.44
275.408	86.44
275.64	69.44
275.872	80.44
276.104	90.44
276.335	74.44
276.567	113.44
276.799	107.44
277.031	97.44
277.262	92.44
277.494	79.44
277.726	87.44
277.957	98.44
278.189	86.44
278.421	83.44
278.652	83.44
278.884	71.44
279.115	87.44
279.347	81.44
279.579	92.44
279.81	90.44
280.042	85.44
280.273	91.44
280.505	93.44
280.736	87.44
280.968	83.44
281.199	79.44
281.431	93.44
281.662	78.44
281.894	77.44
282.125	73.44
282.356	107.44
282.588	131.44
282.819	100.44
283.051	80.44
283.282	92.44
283.513	92.44
283.745	83.44
283.976	85.44
284.207	96.44
284.439	88.44
284.67	90.44
284.901	79.44
285.132	84.44
285.364	96.44
285.595	69.44
285.826	86.44
286.057	81.44
286.288	91.44
286.52	102.44
286.751	83.44
286.982	88.44
287.213	92.44
287.444	110.44
287.675	93.44
287.906	83.44
288.138	94.44
288.369	86.44
288.6	89.44
288.831	84.44
289.062	86.44
289.293	94.44
289.524	94.44
289.755	77.44
289.986	88.44
290.217	97.44
290.448	88.44
290.679	85.44
290.91	88.44
291.141	82.44
291.371	87.44
291.602	74.44
291.833	80.44
292.064	82.44
292.295	95.44
292.526	94.44
292.757	83.44
292.987	82.44
293.218	93.44
293.449	82.44
293.68	101.44
293.91	84.44
294.141	87.44
294.372	85.44
294.603	93.44
294.833	84.44
295.064	94.44
295.295	104.44
295.525	88.44
295.756	95.44
295.987	114.44
296.217	131.44
296.448	120.44
296.679	97.44
296.909	90.44
297.14	81.44
297.37	97.44
297.601	73.44
297.831	88.44
298.062	83.44
298.292	81.44
298.523	73.44
298.753	77.44
298.984	83.44
299.214	91.44
299.445	85.44
299.675	89.44
299.905	87.44
300.136	78.44
300.366	87.44
300.597	94.44
300.827	91.44
301.057	84.44
301.288	104.44
301.518	107.44
301.748	98.44
301.979	106.44
302.209	92.44
302.439	91.44
302.669	90.44
302.9	91.44
303.13	89.44
303.36	89.44
303.59	102.44
303.82	95.44
304.051	96.44
304.281	88.44
304.511	98.44
304.741	84.44
304.971	99.44
305.201	80.44
305.431	91.44
305.661	94.44
305.891	82.44
306.121	106.44
306.352	100.44
306.582	106.44
306.812	89.44
307.042	90.44
307.272	94.44
307.502	100.44
307.731	72.44
307.961	78.44
308.191	97.44
308.421	81.44
308.651	96.44
308.881	72.44
309.111	85.44
309.341	97.44
309.571	93.44
309.8	82.44
310.03	109.44
310.26	95.44
310.49	88.44
310.72	95.44
310.949	103.44
311.179	94.44
311.409	94.44
311.639	114.44
311.868	96.44
312.098	91.44
312.328	96.44
312.557	98.44
312.787	109.44
313.017	96.44
313.246	100.44
313.476	91.44
313.706	84.44
313.935	89.44
314.165	92.44
314.394	92.44
314.624	85.44
314.853	103.44
315.083	100.44
315.312	81.44
315.542	90.44
315.771	96.44
316.001	102.44
316.23	86.44
316.46	96.44
316.689	78.44
316.919	80.44
317.148	108.44
317.377	109.44
317.607	95.44
317.836	92.44
318.065	91.44
318.295	89.44
318.524	80.44
318.753	88.44
318.983	95.44
319.212	87.44
319.441	105.44
319.67	110.44
319.9	108.44
320.129	90.44
320.358	86.44
320.587	103.44
320.816	93.44
321.046	90.44
321.275	105.44
321.504	82.44
321.733	102.44
321.962	90.44
322.191	87.44
322.42	110.44
322.649	107.44
322.878	105.44
323.108	121.44
323.337	122.44
323.566	126.44
323.795	129.44
324.024	189.44
324.253	384.44
324.482	824.44
324.71	1707.44
324.939	2224.44
325.168	815.44
325.397	241.44
325.626	150.44
325.855	139.44
326.084	131.44
326.313	129.44
326.542	146.44
326.77	234.44
326.999	470.44
327.228	942.44
327.457	1763.44
327.686	1350.44
327.914	368.44
328.143	192.44
328.372	145.44
328.6	117.44
328.829	110.44
329.058	113.44
329.287	120.44
329.515	116.44
329.744	108.44
329.972	99.44
330.201	87.44
330.43	97.44
330.658	100.44
330.887	123.44
331.115	118.44
331.344	75.44
331.572	89.44
331.801	88.44
332.03	83.44
332.258	108.44
332.486	104.44
332.715	98.44
332.943	72.44
333.172	94.44
333.4	95.44
333.629	119.44
333.857	104.44
334.085	90.44
334.314	99.44
334.542	87.44
334.771	90.44
334.999	99.44
335.227	99.44
335.455	91.44
335.684	98.44
335.912	100.44
336.14	92.44
336.369	93.44
336.597	96.44
336.825	90.44
337.053	96.44
337.281	109.44
337.51	86.44
337.738	94.44
337.966	100.44
338.194	100.44
338.422	90.44
338.65	100.44
338.878	104.44
339.106	96.44
339.334	92.44
339.562	95.44
339.79	84.44
340.018	88.44
340.246	92.44
340.474	88.44
340.702	93.44
340.93	89.44
341.158	92.44
341.386	84.44
341.614	91.44
341.842	83.44
342.07	97.44
342.298	90.44
342.526	81.44
342.754	92.44
342.981	84.44
343.209	89.44
343.437	100.44
343.665	87.44
343.893	95.44
344.12	89.44
344.348	98.44
344.576	88.44
344.804	94.44
345.031	106.44
345.259	97.44
345.487	91.44
345.714	109.44
345.942	85.44
346.17	96.44
346.397	98.44
346.625	105.44
346.853	99.44
347.08	90.44
347.308	84.44
347.535	103.44
347.763	82.44
347.99	97.44
348.218	104.44
348.445	106.44
348.673	85.44
348.9	88.44
349.128	94.44
349.355	105.44
349.583	102.44
349.81	106.44
350.037	94.44
350.265	90.44
350.492	107.44
350.72	98.44
350.947	110.44
351.174	97.44
351.402	120.44
351.629	100.44
351.856	95.44
352.083	107.44
352.311	98.44
352.538	102.44
352.765	106.44
352.992	106.44
353.22	106.44
353.447	101.44
353.674	94.44
353.901	94.44
354.128	108.44
354.355	91.44
354.583	104.44
354.81	96.44
355.037	87.44
355.264	85.44
355.491	83.44
355.718	92.44
355.945	107.44
356.172	108.44
356.399	90.44
356.626	90.44
356.853	99.44
357.08	102.44
357.307	82.44
357.534	89.44
357.761	94.44
357.988	97.44
358.215	92.44
358.441	97.44
358.668	92.44
358.895	85.44
359.122	94.44
359.349	88.44
359.576	90.44
359.802	103.44
360.029	88.44
360.256	118.44
360.483	104.44
360.709	83.44
360.936	83.44
361.163	79.44
361.39	106.44
361.616	89.44
361.843	99.44
362.07	88.44
362.296	87.44
362.523	80.44
362.749	76.44
362.976	93.44
363.203	94.44
363.429	104.44
363.656	84.44
363.882	82.44
364.109	98.44
364.335	102.44
364.562	90.44
364.788	91.44
365.015	92.44
365.241	97.44
365.468	96.44
365.694	101.44
365.92	88.44
366.147	93.44
366.373	102.44
366.599	88.44
366.826	97.44
367.052	83.44
367.278	82.44
367.505	91.44
367.731	81.44
367.957	75.44
368.184	92.44
368.41	86.44
368.636	101.44
368.862	111.44
369.089	97.44
369.315	107.44
369.541	101.44
369.767	95.44
369.993	93.44
370.219	84.44
370.445	97.44
370.672	101.44
370.898	83.44
371.124	96.44
371.35	84.44
371.576	82.44
371.802	91.44
372.028	85.44
372.254	84.44
372.48	104.44
372.706	82.44
372.932	82.44
373.158	79.44
373.384	98.44
373.61	95.44
373.835	101.44
374.061	80.44
374.287	89.44
374.513	95.44
374.739	87.44
374.965	105.44
375.191	94.44
375.416	99.44
375.642	86.44
375.868	87.44
376.094	84.44
376.319	81.44
376.545	81.44
376.771	75.44
376.997	85.44
377.222	91.44
377.448	84.44
377.674	85.44
377.899	86.44
378.125	88.44
378.35	92.44
378.576	101.44
378.802	91.44
379.027	98.44
379.253	91.44
379.478	98.44
379.704	82.44
379.929	100.44
380.155	102.44
380.38	96.44
380.606	97.44
380.831	82.44
381.057	82.44
381.282	65.44
381.507	90.44
381.733	113.44
381.958	81.44
382.184	94.44
382.409	98.44
382.634	92.44
382.86	94.44
383.085	98.44
383.31	111.44
383.535	109.44
383.761	97.44
383.986	105.44
384.211	112.44
384.436	96.44
384.662	95.44
384.887	92.44
385.112	92.44
385.337	92.44
385.562	100.44
385.787	107.44
386.013	101.44
386.238	108.44
386.463	96.44
386.688	100.44
386.913	102.44
387.138	109.44
387.363	95.44
387.588	101.44
387.813	94.44
388.038	92.44
388.263	102.44
388.488	106.44
388.713	99.44
388.938	83.44
389.163	99.44
389.387	84.44
389.612	84.44
389.837	95.44
390.062	82.44
390.287	94.44
390.512	89.44
390.736	88.44
390.961	95.44
391.186	99.44
391.411	87.44
391.636	92.44
391.86	78.44
392.085	78.44
392.31	85.44
392.534	89.44
392.759	78.44
392.984	86.44
393.208	75.44
393.433	88.44
393.658	92.44
393.882	78.44
394.107	86.44
394.331	80.44
394.556	76.44
394.78	84.44
395.005	86.44
395.229	77.44
395.454	88.44
395.678	88.44
395.903	78.44
396.127	88.44
396.352	94.44
396.576	91.44
396.801	87.44
397.025	71.44
397.249	88.44
397.474	75.44
397.698	87.44
397.922	77.44
398.147	89.44
398.371	87.44
398.595	81.44
398.82	85.44
399.044	81.44
399.268	85.44
399.492	100.44
399.717	83.44
399.941	87.44
400.165	85.44
400.389	80.44
400.613	83.44
400.837	84.44
401.062	89.44
401.286	85.44
401.51	85.44
401.734	89.44
401.958	101.44
402.182	118.44
402.406	153.44
402.63	107.44
402.854	86.44
403.078	86.44
403.302	75.44
403.526	97.44
403.75	105.44
403.974	78.44
404.198	67.44
404.422	95.44
404.645	80.44
404.869	86.44
405.093	84.44
405.317	104.44
405.541	79.44
405.765	82.44
405.988	100.44
406.212	166.44
406.436	216.44
406.66	143.44
406.883	104.44
407.107	102.44
407.331	92.44
407.555	92.44
407.778	84.44
408.002	100.44
408.226	85.44
408.449	87.44
408.673	92.44
408.896	82.44
409.12	72.44
409.344	90.44
409.567	92.44
409.791	88.44
410.014	97.44
410.238	100.44
410.461	96.44
410.685	91.44
410.908	104.44
411.132	100.44
411.355	96.44
411.578	99.44
411.802	83.44
412.025	86.44
412.249	94.44
412.472	85.44
412.695	84.44
412.919	92.44
413.142	85.44
413.365	83.44
413.589	96.44
413.812	79.44
414.035	80.44
414.258	92.44
414.482	85.44
414.705	99.44
414.928	108.44
415.151	80.44
415.374	99.44
415.597	78.44
415.821	80.44
416.044	84.44
416.267	81.44
416.49	87.44
416.713	80.44
416.936	81.44
417.159	72.44
417.382	85.44
417.605	77.44
417.828	85.44
418.051	92.44
418.274	83.44
418.497	85.44
418.72	84.44
418.943	88.44
419.166	89.44
419.389	81.44
419.611	90.44
419.834	90.44
420.057	89.44
420.28	73.44
420.503	93.44
420.726	73.44
420.948	92.44
421.171	80.44
421.394	82.44
421.617	78.44
421.839	87.44
422.062	92.44
422.285	86.44
422.507	97.44
422.73	88.44
422.953	101.44
423.175	100.44
423.398	80.44
423.621	87.44
423.843	94.44
424.066	91.44
424.288	97.44
424.511	92.44
424.733	93.44
424.956	92.44
425.178	121.44
425.401	90.44
425.623	111.44
425.846	90.44
426.068	85.44
426.291	82.44
426.513	99.44
426.735	89.44
426.958	82.44
427.18	98.44
427.402	125.44
427.625	170.44
427.847	122.44
428.069	95.44
428.292	81.44
428.514	92.44
428.736	86.44
428.958	84.44
429.181	76.44
429.403	73.44
429.625	83.44
429.847	98.44
430.069	97.44
430.292	83.44
430.514	90.44
430.736	103.44
430.958	76.44
431.18	72.44
431.402	83.44
431.624	89.44
431.846	79.44
432.068	76.44
432.29	86.44
432.512	101.44
432.734	67.44
432.956	84.44
433.178	91.44
433.4	96.44
433.622	80.44
433.844	88.44
434.066	96.44
434.287	93.44
434.509	92.44
434.731	74.44
434.953	88.44
435.175	85.44
435.397	83.44
435.618	75.44
435.84	102.44
436.062	101.44
436.284	110.44
436.505	105.44
436.727	95.44
436.949	69.44
437.17	75.44
437.392	87.44
437.614	99.44
437.835	97.44
438.057	98.44
438.278	105.44
438.5	109.44
438.721	118.44
438.943	85.44
439.165	85.44
439.386	77.44
439.608	96.44
439.829	81.44
440.05	111.44
440.272	127.44
440.493	83.44
440.715	82.44
440.936	85.44
441.158	86.44
441.379	74.44
441.6	81.44
441.822	79.44
442.043	96.44
442.264	84.44
442.486	86.44
442.707	106.44
442.928	93.44
443.149	101.44
443.371	136.44
443.592	112.44
443.813	105.44
444.034	95.44
444.255	84.44
444.476	78.44
444.698	78.44
444.919	79.44
445.14	125.44
445.361	123.44
445.582	106.44
445.803	125.44
446.024	130.44
446.245	133.44
446.466	84.44
446.687	88.44
446.908	81.44
447.129	80.44
447.35	78.44
447.571	86.44
447.792	86.44
448.013	89.44
448.234	105.44
448.455	86.44
448.675	105.44
448.896	100.44
449.117	79.44
449.338	104.44
449.559	117.44
449.779	133.44
450	97.44
450.221	93.44
450.442	77.44
450.662	84.44
450.883	94.44
451.104	110.44
451.324	115.44
451.545	92.44
451.766	79.44
451.986	69.44
452.207	99.44
452.428	95.44
452.648	91.44
452.869	108.44
453.089	111.44
453.31	93.44
453.53	84.44
453.751	100.44
453.971	90.44
454.192	101.44
454.412	90.44
454.633	89.44
454.853	96.44
455.073	93.44
455.294	82.44
455.514	88.44
455.734	83.44
455.955	77.44
456.175	94.44
456.395	88.44
456.616	81.44
456.836	92.44
457.056	85.44
457.276	82.44
457.497	69.44
457.717	82.44
457.937	76.44
458.157	80.44
458.377	86.44
458.598	98.44
458.818	142.44
459.038	142.44
459.258	108.44
459.478	101.44
459.698	90.44
459.918	61.44
460.138	89.44
460.358	91.44
460.578	93.44
460.798	95.44
461.018	85.44
461.238	80.44
461.458	73.44
461.678	76.44
461.898	78.44
462.118	87.44
462.338	93.44
462.558	97.44
462.777	79.44
462.997	91.44
463.217	84.44
463.437	70.44
463.657	88.44
463.876	93.44
464.096	105.44
464.316	105.44
464.536	87.44
464.755	94.44
464.975	104.44
465.195	148.44
465.414	155.44
465.634	115.44
465.854	88.44
466.073	104.44
466.293	98.44
466.512	90.44
466.732	75.44
466.951	91.44
467.171	95.44
467.391	81.44
467.61	96.44
467.829	89.44
468.049	92.44
468.268	91.44
468.488	103.44
468.707	82.44
468.927	79.44
469.146	92.44
469.365	81.44
469.585	89.44
469.804	84.44
470.023	90.44
470.243	100.44
470.462	110.44
470.681	93.44
470.901	77.44
471.12	76.44
471.339	83.44
471.558	94.44
471.777	88.44
471.997	93.44
472.216	95.44
472.435	84.44
472.654	100.44
472.873	74.44
473.092	78.44
473.311	93.44
473.53	93.44
473.749	78.44
473.968	85.44
474.187	95.44
474.406	88.44
474.625	91.44
474.844	94.44
475.063	94.44
475.282	80.44
475.501	84.44
475.72	93.44
475.939	85.44
476.158	86.44
476.377	94.44
476.596	84.44
476.814	88.44
477.033	91.44
477.252	79.44
477.471	94.44
477.69	87.44
477.908	83.44
478.127	103.44
478.346	87.44
478.564	93.44
478.783	86.44
479.002	94.44
479.22	85.44
479.439	101.44
479.658	97.44
479.876	91.44
480.095	80.44
480.313	86.44
480.532	83.44
480.751	81.44
480.969	91.44
481.188	97.44
481.406	88.44
481.624	89.44
481.843	82.44
482.061	84.44
482.28	96.44
482.498	94.44
482.717	88.44
482.935	91.44
483.153	86.44
483.372	82.44
483.59	83.44
483.808	80.44
484.027	85.44
484.245	88.44
484.463	80.44
484.681	82.44
484.9	81.44
485.118	100.44
485.336	90.44
485.554	78.44
485.772	91.44
485.99	93.44
486.209	104.44
486.427	105.44
486.645	108.44
486.863	99.44
487.081	93.44
487.299	91.44
487.517	99.44
487.735	89.44
487.953	79.44
488.171	90.44
488.389	73.44
488.607	89.44
488.825	89.44
489.043	91.44
489.261	79.44
489.479	82.44
489.696	101.44
489.914	88.44
490.132	94.44
490.35	90.44
490.568	94.44
490.786	87.44
491.003	98.44
491.221	85.44
491.439	85.44
491.657	105.44
491.874	89.44
492.092	76.44
492.31	96.44
492.527	101.44
492.745	89.44
492.963	82.44
493.18	84.44
493.398	86.44
493.615	96.44
493.833	108.44
494.05	81.44
494.268	93.44
494.485	85.44
494.703	91.44
494.92	75.44
495.138	90.44
495.355	92.44
495.573	86.44
495.79	88.44
496.008	99.44
496.225	84.44
496.442	93.44
496.66	88.44
496.877	96.44
497.094	85.44
497.312	101.44
497.529	102.44
497.746	82.44
497.963	90.44
498.181	97.44
498.398	93.44
498.615	95.44
498.832	101.44
499.049	96.44
499.267	86.44
499.484	81.44
499.701	87.44
499.918	84.44
500.135	98.44
500.352	72.44
500.569	85.44
500.786	91.44
501.003	78.44
501.22	97.44
501.437	89.44
501.654	96.44
501.871	110.44
502.088	82.44
502.305	85.44
502.522	89.44
502.739	88.44
502.956	95.44
503.172	95.44
503.389	93.44
503.606	93.44
503.823	93.44
504.04	71.44
504.256	84.44
504.473	82.44
504.69	77.44
504.907	96.44
505.123	88.44
505.34	83.44
505.557	91.44
505.773	84.44
505.99	86.44
506.207	94.44
506.423	83.44
506.64	80.44
506.856	82.44
507.073	89.44
507.289	90.44
507.506	93.44
507.722	102.44
507.939	93.44
508.155	84.44
508.372	86.44
508.588	91.44
508.805	99.44
509.021	87.44
509.238	89.44
509.454	109.44
509.67	98.44
509.887	108.44
510.103	134.44
510.319	221.44
510.536	761.44
510.752	2274.44
510.968	642.44
511.184	157.44
511.401	113.44
511.617	92.44
511.833	93.44
512.049	93.44
512.265	104.44
512.481	85.44
512.698	80.44
512.914	91.44
513.13	98.44
513.346	91.44
513.562	91.44
513.778	88.44
513.994	88.44
514.21	89.44
514.426	112.44
514.642	109.44
514.858	113.44
515.074	159.44
515.29	404.44
515.506	1380.44
515.721	525.44
515.937	140.44
516.153	97.44
516.369	105.44
