Data from Uncirc_2006_H10_HRD10591_00029.txt Node
Date: Wed Jan 03 10:25:00 EST 2024
User: Yrep
Spectrometer: HR+D1059
Trigger mode: 1
Integration Time (sec): 1.000000E-1
Scans to average: 1
Electric dark correction enabled: true
Nonlinearity correction enabled: false
Boxcar width: 0
XAxis mode: Wavelengths
Number of Pixels in Spectrum: 2048
>>>>>Begin Spectral Data<<<<<
223.165	-16.62
223.4	-16.62
223.635	-16.62
223.869	-17.62
224.104	-12.62
224.338	-26.62
224.573	-16.62
224.808	-12.62
225.042	-7.62
225.277	-5.62
225.511	0.38
225.746	1.38
225.98	1.38
226.215	18.38
226.449	10.38
226.683	28.38
226.918	30.38
227.152	25.38
227.387	47.38
227.621	43.38
227.856	43.38
228.09	50.38
228.324	46.38
228.559	67.38
228.793	68.38
229.027	59.38
229.262	61.38
229.496	72.38
229.73	83.38
229.964	89.38
230.199	84.38
230.433	70.38
230.667	65.38
230.901	85.38
231.136	82.38
231.37	81.38
231.604	94.38
231.838	92.38
232.072	70.38
232.306	92.38
232.541	82.38
232.775	87.38
233.009	78.38
233.243	88.38
233.477	87.38
233.711	92.38
233.945	90.38
234.179	82.38
234.413	83.38
234.647	87.38
234.881	84.38
235.115	84.38
235.349	86.38
235.583	93.38
235.817	69.38
236.051	85.38
236.285	69.38
236.519	86.38
236.753	75.38
236.987	80.38
237.221	90.38
237.455	81.38
237.689	74.38
237.922	78.38
238.156	78.38
238.39	91.38
238.624	79.38
238.858	83.38
239.091	79.38
239.325	78.38
239.559	91.38
239.793	63.38
240.027	82.38
240.26	74.38
240.494	70.38
240.728	79.38
240.961	86.38
241.195	76.38
241.429	83.38
241.662	76.38
241.896	83.38
242.13	65.38
242.363	61.38
242.597	71.38
242.83	69.38
243.064	75.38
243.298	79.38
243.531	78.38
243.765	75.38
243.998	75.38
244.232	82.38
244.465	89.38
244.699	83.38
244.932	80.38
245.166	82.38
245.399	86.38
245.633	73.38
245.866	91.38
246.099	91.38
246.333	73.38
246.566	69.38
246.8	83.38
247.033	68.38
247.266	81.38
247.5	71.38
247.733	75.38
247.966	78.38
248.2	88.38
248.433	76.38
248.666	66.38
248.899	86.38
249.133	80.38
249.366	99.38
249.599	108.38
249.832	83.38
250.066	70.38
250.299	79.38
250.532	86.38
250.765	56.38
250.998	93.38
251.231	71.38
251.465	87.38
251.698	83.38
251.931	80.38
252.164	79.38
252.397	91.38
252.63	78.38
252.863	78.38
253.096	94.38
253.329	78.38
253.562	95.38
253.795	88.38
254.028	91.38
254.261	82.38
254.494	85.38
254.727	76.38
254.96	80.38
255.193	93.38
255.426	83.38
255.659	73.38
255.892	79.38
256.124	81.38
256.357	78.38
256.59	80.38
256.823	87.38
257.056	89.38
257.289	70.38
257.521	83.38
257.754	73.38
257.987	87.38
258.22	91.38
258.452	97.38
258.685	79.38
258.918	70.38
259.151	83.38
259.383	79.38
259.616	89.38
259.849	94.38
260.081	87.38
260.314	83.38
260.547	79.38
260.779	66.38
261.012	85.38
261.244	108.38
261.477	87.38
261.71	86.38
261.942	101.38
262.175	118.38
262.407	85.38
262.64	86.38
262.872	69.38
263.105	93.38
263.337	83.38
263.57	84.38
263.802	83.38
264.035	77.38
264.267	76.38
264.499	83.38
264.732	82.38
264.964	76.38
265.197	94.38
265.429	69.38
265.661	78.38
265.894	82.38
266.126	88.38
266.358	74.38
266.591	83.38
266.823	89.38
267.055	75.38
267.287	76.38
267.52	95.38
267.752	83.38
267.984	78.38
268.216	86.38
268.448	90.38
268.681	79.38
268.913	70.38
269.145	90.38
269.377	85.38
269.609	74.38
269.841	101.38
270.073	72.38
270.306	85.38
270.538	81.38
270.77	74.38
271.002	85.38
271.234	84.38
271.466	93.38
271.698	94.38
271.93	83.38
272.162	90.38
272.394	107.38
272.626	81.38
272.858	85.38
273.09	94.38
273.322	78.38
273.553	91.38
273.785	82.38
274.017	91.38
274.249	78.38
274.481	85.38
274.713	78.38
274.945	97.38
275.176	86.38
275.408	75.38
275.64	89.38
275.872	93.38
276.104	88.38
276.335	95.38
276.567	98.38
276.799	110.38
277.031	83.38
277.262	83.38
277.494	94.38
277.726	69.38
277.957	81.38
278.189	88.38
278.421	95.38
278.652	84.38
278.884	92.38
279.115	84.38
279.347	80.38
279.579	78.38
279.81	77.38
280.042	78.38
280.273	79.38
280.505	73.38
280.736	85.38
280.968	94.38
281.199	98.38
281.431	87.38
281.662	85.38
281.894	93.38
282.125	98.38
282.356	113.38
282.588	137.38
282.819	109.38
283.051	85.38
283.282	87.38
283.513	94.38
283.745	96.38
283.976	81.38
284.207	87.38
284.439	91.38
284.67	84.38
284.901	103.38
285.132	82.38
285.364	90.38
285.595	83.38
285.826	99.38
286.057	98.38
286.288	77.38
286.52	88.38
286.751	87.38
286.982	87.38
287.213	81.38
287.444	86.38
287.675	85.38
287.906	86.38
288.138	91.38
288.369	92.38
288.6	97.38
288.831	92.38
289.062	89.38
289.293	88.38
289.524	89.38
289.755	80.38
289.986	102.38
290.217	90.38
290.448	80.38
290.679	81.38
290.91	96.38
291.141	73.38
291.371	85.38
291.602	83.38
291.833	87.38
292.064	81.38
292.295	96.38
292.526	92.38
292.757	96.38
292.987	79.38
293.218	79.38
293.449	98.38
293.68	85.38
293.91	92.38
294.141	92.38
294.372	99.38
294.603	98.38
294.833	86.38
295.064	101.38
295.295	104.38
295.525	95.38
295.756	99.38
295.987	108.38
296.217	117.38
296.448	124.38
296.679	80.38
296.909	78.38
297.14	79.38
297.37	88.38
297.601	83.38
297.831	84.38
298.062	83.38
298.292	94.38
298.523	97.38
298.753	96.38
298.984	94.38
299.214	99.38
299.445	90.38
299.675	92.38
299.905	105.38
300.136	84.38
300.366	94.38
300.597	91.38
300.827	99.38
301.057	102.38
301.288	97.38
301.518	93.38
301.748	93.38
301.979	101.38
302.209	107.38
302.439	84.38
302.669	83.38
302.9	106.38
303.13	79.38
303.36	100.38
303.59	94.38
303.82	100.38
304.051	97.38
304.281	92.38
304.511	90.38
304.741	90.38
304.971	92.38
305.201	92.38
305.431	92.38
305.661	94.38
305.891	91.38
306.121	88.38
306.352	94.38
306.582	95.38
306.812	79.38
307.042	91.38
307.272	87.38
307.502	98.38
307.731	97.38
307.961	103.38
308.191	88.38
308.421	97.38
308.651	91.38
308.881	89.38
309.111	102.38
309.341	113.38
309.571	101.38
309.8	87.38
310.03	92.38
310.26	93.38
310.49	96.38
310.72	94.38
310.949	107.38
311.179	99.38
311.409	98.38
311.639	99.38
311.868	102.38
312.098	92.38
312.328	102.38
312.557	102.38
312.787	122.38
313.017	92.38
313.246	93.38
313.476	101.38
313.706	88.38
313.935	112.38
314.165	96.38
314.394	78.38
314.624	92.38
314.853	93.38
315.083	94.38
315.312	102.38
315.542	97.38
315.771	88.38
316.001	87.38
316.23	96.38
316.46	92.38
316.689	85.38
316.919	97.38
317.148	91.38
317.377	113.38
317.607	101.38
317.836	103.38
318.065	81.38
318.295	100.38
318.524	104.38
318.753	85.38
318.983	96.38
319.212	91.38
319.441	97.38
319.67	101.38
319.9	93.38
320.129	104.38
320.358	97.38
320.587	94.38
320.816	102.38
321.046	98.38
321.275	108.38
321.504	107.38
321.733	100.38
321.962	92.38
322.191	107.38
322.42	96.38
322.649	114.38
322.878	102.38
323.108	109.38
323.337	130.38
323.566	122.38
323.795	147.38
324.024	205.38
324.253	386.38
324.482	773.38
324.71	1566.38
324.939	2050.38
325.168	783.38
325.397	227.38
325.626	145.38
325.855	124.38
326.084	115.38
326.313	130.38
326.542	152.38
326.77	224.38
326.999	437.38
327.228	916.38
327.457	1685.38
327.686	1300.38
327.914	343.38
328.143	190.38
328.372	140.38
328.6	102.38
328.829	109.38
329.058	99.38
329.287	117.38
329.515	117.38
329.744	110.38
329.972	91.38
330.201	90.38
330.43	107.38
330.658	112.38
330.887	114.38
331.115	110.38
331.344	95.38
331.572	96.38
331.801	96.38
332.03	95.38
332.258	91.38
332.486	105.38
332.715	82.38
332.943	111.38
333.172	88.38
333.4	88.38
333.629	107.38
333.857	105.38
334.085	87.38
334.314	87.38
334.542	95.38
334.771	92.38
334.999	90.38
335.227	98.38
335.455	93.38
335.684	86.38
335.912	94.38
336.14	103.38
336.369	100.38
336.597	94.38
336.825	93.38
337.053	97.38
337.281	92.38
337.51	100.38
337.738	98.38
337.966	112.38
338.194	81.38
338.422	78.38
338.65	89.38
338.878	80.38
339.106	92.38
339.334	76.38
339.562	83.38
339.79	82.38
340.018	91.38
340.246	82.38
340.474	79.38
340.702	96.38
340.93	100.38
341.158	102.38
341.386	96.38
341.614	101.38
341.842	91.38
342.07	91.38
342.298	83.38
342.526	100.38
342.754	96.38
342.981	98.38
343.209	89.38
343.437	105.38
343.665	89.38
343.893	87.38
344.12	90.38
344.348	90.38
344.576	96.38
344.804	110.38
345.031	87.38
345.259	111.38
345.487	98.38
345.714	99.38
345.942	96.38
346.17	90.38
346.397	92.38
346.625	87.38
346.853	91.38
347.08	91.38
347.308	84.38
347.535	92.38
347.763	110.38
347.99	93.38
348.218	97.38
348.445	107.38
348.673	83.38
348.9	99.38
349.128	98.38
349.355	104.38
349.583	82.38
349.81	95.38
350.037	98.38
350.265	103.38
350.492	87.38
350.72	103.38
350.947	91.38
351.174	112.38
351.402	101.38
351.629	103.38
351.856	101.38
352.083	98.38
352.311	103.38
352.538	104.38
352.765	91.38
352.992	122.38
353.22	113.38
353.447	123.38
353.674	96.38
353.901	87.38
354.128	101.38
354.355	92.38
354.583	96.38
354.81	103.38
355.037	98.38
355.264	87.38
355.491	97.38
355.718	92.38
355.945	88.38
356.172	78.38
356.399	86.38
356.626	95.38
356.853	91.38
357.08	104.38
357.307	95.38
357.534	92.38
357.761	85.38
357.988	102.38
358.215	103.38
358.441	106.38
358.668	106.38
358.895	85.38
359.122	84.38
359.349	93.38
359.576	88.38
359.802	92.38
360.029	100.38
360.256	106.38
360.483	97.38
360.709	93.38
360.936	100.38
361.163	94.38
361.39	93.38
361.616	91.38
361.843	86.38
362.07	79.38
362.296	85.38
362.523	80.38
362.749	112.38
362.976	82.38
363.203	99.38
363.429	87.38
363.656	101.38
363.882	88.38
364.109	91.38
364.335	101.38
364.562	98.38
364.788	90.38
365.015	88.38
365.241	111.38
365.468	99.38
365.694	99.38
365.92	86.38
366.147	94.38
366.373	104.38
366.599	78.38
366.826	91.38
367.052	88.38
367.278	102.38
367.505	90.38
367.731	103.38
367.957	99.38
368.184	84.38
368.41	96.38
368.636	114.38
368.862	126.38
369.089	98.38
369.315	88.38
369.541	85.38
369.767	75.38
369.993	94.38
370.219	95.38
370.445	92.38
370.672	83.38
370.898	96.38
371.124	91.38
371.35	95.38
371.576	104.38
371.802	81.38
372.028	96.38
372.254	92.38
372.48	98.38
372.706	88.38
372.932	90.38
373.158	86.38
373.384	78.38
373.61	79.38
373.835	93.38
374.061	93.38
374.287	101.38
374.513	96.38
374.739	97.38
374.965	99.38
375.191	94.38
375.416	91.38
375.642	87.38
375.868	94.38
376.094	106.38
376.319	70.38
376.545	78.38
376.771	94.38
376.997	112.38
377.222	99.38
377.448	94.38
377.674	89.38
377.899	100.38
378.125	97.38
378.35	94.38
378.576	89.38
378.802	87.38
379.027	95.38
379.253	99.38
379.478	98.38
379.704	104.38
379.929	96.38
380.155	92.38
380.38	104.38
380.606	99.38
380.831	113.38
381.057	105.38
381.282	97.38
381.507	87.38
381.733	94.38
381.958	101.38
382.184	113.38
382.409	96.38
382.634	108.38
382.86	88.38
383.085	104.38
383.31	88.38
383.535	110.38
383.761	102.38
383.986	108.38
384.211	94.38
384.436	113.38
384.662	99.38
384.887	108.38
385.112	100.38
385.337	106.38
385.562	98.38
385.787	102.38
386.013	109.38
386.238	115.38
386.463	118.38
386.688	99.38
386.913	109.38
387.138	108.38
387.363	94.38
387.588	104.38
387.813	109.38
388.038	94.38
388.263	119.38
388.488	123.38
388.713	100.38
388.938	88.38
389.163	92.38
389.387	98.38
389.612	96.38
389.837	89.38
390.062	94.38
390.287	91.38
390.512	88.38
390.736	86.38
390.961	87.38
391.186	87.38
391.411	95.38
391.636	92.38
391.86	96.38
392.085	94.38
392.31	78.38
392.534	86.38
392.759	82.38
392.984	93.38
393.208	98.38
393.433	95.38
393.658	89.38
393.882	83.38
394.107	85.38
394.331	92.38
394.556	91.38
394.78	90.38
395.005	94.38
395.229	97.38
395.454	102.38
395.678	78.38
395.903	100.38
396.127	90.38
396.352	77.38
396.576	88.38
396.801	98.38
397.025	92.38
397.249	81.38
397.474	97.38
397.698	95.38
397.922	85.38
398.147	83.38
398.371	67.38
398.595	95.38
398.82	99.38
399.044	87.38
399.268	76.38
399.492	91.38
399.717	91.38
399.941	86.38
400.165	107.38
400.389	89.38
400.613	85.38
400.837	82.38
401.062	71.38
401.286	85.38
401.51	96.38
401.734	98.38
401.958	99.38
402.182	109.38
402.406	150.38
402.63	96.38
402.854	70.38
403.078	91.38
403.302	85.38
403.526	96.38
403.75	89.38
403.974	88.38
404.198	90.38
404.422	86.38
404.645	99.38
404.869	86.38
405.093	100.38
405.317	97.38
405.541	81.38
405.765	96.38
405.988	108.38
406.212	155.38
406.436	197.38
406.66	143.38
406.883	108.38
407.107	76.38
407.331	94.38
407.555	92.38
407.778	94.38
408.002	98.38
408.226	104.38
408.449	91.38
408.673	82.38
408.896	95.38
409.12	92.38
409.344	87.38
409.567	91.38
409.791	99.38
410.014	98.38
410.238	91.38
410.461	85.38
410.685	86.38
410.908	108.38
411.132	105.38
411.355	88.38
411.578	81.38
411.802	90.38
412.025	88.38
412.249	98.38
412.472	87.38
412.695	99.38
412.919	98.38
413.142	83.38
413.365	87.38
413.589	80.38
413.812	90.38
414.035	87.38
414.258	92.38
414.482	95.38
414.705	89.38
414.928	90.38
415.151	83.38
415.374	90.38
415.597	78.38
415.821	87.38
416.044	94.38
416.267	83.38
416.49	96.38
416.713	93.38
416.936	82.38
417.159	83.38
417.382	86.38
417.605	79.38
417.828	88.38
418.051	95.38
418.274	87.38
418.497	86.38
418.72	87.38
418.943	100.38
419.166	81.38
419.389	76.38
419.611	82.38
419.834	82.38
420.057	94.38
420.28	91.38
420.503	83.38
420.726	100.38
420.948	92.38
421.171	95.38
421.394	99.38
421.617	90.38
421.839	91.38
422.062	102.38
422.285	93.38
422.507	107.38
422.73	109.38
422.953	109.38
423.175	80.38
423.398	99.38
423.621	87.38
423.843	77.38
424.066	81.38
424.288	83.38
424.511	84.38
424.733	87.38
424.956	94.38
425.178	95.38
425.401	93.38
425.623	100.38
425.846	104.38
426.068	93.38
426.291	103.38
426.513	97.38
426.735	99.38
426.958	100.38
427.18	102.38
427.402	111.38
427.625	137.38
427.847	107.38
428.069	94.38
428.292	100.38
428.514	90.38
428.736	88.38
428.958	95.38
429.181	82.38
429.403	86.38
429.625	87.38
429.847	95.38
430.069	97.38
430.292	84.38
430.514	88.38
430.736	78.38
430.958	78.38
431.18	95.38
431.402	90.38
431.624	79.38
431.846	74.38
432.068	83.38
432.29	82.38
432.512	80.38
432.734	93.38
432.956	101.38
433.178	97.38
433.4	87.38
433.622	86.38
433.844	89.38
434.066	87.38
434.287	93.38
434.509	93.38
434.731	92.38
434.953	79.38
435.175	81.38
435.397	89.38
435.618	77.38
435.84	99.38
436.062	120.38
436.284	100.38
436.505	78.38
436.727	96.38
436.949	102.38
437.17	88.38
437.392	84.38
437.614	87.38
437.835	97.38
438.057	103.38
438.278	99.38
438.5	93.38
438.721	112.38
438.943	95.38
439.165	88.38
439.386	78.38
439.608	76.38
439.829	87.38
440.05	118.38
440.272	122.38
440.493	89.38
440.715	88.38
440.936	85.38
441.158	82.38
441.379	91.38
441.6	108.38
441.822	91.38
442.043	79.38
442.264	98.38
442.486	97.38
442.707	107.38
442.928	85.38
443.149	107.38
443.371	130.38
443.592	95.38
443.813	93.38
444.034	102.38
444.255	76.38
444.476	72.38
444.698	92.38
444.919	87.38
445.14	126.38
445.361	122.38
445.582	117.38
445.803	118.38
446.024	127.38
446.245	125.38
446.466	104.38
446.687	86.38
446.908	87.38
447.129	75.38
447.35	74.38
447.571	73.38
447.792	95.38
448.013	96.38
448.234	112.38
448.455	109.38
448.675	96.38
448.896	124.38
449.117	85.38
449.338	92.38
449.559	127.38
449.779	136.38
450	88.38
450.221	84.38
450.442	91.38
450.662	95.38
450.883	95.38
451.104	102.38
451.324	110.38
451.545	82.38
451.766	73.38
451.986	85.38
452.207	95.38
452.428	94.38
452.648	84.38
452.869	112.38
453.089	106.38
453.31	99.38
453.53	93.38
453.751	95.38
453.971	95.38
454.192	113.38
454.412	100.38
454.633	90.38
454.853	76.38
455.073	86.38
455.294	83.38
455.514	106.38
455.734	91.38
455.955	95.38
456.175	92.38
456.395	72.38
456.616	70.38
456.836	76.38
457.056	79.38
457.276	91.38
457.497	88.38
457.717	100.38
457.937	88.38
458.157	83.38
458.377	86.38
458.598	90.38
458.818	127.38
459.038	131.38
459.258	100.38
459.478	88.38
459.698	96.38
459.918	75.38
460.138	82.38
460.358	82.38
460.578	96.38
460.798	87.38
461.018	91.38
461.238	79.38
461.458	87.38
461.678	76.38
461.898	88.38
462.118	80.38
462.338	89.38
462.558	88.38
462.777	85.38
462.997	84.38
463.217	85.38
463.437	88.38
463.657	81.38
463.876	86.38
464.096	100.38
464.316	95.38
464.536	93.38
464.755	96.38
464.975	106.38
465.195	155.38
465.414	154.38
465.634	95.38
465.854	91.38
466.073	99.38
466.293	87.38
466.512	91.38
466.732	88.38
466.951	91.38
467.171	77.38
467.391	77.38
467.61	94.38
467.829	86.38
468.049	98.38
468.268	79.38
468.488	79.38
468.707	94.38
468.927	94.38
469.146	83.38
469.365	100.38
469.585	92.38
469.804	96.38
470.023	80.38
470.243	72.38
470.462	83.38
470.681	99.38
470.901	89.38
471.12	86.38
471.339	97.38
471.558	92.38
471.777	81.38
471.997	80.38
472.216	94.38
472.435	94.38
472.654	83.38
472.873	82.38
473.092	93.38
473.311	89.38
473.53	78.38
473.749	92.38
473.968	106.38
474.187	95.38
474.406	82.38
474.625	86.38
474.844	98.38
475.063	89.38
475.282	96.38
475.501	88.38
475.72	93.38
475.939	72.38
476.158	91.38
476.377	102.38
476.596	92.38
476.814	102.38
477.033	85.38
477.252	97.38
477.471	108.38
477.69	88.38
477.908	85.38
478.127	83.38
478.346	91.38
478.564	92.38
478.783	96.38
479.002	88.38
479.22	78.38
479.439	93.38
479.658	96.38
479.876	107.38
480.095	99.38
480.313	90.38
480.532	90.38
480.751	85.38
480.969	74.38
481.188	90.38
481.406	91.38
481.624	91.38
481.843	75.38
482.061	88.38
482.28	95.38
482.498	74.38
482.717	88.38
482.935	101.38
483.153	85.38
483.372	91.38
483.59	91.38
483.808	75.38
484.027	96.38
484.245	83.38
484.463	88.38
484.681	95.38
484.9	95.38
485.118	95.38
485.336	93.38
485.554	95.38
485.772	87.38
485.99	94.38
486.209	94.38
486.427	91.38
486.645	117.38
486.863	122.38
487.081	99.38
487.299	97.38
487.517	100.38
487.735	107.38
487.953	87.38
488.171	107.38
488.389	91.38
488.607	104.38
488.825	97.38
489.043	105.38
489.261	98.38
489.479	88.38
489.696	112.38
489.914	100.38
490.132	86.38
490.35	87.38
490.568	84.38
490.786	86.38
491.003	92.38
491.221	91.38
491.439	95.38
491.657	94.38
491.874	98.38
492.092	91.38
492.31	100.38
492.527	97.38
492.745	98.38
492.963	88.38
493.18	90.38
493.398	94.38
493.615	92.38
493.833	101.38
494.05	87.38
494.268	89.38
494.485	100.38
494.703	97.38
494.92	100.38
495.138	92.38
495.355	92.38
495.573	94.38
495.79	98.38
496.008	95.38
496.225	80.38
496.442	77.38
496.66	99.38
496.877	88.38
497.094	87.38
497.312	86.38
497.529	95.38
497.746	89.38
497.963	97.38
498.181	110.38
498.398	96.38
498.615	106.38
498.832	116.38
499.049	97.38
499.267	104.38
499.484	72.38
499.701	76.38
499.918	95.38
500.135	82.38
500.352	99.38
500.569	87.38
500.786	91.38
501.003	94.38
501.22	103.38
501.437	94.38
501.654	93.38
501.871	108.38
502.088	91.38
502.305	97.38
502.522	88.38
502.739	76.38
502.956	92.38
503.172	103.38
503.389	89.38
503.606	108.38
503.823	85.38
504.04	86.38
504.256	96.38
504.473	95.38
504.69	92.38
504.907	94.38
505.123	87.38
505.34	97.38
505.557	87.38
505.773	100.38
505.99	90.38
506.207	89.38
506.423	88.38
506.64	99.38
506.856	93.38
507.073	101.38
507.289	101.38
507.506	88.38
507.722	103.38
507.939	111.38
508.155	88.38
508.372	98.38
508.588	87.38
508.805	86.38
509.021	97.38
509.238	91.38
509.454	103.38
509.67	123.38
509.887	110.38
510.103	129.38
510.319	207.38
510.536	714.38
510.752	2087.38
510.968	600.38
511.184	141.38
511.401	126.38
511.617	97.38
511.833	91.38
512.049	91.38
512.265	83.38
512.481	97.38
512.698	94.38
512.914	86.38
513.13	96.38
513.346	100.38
513.562	95.38
513.778	100.38
513.994	103.38
514.21	99.38
514.426	110.38
514.642	118.38
514.858	113.38
515.074	159.38
515.29	399.38
515.506	1261.38
515.721	482.38
515.937	143.38
