Data from Uncirc_2006_H10_HRD10591_00059.txt Node
Date: Wed Jan 03 10:25:06 EST 2024
User: Yrep
Spectrometer: HR+D1059
Trigger mode: 1
Integration Time (sec): 1.000000E-1
Scans to average: 1
Electric dark correction enabled: true
Nonlinearity correction enabled: false
Boxcar width: 0
XAxis mode: Wavelengths
Number of Pixels in Spectrum: 2048
>>>>>Begin Spectral Data<<<<<
223.165	-21.12
223.4	-21.12
223.635	-21.12
223.869	-16.12
224.104	-29.12
224.338	-6.12
224.573	-9.12
224.808	-20.12
225.042	-6.12
225.277	-3.12
225.511	-8.12
225.746	10.88
225.98	18.88
226.215	13.88
226.449	18.88
226.683	17.88
226.918	18.88
227.152	19.88
227.387	17.88
227.621	26.88
227.856	50.88
228.09	45.88
228.324	54.88
228.559	48.88
228.793	54.88
229.027	67.88
229.262	59.88
229.496	70.88
229.73	74.88
229.964	80.88
230.199	56.88
230.433	77.88
230.667	75.88
230.901	76.88
231.136	77.88
231.37	74.88
231.604	81.88
231.838	72.88
232.072	79.88
232.306	78.88
232.541	78.88
232.775	74.88
233.009	83.88
233.243	88.88
233.477	63.88
233.711	72.88
233.945	66.88
234.179	78.88
234.413	83.88
234.647	72.88
234.881	67.88
235.115	72.88
235.349	81.88
235.583	78.88
235.817	68.88
236.051	87.88
236.285	82.88
236.519	84.88
236.753	76.88
236.987	80.88
237.221	92.88
237.455	74.88
237.689	70.88
237.922	62.88
238.156	73.88
238.39	76.88
238.624	77.88
238.858	69.88
239.091	68.88
239.325	74.88
239.559	62.88
239.793	75.88
240.027	74.88
240.26	74.88
240.494	81.88
240.728	74.88
240.961	87.88
241.195	92.88
241.429	87.88
241.662	77.88
241.896	62.88
242.13	60.88
242.363	82.88
242.597	73.88
242.83	63.88
243.064	82.88
243.298	72.88
243.531	72.88
243.765	70.88
243.998	56.88
244.232	76.88
244.465	84.88
244.699	90.88
244.932	80.88
245.166	84.88
245.399	76.88
245.633	80.88
245.866	74.88
246.099	75.88
246.333	76.88
246.566	87.88
246.8	74.88
247.033	72.88
247.266	80.88
247.5	62.88
247.733	77.88
247.966	78.88
248.2	80.88
248.433	84.88
248.666	74.88
248.899	79.88
249.133	86.88
249.366	97.88
249.599	87.88
249.832	81.88
250.066	63.88
250.299	64.88
250.532	80.88
250.765	57.88
250.998	66.88
251.231	78.88
251.465	66.88
251.698	91.88
251.931	80.88
252.164	70.88
252.397	81.88
252.63	81.88
252.863	79.88
253.096	97.88
253.329	79.88
253.562	71.88
253.795	91.88
254.028	71.88
254.261	72.88
254.494	82.88
254.727	82.88
254.96	72.88
255.193	74.88
255.426	78.88
255.659	69.88
255.892	70.88
256.124	75.88
256.357	82.88
256.59	75.88
256.823	75.88
257.056	91.88
257.289	78.88
257.521	74.88
257.754	74.88
257.987	74.88
258.22	75.88
258.452	78.88
258.685	84.88
258.918	98.88
259.151	80.88
259.383	80.88
259.616	64.88
259.849	73.88
260.081	77.88
260.314	82.88
260.547	81.88
260.779	87.88
261.012	82.88
261.244	74.88
261.477	77.88
261.71	88.88
261.942	96.88
262.175	103.88
262.407	80.88
262.64	73.88
262.872	64.88
263.105	87.88
263.337	80.88
263.57	90.88
263.802	77.88
264.035	64.88
264.267	89.88
264.499	76.88
264.732	75.88
264.964	85.88
265.197	79.88
265.429	93.88
265.661	84.88
265.894	72.88
266.126	69.88
266.358	71.88
266.591	76.88
266.823	89.88
267.055	90.88
267.287	75.88
267.52	78.88
267.752	78.88
267.984	74.88
268.216	77.88
268.448	76.88
268.681	92.88
268.913	76.88
269.145	82.88
269.377	73.88
269.609	83.88
269.841	81.88
270.073	79.88
270.306	90.88
270.538	72.88
270.77	84.88
271.002	74.88
271.234	80.88
271.466	76.88
271.698	78.88
271.93	82.88
272.162	93.88
272.394	83.88
272.626	90.88
272.858	92.88
273.09	86.88
273.322	84.88
273.553	87.88
273.785	72.88
274.017	84.88
274.249	77.88
274.481	81.88
274.713	86.88
274.945	88.88
275.176	80.88
275.408	91.88
275.64	80.88
275.872	81.88
276.104	78.88
276.335	79.88
276.567	84.88
276.799	99.88
277.031	88.88
277.262	67.88
277.494	91.88
277.726	76.88
277.957	87.88
278.189	74.88
278.421	81.88
278.652	81.88
278.884	77.88
279.115	79.88
279.347	67.88
279.579	75.88
279.81	79.88
280.042	90.88
280.273	88.88
280.505	79.88
280.736	84.88
280.968	83.88
281.199	96.88
281.431	83.88
281.662	99.88
281.894	82.88
282.125	94.88
282.356	110.88
282.588	129.88
282.819	114.88
283.051	93.88
283.282	77.88
283.513	93.88
283.745	79.88
283.976	82.88
284.207	81.88
284.439	80.88
284.67	83.88
284.901	79.88
285.132	65.88
285.364	82.88
285.595	81.88
285.826	80.88
286.057	60.88
286.288	70.88
286.52	87.88
286.751	80.88
286.982	93.88
287.213	89.88
287.444	90.88
287.675	79.88
287.906	74.88
288.138	76.88
288.369	91.88
288.6	78.88
288.831	78.88
289.062	83.88
289.293	82.88
289.524	88.88
289.755	87.88
289.986	88.88
290.217	76.88
290.448	72.88
290.679	76.88
290.91	85.88
291.141	96.88
291.371	97.88
291.602	83.88
291.833	81.88
292.064	77.88
292.295	61.88
292.526	91.88
292.757	88.88
292.987	72.88
293.218	79.88
293.449	79.88
293.68	75.88
293.91	81.88
294.141	91.88
294.372	90.88
294.603	87.88
294.833	95.88
295.064	95.88
295.295	92.88
295.525	102.88
295.756	103.88
295.987	100.88
296.217	122.88
296.448	94.88
296.679	82.88
296.909	80.88
297.14	94.88
297.37	86.88
297.601	92.88
297.831	83.88
298.062	96.88
298.292	79.88
298.523	97.88
298.753	87.88
298.984	76.88
299.214	94.88
299.445	80.88
299.675	94.88
299.905	74.88
300.136	85.88
300.366	88.88
300.597	86.88
300.827	94.88
301.057	102.88
301.288	101.88
301.518	94.88
301.748	75.88
301.979	98.88
302.209	92.88
302.439	89.88
302.669	80.88
302.9	89.88
303.13	82.88
303.36	92.88
303.59	91.88
303.82	90.88
304.051	88.88
304.281	97.88
304.511	95.88
304.741	89.88
304.971	67.88
305.201	97.88
305.431	97.88
305.661	90.88
305.891	82.88
306.121	89.88
306.352	94.88
306.582	98.88
306.812	97.88
307.042	82.88
307.272	91.88
307.502	99.88
307.731	80.88
307.961	84.88
308.191	94.88
308.421	88.88
308.651	85.88
308.881	85.88
309.111	92.88
309.341	92.88
309.571	83.88
309.8	83.88
310.03	95.88
310.26	85.88
310.49	94.88
310.72	80.88
310.949	89.88
311.179	97.88
311.409	87.88
311.639	96.88
311.868	88.88
312.098	84.88
312.328	103.88
312.557	104.88
312.787	102.88
313.017	109.88
313.246	93.88
313.476	87.88
313.706	95.88
313.935	98.88
314.165	84.88
314.394	106.88
314.624	87.88
314.853	94.88
315.083	103.88
315.312	109.88
315.542	88.88
315.771	89.88
316.001	79.88
316.23	72.88
316.46	82.88
316.689	98.88
316.919	81.88
317.148	79.88
317.377	82.88
317.607	76.88
317.836	92.88
318.065	73.88
318.295	88.88
318.524	90.88
318.753	97.88
318.983	95.88
319.212	89.88
319.441	103.88
319.67	104.88
319.9	90.88
320.129	82.88
320.358	95.88
320.587	88.88
320.816	92.88
321.046	83.88
321.275	86.88
321.504	86.88
321.733	89.88
321.962	97.88
322.191	93.88
322.42	108.88
322.649	108.88
322.878	89.88
323.108	120.88
323.337	115.88
323.566	115.88
323.795	137.88
324.024	199.88
324.253	365.88
324.482	713.88
324.71	1508.88
324.939	1943.88
325.168	739.88
325.397	220.88
325.626	149.88
325.855	114.88
326.084	104.88
326.313	130.88
326.542	138.88
326.77	230.88
326.999	431.88
327.228	840.88
327.457	1546.88
327.686	1220.88
327.914	350.88
328.143	174.88
328.372	118.88
328.6	118.88
328.829	120.88
329.058	114.88
329.287	115.88
329.515	94.88
329.744	79.88
329.972	100.88
330.201	88.88
330.43	84.88
330.658	102.88
330.887	135.88
331.115	110.88
331.344	102.88
331.572	87.88
331.801	99.88
332.03	97.88
332.258	89.88
332.486	77.88
332.715	78.88
332.943	89.88
333.172	95.88
333.4	96.88
333.629	100.88
333.857	97.88
334.085	84.88
334.314	90.88
334.542	100.88
334.771	89.88
334.999	89.88
335.227	93.88
335.455	96.88
335.684	76.88
335.912	75.88
336.14	94.88
336.369	86.88
336.597	80.88
336.825	98.88
337.053	76.88
337.281	85.88
337.51	85.88
337.738	76.88
337.966	79.88
338.194	84.88
338.422	94.88
338.65	98.88
338.878	89.88
339.106	93.88
339.334	86.88
339.562	76.88
339.79	91.88
340.018	82.88
340.246	90.88
340.474	83.88
340.702	77.88
340.93	87.88
341.158	80.88
341.386	91.88
341.614	84.88
341.842	96.88
342.07	91.88
342.298	82.88
342.526	99.88
342.754	94.88
342.981	94.88
343.209	83.88
343.437	86.88
343.665	78.88
343.893	84.88
344.12	87.88
344.348	76.88
344.576	94.88
344.804	89.88
345.031	79.88
345.259	94.88
345.487	100.88
345.714	82.88
345.942	79.88
346.17	96.88
346.397	89.88
346.625	85.88
346.853	74.88
347.08	92.88
347.308	90.88
347.535	96.88
347.763	91.88
347.99	90.88
348.218	99.88
348.445	106.88
348.673	98.88
348.9	90.88
349.128	76.88
349.355	83.88
349.583	89.88
349.81	82.88
350.037	99.88
350.265	104.88
350.492	85.88
350.72	85.88
350.947	82.88
351.174	105.88
351.402	104.88
351.629	91.88
351.856	104.88
352.083	103.88
352.311	103.88
352.538	107.88
352.765	88.88
352.992	107.88
353.22	112.88
353.447	92.88
353.674	91.88
353.901	83.88
354.128	94.88
354.355	81.88
354.583	88.88
354.81	99.88
355.037	100.88
355.264	92.88
355.491	90.88
355.718	89.88
355.945	99.88
356.172	81.88
356.399	104.88
356.626	95.88
356.853	84.88
357.08	81.88
357.307	93.88
357.534	75.88
357.761	91.88
357.988	83.88
358.215	99.88
358.441	98.88
358.668	95.88
358.895	91.88
359.122	95.88
359.349	84.88
359.576	88.88
359.802	98.88
360.029	96.88
360.256	106.88
360.483	83.88
360.709	76.88
360.936	89.88
361.163	81.88
361.39	90.88
361.616	84.88
361.843	77.88
362.07	99.88
362.296	94.88
362.523	82.88
362.749	83.88
362.976	88.88
363.203	76.88
363.429	84.88
363.656	79.88
363.882	73.88
364.109	86.88
364.335	87.88
364.562	77.88
364.788	80.88
365.015	91.88
365.241	90.88
365.468	95.88
365.694	99.88
365.92	83.88
366.147	93.88
366.373	88.88
366.599	95.88
366.826	84.88
367.052	80.88
367.278	87.88
367.505	79.88
367.731	95.88
367.957	77.88
368.184	102.88
368.41	108.88
368.636	105.88
368.862	113.88
369.089	94.88
369.315	84.88
369.541	85.88
369.767	87.88
369.993	88.88
370.219	87.88
370.445	97.88
370.672	72.88
370.898	82.88
371.124	83.88
371.35	74.88
371.576	83.88
371.802	86.88
372.028	86.88
372.254	83.88
372.48	93.88
372.706	81.88
372.932	72.88
373.158	91.88
373.384	93.88
373.61	78.88
373.835	91.88
374.061	88.88
374.287	80.88
374.513	92.88
374.739	88.88
374.965	87.88
375.191	87.88
375.416	76.88
375.642	93.88
375.868	81.88
376.094	85.88
376.319	83.88
376.545	72.88
376.771	82.88
376.997	90.88
377.222	84.88
377.448	96.88
377.674	93.88
377.899	83.88
378.125	79.88
378.35	72.88
378.576	91.88
378.802	83.88
379.027	81.88
379.253	97.88
379.478	84.88
379.704	94.88
379.929	78.88
380.155	96.88
380.38	91.88
380.606	76.88
380.831	98.88
381.057	83.88
381.282	96.88
381.507	101.88
381.733	93.88
381.958	81.88
382.184	100.88
382.409	92.88
382.634	84.88
382.86	84.88
383.085	100.88
383.31	82.88
383.535	97.88
383.761	91.88
383.986	96.88
384.211	95.88
384.436	93.88
384.662	100.88
384.887	83.88
385.112	90.88
385.337	96.88
385.562	98.88
385.787	94.88
386.013	96.88
386.238	111.88
386.463	103.88
386.688	115.88
386.913	103.88
387.138	95.88
387.363	104.88
387.588	91.88
387.813	103.88
388.038	95.88
388.263	120.88
388.488	98.88
388.713	88.88
388.938	83.88
389.163	97.88
389.387	99.88
389.612	84.88
389.837	83.88
390.062	101.88
390.287	90.88
390.512	84.88
390.736	91.88
390.961	104.88
391.186	82.88
391.411	92.88
391.636	79.88
391.86	86.88
392.085	88.88
392.31	65.88
392.534	89.88
392.759	78.88
392.984	76.88
393.208	76.88
393.433	103.88
393.658	87.88
393.882	78.88
394.107	75.88
394.331	82.88
394.556	71.88
394.78	90.88
395.005	79.88
395.229	90.88
395.454	90.88
395.678	78.88
395.903	89.88
396.127	85.88
396.352	84.88
396.576	92.88
396.801	97.88
397.025	80.88
397.249	90.88
397.474	89.88
397.698	65.88
397.922	94.88
398.147	82.88
398.371	91.88
398.595	91.88
398.82	83.88
399.044	85.88
399.268	87.88
399.492	86.88
399.717	64.88
399.941	86.88
400.165	91.88
400.389	90.88
400.613	83.88
400.837	85.88
401.062	74.88
401.286	92.88
401.51	74.88
401.734	77.88
401.958	101.88
402.182	120.88
402.406	139.88
402.63	118.88
402.854	82.88
403.078	79.88
403.302	80.88
403.526	86.88
403.75	90.88
403.974	83.88
404.198	83.88
404.422	102.88
404.645	92.88
404.869	91.88
405.093	96.88
405.317	90.88
405.541	80.88
405.765	86.88
405.988	110.88
406.212	147.88
406.436	184.88
406.66	132.88
406.883	97.88
407.107	80.88
407.331	80.88
407.555	89.88
407.778	86.88
408.002	83.88
408.226	83.88
408.449	95.88
408.673	92.88
408.896	73.88
409.12	81.88
409.344	92.88
409.567	83.88
409.791	101.88
410.014	118.88
410.238	80.88
410.461	101.88
410.685	87.88
410.908	104.88
411.132	103.88
411.355	105.88
411.578	90.88
411.802	75.88
412.025	67.88
412.249	93.88
412.472	92.88
412.695	94.88
412.919	74.88
413.142	79.88
413.365	88.88
413.589	85.88
413.812	74.88
414.035	90.88
414.258	107.88
414.482	82.88
414.705	86.88
414.928	95.88
415.151	102.88
415.374	92.88
415.597	69.88
415.821	97.88
416.044	79.88
416.267	83.88
416.49	79.88
416.713	82.88
416.936	82.88
417.159	96.88
417.382	89.88
417.605	80.88
417.828	90.88
418.051	93.88
418.274	79.88
418.497	76.88
418.72	85.88
418.943	84.88
419.166	89.88
419.389	72.88
419.611	76.88
419.834	87.88
420.057	77.88
420.28	78.88
420.503	89.88
420.726	79.88
420.948	84.88
421.171	87.88
421.394	88.88
421.617	72.88
421.839	86.88
422.062	88.88
422.285	92.88
422.507	75.88
422.73	100.88
422.953	89.88
423.175	81.88
423.398	82.88
423.621	79.88
423.843	72.88
424.066	95.88
424.288	86.88
424.511	96.88
424.733	87.88
424.956	97.88
425.178	90.88
425.401	84.88
425.623	95.88
425.846	83.88
426.068	110.88
426.291	94.88
426.513	89.88
426.735	78.88
426.958	92.88
427.18	108.88
427.402	111.88
427.625	142.88
427.847	107.88
428.069	103.88
428.292	85.88
428.514	92.88
428.736	93.88
428.958	72.88
429.181	83.88
429.403	87.88
429.625	88.88
429.847	82.88
430.069	103.88
430.292	86.88
430.514	82.88
430.736	62.88
430.958	69.88
431.18	80.88
431.402	90.88
431.624	82.88
431.846	85.88
432.068	94.88
432.29	87.88
432.512	86.88
432.734	83.88
432.956	81.88
433.178	103.88
433.4	86.88
433.622	60.88
433.844	77.88
434.066	80.88
434.287	84.88
434.509	82.88
434.731	87.88
434.953	79.88
435.175	84.88
435.397	72.88
435.618	94.88
435.84	93.88
436.062	122.88
436.284	119.88
436.505	105.88
436.727	90.88
436.949	71.88
437.17	75.88
437.392	75.88
437.614	95.88
437.835	98.88
438.057	111.88
438.278	98.88
438.5	92.88
438.721	102.88
438.943	81.88
439.165	80.88
439.386	102.88
439.608	83.88
439.829	96.88
440.05	101.88
440.272	92.88
440.493	89.88
440.715	88.88
440.936	87.88
441.158	75.88
441.379	75.88
441.6	91.88
441.822	99.88
442.043	95.88
442.264	93.88
442.486	90.88
442.707	73.88
442.928	91.88
443.149	96.88
443.371	116.88
443.592	103.88
443.813	112.88
444.034	107.88
444.255	83.88
444.476	71.88
444.698	90.88
444.919	84.88
445.14	102.88
445.361	102.88
445.582	115.88
445.803	139.88
446.024	116.88
446.245	120.88
446.466	101.88
446.687	74.88
446.908	67.88
447.129	98.88
447.35	91.88
447.571	85.88
447.792	80.88
448.013	103.88
448.234	92.88
448.455	92.88
448.675	91.88
448.896	101.88
449.117	85.88
449.338	99.88
449.559	123.88
449.779	123.88
450	91.88
450.221	75.88
450.442	86.88
450.662	81.88
450.883	87.88
451.104	101.88
451.324	98.88
451.545	79.88
451.766	77.88
451.986	96.88
452.207	88.88
452.428	71.88
452.648	94.88
452.869	110.88
453.089	122.88
453.31	100.88
453.53	88.88
453.751	77.88
453.971	91.88
454.192	81.88
454.412	79.88
454.633	80.88
454.853	95.88
455.073	77.88
455.294	95.88
455.514	90.88
455.734	106.88
455.955	79.88
456.175	90.88
456.395	71.88
456.616	92.88
456.836	85.88
457.056	73.88
457.276	79.88
457.497	90.88
457.717	77.88
457.937	81.88
458.157	86.88
458.377	79.88
458.598	97.88
458.818	138.88
459.038	156.88
459.258	100.88
459.478	86.88
459.698	88.88
459.918	68.88
460.138	89.88
460.358	82.88
460.578	78.88
460.798	84.88
461.018	97.88
461.238	79.88
461.458	94.88
461.678	90.88
461.898	85.88
462.118	80.88
462.338	86.88
462.558	78.88
462.777	89.88
462.997	74.88
463.217	87.88
463.437	75.88
463.657	72.88
463.876	84.88
464.096	81.88
464.316	66.88
464.536	82.88
464.755	95.88
464.975	109.88
465.195	147.88
465.414	152.88
465.634	91.88
465.854	81.88
466.073	64.88
466.293	84.88
466.512	81.88
466.732	74.88
466.951	88.88
467.171	72.88
467.391	95.88
467.61	104.88
467.829	102.88
468.049	96.88
468.268	91.88
468.488	98.88
468.707	75.88
468.927	76.88
469.146	84.88
469.365	66.88
469.585	90.88
469.804	94.88
470.023	87.88
470.243	93.88
470.462	102.88
470.681	93.88
470.901	91.88
471.12	79.88
471.339	82.88
471.558	82.88
471.777	84.88
471.997	88.88
472.216	87.88
472.435	81.88
472.654	78.88
472.873	75.88
473.092	82.88
473.311	79.88
473.53	67.88
473.749	68.88
473.968	88.88
474.187	99.88
474.406	89.88
474.625	94.88
474.844	85.88
475.063	84.88
475.282	90.88
475.501	82.88
475.72	77.88
475.939	71.88
476.158	88.88
476.377	90.88
476.596	84.88
476.814	94.88
477.033	97.88
477.252	86.88
477.471	81.88
477.69	83.88
477.908	88.88
478.127	84.88
478.346	91.88
478.564	99.88
478.783	95.88
479.002	81.88
479.22	86.88
479.439	114.88
479.658	89.88
479.876	60.88
480.095	87.88
480.313	97.88
480.532	70.88
480.751	86.88
480.969	74.88
481.188	92.88
481.406	80.88
481.624	74.88
481.843	95.88
482.061	69.88
482.28	82.88
482.498	87.88
482.717	83.88
482.935	82.88
483.153	86.88
483.372	82.88
483.59	88.88
483.808	91.88
484.027	93.88
484.245	102.88
484.463	97.88
484.681	94.88
484.9	89.88
485.118	98.88
485.336	85.88
485.554	74.88
485.772	94.88
485.99	103.88
486.209	95.88
486.427	87.88
486.645	92.88
486.863	98.88
487.081	82.88
487.299	90.88
487.517	93.88
487.735	78.88
487.953	73.88
488.171	88.88
488.389	83.88
488.607	98.88
488.825	89.88
489.043	77.88
489.261	100.88
489.479	85.88
489.696	92.88
489.914	92.88
490.132	92.88
490.35	80.88
490.568	94.88
490.786	76.88
491.003	91.88
491.221	89.88
491.439	99.88
491.657	96.88
491.874	95.88
492.092	97.88
492.31	100.88
492.527	90.88
492.745	82.88
492.963	78.88
493.18	78.88
493.398	89.88
493.615	96.88
493.833	93.88
494.05	94.88
494.268	89.88
494.485	84.88
494.703	82.88
494.92	88.88
495.138	94.88
495.355	81.88
495.573	91.88
495.79	93.88
496.008	94.88
496.225	90.88
496.442	93.88
496.66	92.88
496.877	92.88
497.094	92.88
497.312	91.88
497.529	98.88
497.746	94.88
497.963	94.88
498.181	101.88
498.398	95.88
498.615	112.88
498.832	92.88
499.049	86.88
499.267	96.88
499.484	92.88
499.701	77.88
499.918	100.88
500.135	90.88
500.352	81.88
500.569	98.88
500.786	98.88
501.003	91.88
501.22	78.88
501.437	87.88
501.654	100.88
501.871	105.88
502.088	85.88
502.305	75.88
502.522	95.88
502.739	69.88
502.956	90.88
503.172	80.88
503.389	82.88
503.606	90.88
503.823	106.88
504.04	95.88
504.256	80.88
504.473	88.88
504.69	79.88
504.907	89.88
505.123	78.88
505.34	81.88
505.557	88.88
505.773	91.88
505.99	91.88
506.207	82.88
506.423	96.88
506.64	86.88
506.856	83.88
507.073	91.88
507.289	90.88
507.506	90.88
507.722	111.88
507.939	97.88
508.155	98.88
508.372	82.88
508.588	84.88
508.805	82.88
509.021	81.88
509.238	102.88
509.454	93.88
509.67	106.88
509.887	104.88
510.103	128.88
510.319	190.88
510.536	667.88
510.752	2138.88
510.968	615.88
511.184	154.88
511.401	114.88
511.617	88.88
511.833	103.88
512.049	88.88
512.265	92.88
512.481	84.88
512.698	72.88
512.914	90.88
513.13	102.88
513.346	80.88
513.562	91.88
513.778	90.88
513.994	80.88
514.21	95.88
514.426	105.88
514.642	122.88
514.858	104.88
515.074	144.88
515.29	414.88
515.506	1264.88
515.721	491.88
515.937	142.88
516.153	97.88
516.369	103.88
516.585	98.88
516.801	90.88
517.016	87.88
517.232	81.88
517.448	67.88
