Data from Uncirc_2006_H10_HRD10591_00088.txt Node
Date: Wed Jan 03 10:25:12 EST 2024
User: Yrep
Spectrometer: HR+D1059
Trigger mode: 1
Integration Time (sec): 1.000000E-1
Scans to average: 1
Electric dark correction enabled: true
Nonlinearity correction enabled: false
Boxcar width: 0
XAxis mode: Wavelengths
Number of Pixels in Spectrum: 2048
>>>>>Begin Spectral Data<<<<<
223.165	-19.06
223.4	-19.06
223.635	-19.06
223.869	-24.06
224.104	-7.06
224.338	-6.06
224.573	-30.06
224.808	-11.06
225.042	-10.06
225.277	-7.06
225.511	-3.06
225.746	10.94
225.98	6.94
226.215	1.94
226.449	13.94
226.683	25.94
226.918	37.94
227.152	19.94
227.387	32.94
227.621	28.94
227.856	54.94
228.09	40.94
228.324	36.94
228.559	36.94
228.793	44.94
229.027	56.94
229.262	58.94
229.496	65.94
229.73	76.94
229.964	73.94
230.199	68.94
230.433	82.94
230.667	63.94
230.901	67.94
231.136	79.94
231.37	84.94
231.604	65.94
231.838	74.94
232.072	80.94
232.306	85.94
232.541	77.94
232.775	77.94
233.009	92.94
233.243	88.94
233.477	78.94
233.711	82.94
233.945	73.94
234.179	82.94
234.413	65.94
234.647	82.94
234.881	81.94
235.115	80.94
235.349	73.94
235.583	84.94
235.817	83.94
236.051	70.94
236.285	70.94
236.519	82.94
236.753	80.94
236.987	76.94
237.221	70.94
237.455	85.94
237.689	73.94
237.922	73.94
238.156	65.94
238.39	58.94
238.624	78.94
238.858	69.94
239.091	72.94
239.325	62.94
239.559	76.94
239.793	76.94
240.027	79.94
240.26	80.94
240.494	84.94
240.728	67.94
240.961	73.94
241.195	69.94
241.429	93.94
241.662	89.94
241.896	73.94
242.13	66.94
242.363	54.94
242.597	80.94
242.83	72.94
243.064	68.94
243.298	74.94
243.531	80.94
243.765	82.94
243.998	72.94
244.232	85.94
244.465	67.94
244.699	76.94
244.932	74.94
245.166	77.94
245.399	91.94
245.633	90.94
245.866	86.94
246.099	82.94
246.333	75.94
246.566	69.94
246.8	76.94
247.033	68.94
247.266	79.94
247.5	77.94
247.733	73.94
247.966	91.94
248.2	76.94
248.433	79.94
248.666	67.94
248.899	77.94
249.133	81.94
249.366	97.94
249.599	92.94
249.832	77.94
250.066	81.94
250.299	73.94
250.532	77.94
250.765	81.94
250.998	81.94
251.231	76.94
251.465	73.94
251.698	76.94
251.931	86.94
252.164	68.94
252.397	82.94
252.63	67.94
252.863	93.94
253.096	83.94
253.329	78.94
253.562	88.94
253.795	84.94
254.028	95.94
254.261	88.94
254.494	73.94
254.727	76.94
254.96	88.94
255.193	82.94
255.426	68.94
255.659	85.94
255.892	84.94
256.124	82.94
256.357	81.94
256.59	75.94
256.823	81.94
257.056	95.94
257.289	78.94
257.521	77.94
257.754	72.94
257.987	90.94
258.22	81.94
258.452	81.94
258.685	83.94
258.918	77.94
259.151	70.94
259.383	90.94
259.616	75.94
259.849	88.94
260.081	81.94
260.314	79.94
260.547	84.94
260.779	79.94
261.012	72.94
261.244	84.94
261.477	83.94
261.71	93.94
261.942	102.94
262.175	108.94
262.407	98.94
262.64	87.94
262.872	88.94
263.105	96.94
263.337	98.94
263.57	81.94
263.802	82.94
264.035	82.94
264.267	73.94
264.499	76.94
264.732	79.94
264.964	70.94
265.197	96.94
265.429	70.94
265.661	74.94
265.894	86.94
266.126	80.94
266.358	87.94
266.591	71.94
266.823	75.94
267.055	75.94
267.287	73.94
267.52	82.94
267.752	99.94
267.984	84.94
268.216	75.94
268.448	79.94
268.681	90.94
268.913	80.94
269.145	74.94
269.377	85.94
269.609	86.94
269.841	76.94
270.073	98.94
270.306	77.94
270.538	88.94
270.77	85.94
271.002	89.94
271.234	96.94
271.466	86.94
271.698	87.94
271.93	88.94
272.162	74.94
272.394	86.94
272.626	72.94
272.858	82.94
273.09	91.94
273.322	86.94
273.553	85.94
273.785	85.94
274.017	82.94
274.249	94.94
274.481	81.94
274.713	87.94
274.945	79.94
275.176	81.94
275.408	100.94
275.64	103.94
275.872	84.94
276.104	90.94
276.335	84.94
276.567	74.94
276.799	79.94
277.031	96.94
277.262	90.94
277.494	89.94
277.726	84.94
277.957	72.94
278.189	85.94
278.421	83.94
278.652	83.94
278.884	93.94
279.115	76.94
279.347	81.94
279.579	79.94
279.81	82.94
280.042	85.94
280.273	87.94
280.505	90.94
280.736	77.94
280.968	85.94
281.199	79.94
281.431	82.94
281.662	85.94
281.894	72.94
282.125	96.94
282.356	105.94
282.588	140.94
282.819	109.94
283.051	96.94
283.282	93.94
283.513	86.94
283.745	88.94
283.976	74.94
284.207	97.94
284.439	81.94
284.67	87.94
284.901	72.94
285.132	83.94
285.364	83.94
285.595	78.94
285.826	92.94
286.057	83.94
286.288	86.94
286.52	77.94
286.751	81.94
286.982	73.94
287.213	89.94
287.444	76.94
287.675	86.94
287.906	102.94
288.138	69.94
288.369	98.94
288.6	85.94
288.831	78.94
289.062	78.94
289.293	84.94
289.524	84.94
289.755	85.94
289.986	96.94
290.217	98.94
290.448	83.94
290.679	72.94
290.91	85.94
291.141	96.94
291.371	81.94
291.602	78.94
291.833	97.94
292.064	86.94
292.295	80.94
292.526	72.94
292.757	83.94
292.987	90.94
293.218	81.94
293.449	92.94
293.68	90.94
293.91	90.94
294.141	93.94
294.372	96.94
294.603	76.94
294.833	89.94
295.064	74.94
295.295	85.94
295.525	94.94
295.756	93.94
295.987	98.94
296.217	122.94
296.448	123.94
296.679	90.94
296.909	84.94
297.14	89.94
297.37	86.94
297.601	83.94
297.831	70.94
298.062	93.94
298.292	97.94
298.523	81.94
298.753	84.94
298.984	87.94
299.214	87.94
299.445	88.94
299.675	105.94
299.905	75.94
300.136	80.94
300.366	72.94
300.597	76.94
300.827	73.94
301.057	86.94
301.288	90.94
301.518	90.94
301.748	80.94
301.979	105.94
302.209	82.94
302.439	78.94
302.669	92.94
302.9	83.94
303.13	99.94
303.36	84.94
303.59	103.94
303.82	103.94
304.051	83.94
304.281	79.94
304.511	93.94
304.741	79.94
304.971	88.94
305.201	75.94
305.431	85.94
305.661	81.94
305.891	89.94
306.121	85.94
306.352	107.94
306.582	88.94
306.812	81.94
307.042	93.94
307.272	82.94
307.502	85.94
307.731	84.94
307.961	96.94
308.191	85.94
308.421	88.94
308.651	92.94
308.881	85.94
309.111	105.94
309.341	88.94
309.571	100.94
309.8	84.94
310.03	83.94
310.26	98.94
310.49	92.94
310.72	100.94
310.949	95.94
311.179	99.94
311.409	96.94
311.639	88.94
311.868	90.94
312.098	80.94
312.328	90.94
312.557	81.94
312.787	84.94
313.017	105.94
313.246	84.94
313.476	93.94
313.706	92.94
313.935	91.94
314.165	98.94
314.394	82.94
314.624	92.94
314.853	91.94
315.083	100.94
315.312	92.94
315.542	69.94
315.771	89.94
316.001	92.94
316.23	97.94
316.46	91.94
316.689	82.94
316.919	94.94
317.148	85.94
317.377	83.94
317.607	81.94
317.836	90.94
318.065	81.94
318.295	88.94
318.524	90.94
318.753	90.94
318.983	85.94
319.212	88.94
319.441	104.94
319.67	98.94
319.9	93.94
320.129	85.94
320.358	91.94
320.587	83.94
320.816	106.94
321.046	106.94
321.275	97.94
321.504	102.94
321.733	98.94
321.962	94.94
322.191	99.94
322.42	116.94
322.649	100.94
322.878	105.94
323.108	104.94
323.337	113.94
323.566	114.94
323.795	135.94
324.024	182.94
324.253	356.94
324.482	809.94
324.71	1620.94
324.939	2144.94
325.168	784.94
325.397	224.94
325.626	140.94
325.855	120.94
326.084	113.94
326.313	117.94
326.542	154.94
326.77	227.94
326.999	466.94
327.228	934.94
327.457	1667.94
327.686	1296.94
327.914	346.94
328.143	186.94
328.372	125.94
328.6	108.94
328.829	98.94
329.058	121.94
329.287	136.94
329.515	99.94
329.744	95.94
329.972	105.94
330.201	90.94
330.43	94.94
330.658	123.94
330.887	138.94
331.115	111.94
331.344	94.94
331.572	91.94
331.801	113.94
332.03	101.94
332.258	97.94
332.486	85.94
332.715	85.94
332.943	89.94
333.172	85.94
333.4	107.94
333.629	109.94
333.857	95.94
334.085	103.94
334.314	94.94
334.542	104.94
334.771	86.94
334.999	92.94
335.227	80.94
335.455	98.94
335.684	100.94
335.912	89.94
336.14	105.94
336.369	123.94
336.597	94.94
336.825	91.94
337.053	94.94
337.281	84.94
337.51	93.94
337.738	105.94
337.966	94.94
338.194	93.94
338.422	101.94
338.65	77.94
338.878	94.94
339.106	92.94
339.334	83.94
339.562	99.94
339.79	83.94
340.018	86.94
340.246	74.94
340.474	75.94
340.702	90.94
340.93	80.94
341.158	85.94
341.386	94.94
341.614	89.94
341.842	91.94
342.07	88.94
342.298	84.94
342.526	100.94
342.754	86.94
342.981	82.94
343.209	74.94
343.437	94.94
343.665	90.94
343.893	103.94
344.12	92.94
344.348	87.94
344.576	93.94
344.804	84.94
345.031	95.94
345.259	89.94
345.487	92.94
345.714	81.94
345.942	84.94
346.17	101.94
346.397	83.94
346.625	84.94
346.853	102.94
347.08	110.94
347.308	94.94
347.535	89.94
347.763	92.94
347.99	91.94
348.218	112.94
348.445	99.94
348.673	104.94
348.9	104.94
349.128	80.94
349.355	93.94
349.583	94.94
349.81	92.94
350.037	104.94
350.265	98.94
350.492	94.94
350.72	86.94
350.947	88.94
351.174	106.94
351.402	104.94
351.629	97.94
351.856	96.94
352.083	90.94
352.311	107.94
352.538	101.94
352.765	96.94
352.992	113.94
353.22	96.94
353.447	95.94
353.674	110.94
353.901	101.94
354.128	88.94
354.355	101.94
354.583	99.94
354.81	97.94
355.037	86.94
355.264	110.94
355.491	98.94
355.718	86.94
355.945	91.94
356.172	96.94
356.399	92.94
356.626	93.94
356.853	102.94
357.08	94.94
357.307	96.94
357.534	93.94
357.761	92.94
357.988	86.94
358.215	96.94
358.441	91.94
358.668	95.94
358.895	79.94
359.122	86.94
359.349	93.94
359.576	105.94
359.802	90.94
360.029	109.94
360.256	109.94
360.483	94.94
360.709	86.94
360.936	94.94
361.163	79.94
361.39	80.94
361.616	97.94
361.843	80.94
362.07	86.94
362.296	101.94
362.523	90.94
362.749	76.94
362.976	86.94
363.203	99.94
363.429	90.94
363.656	83.94
363.882	82.94
364.109	85.94
364.335	100.94
364.562	86.94
364.788	100.94
365.015	101.94
365.241	99.94
365.468	97.94
365.694	97.94
365.92	110.94
366.147	94.94
366.373	76.94
366.599	84.94
366.826	90.94
367.052	80.94
367.278	95.94
367.505	84.94
367.731	82.94
367.957	87.94
368.184	85.94
368.41	93.94
368.636	108.94
368.862	117.94
369.089	109.94
369.315	93.94
369.541	83.94
369.767	92.94
369.993	85.94
370.219	77.94
370.445	92.94
370.672	84.94
370.898	89.94
371.124	89.94
371.35	91.94
371.576	91.94
371.802	97.94
372.028	91.94
372.254	89.94
372.48	85.94
372.706	95.94
372.932	76.94
373.158	89.94
373.384	90.94
373.61	78.94
373.835	84.94
374.061	91.94
374.287	81.94
374.513	90.94
374.739	90.94
374.965	95.94
375.191	81.94
375.416	83.94
375.642	81.94
375.868	94.94
376.094	92.94
376.319	81.94
376.545	88.94
376.771	86.94
376.997	89.94
377.222	77.94
377.448	94.94
377.674	90.94
377.899	83.94
378.125	98.94
378.35	88.94
378.576	82.94
378.802	92.94
379.027	80.94
379.253	80.94
379.478	111.94
379.704	100.94
379.929	83.94
380.155	88.94
380.38	96.94
380.606	98.94
380.831	99.94
381.057	99.94
381.282	74.94
381.507	94.94
381.733	96.94
381.958	93.94
382.184	90.94
382.409	106.94
382.634	92.94
382.86	104.94
383.085	94.94
383.31	97.94
383.535	92.94
383.761	89.94
383.986	84.94
384.211	91.94
384.436	100.94
384.662	99.94
384.887	97.94
385.112	95.94
385.337	108.94
385.562	105.94
385.787	93.94
386.013	107.94
386.238	115.94
386.463	97.94
386.688	108.94
386.913	96.94
387.138	96.94
387.363	94.94
387.588	92.94
387.813	107.94
388.038	106.94
388.263	97.94
388.488	116.94
388.713	92.94
388.938	99.94
389.163	97.94
389.387	96.94
389.612	93.94
389.837	92.94
390.062	93.94
390.287	90.94
390.512	90.94
390.736	83.94
390.961	99.94
391.186	86.94
391.411	76.94
391.636	93.94
391.86	83.94
392.085	89.94
392.31	81.94
392.534	99.94
392.759	92.94
392.984	93.94
393.208	107.94
393.433	109.94
393.658	116.94
393.882	77.94
394.107	78.94
394.331	81.94
394.556	85.94
394.78	83.94
395.005	85.94
395.229	83.94
395.454	89.94
395.678	84.94
395.903	86.94
396.127	76.94
396.352	81.94
396.576	80.94
396.801	98.94
397.025	105.94
397.249	106.94
397.474	84.94
397.698	96.94
397.922	82.94
398.147	90.94
398.371	84.94
398.595	85.94
398.82	76.94
399.044	72.94
399.268	83.94
399.492	78.94
399.717	77.94
399.941	85.94
400.165	95.94
400.389	83.94
400.613	92.94
400.837	88.94
401.062	82.94
401.286	81.94
401.51	101.94
401.734	94.94
401.958	96.94
402.182	111.94
402.406	127.94
402.63	102.94
402.854	85.94
403.078	90.94
403.302	90.94
403.526	91.94
403.75	83.94
403.974	97.94
404.198	81.94
404.422	84.94
404.645	72.94
404.869	91.94
405.093	79.94
405.317	100.94
405.541	100.94
405.765	101.94
405.988	112.94
406.212	145.94
406.436	191.94
406.66	126.94
406.883	105.94
407.107	76.94
407.331	81.94
407.555	90.94
407.778	84.94
408.002	79.94
408.226	89.94
408.449	103.94
408.673	80.94
408.896	96.94
409.12	89.94
409.344	94.94
409.567	83.94
409.791	97.94
410.014	86.94
410.238	84.94
410.461	81.94
410.685	93.94
410.908	97.94
411.132	105.94
411.355	98.94
411.578	94.94
411.802	86.94
412.025	93.94
412.249	87.94
412.472	93.94
412.695	76.94
412.919	80.94
413.142	83.94
413.365	94.94
413.589	88.94
413.812	102.94
414.035	99.94
414.258	80.94
414.482	80.94
414.705	89.94
414.928	75.94
415.151	91.94
415.374	89.94
415.597	91.94
415.821	83.94
416.044	86.94
416.267	80.94
416.49	83.94
416.713	69.94
416.936	85.94
417.159	86.94
417.382	89.94
417.605	83.94
417.828	85.94
418.051	97.94
418.274	91.94
418.497	88.94
418.72	106.94
418.943	94.94
419.166	90.94
419.389	98.94
419.611	100.94
419.834	85.94
420.057	89.94
420.28	81.94
420.503	92.94
420.726	92.94
420.948	83.94
421.171	76.94
421.394	81.94
421.617	101.94
421.839	94.94
422.062	92.94
422.285	88.94
422.507	103.94
422.73	111.94
422.953	89.94
423.175	85.94
423.398	77.94
423.621	97.94
423.843	95.94
424.066	83.94
424.288	85.94
424.511	90.94
424.733	95.94
424.956	102.94
425.178	84.94
425.401	84.94
425.623	101.94
425.846	87.94
426.068	93.94
426.291	82.94
426.513	79.94
426.735	92.94
426.958	101.94
427.18	104.94
427.402	114.94
427.625	144.94
427.847	112.94
428.069	78.94
428.292	78.94
428.514	88.94
428.736	92.94
428.958	87.94
429.181	84.94
429.403	91.94
429.625	96.94
429.847	80.94
430.069	87.94
430.292	82.94
430.514	91.94
430.736	88.94
430.958	99.94
431.18	91.94
431.402	86.94
431.624	74.94
431.846	85.94
432.068	85.94
432.29	86.94
432.512	77.94
432.734	99.94
432.956	98.94
433.178	80.94
433.4	91.94
433.622	90.94
433.844	89.94
434.066	92.94
434.287	92.94
434.509	80.94
434.731	83.94
434.953	84.94
435.175	83.94
435.397	97.94
435.618	88.94
435.84	108.94
436.062	131.94
436.284	98.94
436.505	101.94
436.727	104.94
436.949	96.94
437.17	92.94
437.392	90.94
437.614	85.94
437.835	97.94
438.057	102.94
438.278	100.94
438.5	99.94
438.721	105.94
438.943	94.94
439.165	96.94
439.386	86.94
439.608	93.94
439.829	90.94
440.05	110.94
440.272	129.94
440.493	94.94
440.715	103.94
440.936	82.94
441.158	94.94
441.379	83.94
441.6	88.94
441.822	104.94
442.043	101.94
442.264	101.94
442.486	95.94
442.707	104.94
442.928	82.94
443.149	98.94
443.371	115.94
443.592	111.94
443.813	95.94
444.034	91.94
444.255	77.94
444.476	86.94
444.698	87.94
444.919	83.94
445.14	133.94
445.361	117.94
445.582	104.94
445.803	128.94
446.024	136.94
446.245	133.94
446.466	117.94
446.687	82.94
446.908	80.94
447.129	89.94
447.35	96.94
447.571	69.94
447.792	96.94
448.013	91.94
448.234	88.94
448.455	101.94
448.675	103.94
448.896	105.94
449.117	102.94
449.338	104.94
449.559	117.94
449.779	124.94
450	103.94
450.221	103.94
450.442	88.94
450.662	85.94
450.883	104.94
451.104	101.94
451.324	96.94
451.545	84.94
451.766	83.94
451.986	84.94
452.207	77.94
452.428	92.94
452.648	101.94
452.869	111.94
453.089	111.94
453.31	103.94
453.53	93.94
453.751	85.94
453.971	84.94
454.192	90.94
454.412	91.94
454.633	98.94
454.853	86.94
455.073	81.94
455.294	83.94
455.514	101.94
455.734	90.94
455.955	93.94
456.175	77.94
456.395	75.94
456.616	86.94
456.836	86.94
457.056	89.94
457.276	94.94
457.497	81.94
457.717	78.94
457.937	89.94
458.157	94.94
458.377	92.94
458.598	101.94
458.818	136.94
459.038	136.94
459.258	107.94
459.478	85.94
459.698	102.94
459.918	82.94
460.138	94.94
460.358	89.94
460.578	83.94
460.798	83.94
461.018	88.94
461.238	92.94
461.458	92.94
461.678	83.94
461.898	91.94
462.118	68.94
462.338	86.94
462.558	79.94
462.777	72.94
462.997	86.94
463.217	88.94
463.437	91.94
463.657	82.94
463.876	81.94
464.096	90.94
464.316	88.94
464.536	80.94
464.755	85.94
464.975	103.94
465.195	138.94
465.414	149.94
465.634	84.94
465.854	75.94
466.073	62.94
466.293	85.94
466.512	82.94
466.732	98.94
466.951	97.94
467.171	81.94
467.391	72.94
467.61	99.94
467.829	94.94
468.049	84.94
468.268	91.94
468.488	102.94
468.707	84.94
468.927	83.94
469.146	80.94
469.365	77.94
469.585	91.94
469.804	81.94
470.023	94.94
470.243	82.94
470.462	92.94
470.681	94.94
470.901	86.94
471.12	80.94
471.339	76.94
471.558	84.94
471.777	98.94
471.997	85.94
472.216	79.94
472.435	94.94
472.654	80.94
472.873	88.94
473.092	88.94
473.311	85.94
473.53	85.94
473.749	89.94
473.968	83.94
474.187	109.94
474.406	76.94
474.625	90.94
474.844	82.94
475.063	77.94
475.282	86.94
475.501	80.94
475.72	88.94
475.939	93.94
476.158	94.94
476.377	95.94
476.596	88.94
476.814	78.94
477.033	92.94
477.252	78.94
477.471	83.94
477.69	96.94
477.908	85.94
478.127	93.94
478.346	92.94
478.564	89.94
478.783	96.94
479.002	92.94
479.22	80.94
479.439	90.94
479.658	99.94
479.876	101.94
480.095	96.94
480.313	78.94
480.532	75.94
480.751	87.94
480.969	81.94
481.188	87.94
481.406	82.94
481.624	81.94
481.843	91.94
482.061	77.94
482.28	76.94
482.498	74.94
482.717	96.94
482.935	83.94
483.153	84.94
483.372	94.94
483.59	78.94
483.808	86.94
484.027	86.94
484.245	93.94
484.463	69.94
484.681	90.94
484.9	93.94
485.118	81.94
485.336	84.94
485.554	88.94
485.772	93.94
485.99	105.94
486.209	96.94
486.427	108.94
486.645	102.94
486.863	110.94
487.081	102.94
487.299	103.94
487.517	76.94
487.735	90.94
487.953	90.94
488.171	93.94
488.389	92.94
488.607	77.94
488.825	90.94
489.043	82.94
489.261	98.94
489.479	97.94
489.696	85.94
489.914	81.94
490.132	94.94
490.35	83.94
490.568	83.94
490.786	95.94
491.003	72.94
491.221	87.94
491.439	80.94
491.657	95.94
491.874	84.94
492.092	84.94
492.31	86.94
492.527	86.94
492.745	83.94
492.963	83.94
493.18	102.94
493.398	92.94
493.615	88.94
493.833	80.94
494.05	84.94
494.268	89.94
494.485	72.94
494.703	98.94
494.92	90.94
495.138	73.94
495.355	91.94
495.573	83.94
495.79	83.94
496.008	93.94
496.225	92.94
496.442	96.94
496.66	93.94
496.877	105.94
497.094	91.94
497.312	79.94
497.529	106.94
497.746	94.94
497.963	97.94
498.181	95.94
498.398	98.94
498.615	108.94
498.832	111.94
499.049	96.94
499.267	88.94
499.484	82.94
499.701	98.94
499.918	86.94
500.135	81.94
500.352	92.94
500.569	85.94
500.786	82.94
501.003	75.94
501.22	74.94
501.437	80.94
501.654	94.94
501.871	97.94
502.088	95.94
502.305	94.94
502.522	80.94
502.739	90.94
502.956	85.94
503.172	81.94
503.389	97.94
503.606	96.94
503.823	79.94
504.04	91.94
504.256	95.94
504.473	86.94
504.69	76.94
504.907	108.94
505.123	82.94
505.34	72.94
505.557	85.94
505.773	74.94
505.99	86.94
506.207	87.94
506.423	85.94
506.64	92.94
506.856	71.94
507.073	78.94
507.289	84.94
507.506	95.94
507.722	105.94
507.939	97.94
508.155	88.94
508.372	90.94
508.588	88.94
508.805	85.94
509.021	97.94
509.238	81.94
509.454	91.94
509.67	89.94
509.887	119.94
510.103	112.94
510.319	194.94
510.536	674.94
510.752	2086.94
510.968	581.94
511.184	153.94
511.401	100.94
511.617	83.94
511.833	83.94
512.049	86.94
512.265	86.94
512.481	77.94
512.698	80.94
512.914	79.94
513.13	96.94
513.346	89.94
513.562	83.94
513.778	93.94
513.994	92.94
514.21	95.94
514.426	108.94
514.642	124.94
514.858	110.94
515.074	171.94
515.29	408.94
515.506	1222.94
515.721	473.94
515.937	140.94
516.153	123.94
516.369	106.94
516.585	93.94
516.801	94.94
