Data from Uncirc_2006_H10_HRD10591_00040.txt Node
Date: Wed Jan 03 10:25:03 EST 2024
User: Yrep
Spectrometer: HR+D1059
Trigger mode: 1
Integration Time (sec): 1.000000E-1
Scans to average: 1
Electric dark correction enabled: true
Nonlinearity correction enabled: false
Boxcar width: 0
XAxis mode: Wavelengths
Number of Pixels in Spectrum: 2048
>>>>>Begin Spectral Data<<<<<
223.165	-14.88
223.4	-14.88
223.635	-14.88
223.869	-13.88
224.104	-7.88
224.338	-11.88
224.573	-14.88
224.808	-11.88
225.042	-17.88
225.277	-9.88
225.511	2.12
225.746	-11.88
225.98	18.12
226.215	18.12
226.449	-6.88
226.683	26.12
226.918	26.12
227.152	31.12
227.387	33.12
227.621	27.12
227.856	42.12
228.09	47.12
228.324	45.12
228.559	52.12
228.793	60.12
229.027	54.12
229.262	53.12
229.496	89.12
229.73	79.12
229.964	71.12
230.199	83.12
230.433	77.12
230.667	75.12
230.901	72.12
231.136	76.12
231.37	76.12
231.604	73.12
231.838	75.12
232.072	71.12
232.306	77.12
232.541	77.12
232.775	79.12
233.009	79.12
233.243	77.12
233.477	74.12
233.711	86.12
233.945	96.12
234.179	70.12
234.413	72.12
234.647	79.12
234.881	77.12
235.115	69.12
235.349	74.12
235.583	84.12
235.817	63.12
236.051	82.12
236.285	77.12
236.519	66.12
236.753	66.12
236.987	76.12
237.221	85.12
237.455	84.12
237.689	75.12
237.922	81.12
238.156	69.12
238.39	84.12
238.624	83.12
238.858	79.12
239.091	77.12
239.325	81.12
239.559	79.12
239.793	67.12
240.027	81.12
240.26	70.12
240.494	76.12
240.728	76.12
240.961	66.12
241.195	68.12
241.429	92.12
241.662	60.12
241.896	79.12
242.13	62.12
242.363	77.12
242.597	72.12
242.83	85.12
243.064	50.12
243.298	86.12
243.531	70.12
243.765	82.12
243.998	75.12
244.232	72.12
244.465	73.12
244.699	75.12
244.932	77.12
245.166	79.12
245.399	78.12
245.633	81.12
245.866	77.12
246.099	84.12
246.333	81.12
246.566	73.12
246.8	92.12
247.033	77.12
247.266	81.12
247.5	78.12
247.733	90.12
247.966	79.12
248.2	82.12
248.433	79.12
248.666	74.12
248.899	74.12
249.133	92.12
249.366	64.12
249.599	85.12
249.832	85.12
250.066	84.12
250.299	83.12
250.532	69.12
250.765	76.12
250.998	66.12
251.231	76.12
251.465	62.12
251.698	63.12
251.931	65.12
252.164	79.12
252.397	78.12
252.63	77.12
252.863	99.12
253.096	74.12
253.329	71.12
253.562	78.12
253.795	81.12
254.028	78.12
254.261	73.12
254.494	76.12
254.727	77.12
254.96	74.12
255.193	81.12
255.426	72.12
255.659	72.12
255.892	84.12
256.124	91.12
256.357	71.12
256.59	80.12
256.823	77.12
257.056	56.12
257.289	84.12
257.521	76.12
257.754	72.12
257.987	81.12
258.22	86.12
258.452	91.12
258.685	93.12
258.918	88.12
259.151	75.12
259.383	77.12
259.616	83.12
259.849	95.12
260.081	92.12
260.314	76.12
260.547	83.12
260.779	69.12
261.012	83.12
261.244	84.12
261.477	77.12
261.71	88.12
261.942	111.12
262.175	106.12
262.407	71.12
262.64	83.12
262.872	85.12
263.105	68.12
263.337	96.12
263.57	77.12
263.802	79.12
264.035	69.12
264.267	73.12
264.499	79.12
264.732	93.12
264.964	74.12
265.197	84.12
265.429	73.12
265.661	91.12
265.894	77.12
266.126	78.12
266.358	68.12
266.591	66.12
266.823	74.12
267.055	70.12
267.287	72.12
267.52	94.12
267.752	80.12
267.984	83.12
268.216	76.12
268.448	92.12
268.681	102.12
268.913	76.12
269.145	81.12
269.377	79.12
269.609	90.12
269.841	92.12
270.073	82.12
270.306	96.12
270.538	95.12
270.77	85.12
271.002	91.12
271.234	85.12
271.466	84.12
271.698	86.12
271.93	77.12
272.162	72.12
272.394	88.12
272.626	88.12
272.858	77.12
273.09	90.12
273.322	87.12
273.553	79.12
273.785	78.12
274.017	84.12
274.249	82.12
274.481	85.12
274.713	78.12
274.945	82.12
275.176	81.12
275.408	77.12
275.64	83.12
275.872	90.12
276.104	87.12
276.335	84.12
276.567	92.12
276.799	108.12
277.031	95.12
277.262	82.12
277.494	88.12
277.726	84.12
277.957	93.12
278.189	93.12
278.421	83.12
278.652	69.12
278.884	82.12
279.115	77.12
279.347	82.12
279.579	74.12
279.81	71.12
280.042	91.12
280.273	75.12
280.505	84.12
280.736	81.12
280.968	83.12
281.199	95.12
281.431	104.12
281.662	88.12
281.894	97.12
282.125	86.12
282.356	95.12
282.588	123.12
282.819	108.12
283.051	90.12
283.282	90.12
283.513	82.12
283.745	78.12
283.976	81.12
284.207	78.12
284.439	80.12
284.67	82.12
284.901	79.12
285.132	74.12
285.364	80.12
285.595	62.12
285.826	92.12
286.057	86.12
286.288	83.12
286.52	89.12
286.751	82.12
286.982	78.12
287.213	90.12
287.444	91.12
287.675	93.12
287.906	85.12
288.138	82.12
288.369	90.12
288.6	84.12
288.831	95.12
289.062	94.12
289.293	82.12
289.524	97.12
289.755	86.12
289.986	84.12
290.217	97.12
290.448	78.12
290.679	91.12
290.91	78.12
291.141	91.12
291.371	90.12
291.602	77.12
291.833	78.12
292.064	80.12
292.295	93.12
292.526	83.12
292.757	79.12
292.987	96.12
293.218	90.12
293.449	75.12
293.68	74.12
293.91	74.12
294.141	88.12
294.372	70.12
294.603	82.12
294.833	86.12
295.064	81.12
295.295	79.12
295.525	92.12
295.756	100.12
295.987	118.12
296.217	137.12
296.448	111.12
296.679	86.12
296.909	85.12
297.14	74.12
297.37	89.12
297.601	78.12
297.831	74.12
298.062	95.12
298.292	102.12
298.523	109.12
298.753	85.12
298.984	74.12
299.214	80.12
299.445	90.12
299.675	92.12
299.905	91.12
300.136	95.12
300.366	80.12
300.597	90.12
300.827	93.12
301.057	106.12
301.288	87.12
301.518	95.12
301.748	88.12
301.979	105.12
302.209	91.12
302.439	89.12
302.669	91.12
302.9	91.12
303.13	86.12
303.36	76.12
303.59	102.12
303.82	99.12
304.051	81.12
304.281	83.12
304.511	96.12
304.741	79.12
304.971	92.12
305.201	92.12
305.431	89.12
305.661	85.12
305.891	87.12
306.121	89.12
306.352	105.12
306.582	97.12
306.812	86.12
307.042	94.12
307.272	88.12
307.502	91.12
307.731	95.12
307.961	81.12
308.191	86.12
308.421	97.12
308.651	94.12
308.881	87.12
309.111	93.12
309.341	96.12
309.571	105.12
309.8	93.12
310.03	97.12
310.26	77.12
310.49	92.12
310.72	99.12
310.949	100.12
311.179	91.12
311.409	82.12
311.639	92.12
311.868	90.12
312.098	104.12
312.328	92.12
312.557	92.12
312.787	94.12
313.017	100.12
313.246	80.12
313.476	84.12
313.706	78.12
313.935	93.12
314.165	88.12
314.394	94.12
314.624	96.12
314.853	97.12
315.083	83.12
315.312	92.12
315.542	83.12
315.771	89.12
316.001	78.12
316.23	93.12
316.46	90.12
316.689	96.12
316.919	88.12
317.148	96.12
317.377	88.12
317.607	90.12
317.836	109.12
318.065	81.12
318.295	84.12
318.524	93.12
318.753	99.12
318.983	82.12
319.212	98.12
319.441	89.12
319.67	101.12
319.9	80.12
320.129	83.12
320.358	98.12
320.587	92.12
320.816	88.12
321.046	78.12
321.275	105.12
321.504	102.12
321.733	91.12
321.962	92.12
322.191	93.12
322.42	94.12
322.649	93.12
322.878	105.12
323.108	114.12
323.337	109.12
323.566	118.12
323.795	138.12
324.024	194.12
324.253	380.12
324.482	811.12
324.71	1610.12
324.939	2174.12
325.168	776.12
325.397	237.12
325.626	150.12
325.855	126.12
326.084	114.12
326.313	133.12
326.542	150.12
326.77	226.12
326.999	444.12
327.228	892.12
327.457	1641.12
327.686	1298.12
327.914	339.12
328.143	185.12
328.372	143.12
328.6	122.12
328.829	126.12
329.058	120.12
329.287	108.12
329.515	120.12
329.744	97.12
329.972	88.12
330.201	98.12
330.43	104.12
330.658	117.12
330.887	122.12
331.115	107.12
331.344	95.12
331.572	101.12
331.801	92.12
332.03	101.12
332.258	101.12
332.486	108.12
332.715	86.12
332.943	96.12
333.172	93.12
333.4	98.12
333.629	107.12
333.857	100.12
334.085	105.12
334.314	109.12
334.542	92.12
334.771	86.12
334.999	93.12
335.227	88.12
335.455	90.12
335.684	96.12
335.912	100.12
336.14	87.12
336.369	103.12
336.597	90.12
336.825	90.12
337.053	93.12
337.281	95.12
337.51	96.12
337.738	86.12
337.966	108.12
338.194	90.12
338.422	92.12
338.65	94.12
338.878	81.12
339.106	93.12
339.334	85.12
339.562	90.12
339.79	92.12
340.018	88.12
340.246	93.12
340.474	98.12
340.702	97.12
340.93	90.12
341.158	99.12
341.386	85.12
341.614	77.12
341.842	89.12
342.07	93.12
342.298	97.12
342.526	87.12
342.754	67.12
342.981	88.12
343.209	92.12
343.437	90.12
343.665	97.12
343.893	86.12
344.12	95.12
344.348	89.12
344.576	88.12
344.804	95.12
345.031	98.12
345.259	113.12
345.487	95.12
345.714	94.12
345.942	83.12
346.17	94.12
346.397	77.12
346.625	76.12
346.853	85.12
347.08	93.12
347.308	90.12
347.535	101.12
347.763	94.12
347.99	102.12
348.218	79.12
348.445	105.12
348.673	93.12
348.9	106.12
349.128	91.12
349.355	84.12
349.583	93.12
349.81	87.12
350.037	97.12
350.265	96.12
350.492	88.12
350.72	96.12
350.947	98.12
351.174	103.12
351.402	96.12
351.629	106.12
351.856	87.12
352.083	97.12
352.311	108.12
352.538	99.12
352.765	99.12
352.992	112.12
353.22	108.12
353.447	97.12
353.674	102.12
353.901	92.12
354.128	101.12
354.355	97.12
354.583	89.12
354.81	102.12
355.037	95.12
355.264	95.12
355.491	97.12
355.718	81.12
355.945	107.12
356.172	96.12
356.399	99.12
356.626	93.12
356.853	85.12
357.08	93.12
357.307	82.12
357.534	82.12
357.761	84.12
357.988	84.12
358.215	95.12
358.441	101.12
358.668	103.12
358.895	87.12
359.122	88.12
359.349	88.12
359.576	82.12
359.802	90.12
360.029	109.12
360.256	95.12
360.483	94.12
360.709	89.12
360.936	83.12
361.163	100.12
361.39	99.12
361.616	94.12
361.843	90.12
362.07	78.12
362.296	84.12
362.523	90.12
362.749	78.12
362.976	90.12
363.203	98.12
363.429	89.12
363.656	78.12
363.882	78.12
364.109	81.12
364.335	91.12
364.562	105.12
364.788	92.12
365.015	93.12
365.241	90.12
365.468	107.12
365.694	102.12
365.92	94.12
366.147	85.12
366.373	85.12
366.599	84.12
366.826	83.12
367.052	82.12
367.278	78.12
367.505	91.12
367.731	90.12
367.957	84.12
368.184	84.12
368.41	92.12
368.636	105.12
368.862	113.12
369.089	106.12
369.315	94.12
369.541	95.12
369.767	94.12
369.993	91.12
370.219	89.12
370.445	67.12
370.672	72.12
370.898	98.12
371.124	83.12
371.35	82.12
371.576	87.12
371.802	90.12
372.028	82.12
372.254	100.12
372.48	100.12
372.706	73.12
372.932	76.12
373.158	87.12
373.384	73.12
373.61	80.12
373.835	84.12
374.061	74.12
374.287	77.12
374.513	83.12
374.739	76.12
374.965	77.12
375.191	81.12
375.416	81.12
375.642	99.12
375.868	94.12
376.094	80.12
376.319	83.12
376.545	82.12
376.771	81.12
376.997	89.12
377.222	102.12
377.448	83.12
377.674	92.12
377.899	93.12
378.125	99.12
378.35	94.12
378.576	77.12
378.802	85.12
379.027	93.12
379.253	100.12
379.478	101.12
379.704	93.12
379.929	93.12
380.155	91.12
380.38	92.12
380.606	98.12
380.831	94.12
381.057	89.12
381.282	95.12
381.507	95.12
381.733	99.12
381.958	93.12
382.184	91.12
382.409	109.12
382.634	94.12
382.86	100.12
383.085	95.12
383.31	117.12
383.535	105.12
383.761	90.12
383.986	105.12
384.211	103.12
384.436	99.12
384.662	117.12
384.887	90.12
385.112	92.12
385.337	122.12
385.562	81.12
385.787	100.12
386.013	112.12
386.238	113.12
386.463	105.12
386.688	115.12
386.913	90.12
387.138	121.12
387.363	97.12
387.588	96.12
387.813	99.12
388.038	113.12
388.263	112.12
388.488	100.12
388.713	114.12
388.938	86.12
389.163	96.12
389.387	108.12
389.612	80.12
389.837	84.12
390.062	101.12
390.287	69.12
390.512	89.12
390.736	104.12
390.961	86.12
391.186	67.12
391.411	85.12
391.636	76.12
391.86	72.12
392.085	83.12
392.31	83.12
392.534	81.12
392.759	91.12
392.984	92.12
393.208	88.12
393.433	99.12
393.658	94.12
393.882	96.12
394.107	76.12
394.331	75.12
394.556	93.12
394.78	81.12
395.005	84.12
395.229	69.12
395.454	84.12
395.678	68.12
395.903	79.12
396.127	101.12
396.352	86.12
396.576	82.12
396.801	80.12
397.025	94.12
397.249	79.12
397.474	80.12
397.698	95.12
397.922	86.12
398.147	92.12
398.371	71.12
398.595	88.12
398.82	86.12
399.044	102.12
399.268	74.12
399.492	79.12
399.717	83.12
399.941	90.12
400.165	92.12
400.389	100.12
400.613	93.12
400.837	94.12
401.062	73.12
401.286	85.12
401.51	105.12
401.734	77.12
401.958	95.12
402.182	128.12
402.406	134.12
402.63	102.12
402.854	90.12
403.078	97.12
403.302	88.12
403.526	89.12
403.75	84.12
403.974	73.12
404.198	86.12
404.422	80.12
404.645	89.12
404.869	86.12
405.093	92.12
405.317	91.12
405.541	85.12
405.765	104.12
405.988	104.12
406.212	147.12
406.436	196.12
406.66	113.12
406.883	100.12
407.107	83.12
407.331	97.12
407.555	88.12
407.778	88.12
408.002	91.12
408.226	82.12
408.449	90.12
408.673	96.12
408.896	87.12
409.12	86.12
409.344	77.12
409.567	96.12
409.791	94.12
410.014	108.12
410.238	94.12
410.461	86.12
410.685	83.12
410.908	91.12
411.132	94.12
411.355	105.12
411.578	105.12
411.802	97.12
412.025	94.12
412.249	87.12
412.472	83.12
412.695	74.12
412.919	98.12
413.142	78.12
413.365	88.12
413.589	88.12
413.812	95.12
414.035	83.12
414.258	82.12
414.482	86.12
414.705	76.12
414.928	94.12
415.151	83.12
415.374	70.12
415.597	87.12
415.821	101.12
416.044	91.12
416.267	93.12
416.49	93.12
416.713	81.12
416.936	84.12
417.159	91.12
417.382	89.12
417.605	92.12
417.828	96.12
418.051	82.12
418.274	94.12
418.497	81.12
418.72	85.12
418.943	90.12
419.166	84.12
419.389	90.12
419.611	92.12
419.834	93.12
420.057	81.12
420.28	91.12
420.503	81.12
420.726	78.12
420.948	96.12
421.171	84.12
421.394	97.12
421.617	79.12
421.839	90.12
422.062	75.12
422.285	100.12
422.507	95.12
422.73	106.12
422.953	84.12
423.175	91.12
423.398	84.12
423.621	89.12
423.843	85.12
424.066	89.12
424.288	78.12
424.511	100.12
424.733	77.12
424.956	101.12
425.178	85.12
425.401	98.12
425.623	93.12
425.846	91.12
426.068	92.12
426.291	79.12
426.513	93.12
426.735	90.12
426.958	89.12
427.18	109.12
427.402	122.12
427.625	151.12
427.847	135.12
428.069	98.12
428.292	85.12
428.514	84.12
428.736	83.12
428.958	82.12
429.181	86.12
429.403	76.12
429.625	88.12
429.847	100.12
430.069	87.12
430.292	87.12
430.514	84.12
430.736	76.12
430.958	80.12
431.18	99.12
431.402	83.12
431.624	85.12
431.846	86.12
432.068	69.12
432.29	81.12
432.512	77.12
432.734	82.12
432.956	83.12
433.178	100.12
433.4	101.12
433.622	90.12
433.844	99.12
434.066	84.12
434.287	106.12
434.509	81.12
434.731	88.12
434.953	79.12
435.175	78.12
435.397	72.12
435.618	80.12
435.84	104.12
436.062	110.12
436.284	100.12
436.505	94.12
436.727	92.12
436.949	86.12
437.17	92.12
437.392	103.12
437.614	84.12
437.835	97.12
438.057	104.12
438.278	104.12
438.5	85.12
438.721	109.12
438.943	101.12
439.165	81.12
439.386	80.12
439.608	103.12
439.829	85.12
440.05	105.12
440.272	125.12
440.493	94.12
440.715	80.12
440.936	79.12
441.158	96.12
441.379	81.12
441.6	86.12
441.822	85.12
442.043	85.12
442.264	98.12
442.486	101.12
442.707	88.12
442.928	90.12
443.149	115.12
443.371	109.12
443.592	98.12
443.813	99.12
444.034	105.12
444.255	82.12
444.476	84.12
444.698	76.12
444.919	97.12
445.14	133.12
445.361	115.12
445.582	112.12
445.803	121.12
446.024	123.12
446.245	139.12
446.466	110.12
446.687	89.12
446.908	89.12
447.129	77.12
447.35	84.12
447.571	91.12
447.792	77.12
448.013	90.12
448.234	108.12
448.455	103.12
448.675	102.12
448.896	100.12
449.117	91.12
449.338	110.12
449.559	117.12
449.779	116.12
450	99.12
450.221	76.12
450.442	93.12
450.662	90.12
450.883	107.12
451.104	106.12
451.324	90.12
451.545	82.12
451.766	83.12
451.986	87.12
452.207	85.12
452.428	91.12
452.648	100.12
452.869	112.12
453.089	112.12
453.31	107.12
453.53	85.12
453.751	83.12
453.971	97.12
454.192	105.12
454.412	87.12
454.633	106.12
454.853	96.12
455.073	85.12
455.294	78.12
455.514	84.12
455.734	85.12
455.955	81.12
456.175	78.12
456.395	94.12
456.616	95.12
456.836	74.12
457.056	75.12
457.276	83.12
457.497	82.12
457.717	64.12
457.937	90.12
458.157	89.12
458.377	68.12
458.598	113.12
458.818	132.12
459.038	146.12
459.258	117.12
459.478	86.12
459.698	78.12
459.918	76.12
460.138	86.12
460.358	84.12
460.578	84.12
460.798	80.12
461.018	81.12
461.238	86.12
461.458	86.12
461.678	76.12
461.898	95.12
462.118	78.12
462.338	87.12
462.558	98.12
462.777	83.12
462.997	87.12
463.217	84.12
463.437	75.12
463.657	95.12
463.876	100.12
464.096	94.12
464.316	85.12
464.536	88.12
464.755	82.12
464.975	90.12
465.195	151.12
465.414	144.12
465.634	83.12
465.854	86.12
466.073	94.12
466.293	93.12
466.512	98.12
466.732	98.12
466.951	92.12
467.171	86.12
467.391	101.12
467.61	96.12
467.829	91.12
468.049	101.12
468.268	86.12
468.488	80.12
468.707	86.12
468.927	84.12
469.146	95.12
469.365	79.12
469.585	85.12
469.804	78.12
470.023	95.12
470.243	83.12
470.462	102.12
470.681	102.12
470.901	82.12
471.12	94.12
471.339	77.12
471.558	87.12
471.777	84.12
471.997	85.12
472.216	86.12
472.435	85.12
472.654	77.12
472.873	85.12
473.092	85.12
473.311	78.12
473.53	85.12
473.749	93.12
473.968	93.12
474.187	98.12
474.406	86.12
474.625	89.12
474.844	95.12
475.063	84.12
475.282	95.12
475.501	71.12
475.72	93.12
475.939	109.12
476.158	93.12
476.377	96.12
476.596	92.12
476.814	91.12
477.033	85.12
477.252	89.12
477.471	92.12
477.69	79.12
477.908	86.12
478.127	94.12
478.346	76.12
478.564	100.12
478.783	92.12
479.002	92.12
479.22	105.12
479.439	100.12
479.658	86.12
479.876	94.12
480.095	111.12
480.313	85.12
480.532	104.12
480.751	89.12
480.969	91.12
481.188	88.12
481.406	95.12
481.624	76.12
481.843	81.12
482.061	94.12
482.28	84.12
482.498	82.12
482.717	85.12
482.935	85.12
483.153	91.12
483.372	100.12
483.59	79.12
483.808	86.12
484.027	100.12
484.245	98.12
484.463	89.12
484.681	91.12
484.9	84.12
485.118	103.12
485.336	100.12
485.554	91.12
485.772	88.12
485.99	117.12
486.209	99.12
486.427	112.12
486.645	99.12
486.863	97.12
487.081	85.12
487.299	78.12
487.517	89.12
487.735	86.12
487.953	103.12
488.171	82.12
488.389	92.12
488.607	92.12
488.825	96.12
489.043	79.12
489.261	74.12
489.479	86.12
489.696	90.12
489.914	90.12
490.132	93.12
490.35	93.12
490.568	102.12
490.786	93.12
491.003	84.12
491.221	85.12
491.439	86.12
491.657	102.12
491.874	83.12
492.092	88.12
492.31	92.12
492.527	85.12
492.745	81.12
492.963	94.12
493.18	97.12
493.398	87.12
493.615	100.12
493.833	94.12
494.05	90.12
494.268	77.12
494.485	97.12
494.703	106.12
494.92	96.12
495.138	90.12
495.355	87.12
495.573	82.12
495.79	104.12
496.008	90.12
496.225	91.12
496.442	98.12
496.66	87.12
496.877	84.12
497.094	90.12
497.312	94.12
497.529	92.12
497.746	99.12
497.963	98.12
498.181	85.12
498.398	111.12
498.615	98.12
498.832	93.12
499.049	105.12
499.267	92.12
499.484	81.12
499.701	83.12
499.918	87.12
500.135	87.12
500.352	80.12
500.569	79.12
500.786	84.12
501.003	93.12
501.22	77.12
501.437	84.12
501.654	86.12
501.871	102.12
502.088	94.12
502.305	90.12
502.522	90.12
502.739	82.12
502.956	84.12
503.172	98.12
503.389	100.12
503.606	80.12
503.823	95.12
504.04	96.12
504.256	92.12
504.473	89.12
504.69	83.12
504.907	108.12
505.123	92.12
505.34	91.12
505.557	90.12
505.773	88.12
505.99	90.12
506.207	105.12
506.423	93.12
506.64	93.12
506.856	89.12
507.073	86.12
507.289	98.12
507.506	103.12
507.722	92.12
507.939	106.12
508.155	94.12
508.372	69.12
508.588	107.12
508.805	90.12
509.021	81.12
509.238	109.12
509.454	103.12
509.67	92.12
509.887	103.12
510.103	124.12
510.319	206.12
510.536	700.12
510.752	2211.12
510.968	613.12
511.184	158.12
511.401	120.12
511.617	94.12
511.833	82.12
512.049	94.12
512.265	71.12
512.481	95.12
512.698	76.12
512.914	92.12
513.13	89.12
513.346	95.12
513.562	82.12
513.778	102.12
513.994	89.12
514.21	116.12
514.426	119.12
514.642	138.12
514.858	121.12
515.074	154.12
515.29	405.12
515.506	1361.12
515.721	501.12
515.937	139.12
516.153	100.12
516.369	110.12
516.585	97.12
