Data from Uncirc_2006_H10_HRD10591_00091.txt Node
Date: Wed Jan 03 10:25:13 EST 2024
User: Yrep
Spectrometer: HR+D1059
Trigger mode: 1
Integration Time (sec): 1.000000E-1
Scans to average: 1
Electric dark correction enabled: true
Nonlinearity correction enabled: false
Boxcar width: 0
XAxis mode: Wavelengths
Number of Pixels in Spectrum: 2048
>>>>>Begin Spectral Data<<<<<
223.165	-18.88
223.4	-18.88
223.635	-18.88
223.869	-23.88
224.104	-15.88
224.338	-25.88
224.573	-6.88
224.808	-11.88
225.042	0.12
225.277	-18.88
225.511	-14.88
225.746	6.12
225.98	12.12
226.215	18.12
226.449	11.12
226.683	29.12
226.918	28.12
227.152	32.12
227.387	35.12
227.621	36.12
227.856	33.12
228.09	49.12
228.324	70.12
228.559	54.12
228.793	47.12
229.027	58.12
229.262	53.12
229.496	65.12
229.73	72.12
229.964	83.12
230.199	68.12
230.433	64.12
230.667	71.12
230.901	83.12
231.136	69.12
231.37	76.12
231.604	71.12
231.838	73.12
232.072	85.12
232.306	83.12
232.541	72.12
232.775	87.12
233.009	66.12
233.243	90.12
233.477	70.12
233.711	77.12
233.945	69.12
234.179	82.12
234.413	74.12
234.647	78.12
234.881	73.12
235.115	99.12
235.349	83.12
235.583	88.12
235.817	69.12
236.051	62.12
236.285	73.12
236.519	85.12
236.753	75.12
236.987	77.12
237.221	74.12
237.455	70.12
237.689	71.12
237.922	64.12
238.156	75.12
238.39	73.12
238.624	75.12
238.858	78.12
239.091	76.12
239.325	97.12
239.559	82.12
239.793	83.12
240.027	83.12
240.26	80.12
240.494	87.12
240.728	85.12
240.961	71.12
241.195	81.12
241.429	58.12
241.662	77.12
241.896	63.12
242.13	71.12
242.363	70.12
242.597	86.12
242.83	72.12
243.064	67.12
243.298	76.12
243.531	71.12
243.765	75.12
243.998	94.12
244.232	80.12
244.465	78.12
244.699	89.12
244.932	69.12
245.166	91.12
245.399	85.12
245.633	82.12
245.866	71.12
246.099	52.12
246.333	76.12
246.566	79.12
246.8	84.12
247.033	72.12
247.266	64.12
247.5	71.12
247.733	81.12
247.966	84.12
248.2	70.12
248.433	75.12
248.666	81.12
248.899	80.12
249.133	78.12
249.366	86.12
249.599	99.12
249.832	90.12
250.066	85.12
250.299	85.12
250.532	83.12
250.765	99.12
250.998	82.12
251.231	79.12
251.465	76.12
251.698	60.12
251.931	76.12
252.164	81.12
252.397	85.12
252.63	75.12
252.863	90.12
253.096	71.12
253.329	72.12
253.562	68.12
253.795	76.12
254.028	75.12
254.261	77.12
254.494	72.12
254.727	76.12
254.96	94.12
255.193	80.12
255.426	82.12
255.659	81.12
255.892	68.12
256.124	96.12
256.357	69.12
256.59	82.12
256.823	71.12
257.056	82.12
257.289	76.12
257.521	73.12
257.754	86.12
257.987	80.12
258.22	80.12
258.452	84.12
258.685	72.12
258.918	74.12
259.151	87.12
259.383	70.12
259.616	75.12
259.849	81.12
260.081	80.12
260.314	69.12
260.547	80.12
260.779	69.12
261.012	73.12
261.244	76.12
261.477	85.12
261.71	89.12
261.942	101.12
262.175	107.12
262.407	93.12
262.64	84.12
262.872	84.12
263.105	78.12
263.337	90.12
263.57	78.12
263.802	70.12
264.035	77.12
264.267	63.12
264.499	77.12
264.732	82.12
264.964	85.12
265.197	91.12
265.429	83.12
265.661	73.12
265.894	73.12
266.126	91.12
266.358	69.12
266.591	84.12
266.823	95.12
267.055	76.12
267.287	86.12
267.52	77.12
267.752	98.12
267.984	77.12
268.216	81.12
268.448	89.12
268.681	83.12
268.913	82.12
269.145	77.12
269.377	78.12
269.609	83.12
269.841	71.12
270.073	82.12
270.306	77.12
270.538	79.12
270.77	76.12
271.002	88.12
271.234	74.12
271.466	92.12
271.698	67.12
271.93	77.12
272.162	94.12
272.394	82.12
272.626	84.12
272.858	77.12
273.09	82.12
273.322	91.12
273.553	83.12
273.785	72.12
274.017	89.12
274.249	68.12
274.481	70.12
274.713	70.12
274.945	91.12
275.176	74.12
275.408	92.12
275.64	85.12
275.872	85.12
276.104	93.12
276.335	95.12
276.567	88.12
276.799	89.12
277.031	95.12
277.262	86.12
277.494	72.12
277.726	92.12
277.957	80.12
278.189	75.12
278.421	83.12
278.652	95.12
278.884	94.12
279.115	90.12
279.347	86.12
279.579	95.12
279.81	84.12
280.042	101.12
280.273	93.12
280.505	82.12
280.736	85.12
280.968	79.12
281.199	70.12
281.431	96.12
281.662	82.12
281.894	86.12
282.125	78.12
282.356	108.12
282.588	134.12
282.819	119.12
283.051	76.12
283.282	83.12
283.513	83.12
283.745	74.12
283.976	92.12
284.207	82.12
284.439	91.12
284.67	88.12
284.901	77.12
285.132	77.12
285.364	75.12
285.595	77.12
285.826	90.12
286.057	92.12
286.288	82.12
286.52	92.12
286.751	82.12
286.982	81.12
287.213	89.12
287.444	88.12
287.675	96.12
287.906	95.12
288.138	96.12
288.369	85.12
288.6	82.12
288.831	68.12
289.062	86.12
289.293	81.12
289.524	85.12
289.755	81.12
289.986	70.12
290.217	82.12
290.448	92.12
290.679	86.12
290.91	87.12
291.141	90.12
291.371	98.12
291.602	82.12
291.833	93.12
292.064	88.12
292.295	74.12
292.526	80.12
292.757	64.12
292.987	86.12
293.218	74.12
293.449	78.12
293.68	83.12
293.91	86.12
294.141	87.12
294.372	74.12
294.603	93.12
294.833	76.12
295.064	96.12
295.295	96.12
295.525	93.12
295.756	86.12
295.987	116.12
296.217	131.12
296.448	125.12
296.679	104.12
296.909	99.12
297.14	83.12
297.37	93.12
297.601	94.12
297.831	79.12
298.062	94.12
298.292	79.12
298.523	70.12
298.753	69.12
298.984	79.12
299.214	81.12
299.445	82.12
299.675	91.12
299.905	98.12
300.136	80.12
300.366	93.12
300.597	77.12
300.827	106.12
301.057	101.12
301.288	101.12
301.518	88.12
301.748	78.12
301.979	87.12
302.209	97.12
302.439	90.12
302.669	88.12
302.9	87.12
303.13	96.12
303.36	110.12
303.59	95.12
303.82	106.12
304.051	76.12
304.281	80.12
304.511	95.12
304.741	100.12
304.971	86.12
305.201	94.12
305.431	83.12
305.661	76.12
305.891	78.12
306.121	95.12
306.352	101.12
306.582	104.12
306.812	104.12
307.042	93.12
307.272	88.12
307.502	94.12
307.731	86.12
307.961	91.12
308.191	83.12
308.421	88.12
308.651	89.12
308.881	80.12
309.111	90.12
309.341	103.12
309.571	101.12
309.8	93.12
310.03	95.12
310.26	99.12
310.49	88.12
310.72	93.12
310.949	108.12
311.179	102.12
311.409	80.12
311.639	104.12
311.868	93.12
312.098	91.12
312.328	90.12
312.557	103.12
312.787	100.12
313.017	118.12
313.246	85.12
313.476	100.12
313.706	83.12
313.935	85.12
314.165	91.12
314.394	102.12
314.624	88.12
314.853	101.12
315.083	88.12
315.312	83.12
315.542	77.12
315.771	87.12
316.001	89.12
316.23	93.12
316.46	92.12
316.689	88.12
316.919	84.12
317.148	84.12
317.377	86.12
317.607	92.12
317.836	99.12
318.065	79.12
318.295	93.12
318.524	81.12
318.753	92.12
318.983	97.12
319.212	82.12
319.441	90.12
319.67	94.12
319.9	90.12
320.129	89.12
320.358	78.12
320.587	98.12
320.816	101.12
321.046	103.12
321.275	105.12
321.504	101.12
321.733	97.12
321.962	94.12
322.191	92.12
322.42	103.12
322.649	114.12
322.878	106.12
323.108	99.12
323.337	108.12
323.566	141.12
323.795	143.12
324.024	189.12
324.253	384.12
324.482	820.12
324.71	1670.12
324.939	2212.12
325.168	841.12
325.397	219.12
325.626	145.12
325.855	132.12
326.084	126.12
326.313	134.12
326.542	149.12
326.77	223.12
326.999	473.12
327.228	952.12
327.457	1762.12
327.686	1377.12
327.914	371.12
328.143	186.12
328.372	137.12
328.6	125.12
328.829	129.12
329.058	141.12
329.287	138.12
329.515	79.12
329.744	105.12
329.972	94.12
330.201	95.12
330.43	96.12
330.658	117.12
330.887	136.12
331.115	123.12
331.344	90.12
331.572	95.12
331.801	92.12
332.03	92.12
332.258	98.12
332.486	82.12
332.715	86.12
332.943	83.12
333.172	94.12
333.4	101.12
333.629	96.12
333.857	105.12
334.085	96.12
334.314	99.12
334.542	92.12
334.771	95.12
334.999	92.12
335.227	100.12
335.455	102.12
335.684	92.12
335.912	98.12
336.14	85.12
336.369	96.12
336.597	92.12
336.825	91.12
337.053	88.12
337.281	87.12
337.51	90.12
337.738	83.12
337.966	98.12
338.194	93.12
338.422	96.12
338.65	103.12
338.878	80.12
339.106	83.12
339.334	99.12
339.562	93.12
339.79	82.12
340.018	97.12
340.246	84.12
340.474	87.12
340.702	76.12
340.93	84.12
341.158	85.12
341.386	75.12
341.614	95.12
341.842	96.12
342.07	92.12
342.298	85.12
342.526	88.12
342.754	98.12
342.981	78.12
343.209	86.12
343.437	84.12
343.665	107.12
343.893	96.12
344.12	96.12
344.348	86.12
344.576	77.12
344.804	78.12
345.031	88.12
345.259	96.12
345.487	101.12
345.714	80.12
345.942	96.12
346.17	88.12
346.397	81.12
346.625	100.12
346.853	107.12
347.08	97.12
347.308	116.12
347.535	94.12
347.763	86.12
347.99	101.12
348.218	106.12
348.445	95.12
348.673	96.12
348.9	86.12
349.128	78.12
349.355	100.12
349.583	96.12
349.81	94.12
350.037	83.12
350.265	88.12
350.492	98.12
350.72	88.12
350.947	99.12
351.174	106.12
351.402	104.12
351.629	118.12
351.856	103.12
352.083	90.12
352.311	104.12
352.538	101.12
352.765	104.12
352.992	90.12
353.22	106.12
353.447	108.12
353.674	99.12
353.901	108.12
354.128	85.12
354.355	98.12
354.583	96.12
354.81	86.12
355.037	99.12
355.264	102.12
355.491	111.12
355.718	88.12
355.945	90.12
356.172	85.12
356.399	93.12
356.626	89.12
356.853	105.12
357.08	87.12
357.307	84.12
357.534	87.12
357.761	92.12
357.988	106.12
358.215	91.12
358.441	99.12
358.668	108.12
358.895	90.12
359.122	85.12
359.349	80.12
359.576	96.12
359.802	99.12
360.029	102.12
360.256	97.12
360.483	100.12
360.709	88.12
360.936	98.12
361.163	86.12
361.39	90.12
361.616	81.12
361.843	92.12
362.07	93.12
362.296	94.12
362.523	100.12
362.749	88.12
362.976	77.12
363.203	88.12
363.429	72.12
363.656	89.12
363.882	89.12
364.109	95.12
364.335	97.12
364.562	94.12
364.788	102.12
365.015	94.12
365.241	95.12
365.468	94.12
365.694	100.12
365.92	92.12
366.147	88.12
366.373	85.12
366.599	92.12
366.826	93.12
367.052	82.12
367.278	83.12
367.505	102.12
367.731	93.12
367.957	84.12
368.184	82.12
368.41	96.12
368.636	84.12
368.862	110.12
369.089	109.12
369.315	78.12
369.541	98.12
369.767	86.12
369.993	95.12
370.219	91.12
370.445	79.12
370.672	91.12
370.898	89.12
371.124	81.12
371.35	89.12
371.576	103.12
371.802	85.12
372.028	72.12
372.254	89.12
372.48	84.12
372.706	83.12
372.932	76.12
373.158	86.12
373.384	106.12
373.61	93.12
373.835	93.12
374.061	86.12
374.287	99.12
374.513	92.12
374.739	84.12
374.965	87.12
375.191	86.12
375.416	83.12
375.642	90.12
375.868	91.12
376.094	95.12
376.319	99.12
376.545	99.12
376.771	86.12
376.997	93.12
377.222	73.12
377.448	94.12
377.674	104.12
377.899	86.12
378.125	88.12
378.35	93.12
378.576	83.12
378.802	78.12
379.027	102.12
379.253	98.12
379.478	101.12
379.704	100.12
379.929	95.12
380.155	82.12
380.38	83.12
380.606	84.12
380.831	97.12
381.057	104.12
381.282	89.12
381.507	98.12
381.733	90.12
381.958	98.12
382.184	87.12
382.409	82.12
382.634	113.12
382.86	91.12
383.085	92.12
383.31	100.12
383.535	107.12
383.761	86.12
383.986	100.12
384.211	93.12
384.436	95.12
384.662	97.12
384.887	108.12
385.112	110.12
385.337	101.12
385.562	99.12
385.787	100.12
386.013	99.12
386.238	97.12
386.463	102.12
386.688	97.12
386.913	82.12
387.138	97.12
387.363	96.12
387.588	97.12
387.813	95.12
388.038	91.12
388.263	101.12
388.488	108.12
388.713	100.12
388.938	92.12
389.163	96.12
389.387	96.12
389.612	100.12
389.837	95.12
390.062	89.12
390.287	96.12
390.512	80.12
390.736	70.12
390.961	102.12
391.186	86.12
391.411	105.12
391.636	92.12
391.86	82.12
392.085	72.12
392.31	94.12
392.534	84.12
392.759	90.12
392.984	91.12
393.208	99.12
393.433	96.12
393.658	85.12
393.882	74.12
394.107	76.12
394.331	85.12
394.556	74.12
394.78	95.12
395.005	93.12
395.229	97.12
395.454	76.12
395.678	86.12
395.903	84.12
396.127	87.12
396.352	74.12
396.576	79.12
396.801	70.12
397.025	88.12
397.249	93.12
397.474	96.12
397.698	86.12
397.922	100.12
398.147	95.12
398.371	87.12
398.595	72.12
398.82	81.12
399.044	90.12
399.268	94.12
399.492	99.12
399.717	86.12
399.941	83.12
400.165	88.12
400.389	95.12
400.613	91.12
400.837	84.12
401.062	87.12
401.286	94.12
401.51	84.12
401.734	95.12
401.958	105.12
402.182	115.12
402.406	147.12
402.63	115.12
402.854	80.12
403.078	89.12
403.302	86.12
403.526	93.12
403.75	90.12
403.974	92.12
404.198	92.12
404.422	86.12
404.645	78.12
404.869	93.12
405.093	103.12
405.317	84.12
405.541	87.12
405.765	88.12
405.988	99.12
406.212	142.12
406.436	206.12
406.66	137.12
406.883	99.12
407.107	94.12
407.331	88.12
407.555	96.12
407.778	98.12
408.002	91.12
408.226	85.12
408.449	85.12
408.673	93.12
408.896	94.12
409.12	100.12
409.344	90.12
409.567	77.12
409.791	90.12
410.014	92.12
410.238	78.12
410.461	94.12
410.685	92.12
410.908	101.12
411.132	108.12
411.355	96.12
411.578	89.12
411.802	85.12
412.025	76.12
412.249	84.12
412.472	81.12
412.695	92.12
412.919	91.12
413.142	87.12
413.365	89.12
413.589	67.12
413.812	93.12
414.035	105.12
414.258	102.12
414.482	86.12
414.705	90.12
414.928	104.12
415.151	90.12
415.374	87.12
415.597	93.12
415.821	90.12
416.044	89.12
416.267	93.12
416.49	84.12
416.713	76.12
416.936	80.12
417.159	91.12
417.382	74.12
417.605	83.12
417.828	94.12
418.051	82.12
418.274	94.12
418.497	96.12
418.72	90.12
418.943	79.12
419.166	89.12
419.389	76.12
419.611	86.12
419.834	94.12
420.057	87.12
420.28	82.12
420.503	81.12
420.726	81.12
420.948	93.12
421.171	98.12
421.394	74.12
421.617	82.12
421.839	98.12
422.062	87.12
422.285	93.12
422.507	86.12
422.73	98.12
422.953	84.12
423.175	92.12
423.398	73.12
423.621	93.12
423.843	97.12
424.066	77.12
424.288	85.12
424.511	99.12
424.733	98.12
424.956	122.12
425.178	101.12
425.401	87.12
425.623	92.12
425.846	92.12
426.068	105.12
426.291	77.12
426.513	102.12
426.735	86.12
426.958	94.12
427.18	109.12
427.402	138.12
427.625	150.12
427.847	120.12
428.069	93.12
428.292	83.12
428.514	93.12
428.736	93.12
428.958	84.12
429.181	92.12
429.403	74.12
429.625	88.12
429.847	96.12
430.069	98.12
430.292	87.12
430.514	100.12
430.736	89.12
430.958	81.12
431.18	92.12
431.402	93.12
431.624	83.12
431.846	83.12
432.068	89.12
432.29	89.12
432.512	81.12
432.734	76.12
432.956	91.12
433.178	83.12
433.4	95.12
433.622	85.12
433.844	99.12
434.066	96.12
434.287	99.12
434.509	90.12
434.731	87.12
434.953	83.12
435.175	94.12
435.397	89.12
435.618	93.12
435.84	102.12
436.062	127.12
436.284	110.12
436.505	102.12
436.727	101.12
436.949	86.12
437.17	85.12
437.392	90.12
437.614	83.12
437.835	101.12
438.057	116.12
438.278	92.12
438.5	94.12
438.721	112.12
438.943	92.12
439.165	105.12
439.386	93.12
439.608	84.12
439.829	101.12
440.05	112.12
440.272	139.12
440.493	100.12
440.715	88.12
440.936	69.12
441.158	85.12
441.379	78.12
441.6	101.12
441.822	107.12
442.043	101.12
442.264	107.12
442.486	99.12
442.707	92.12
442.928	94.12
443.149	127.12
443.371	111.12
443.592	106.12
443.813	108.12
444.034	103.12
444.255	91.12
444.476	78.12
444.698	87.12
444.919	102.12
445.14	129.12
445.361	127.12
445.582	113.12
445.803	137.12
446.024	125.12
446.245	142.12
446.466	108.12
446.687	96.12
446.908	99.12
447.129	88.12
447.35	78.12
447.571	88.12
447.792	94.12
448.013	98.12
448.234	124.12
448.455	99.12
448.675	108.12
448.896	129.12
449.117	101.12
449.338	101.12
449.559	134.12
449.779	131.12
450	101.12
450.221	99.12
450.442	91.12
450.662	91.12
450.883	100.12
451.104	107.12
451.324	93.12
451.545	92.12
451.766	100.12
451.986	89.12
452.207	100.12
452.428	103.12
452.648	100.12
452.869	118.12
453.089	113.12
453.31	116.12
453.53	80.12
453.751	98.12
453.971	95.12
454.192	114.12
454.412	84.12
454.633	97.12
454.853	84.12
455.073	88.12
455.294	95.12
455.514	97.12
455.734	88.12
455.955	70.12
456.175	76.12
456.395	83.12
456.616	83.12
456.836	79.12
457.056	89.12
457.276	89.12
457.497	77.12
457.717	88.12
457.937	74.12
458.157	85.12
458.377	87.12
458.598	93.12
458.818	134.12
459.038	156.12
459.258	105.12
459.478	94.12
459.698	87.12
459.918	87.12
460.138	80.12
460.358	70.12
460.578	77.12
460.798	96.12
461.018	88.12
461.238	82.12
461.458	74.12
461.678	90.12
461.898	86.12
462.118	79.12
462.338	96.12
462.558	86.12
462.777	98.12
462.997	81.12
463.217	83.12
463.437	77.12
463.657	80.12
463.876	74.12
464.096	81.12
464.316	81.12
464.536	92.12
464.755	92.12
464.975	102.12
465.195	149.12
465.414	153.12
465.634	90.12
465.854	83.12
466.073	100.12
466.293	84.12
466.512	102.12
466.732	93.12
466.951	81.12
467.171	93.12
467.391	99.12
467.61	95.12
467.829	101.12
468.049	79.12
468.268	87.12
468.488	86.12
468.707	73.12
468.927	77.12
469.146	86.12
469.365	86.12
469.585	77.12
469.804	98.12
470.023	104.12
470.243	98.12
470.462	91.12
470.681	112.12
470.901	77.12
471.12	81.12
471.339	74.12
471.558	85.12
471.777	81.12
471.997	96.12
472.216	92.12
472.435	76.12
472.654	94.12
472.873	95.12
473.092	86.12
473.311	94.12
473.53	92.12
473.749	98.12
473.968	84.12
474.187	123.12
474.406	95.12
474.625	97.12
474.844	84.12
475.063	74.12
475.282	89.12
475.501	75.12
475.72	99.12
475.939	79.12
476.158	90.12
476.377	85.12
476.596	89.12
476.814	86.12
477.033	87.12
477.252	91.12
477.471	88.12
477.69	70.12
477.908	89.12
478.127	81.12
478.346	73.12
478.564	99.12
478.783	85.12
479.002	93.12
479.22	92.12
479.439	97.12
479.658	81.12
479.876	84.12
480.095	86.12
480.313	81.12
480.532	86.12
480.751	85.12
480.969	81.12
481.188	79.12
481.406	89.12
481.624	92.12
481.843	93.12
482.061	81.12
482.28	72.12
482.498	79.12
482.717	90.12
482.935	94.12
483.153	86.12
483.372	90.12
483.59	99.12
483.808	97.12
484.027	78.12
484.245	91.12
484.463	96.12
484.681	92.12
484.9	91.12
485.118	93.12
485.336	104.12
485.554	99.12
485.772	86.12
485.99	102.12
486.209	101.12
486.427	97.12
486.645	100.12
486.863	104.12
487.081	110.12
487.299	102.12
487.517	78.12
487.735	95.12
487.953	95.12
488.171	106.12
488.389	91.12
488.607	93.12
488.825	85.12
489.043	94.12
489.261	105.12
489.479	99.12
489.696	83.12
489.914	83.12
490.132	92.12
490.35	94.12
490.568	86.12
490.786	87.12
491.003	83.12
491.221	74.12
491.439	90.12
491.657	109.12
491.874	99.12
492.092	100.12
492.31	92.12
492.527	81.12
492.745	94.12
492.963	97.12
493.18	84.12
493.398	89.12
493.615	95.12
493.833	93.12
494.05	93.12
494.268	83.12
494.485	87.12
494.703	95.12
494.92	88.12
495.138	86.12
495.355	95.12
495.573	100.12
495.79	97.12
496.008	96.12
496.225	85.12
496.442	96.12
496.66	100.12
496.877	82.12
497.094	90.12
497.312	93.12
497.529	97.12
497.746	79.12
497.963	81.12
498.181	85.12
498.398	103.12
498.615	101.12
498.832	101.12
499.049	91.12
499.267	107.12
499.484	85.12
499.701	100.12
499.918	92.12
500.135	81.12
500.352	82.12
500.569	101.12
500.786	91.12
501.003	90.12
501.22	92.12
501.437	81.12
501.654	100.12
501.871	106.12
502.088	79.12
502.305	73.12
502.522	90.12
502.739	76.12
502.956	72.12
503.172	93.12
503.389	79.12
503.606	94.12
503.823	90.12
504.04	105.12
504.256	97.12
504.473	80.12
504.69	91.12
504.907	78.12
505.123	98.12
505.34	82.12
505.557	83.12
505.773	98.12
505.99	93.12
506.207	78.12
506.423	87.12
506.64	83.12
506.856	97.12
507.073	94.12
507.289	105.12
507.506	94.12
507.722	107.12
507.939	104.12
508.155	93.12
508.372	82.12
508.588	94.12
508.805	106.12
509.021	88.12
509.238	94.12
509.454	91.12
509.67	96.12
509.887	101.12
510.103	118.12
510.319	203.12
510.536	729.12
510.752	2277.12
510.968	664.12
511.184	174.12
511.401	112.12
511.617	106.12
511.833	100.12
512.049	92.12
512.265	93.12
512.481	97.12
512.698	99.12
512.914	99.12
513.13	89.12
513.346	89.12
513.562	86.12
513.778	96.12
513.994	102.12
514.21	99.12
514.426	107.12
514.642	140.12
514.858	121.12
515.074	149.12
515.29	435.12
515.506	1400.12
515.721	533.12
515.937	145.12
516.153	105.12
516.369	108.12
