Data from Uncirc_2006_H10_HRD10591_00034.txt Node
Date: Wed Jan 03 10:25:01 EST 2024
User: Yrep
Spectrometer: HR+D1059
Trigger mode: 1
Integration Time (sec): 1.000000E-1
Scans to average: 1
Electric dark correction enabled: true
Nonlinearity correction enabled: false
Boxcar width: 0
XAxis mode: Wavelengths
Number of Pixels in Spectrum: 2048
>>>>>Begin Spectral Data<<<<<
223.165	-14.38
223.4	-14.38
223.635	-14.38
223.869	-14.38
224.104	-21.38
224.338	-18.38
224.573	-13.38
224.808	-9.38
225.042	-6.38
225.277	-9.38
225.511	-12.38
225.746	0.62
225.98	11.62
226.215	27.62
226.449	17.62
226.683	22.62
226.918	11.62
227.152	27.62
227.387	47.62
227.621	42.62
227.856	52.62
228.09	50.62
228.324	42.62
228.559	59.62
228.793	54.62
229.027	73.62
229.262	65.62
229.496	75.62
229.73	83.62
229.964	71.62
230.199	77.62
230.433	73.62
230.667	67.62
230.901	77.62
231.136	81.62
231.37	75.62
231.604	69.62
231.838	76.62
232.072	87.62
232.306	81.62
232.541	70.62
232.775	87.62
233.009	87.62
233.243	74.62
233.477	79.62
233.711	90.62
233.945	87.62
234.179	91.62
234.413	72.62
234.647	76.62
234.881	88.62
235.115	94.62
235.349	85.62
235.583	93.62
235.817	72.62
236.051	80.62
236.285	77.62
236.519	67.62
236.753	83.62
236.987	70.62
237.221	78.62
237.455	71.62
237.689	83.62
237.922	77.62
238.156	65.62
238.39	86.62
238.624	73.62
238.858	84.62
239.091	82.62
239.325	73.62
239.559	86.62
239.793	90.62
240.027	78.62
240.26	85.62
240.494	83.62
240.728	82.62
240.961	68.62
241.195	73.62
241.429	76.62
241.662	82.62
241.896	69.62
242.13	71.62
242.363	82.62
242.597	85.62
242.83	77.62
243.064	68.62
243.298	81.62
243.531	60.62
243.765	75.62
243.998	83.62
244.232	88.62
244.465	80.62
244.699	88.62
244.932	83.62
245.166	83.62
245.399	77.62
245.633	84.62
245.866	88.62
246.099	82.62
246.333	84.62
246.566	83.62
246.8	79.62
247.033	73.62
247.266	71.62
247.5	86.62
247.733	68.62
247.966	100.62
248.2	68.62
248.433	82.62
248.666	77.62
248.899	81.62
249.133	71.62
249.366	99.62
249.599	94.62
249.832	74.62
250.066	79.62
250.299	83.62
250.532	91.62
250.765	78.62
250.998	80.62
251.231	79.62
251.465	94.62
251.698	75.62
251.931	79.62
252.164	74.62
252.397	83.62
252.63	81.62
252.863	83.62
253.096	68.62
253.329	89.62
253.562	79.62
253.795	85.62
254.028	80.62
254.261	77.62
254.494	69.62
254.727	76.62
254.96	84.62
255.193	78.62
255.426	76.62
255.659	80.62
255.892	98.62
256.124	89.62
256.357	87.62
256.59	77.62
256.823	74.62
257.056	69.62
257.289	79.62
257.521	82.62
257.754	90.62
257.987	85.62
258.22	82.62
258.452	92.62
258.685	97.62
258.918	78.62
259.151	88.62
259.383	89.62
259.616	85.62
259.849	70.62
260.081	76.62
260.314	86.62
260.547	85.62
260.779	96.62
261.012	69.62
261.244	83.62
261.477	93.62
261.71	88.62
261.942	113.62
262.175	111.62
262.407	97.62
262.64	72.62
262.872	77.62
263.105	83.62
263.337	81.62
263.57	81.62
263.802	86.62
264.035	90.62
264.267	95.62
264.499	87.62
264.732	86.62
264.964	93.62
265.197	82.62
265.429	90.62
265.661	92.62
265.894	92.62
266.126	85.62
266.358	86.62
266.591	83.62
266.823	73.62
267.055	95.62
267.287	102.62
267.52	85.62
267.752	74.62
267.984	84.62
268.216	92.62
268.448	91.62
268.681	77.62
268.913	86.62
269.145	86.62
269.377	83.62
269.609	89.62
269.841	87.62
270.073	78.62
270.306	78.62
270.538	88.62
270.77	79.62
271.002	84.62
271.234	78.62
271.466	92.62
271.698	77.62
271.93	83.62
272.162	84.62
272.394	97.62
272.626	88.62
272.858	77.62
273.09	73.62
273.322	95.62
273.553	90.62
273.785	82.62
274.017	74.62
274.249	81.62
274.481	88.62
274.713	76.62
274.945	83.62
275.176	93.62
275.408	86.62
275.64	83.62
275.872	93.62
276.104	85.62
276.335	89.62
276.567	90.62
276.799	106.62
277.031	96.62
277.262	83.62
277.494	83.62
277.726	81.62
277.957	75.62
278.189	80.62
278.421	86.62
278.652	91.62
278.884	70.62
279.115	90.62
279.347	94.62
279.579	75.62
279.81	96.62
280.042	96.62
280.273	89.62
280.505	81.62
280.736	79.62
280.968	78.62
281.199	94.62
281.431	89.62
281.662	95.62
281.894	80.62
282.125	97.62
282.356	101.62
282.588	122.62
282.819	99.62
283.051	96.62
283.282	98.62
283.513	98.62
283.745	77.62
283.976	67.62
284.207	88.62
284.439	96.62
284.67	91.62
284.901	70.62
285.132	87.62
285.364	91.62
285.595	99.62
285.826	91.62
286.057	90.62
286.288	102.62
286.52	84.62
286.751	81.62
286.982	82.62
287.213	83.62
287.444	85.62
287.675	91.62
287.906	94.62
288.138	80.62
288.369	83.62
288.6	79.62
288.831	87.62
289.062	76.62
289.293	84.62
289.524	81.62
289.755	79.62
289.986	94.62
290.217	93.62
290.448	101.62
290.679	87.62
290.91	93.62
291.141	85.62
291.371	92.62
291.602	97.62
291.833	93.62
292.064	94.62
292.295	86.62
292.526	87.62
292.757	89.62
292.987	79.62
293.218	98.62
293.449	73.62
293.68	97.62
293.91	98.62
294.141	103.62
294.372	83.62
294.603	93.62
294.833	84.62
295.064	69.62
295.295	83.62
295.525	74.62
295.756	98.62
295.987	98.62
296.217	114.62
296.448	112.62
296.679	93.62
296.909	100.62
297.14	91.62
297.37	82.62
297.601	80.62
297.831	97.62
298.062	98.62
298.292	110.62
298.523	86.62
298.753	89.62
298.984	88.62
299.214	87.62
299.445	98.62
299.675	92.62
299.905	87.62
300.136	85.62
300.366	84.62
300.597	88.62
300.827	92.62
301.057	94.62
301.288	89.62
301.518	92.62
301.748	89.62
301.979	109.62
302.209	103.62
302.439	87.62
302.669	95.62
302.9	77.62
303.13	87.62
303.36	108.62
303.59	101.62
303.82	111.62
304.051	92.62
304.281	95.62
304.511	92.62
304.741	78.62
304.971	87.62
305.201	91.62
305.431	91.62
305.661	89.62
305.891	106.62
306.121	82.62
306.352	106.62
306.582	99.62
306.812	94.62
307.042	91.62
307.272	92.62
307.502	87.62
307.731	99.62
307.961	98.62
308.191	102.62
308.421	108.62
308.651	76.62
308.881	89.62
309.111	90.62
309.341	96.62
309.571	98.62
309.8	98.62
310.03	93.62
310.26	92.62
310.49	94.62
310.72	103.62
310.949	97.62
311.179	101.62
311.409	98.62
311.639	81.62
311.868	102.62
312.098	85.62
312.328	112.62
312.557	96.62
312.787	104.62
313.017	101.62
313.246	92.62
313.476	84.62
313.706	108.62
313.935	105.62
314.165	109.62
314.394	116.62
314.624	103.62
314.853	97.62
315.083	92.62
315.312	77.62
315.542	97.62
315.771	99.62
316.001	86.62
316.23	86.62
316.46	85.62
316.689	68.62
316.919	95.62
317.148	100.62
317.377	88.62
317.607	83.62
317.836	87.62
318.065	105.62
318.295	70.62
318.524	79.62
318.753	88.62
318.983	94.62
319.212	85.62
319.441	93.62
319.67	118.62
319.9	88.62
320.129	91.62
320.358	93.62
320.587	77.62
320.816	111.62
321.046	103.62
321.275	97.62
321.504	98.62
321.733	100.62
321.962	94.62
322.191	110.62
322.42	95.62
322.649	106.62
322.878	110.62
323.108	114.62
323.337	137.62
323.566	118.62
323.795	141.62
324.024	193.62
324.253	356.62
324.482	731.62
324.71	1517.62
324.939	2007.62
325.168	723.62
325.397	233.62
325.626	135.62
325.855	123.62
326.084	117.62
326.313	110.62
326.542	151.62
326.77	230.62
326.999	441.62
327.228	870.62
327.457	1567.62
327.686	1241.62
327.914	349.62
328.143	186.62
328.372	123.62
328.6	115.62
328.829	108.62
329.058	121.62
329.287	108.62
329.515	93.62
329.744	111.62
329.972	90.62
330.201	88.62
330.43	116.62
330.658	112.62
330.887	132.62
331.115	115.62
331.344	117.62
331.572	103.62
331.801	111.62
332.03	115.62
332.258	118.62
332.486	98.62
332.715	98.62
332.943	105.62
333.172	103.62
333.4	90.62
333.629	121.62
333.857	108.62
334.085	110.62
334.314	96.62
334.542	106.62
334.771	102.62
334.999	102.62
335.227	93.62
335.455	100.62
335.684	101.62
335.912	98.62
336.14	96.62
336.369	83.62
336.597	105.62
336.825	93.62
337.053	97.62
337.281	108.62
337.51	101.62
337.738	83.62
337.966	91.62
338.194	100.62
338.422	86.62
338.65	86.62
338.878	113.62
339.106	100.62
339.334	103.62
339.562	90.62
339.79	100.62
340.018	87.62
340.246	87.62
340.474	99.62
340.702	89.62
340.93	99.62
341.158	95.62
341.386	93.62
341.614	81.62
341.842	104.62
342.07	107.62
342.298	97.62
342.526	88.62
342.754	92.62
342.981	81.62
343.209	83.62
343.437	96.62
343.665	99.62
343.893	99.62
344.12	104.62
344.348	90.62
344.576	106.62
344.804	93.62
345.031	89.62
345.259	94.62
345.487	82.62
345.714	96.62
345.942	91.62
346.17	103.62
346.397	94.62
346.625	92.62
346.853	83.62
347.08	84.62
347.308	101.62
347.535	96.62
347.763	91.62
347.99	73.62
348.218	105.62
348.445	98.62
348.673	99.62
348.9	92.62
349.128	97.62
349.355	89.62
349.583	96.62
349.81	100.62
350.037	93.62
350.265	103.62
350.492	106.62
350.72	109.62
350.947	101.62
351.174	88.62
351.402	102.62
351.629	103.62
351.856	112.62
352.083	94.62
352.311	99.62
352.538	113.62
352.765	108.62
352.992	111.62
353.22	118.62
353.447	111.62
353.674	98.62
353.901	91.62
354.128	103.62
354.355	102.62
354.583	99.62
354.81	91.62
355.037	95.62
355.264	95.62
355.491	93.62
355.718	95.62
355.945	91.62
356.172	107.62
356.399	106.62
356.626	100.62
356.853	96.62
357.08	95.62
357.307	86.62
357.534	97.62
357.761	100.62
357.988	109.62
358.215	112.62
358.441	111.62
358.668	90.62
358.895	97.62
359.122	96.62
359.349	90.62
359.576	96.62
359.802	102.62
360.029	118.62
360.256	110.62
360.483	97.62
360.709	106.62
360.936	83.62
361.163	94.62
361.39	94.62
361.616	85.62
361.843	88.62
362.07	111.62
362.296	91.62
362.523	98.62
362.749	102.62
362.976	102.62
363.203	93.62
363.429	82.62
363.656	85.62
363.882	94.62
364.109	89.62
364.335	100.62
364.562	106.62
364.788	100.62
365.015	92.62
365.241	112.62
365.468	115.62
365.694	99.62
365.92	96.62
366.147	82.62
366.373	78.62
366.599	100.62
366.826	90.62
367.052	84.62
367.278	83.62
367.505	86.62
367.731	93.62
367.957	90.62
368.184	90.62
368.41	95.62
368.636	102.62
368.862	122.62
369.089	112.62
369.315	95.62
369.541	100.62
369.767	100.62
369.993	97.62
370.219	83.62
370.445	99.62
370.672	91.62
370.898	84.62
371.124	78.62
371.35	96.62
371.576	84.62
371.802	85.62
372.028	84.62
372.254	101.62
372.48	92.62
372.706	87.62
372.932	74.62
373.158	88.62
373.384	97.62
373.61	97.62
373.835	87.62
374.061	92.62
374.287	94.62
374.513	99.62
374.739	91.62
374.965	89.62
375.191	84.62
375.416	85.62
375.642	94.62
375.868	100.62
376.094	91.62
376.319	82.62
376.545	87.62
376.771	109.62
376.997	96.62
377.222	95.62
377.448	76.62
377.674	77.62
377.899	100.62
378.125	117.62
378.35	90.62
378.576	89.62
378.802	92.62
379.027	103.62
379.253	89.62
379.478	81.62
379.704	97.62
379.929	98.62
380.155	117.62
380.38	94.62
380.606	108.62
380.831	87.62
381.057	107.62
381.282	82.62
381.507	94.62
381.733	98.62
381.958	95.62
382.184	99.62
382.409	91.62
382.634	99.62
382.86	90.62
383.085	101.62
383.31	111.62
383.535	103.62
383.761	98.62
383.986	93.62
384.211	92.62
384.436	107.62
384.662	101.62
384.887	114.62
385.112	106.62
385.337	111.62
385.562	103.62
385.787	101.62
386.013	110.62
386.238	124.62
386.463	118.62
386.688	111.62
386.913	96.62
387.138	89.62
387.363	97.62
387.588	79.62
387.813	109.62
388.038	113.62
388.263	118.62
388.488	122.62
388.713	101.62
388.938	84.62
389.163	85.62
389.387	102.62
389.612	105.62
389.837	87.62
390.062	93.62
390.287	101.62
390.512	92.62
390.736	94.62
390.961	87.62
391.186	98.62
391.411	99.62
391.636	102.62
391.86	83.62
392.085	86.62
392.31	79.62
392.534	88.62
392.759	98.62
392.984	92.62
393.208	93.62
393.433	86.62
393.658	92.62
393.882	85.62
394.107	76.62
394.331	88.62
394.556	97.62
394.78	87.62
395.005	92.62
395.229	83.62
395.454	83.62
395.678	72.62
395.903	82.62
396.127	100.62
396.352	88.62
396.576	94.62
396.801	83.62
397.025	93.62
397.249	90.62
397.474	72.62
397.698	78.62
397.922	105.62
398.147	93.62
398.371	76.62
398.595	81.62
398.82	78.62
399.044	78.62
399.268	84.62
399.492	94.62
399.717	109.62
399.941	95.62
400.165	81.62
400.389	92.62
400.613	90.62
400.837	89.62
401.062	87.62
401.286	90.62
401.51	96.62
401.734	100.62
401.958	95.62
402.182	123.62
402.406	152.62
402.63	110.62
402.854	87.62
403.078	88.62
403.302	85.62
403.526	90.62
403.75	73.62
403.974	89.62
404.198	77.62
404.422	93.62
404.645	86.62
404.869	89.62
405.093	83.62
405.317	84.62
405.541	93.62
405.765	111.62
405.988	112.62
406.212	155.62
406.436	212.62
406.66	150.62
406.883	103.62
407.107	80.62
407.331	84.62
407.555	99.62
407.778	91.62
408.002	101.62
408.226	93.62
408.449	90.62
408.673	85.62
408.896	95.62
409.12	96.62
409.344	75.62
409.567	97.62
409.791	89.62
410.014	110.62
410.238	100.62
410.461	101.62
410.685	100.62
410.908	91.62
411.132	110.62
411.355	97.62
411.578	94.62
411.802	93.62
412.025	83.62
412.249	90.62
412.472	91.62
412.695	98.62
412.919	92.62
413.142	81.62
413.365	83.62
413.589	99.62
413.812	86.62
414.035	93.62
414.258	85.62
414.482	91.62
414.705	83.62
414.928	95.62
415.151	90.62
415.374	103.62
415.597	91.62
415.821	84.62
416.044	88.62
416.267	87.62
416.49	91.62
416.713	80.62
416.936	86.62
417.159	86.62
417.382	92.62
417.605	96.62
417.828	102.62
418.051	100.62
418.274	91.62
418.497	86.62
418.72	89.62
418.943	95.62
419.166	100.62
419.389	81.62
419.611	97.62
419.834	99.62
420.057	84.62
420.28	86.62
420.503	91.62
420.726	92.62
420.948	78.62
421.171	105.62
421.394	98.62
421.617	84.62
421.839	83.62
422.062	94.62
422.285	87.62
422.507	96.62
422.73	89.62
422.953	96.62
423.175	102.62
423.398	108.62
423.621	99.62
423.843	73.62
424.066	92.62
424.288	75.62
424.511	102.62
424.733	92.62
424.956	118.62
425.178	111.62
425.401	98.62
425.623	85.62
425.846	96.62
426.068	93.62
426.291	88.62
426.513	94.62
426.735	91.62
426.958	100.62
427.18	99.62
427.402	118.62
427.625	135.62
427.847	118.62
428.069	78.62
428.292	89.62
428.514	79.62
428.736	94.62
428.958	91.62
429.181	87.62
429.403	91.62
429.625	94.62
429.847	92.62
430.069	86.62
430.292	87.62
430.514	73.62
430.736	75.62
430.958	87.62
431.18	75.62
431.402	86.62
431.624	90.62
431.846	93.62
432.068	107.62
432.29	92.62
432.512	85.62
432.734	109.62
432.956	94.62
433.178	107.62
433.4	103.62
433.622	86.62
433.844	93.62
434.066	83.62
434.287	94.62
434.509	90.62
434.731	82.62
434.953	85.62
435.175	84.62
435.397	95.62
435.618	88.62
435.84	106.62
436.062	114.62
436.284	109.62
436.505	100.62
436.727	102.62
436.949	110.62
437.17	92.62
437.392	86.62
437.614	90.62
437.835	95.62
438.057	115.62
438.278	105.62
438.5	103.62
438.721	110.62
438.943	111.62
439.165	75.62
439.386	87.62
439.608	90.62
439.829	99.62
440.05	106.62
440.272	137.62
440.493	104.62
440.715	86.62
440.936	82.62
441.158	90.62
441.379	98.62
441.6	94.62
441.822	98.62
442.043	89.62
442.264	107.62
442.486	95.62
442.707	88.62
442.928	93.62
443.149	105.62
443.371	119.62
443.592	100.62
443.813	106.62
444.034	110.62
444.255	97.62
444.476	98.62
444.698	97.62
444.919	91.62
445.14	128.62
445.361	109.62
445.582	112.62
445.803	114.62
446.024	108.62
446.245	118.62
446.466	97.62
446.687	99.62
446.908	80.62
447.129	86.62
447.35	94.62
447.571	100.62
447.792	87.62
448.013	103.62
448.234	96.62
448.455	100.62
448.675	98.62
448.896	98.62
449.117	124.62
449.338	100.62
449.559	113.62
449.779	112.62
450	82.62
450.221	69.62
450.442	86.62
450.662	90.62
450.883	108.62
451.104	121.62
451.324	106.62
451.545	81.62
451.766	75.62
451.986	113.62
452.207	86.62
452.428	97.62
452.648	95.62
452.869	99.62
453.089	98.62
453.31	115.62
453.53	91.62
453.751	91.62
453.971	106.62
454.192	103.62
454.412	95.62
454.633	92.62
454.853	73.62
455.073	86.62
455.294	95.62
455.514	89.62
455.734	70.62
455.955	95.62
456.175	96.62
456.395	84.62
456.616	74.62
456.836	63.62
457.056	82.62
457.276	73.62
457.497	67.62
457.717	96.62
457.937	87.62
458.157	89.62
458.377	89.62
458.598	100.62
458.818	131.62
459.038	143.62
459.258	111.62
459.478	99.62
459.698	94.62
459.918	83.62
460.138	89.62
460.358	86.62
460.578	79.62
460.798	93.62
461.018	87.62
461.238	90.62
461.458	97.62
461.678	76.62
461.898	91.62
462.118	94.62
462.338	85.62
462.558	89.62
462.777	75.62
462.997	93.62
463.217	73.62
463.437	97.62
463.657	74.62
463.876	79.62
464.096	100.62
464.316	86.62
464.536	82.62
464.755	74.62
464.975	98.62
465.195	156.62
465.414	141.62
465.634	100.62
465.854	84.62
466.073	94.62
466.293	90.62
466.512	91.62
466.732	96.62
466.951	100.62
467.171	97.62
467.391	93.62
467.61	79.62
467.829	83.62
468.049	87.62
468.268	83.62
468.488	92.62
468.707	82.62
468.927	73.62
469.146	82.62
469.365	84.62
469.585	100.62
469.804	96.62
470.023	97.62
470.243	93.62
470.462	89.62
470.681	90.62
470.901	87.62
471.12	87.62
471.339	85.62
471.558	82.62
471.777	93.62
471.997	73.62
472.216	86.62
472.435	90.62
472.654	84.62
472.873	93.62
473.092	82.62
473.311	97.62
473.53	106.62
473.749	89.62
473.968	91.62
474.187	112.62
474.406	93.62
474.625	107.62
474.844	80.62
475.063	81.62
475.282	74.62
475.501	94.62
475.72	94.62
475.939	84.62
476.158	86.62
476.377	94.62
476.596	88.62
476.814	102.62
477.033	90.62
477.252	85.62
477.471	89.62
477.69	96.62
477.908	91.62
478.127	86.62
478.346	88.62
478.564	86.62
478.783	91.62
479.002	98.62
479.22	96.62
479.439	101.62
479.658	98.62
479.876	87.62
480.095	87.62
480.313	98.62
480.532	93.62
480.751	88.62
480.969	81.62
481.188	81.62
481.406	92.62
481.624	97.62
481.843	83.62
482.061	89.62
482.28	92.62
482.498	94.62
482.717	92.62
482.935	91.62
483.153	96.62
483.372	88.62
483.59	87.62
483.808	78.62
484.027	88.62
484.245	97.62
484.463	96.62
484.681	84.62
484.9	91.62
485.118	84.62
485.336	90.62
485.554	85.62
485.772	99.62
485.99	100.62
486.209	99.62
486.427	113.62
486.645	111.62
486.863	105.62
487.081	87.62
487.299	97.62
487.517	95.62
487.735	85.62
487.953	99.62
488.171	117.62
488.389	107.62
488.607	104.62
488.825	87.62
489.043	88.62
489.261	99.62
489.479	87.62
489.696	92.62
489.914	97.62
490.132	88.62
490.35	93.62
490.568	97.62
490.786	84.62
491.003	90.62
491.221	90.62
491.439	91.62
491.657	82.62
491.874	91.62
492.092	106.62
492.31	103.62
492.527	96.62
492.745	103.62
492.963	88.62
493.18	83.62
493.398	106.62
493.615	104.62
493.833	100.62
494.05	96.62
494.268	90.62
494.485	88.62
494.703	86.62
494.92	87.62
495.138	83.62
495.355	87.62
495.573	97.62
495.79	85.62
496.008	104.62
496.225	69.62
496.442	99.62
496.66	86.62
496.877	106.62
497.094	89.62
497.312	92.62
497.529	97.62
497.746	89.62
497.963	95.62
498.181	89.62
498.398	101.62
498.615	101.62
498.832	92.62
499.049	102.62
499.267	99.62
499.484	90.62
499.701	79.62
499.918	92.62
500.135	89.62
500.352	108.62
500.569	87.62
500.786	74.62
501.003	95.62
501.22	82.62
501.437	81.62
501.654	90.62
501.871	99.62
502.088	91.62
502.305	73.62
502.522	101.62
502.739	78.62
502.956	90.62
503.172	105.62
503.389	82.62
503.606	106.62
503.823	96.62
504.04	94.62
504.256	84.62
504.473	98.62
504.69	87.62
504.907	93.62
505.123	89.62
505.34	96.62
505.557	96.62
505.773	86.62
505.99	89.62
506.207	71.62
506.423	89.62
506.64	99.62
506.856	102.62
507.073	94.62
507.289	89.62
507.506	99.62
507.722	113.62
507.939	114.62
508.155	101.62
508.372	93.62
508.588	87.62
508.805	101.62
509.021	97.62
509.238	90.62
509.454	98.62
509.67	97.62
509.887	109.62
510.103	130.62
510.319	197.62
510.536	660.62
510.752	1987.62
510.968	573.62
511.184	146.62
511.401	103.62
511.617	93.62
511.833	103.62
512.049	101.62
512.265	94.62
512.481	88.62
512.698	78.62
512.914	89.62
513.13	93.62
513.346	80.62
513.562	93.62
513.778	100.62
513.994	93.62
514.21	102.62
514.426	113.62
514.642	117.62
514.858	125.62
515.074	152.62
515.29	381.62
515.506	1201.62
