Data from Uncirc_2006_H10_HRD10591_00066.txt Node
Date: Wed Jan 03 10:25:08 EST 2024
User: Yrep
Spectrometer: HR+D1059
Trigger mode: 1
Integration Time (sec): 1.000000E-1
Scans to average: 1
Electric dark correction enabled: true
Nonlinearity correction enabled: false
Boxcar width: 0
XAxis mode: Wavelengths
Number of Pixels in Spectrum: 2048
>>>>>Begin Spectral Data<<<<<
223.165	-9.25
223.4	-9.25
223.635	-9.25
223.869	-17.25
224.104	-22.25
224.338	-11.25
224.573	-30.25
224.808	-5.25
225.042	-27.25
225.277	-1.25
225.511	1.75
225.746	9.75
225.98	0.75
226.215	11.75
226.449	23.75
226.683	22.75
226.918	18.75
227.152	34.75
227.387	35.75
227.621	42.75
227.856	44.75
228.09	51.75
228.324	51.75
228.559	50.75
228.793	47.75
229.027	64.75
229.262	74.75
229.496	78.75
229.73	81.75
229.964	88.75
230.199	79.75
230.433	60.75
230.667	76.75
230.901	65.75
231.136	73.75
231.37	101.75
231.604	74.75
231.838	74.75
232.072	78.75
232.306	94.75
232.541	95.75
232.775	87.75
233.009	89.75
233.243	71.75
233.477	83.75
233.711	91.75
233.945	75.75
234.179	77.75
234.413	71.75
234.647	63.75
234.881	78.75
235.115	77.75
235.349	85.75
235.583	89.75
235.817	77.75
236.051	74.75
236.285	83.75
236.519	74.75
236.753	83.75
236.987	76.75
237.221	86.75
237.455	65.75
237.689	71.75
237.922	83.75
238.156	85.75
238.39	72.75
238.624	71.75
238.858	82.75
239.091	87.75
239.325	80.75
239.559	74.75
239.793	81.75
240.027	74.75
240.26	67.75
240.494	79.75
240.728	83.75
240.961	58.75
241.195	71.75
241.429	89.75
241.662	65.75
241.896	85.75
242.13	67.75
242.363	66.75
242.597	93.75
242.83	83.75
243.064	81.75
243.298	81.75
243.531	79.75
243.765	81.75
243.998	82.75
244.232	77.75
244.465	87.75
244.699	82.75
244.932	70.75
245.166	70.75
245.399	65.75
245.633	77.75
245.866	83.75
246.099	71.75
246.333	93.75
246.566	77.75
246.8	71.75
247.033	74.75
247.266	78.75
247.5	66.75
247.733	78.75
247.966	77.75
248.2	66.75
248.433	77.75
248.666	67.75
248.899	70.75
249.133	75.75
249.366	97.75
249.599	100.75
249.832	87.75
250.066	84.75
250.299	69.75
250.532	77.75
250.765	68.75
250.998	83.75
251.231	74.75
251.465	85.75
251.698	87.75
251.931	69.75
252.164	75.75
252.397	76.75
252.63	84.75
252.863	72.75
253.096	80.75
253.329	77.75
253.562	96.75
253.795	85.75
254.028	82.75
254.261	66.75
254.494	80.75
254.727	82.75
254.96	98.75
255.193	80.75
255.426	75.75
255.659	88.75
255.892	71.75
256.124	74.75
256.357	73.75
256.59	80.75
256.823	73.75
257.056	81.75
257.289	79.75
257.521	84.75
257.754	78.75
257.987	77.75
258.22	97.75
258.452	96.75
258.685	84.75
258.918	82.75
259.151	76.75
259.383	94.75
259.616	79.75
259.849	95.75
260.081	80.75
260.314	91.75
260.547	76.75
260.779	74.75
261.012	76.75
261.244	79.75
261.477	76.75
261.71	87.75
261.942	91.75
262.175	109.75
262.407	91.75
262.64	75.75
262.872	74.75
263.105	82.75
263.337	77.75
263.57	78.75
263.802	93.75
264.035	86.75
264.267	71.75
264.499	76.75
264.732	76.75
264.964	95.75
265.197	79.75
265.429	79.75
265.661	87.75
265.894	85.75
266.126	82.75
266.358	86.75
266.591	76.75
266.823	87.75
267.055	75.75
267.287	87.75
267.52	82.75
267.752	83.75
267.984	87.75
268.216	87.75
268.448	89.75
268.681	91.75
268.913	75.75
269.145	71.75
269.377	91.75
269.609	86.75
269.841	79.75
270.073	78.75
270.306	80.75
270.538	87.75
270.77	83.75
271.002	75.75
271.234	79.75
271.466	94.75
271.698	77.75
271.93	77.75
272.162	86.75
272.394	86.75
272.626	68.75
272.858	85.75
273.09	86.75
273.322	68.75
273.553	77.75
273.785	90.75
274.017	89.75
274.249	77.75
274.481	74.75
274.713	81.75
274.945	90.75
275.176	77.75
275.408	82.75
275.64	90.75
275.872	81.75
276.104	78.75
276.335	98.75
276.567	95.75
276.799	102.75
277.031	90.75
277.262	87.75
277.494	85.75
277.726	94.75
277.957	84.75
278.189	75.75
278.421	86.75
278.652	87.75
278.884	62.75
279.115	94.75
279.347	97.75
279.579	90.75
279.81	88.75
280.042	84.75
280.273	88.75
280.505	86.75
280.736	76.75
280.968	81.75
281.199	81.75
281.431	94.75
281.662	94.75
281.894	97.75
282.125	96.75
282.356	107.75
282.588	125.75
282.819	101.75
283.051	95.75
283.282	76.75
283.513	87.75
283.745	92.75
283.976	99.75
284.207	92.75
284.439	87.75
284.67	87.75
284.901	90.75
285.132	91.75
285.364	78.75
285.595	97.75
285.826	79.75
286.057	82.75
286.288	102.75
286.52	84.75
286.751	91.75
286.982	89.75
287.213	91.75
287.444	82.75
287.675	95.75
287.906	84.75
288.138	95.75
288.369	101.75
288.6	98.75
288.831	81.75
289.062	91.75
289.293	73.75
289.524	87.75
289.755	83.75
289.986	89.75
290.217	77.75
290.448	82.75
290.679	79.75
290.91	90.75
291.141	89.75
291.371	100.75
291.602	90.75
291.833	89.75
292.064	90.75
292.295	88.75
292.526	78.75
292.757	82.75
292.987	78.75
293.218	85.75
293.449	85.75
293.68	85.75
293.91	92.75
294.141	91.75
294.372	81.75
294.603	83.75
294.833	82.75
295.064	96.75
295.295	95.75
295.525	87.75
295.756	113.75
295.987	112.75
296.217	119.75
296.448	127.75
296.679	107.75
296.909	95.75
297.14	94.75
297.37	75.75
297.601	102.75
297.831	92.75
298.062	89.75
298.292	79.75
298.523	83.75
298.753	71.75
298.984	91.75
299.214	100.75
299.445	85.75
299.675	97.75
299.905	88.75
300.136	83.75
300.366	91.75
300.597	112.75
300.827	95.75
301.057	102.75
301.288	99.75
301.518	95.75
301.748	65.75
301.979	81.75
302.209	85.75
302.439	96.75
302.669	89.75
302.9	84.75
303.13	82.75
303.36	92.75
303.59	94.75
303.82	79.75
304.051	98.75
304.281	86.75
304.511	92.75
304.741	84.75
304.971	85.75
305.201	93.75
305.431	83.75
305.661	99.75
305.891	77.75
306.121	96.75
306.352	106.75
306.582	100.75
306.812	69.75
307.042	90.75
307.272	90.75
307.502	86.75
307.731	90.75
307.961	91.75
308.191	89.75
308.421	94.75
308.651	79.75
308.881	95.75
309.111	87.75
309.341	91.75
309.571	96.75
309.8	105.75
310.03	86.75
310.26	104.75
310.49	97.75
310.72	82.75
310.949	98.75
311.179	115.75
311.409	87.75
311.639	84.75
311.868	106.75
312.098	93.75
312.328	94.75
312.557	98.75
312.787	99.75
313.017	85.75
313.246	85.75
313.476	105.75
313.706	91.75
313.935	91.75
314.165	97.75
314.394	94.75
314.624	103.75
314.853	89.75
315.083	93.75
315.312	84.75
315.542	93.75
315.771	92.75
316.001	91.75
316.23	93.75
316.46	85.75
316.689	77.75
316.919	81.75
317.148	80.75
317.377	79.75
317.607	85.75
317.836	82.75
318.065	98.75
318.295	98.75
318.524	88.75
318.753	94.75
318.983	102.75
319.212	86.75
319.441	102.75
319.67	92.75
319.9	84.75
320.129	82.75
320.358	85.75
320.587	96.75
320.816	104.75
321.046	86.75
321.275	83.75
321.504	93.75
321.733	100.75
321.962	98.75
322.191	99.75
322.42	90.75
322.649	109.75
322.878	104.75
323.108	105.75
323.337	135.75
323.566	119.75
323.795	135.75
324.024	190.75
324.253	375.75
324.482	810.75
324.71	1593.75
324.939	2159.75
325.168	758.75
325.397	234.75
325.626	155.75
325.855	145.75
326.084	121.75
326.313	118.75
326.542	144.75
326.77	210.75
326.999	463.75
327.228	935.75
327.457	1681.75
327.686	1301.75
327.914	348.75
328.143	182.75
328.372	141.75
328.6	117.75
328.829	107.75
329.058	125.75
329.287	126.75
329.515	108.75
329.744	113.75
329.972	88.75
330.201	93.75
330.43	93.75
330.658	107.75
330.887	108.75
331.115	108.75
331.344	114.75
331.572	93.75
331.801	91.75
332.03	95.75
332.258	93.75
332.486	73.75
332.715	102.75
332.943	95.75
333.172	93.75
333.4	94.75
333.629	94.75
333.857	117.75
334.085	99.75
334.314	88.75
334.542	83.75
334.771	94.75
334.999	102.75
335.227	95.75
335.455	93.75
335.684	85.75
335.912	90.75
336.14	99.75
336.369	100.75
336.597	85.75
336.825	107.75
337.053	89.75
337.281	74.75
337.51	87.75
337.738	110.75
337.966	86.75
338.194	91.75
338.422	94.75
338.65	74.75
338.878	89.75
339.106	85.75
339.334	87.75
339.562	79.75
339.79	94.75
340.018	87.75
340.246	96.75
340.474	94.75
340.702	106.75
340.93	103.75
341.158	93.75
341.386	86.75
341.614	83.75
341.842	97.75
342.07	85.75
342.298	78.75
342.526	80.75
342.754	87.75
342.981	78.75
343.209	93.75
343.437	100.75
343.665	90.75
343.893	72.75
344.12	96.75
344.348	87.75
344.576	94.75
344.804	98.75
345.031	98.75
345.259	103.75
345.487	94.75
345.714	93.75
345.942	87.75
346.17	86.75
346.397	73.75
346.625	92.75
346.853	89.75
347.08	95.75
347.308	103.75
347.535	100.75
347.763	100.75
347.99	113.75
348.218	103.75
348.445	99.75
348.673	107.75
348.9	104.75
349.128	85.75
349.355	87.75
349.583	105.75
349.81	106.75
350.037	95.75
350.265	93.75
350.492	87.75
350.72	91.75
350.947	97.75
351.174	103.75
351.402	102.75
351.629	112.75
351.856	94.75
352.083	91.75
352.311	98.75
352.538	101.75
352.765	113.75
352.992	115.75
353.22	118.75
353.447	89.75
353.674	97.75
353.901	87.75
354.128	103.75
354.355	100.75
354.583	95.75
354.81	102.75
355.037	121.75
355.264	101.75
355.491	81.75
355.718	93.75
355.945	94.75
356.172	86.75
356.399	99.75
356.626	87.75
356.853	87.75
357.08	90.75
357.307	91.75
357.534	80.75
357.761	80.75
357.988	91.75
358.215	94.75
358.441	83.75
358.668	89.75
358.895	94.75
359.122	86.75
359.349	96.75
359.576	95.75
359.802	93.75
360.029	109.75
360.256	121.75
360.483	98.75
360.709	96.75
360.936	99.75
361.163	93.75
361.39	88.75
361.616	101.75
361.843	74.75
362.07	90.75
362.296	84.75
362.523	99.75
362.749	94.75
362.976	84.75
363.203	104.75
363.429	94.75
363.656	83.75
363.882	90.75
364.109	91.75
364.335	99.75
364.562	90.75
364.788	95.75
365.015	97.75
365.241	83.75
365.468	83.75
365.694	84.75
365.92	78.75
366.147	95.75
366.373	83.75
366.599	95.75
366.826	84.75
367.052	94.75
367.278	76.75
367.505	88.75
367.731	91.75
367.957	87.75
368.184	101.75
368.41	84.75
368.636	102.75
368.862	102.75
369.089	99.75
369.315	84.75
369.541	86.75
369.767	89.75
369.993	81.75
370.219	88.75
370.445	88.75
370.672	87.75
370.898	99.75
371.124	87.75
371.35	92.75
371.576	82.75
371.802	85.75
372.028	81.75
372.254	93.75
372.48	92.75
372.706	93.75
372.932	90.75
373.158	93.75
373.384	85.75
373.61	89.75
373.835	110.75
374.061	97.75
374.287	81.75
374.513	86.75
374.739	94.75
374.965	91.75
375.191	94.75
375.416	99.75
375.642	92.75
375.868	95.75
376.094	82.75
376.319	91.75
376.545	106.75
376.771	92.75
376.997	79.75
377.222	96.75
377.448	88.75
377.674	97.75
377.899	86.75
378.125	82.75
378.35	85.75
378.576	82.75
378.802	96.75
379.027	98.75
379.253	93.75
379.478	93.75
379.704	71.75
379.929	85.75
380.155	93.75
380.38	93.75
380.606	95.75
380.831	95.75
381.057	78.75
381.282	102.75
381.507	95.75
381.733	93.75
381.958	97.75
382.184	103.75
382.409	87.75
382.634	113.75
382.86	102.75
383.085	94.75
383.31	125.75
383.535	97.75
383.761	103.75
383.986	96.75
384.211	102.75
384.436	103.75
384.662	100.75
384.887	104.75
385.112	97.75
385.337	98.75
385.562	90.75
385.787	114.75
386.013	108.75
386.238	112.75
386.463	106.75
386.688	99.75
386.913	97.75
387.138	111.75
387.363	93.75
387.588	109.75
387.813	106.75
388.038	99.75
388.263	114.75
388.488	106.75
388.713	94.75
388.938	95.75
389.163	85.75
389.387	91.75
389.612	97.75
389.837	90.75
390.062	100.75
390.287	77.75
390.512	91.75
390.736	82.75
390.961	89.75
391.186	103.75
391.411	91.75
391.636	94.75
391.86	77.75
392.085	73.75
392.31	82.75
392.534	81.75
392.759	72.75
392.984	85.75
393.208	91.75
393.433	82.75
393.658	87.75
393.882	76.75
394.107	82.75
394.331	91.75
394.556	84.75
394.78	79.75
395.005	93.75
395.229	101.75
395.454	82.75
395.678	96.75
395.903	92.75
396.127	87.75
396.352	89.75
396.576	87.75
396.801	98.75
397.025	90.75
397.249	98.75
397.474	85.75
397.698	84.75
397.922	86.75
398.147	98.75
398.371	101.75
398.595	93.75
398.82	87.75
399.044	95.75
399.268	81.75
399.492	96.75
399.717	86.75
399.941	95.75
400.165	87.75
400.389	66.75
400.613	86.75
400.837	90.75
401.062	78.75
401.286	93.75
401.51	103.75
401.734	99.75
401.958	105.75
402.182	115.75
402.406	138.75
402.63	102.75
402.854	93.75
403.078	92.75
403.302	76.75
403.526	81.75
403.75	69.75
403.974	93.75
404.198	90.75
404.422	80.75
404.645	84.75
404.869	86.75
405.093	83.75
405.317	87.75
405.541	94.75
405.765	89.75
405.988	133.75
406.212	164.75
406.436	172.75
406.66	137.75
406.883	93.75
407.107	96.75
407.331	98.75
407.555	105.75
407.778	102.75
408.002	97.75
408.226	90.75
408.449	90.75
408.673	81.75
408.896	83.75
409.12	86.75
409.344	79.75
409.567	91.75
409.791	107.75
410.014	96.75
410.238	102.75
410.461	96.75
410.685	86.75
410.908	87.75
411.132	93.75
411.355	94.75
411.578	86.75
411.802	93.75
412.025	93.75
412.249	94.75
412.472	77.75
412.695	70.75
412.919	97.75
413.142	84.75
413.365	79.75
413.589	90.75
413.812	88.75
414.035	94.75
414.258	94.75
414.482	96.75
414.705	86.75
414.928	84.75
415.151	85.75
415.374	86.75
415.597	89.75
415.821	67.75
416.044	92.75
416.267	75.75
416.49	84.75
416.713	80.75
416.936	78.75
417.159	83.75
417.382	83.75
417.605	93.75
417.828	95.75
418.051	88.75
418.274	82.75
418.497	75.75
418.72	82.75
418.943	92.75
419.166	98.75
419.389	85.75
419.611	73.75
419.834	91.75
420.057	95.75
420.28	91.75
420.503	76.75
420.726	86.75
420.948	78.75
421.171	89.75
421.394	81.75
421.617	103.75
421.839	96.75
422.062	94.75
422.285	89.75
422.507	90.75
422.73	89.75
422.953	87.75
423.175	97.75
423.398	96.75
423.621	97.75
423.843	102.75
424.066	80.75
424.288	93.75
424.511	88.75
424.733	101.75
424.956	95.75
425.178	87.75
425.401	99.75
425.623	95.75
425.846	100.75
426.068	95.75
426.291	86.75
426.513	93.75
426.735	100.75
426.958	95.75
427.18	110.75
427.402	137.75
427.625	145.75
427.847	115.75
428.069	101.75
428.292	76.75
428.514	71.75
428.736	83.75
428.958	95.75
429.181	104.75
429.403	94.75
429.625	73.75
429.847	89.75
430.069	94.75
430.292	88.75
430.514	97.75
430.736	79.75
430.958	87.75
431.18	83.75
431.402	91.75
431.624	81.75
431.846	99.75
432.068	79.75
432.29	75.75
432.512	91.75
432.734	82.75
432.956	100.75
433.178	105.75
433.4	85.75
433.622	104.75
433.844	93.75
434.066	86.75
434.287	85.75
434.509	86.75
434.731	94.75
434.953	97.75
435.175	95.75
435.397	96.75
435.618	91.75
435.84	93.75
436.062	105.75
436.284	108.75
436.505	103.75
436.727	83.75
436.949	98.75
437.17	89.75
437.392	83.75
437.614	90.75
437.835	99.75
438.057	109.75
438.278	107.75
438.5	95.75
438.721	113.75
438.943	100.75
439.165	94.75
439.386	78.75
439.608	81.75
439.829	89.75
440.05	102.75
440.272	142.75
440.493	91.75
440.715	97.75
440.936	76.75
441.158	95.75
441.379	95.75
441.6	92.75
441.822	93.75
442.043	97.75
442.264	85.75
442.486	86.75
442.707	72.75
442.928	95.75
443.149	111.75
443.371	114.75
443.592	110.75
443.813	107.75
444.034	100.75
444.255	90.75
444.476	88.75
444.698	90.75
444.919	80.75
445.14	125.75
445.361	110.75
445.582	101.75
445.803	118.75
446.024	126.75
446.245	132.75
446.466	106.75
446.687	88.75
446.908	86.75
447.129	97.75
447.35	72.75
447.571	86.75
447.792	92.75
448.013	102.75
448.234	100.75
448.455	111.75
448.675	118.75
448.896	105.75
449.117	98.75
449.338	105.75
449.559	116.75
449.779	135.75
450	91.75
450.221	98.75
450.442	100.75
450.662	92.75
450.883	96.75
451.104	98.75
451.324	89.75
451.545	86.75
451.766	85.75
451.986	84.75
452.207	91.75
452.428	101.75
452.648	101.75
452.869	106.75
453.089	111.75
453.31	124.75
453.53	83.75
453.751	83.75
453.971	93.75
454.192	87.75
454.412	84.75
454.633	85.75
454.853	82.75
455.073	80.75
455.294	90.75
455.514	103.75
455.734	86.75
455.955	85.75
456.175	81.75
456.395	87.75
456.616	105.75
456.836	93.75
457.056	85.75
457.276	96.75
457.497	73.75
457.717	79.75
457.937	86.75
458.157	90.75
458.377	91.75
458.598	92.75
458.818	138.75
459.038	141.75
459.258	106.75
459.478	104.75
459.698	76.75
459.918	92.75
460.138	80.75
460.358	76.75
460.578	81.75
460.798	88.75
461.018	76.75
461.238	91.75
461.458	89.75
461.678	91.75
461.898	102.75
462.118	91.75
462.338	73.75
462.558	80.75
462.777	82.75
462.997	87.75
463.217	84.75
463.437	90.75
463.657	94.75
463.876	77.75
464.096	80.75
464.316	79.75
464.536	89.75
464.755	85.75
464.975	97.75
465.195	118.75
465.414	117.75
465.634	95.75
465.854	89.75
466.073	86.75
466.293	93.75
466.512	92.75
466.732	95.75
466.951	82.75
467.171	93.75
467.391	98.75
467.61	97.75
467.829	90.75
468.049	84.75
468.268	70.75
468.488	93.75
468.707	85.75
468.927	90.75
469.146	84.75
469.365	84.75
469.585	88.75
469.804	89.75
470.023	99.75
470.243	90.75
470.462	93.75
470.681	95.75
470.901	92.75
471.12	77.75
471.339	88.75
471.558	82.75
471.777	85.75
471.997	90.75
472.216	92.75
472.435	90.75
472.654	84.75
472.873	100.75
473.092	94.75
473.311	98.75
473.53	80.75
473.749	82.75
473.968	84.75
474.187	97.75
474.406	93.75
474.625	85.75
474.844	90.75
475.063	97.75
475.282	77.75
475.501	97.75
475.72	95.75
475.939	92.75
476.158	91.75
476.377	87.75
476.596	86.75
476.814	93.75
477.033	74.75
477.252	79.75
477.471	82.75
477.69	91.75
477.908	92.75
478.127	86.75
478.346	80.75
478.564	75.75
478.783	99.75
479.002	92.75
479.22	83.75
479.439	108.75
479.658	96.75
479.876	92.75
480.095	83.75
480.313	86.75
480.532	77.75
480.751	97.75
480.969	87.75
481.188	93.75
481.406	81.75
481.624	84.75
481.843	95.75
482.061	112.75
482.28	87.75
482.498	86.75
482.717	97.75
482.935	88.75
483.153	89.75
483.372	105.75
483.59	110.75
483.808	90.75
484.027	80.75
484.245	87.75
484.463	92.75
484.681	104.75
484.9	94.75
485.118	82.75
485.336	96.75
485.554	92.75
485.772	98.75
485.99	94.75
486.209	95.75
486.427	109.75
486.645	116.75
486.863	109.75
487.081	88.75
487.299	99.75
487.517	90.75
487.735	94.75
487.953	91.75
488.171	90.75
488.389	95.75
488.607	94.75
488.825	80.75
489.043	83.75
489.261	86.75
489.479	78.75
489.696	100.75
489.914	82.75
490.132	87.75
490.35	68.75
490.568	70.75
490.786	74.75
491.003	83.75
491.221	106.75
491.439	86.75
491.657	96.75
491.874	83.75
492.092	79.75
492.31	87.75
492.527	86.75
492.745	84.75
492.963	93.75
493.18	97.75
493.398	99.75
493.615	111.75
493.833	93.75
494.05	94.75
494.268	93.75
494.485	90.75
494.703	88.75
494.92	91.75
495.138	88.75
495.355	87.75
495.573	92.75
495.79	85.75
496.008	82.75
496.225	96.75
496.442	87.75
496.66	91.75
496.877	83.75
497.094	85.75
497.312	95.75
497.529	94.75
497.746	83.75
497.963	95.75
498.181	91.75
498.398	92.75
498.615	103.75
498.832	95.75
499.049	94.75
499.267	81.75
499.484	93.75
499.701	82.75
499.918	87.75
500.135	85.75
500.352	91.75
500.569	84.75
500.786	90.75
501.003	87.75
501.22	84.75
501.437	90.75
501.654	93.75
501.871	105.75
502.088	84.75
502.305	86.75
502.522	91.75
502.739	93.75
502.956	91.75
503.172	94.75
503.389	105.75
503.606	101.75
503.823	95.75
504.04	91.75
504.256	89.75
504.473	87.75
504.69	100.75
504.907	93.75
505.123	89.75
505.34	100.75
505.557	97.75
505.773	67.75
505.99	92.75
506.207	86.75
506.423	84.75
506.64	95.75
506.856	97.75
507.073	99.75
507.289	102.75
507.506	109.75
507.722	111.75
507.939	108.75
508.155	95.75
508.372	82.75
508.588	87.75
508.805	99.75
509.021	89.75
509.238	112.75
509.454	102.75
509.67	102.75
509.887	113.75
510.103	126.75
510.319	190.75
510.536	651.75
510.752	2134.75
510.968	605.75
511.184	155.75
511.401	102.75
511.617	92.75
511.833	100.75
512.049	95.75
512.265	106.75
512.481	91.75
512.698	89.75
512.914	96.75
513.13	92.75
513.346	95.75
513.562	84.75
513.778	94.75
513.994	102.75
514.21	102.75
514.426	116.75
514.642	116.75
514.858	114.75
515.074	161.75
515.29	394.75
515.506	1257.75
515.721	514.75
515.937	150.75
516.153	114.75
516.369	93.75
516.585	107.75
