Data from Uncirc_2006_H10_HRD10591_00025.txt Node
Date: Wed Jan 03 10:25:00 EST 2024
User: Yrep
Spectrometer: HR+D1059
Trigger mode: 1
Integration Time (sec): 1.000000E-1
Scans to average: 1
Electric dark correction enabled: true
Nonlinearity correction enabled: false
Boxcar width: 0
XAxis mode: Wavelengths
Number of Pixels in Spectrum: 2048
>>>>>Begin Spectral Data<<<<<
223.165	-2.94
223.4	-2.94
223.635	-2.94
223.869	-37.94
224.104	-17.94
224.338	-37.94
224.573	-17.94
224.808	-26.94
225.042	12.06
225.277	-10.94
225.511	-17.94
225.746	4.06
225.98	24.06
226.215	26.06
226.449	16.06
226.683	27.06
226.918	33.06
227.152	28.06
227.387	33.06
227.621	36.06
227.856	41.06
228.09	45.06
228.324	52.06
228.559	60.06
228.793	62.06
229.027	56.06
229.262	58.06
229.496	76.06
229.73	81.06
229.964	89.06
230.199	86.06
230.433	80.06
230.667	80.06
230.901	80.06
231.136	80.06
231.37	85.06
231.604	82.06
231.838	88.06
232.072	74.06
232.306	85.06
232.541	77.06
232.775	79.06
233.009	88.06
233.243	74.06
233.477	86.06
233.711	96.06
233.945	95.06
234.179	83.06
234.413	79.06
234.647	93.06
234.881	93.06
235.115	88.06
235.349	84.06
235.583	92.06
235.817	90.06
236.051	83.06
236.285	82.06
236.519	76.06
236.753	64.06
236.987	49.06
237.221	78.06
237.455	76.06
237.689	92.06
237.922	90.06
238.156	81.06
238.39	72.06
238.624	66.06
238.858	82.06
239.091	77.06
239.325	87.06
239.559	82.06
239.793	73.06
240.027	78.06
240.26	79.06
240.494	79.06
240.728	76.06
240.961	84.06
241.195	73.06
241.429	85.06
241.662	82.06
241.896	76.06
242.13	86.06
242.363	94.06
242.597	79.06
242.83	73.06
243.064	69.06
243.298	86.06
243.531	86.06
243.765	79.06
243.998	87.06
244.232	75.06
244.465	97.06
244.699	84.06
244.932	81.06
245.166	80.06
245.399	76.06
245.633	93.06
245.866	74.06
246.099	79.06
246.333	69.06
246.566	82.06
246.8	78.06
247.033	78.06
247.266	82.06
247.5	82.06
247.733	72.06
247.966	89.06
248.2	82.06
248.433	70.06
248.666	77.06
248.899	88.06
249.133	93.06
249.366	83.06
249.599	106.06
249.832	94.06
250.066	77.06
250.299	79.06
250.532	84.06
250.765	88.06
250.998	67.06
251.231	80.06
251.465	89.06
251.698	88.06
251.931	80.06
252.164	78.06
252.397	77.06
252.63	83.06
252.863	69.06
253.096	97.06
253.329	86.06
253.562	74.06
253.795	86.06
254.028	80.06
254.261	85.06
254.494	94.06
254.727	92.06
254.96	67.06
255.193	90.06
255.426	95.06
255.659	89.06
255.892	86.06
256.124	80.06
256.357	87.06
256.59	88.06
256.823	80.06
257.056	86.06
257.289	98.06
257.521	87.06
257.754	78.06
257.987	84.06
258.22	78.06
258.452	77.06
258.685	63.06
258.918	87.06
259.151	89.06
259.383	90.06
259.616	92.06
259.849	90.06
260.081	83.06
260.314	91.06
260.547	84.06
260.779	90.06
261.012	86.06
261.244	76.06
261.477	81.06
261.71	90.06
261.942	104.06
262.175	108.06
262.407	96.06
262.64	82.06
262.872	81.06
263.105	89.06
263.337	86.06
263.57	85.06
263.802	85.06
264.035	81.06
264.267	84.06
264.499	87.06
264.732	81.06
264.964	80.06
265.197	94.06
265.429	90.06
265.661	87.06
265.894	85.06
266.126	84.06
266.358	79.06
266.591	84.06
266.823	97.06
267.055	71.06
267.287	93.06
267.52	93.06
267.752	84.06
267.984	99.06
268.216	89.06
268.448	83.06
268.681	79.06
268.913	78.06
269.145	92.06
269.377	85.06
269.609	88.06
269.841	90.06
270.073	103.06
270.306	85.06
270.538	94.06
270.77	78.06
271.002	87.06
271.234	78.06
271.466	88.06
271.698	79.06
271.93	91.06
272.162	76.06
272.394	88.06
272.626	81.06
272.858	81.06
273.09	85.06
273.322	83.06
273.553	81.06
273.785	88.06
274.017	81.06
274.249	78.06
274.481	95.06
274.713	84.06
274.945	85.06
275.176	98.06
275.408	81.06
275.64	85.06
275.872	88.06
276.104	97.06
276.335	90.06
276.567	94.06
276.799	106.06
277.031	87.06
277.262	93.06
277.494	72.06
277.726	97.06
277.957	78.06
278.189	87.06
278.421	78.06
278.652	69.06
278.884	81.06
279.115	100.06
279.347	82.06
279.579	93.06
279.81	90.06
280.042	90.06
280.273	80.06
280.505	88.06
280.736	80.06
280.968	86.06
281.199	99.06
281.431	82.06
281.662	89.06
281.894	87.06
282.125	104.06
282.356	118.06
282.588	134.06
282.819	117.06
283.051	94.06
283.282	82.06
283.513	89.06
283.745	104.06
283.976	77.06
284.207	83.06
284.439	89.06
284.67	84.06
284.901	88.06
285.132	89.06
285.364	96.06
285.595	85.06
285.826	90.06
286.057	96.06
286.288	104.06
286.52	88.06
286.751	78.06
286.982	85.06
287.213	93.06
287.444	88.06
287.675	82.06
287.906	103.06
288.138	94.06
288.369	89.06
288.6	89.06
288.831	82.06
289.062	104.06
289.293	98.06
289.524	98.06
289.755	94.06
289.986	92.06
290.217	100.06
290.448	85.06
290.679	104.06
290.91	87.06
291.141	88.06
291.371	103.06
291.602	84.06
291.833	78.06
292.064	88.06
292.295	89.06
292.526	89.06
292.757	90.06
292.987	87.06
293.218	77.06
293.449	94.06
293.68	101.06
293.91	79.06
294.141	86.06
294.372	90.06
294.603	102.06
294.833	98.06
295.064	89.06
295.295	93.06
295.525	79.06
295.756	103.06
295.987	117.06
296.217	116.06
296.448	116.06
296.679	111.06
296.909	94.06
297.14	73.06
297.37	88.06
297.601	90.06
297.831	101.06
298.062	84.06
298.292	78.06
298.523	99.06
298.753	90.06
298.984	94.06
299.214	97.06
299.445	99.06
299.675	94.06
299.905	82.06
300.136	88.06
300.366	89.06
300.597	89.06
300.827	96.06
301.057	104.06
301.288	96.06
301.518	90.06
301.748	86.06
301.979	99.06
302.209	98.06
302.439	88.06
302.669	110.06
302.9	90.06
303.13	103.06
303.36	88.06
303.59	104.06
303.82	112.06
304.051	88.06
304.281	89.06
304.511	90.06
304.741	89.06
304.971	89.06
305.201	74.06
305.431	85.06
305.661	83.06
305.891	84.06
306.121	97.06
306.352	100.06
306.582	102.06
306.812	90.06
307.042	91.06
307.272	79.06
307.502	98.06
307.731	93.06
307.961	86.06
308.191	82.06
308.421	97.06
308.651	103.06
308.881	101.06
309.111	97.06
309.341	104.06
309.571	102.06
309.8	95.06
310.03	111.06
310.26	115.06
310.49	89.06
310.72	94.06
310.949	94.06
311.179	89.06
311.409	87.06
311.639	96.06
311.868	128.06
312.098	102.06
312.328	94.06
312.557	98.06
312.787	107.06
313.017	97.06
313.246	103.06
313.476	112.06
313.706	107.06
313.935	98.06
314.165	102.06
314.394	91.06
314.624	107.06
314.853	100.06
315.083	85.06
315.312	86.06
315.542	86.06
315.771	95.06
316.001	88.06
316.23	90.06
316.46	86.06
316.689	100.06
316.919	101.06
317.148	98.06
317.377	101.06
317.607	95.06
317.836	92.06
318.065	84.06
318.295	90.06
318.524	95.06
318.753	90.06
318.983	93.06
319.212	100.06
319.441	90.06
319.67	105.06
319.9	98.06
320.129	95.06
320.358	92.06
320.587	105.06
320.816	122.06
321.046	111.06
321.275	96.06
321.504	96.06
321.733	109.06
321.962	76.06
322.191	102.06
322.42	119.06
322.649	102.06
322.878	97.06
323.108	128.06
323.337	124.06
323.566	119.06
323.795	137.06
324.024	197.06
324.253	344.06
324.482	697.06
324.71	1382.06
324.939	1796.06
325.168	685.06
325.397	208.06
325.626	121.06
325.855	129.06
326.084	115.06
326.313	144.06
326.542	152.06
326.77	204.06
326.999	401.06
327.228	798.06
327.457	1394.06
327.686	1066.06
327.914	312.06
328.143	177.06
328.372	132.06
328.6	116.06
328.829	119.06
329.058	116.06
329.287	110.06
329.515	108.06
329.744	100.06
329.972	96.06
330.201	90.06
330.43	101.06
330.658	115.06
330.887	118.06
331.115	109.06
331.344	104.06
331.572	106.06
331.801	94.06
332.03	97.06
332.258	99.06
332.486	85.06
332.715	95.06
332.943	99.06
333.172	99.06
333.4	98.06
333.629	100.06
333.857	107.06
334.085	102.06
334.314	96.06
334.542	105.06
334.771	89.06
334.999	106.06
335.227	101.06
335.455	93.06
335.684	108.06
335.912	106.06
336.14	94.06
336.369	102.06
336.597	95.06
336.825	105.06
337.053	88.06
337.281	86.06
337.51	90.06
337.738	108.06
337.966	89.06
338.194	94.06
338.422	99.06
338.65	106.06
338.878	87.06
339.106	90.06
339.334	80.06
339.562	85.06
339.79	98.06
340.018	86.06
340.246	88.06
340.474	104.06
340.702	81.06
340.93	89.06
341.158	97.06
341.386	97.06
341.614	89.06
341.842	94.06
342.07	92.06
342.298	94.06
342.526	90.06
342.754	92.06
342.981	101.06
343.209	89.06
343.437	98.06
343.665	81.06
343.893	91.06
344.12	94.06
344.348	98.06
344.576	88.06
344.804	87.06
345.031	96.06
345.259	103.06
345.487	105.06
345.714	106.06
345.942	111.06
346.17	106.06
346.397	100.06
346.625	98.06
346.853	97.06
347.08	78.06
347.308	86.06
347.535	99.06
347.763	100.06
347.99	94.06
348.218	108.06
348.445	94.06
348.673	93.06
348.9	95.06
349.128	97.06
349.355	80.06
349.583	109.06
349.81	106.06
350.037	98.06
350.265	101.06
350.492	95.06
350.72	89.06
350.947	106.06
351.174	103.06
351.402	111.06
351.629	103.06
351.856	93.06
352.083	98.06
352.311	89.06
352.538	102.06
352.765	108.06
352.992	127.06
353.22	96.06
353.447	101.06
353.674	110.06
353.901	98.06
354.128	104.06
354.355	113.06
354.583	95.06
354.81	104.06
355.037	104.06
355.264	106.06
355.491	99.06
355.718	88.06
355.945	98.06
356.172	102.06
356.399	89.06
356.626	81.06
356.853	97.06
357.08	79.06
357.307	81.06
357.534	90.06
357.761	96.06
357.988	106.06
358.215	95.06
358.441	94.06
358.668	91.06
358.895	94.06
359.122	82.06
359.349	83.06
359.576	87.06
359.802	101.06
360.029	103.06
360.256	100.06
360.483	90.06
360.709	98.06
360.936	95.06
361.163	91.06
361.39	96.06
361.616	88.06
361.843	96.06
362.07	100.06
362.296	103.06
362.523	105.06
362.749	105.06
362.976	85.06
363.203	95.06
363.429	92.06
363.656	97.06
363.882	88.06
364.109	99.06
364.335	93.06
364.562	84.06
364.788	68.06
365.015	102.06
365.241	103.06
365.468	98.06
365.694	109.06
365.92	81.06
366.147	92.06
366.373	86.06
366.599	93.06
366.826	77.06
367.052	99.06
367.278	93.06
367.505	96.06
367.731	102.06
367.957	95.06
368.184	100.06
368.41	93.06
368.636	110.06
368.862	108.06
369.089	96.06
369.315	101.06
369.541	96.06
369.767	84.06
369.993	90.06
370.219	93.06
370.445	88.06
370.672	92.06
370.898	70.06
371.124	101.06
371.35	100.06
371.576	90.06
371.802	85.06
372.028	97.06
372.254	79.06
372.48	84.06
372.706	85.06
372.932	90.06
373.158	103.06
373.384	94.06
373.61	84.06
373.835	90.06
374.061	93.06
374.287	87.06
374.513	103.06
374.739	99.06
374.965	96.06
375.191	92.06
375.416	81.06
375.642	97.06
375.868	79.06
376.094	90.06
376.319	81.06
376.545	95.06
376.771	80.06
376.997	91.06
377.222	86.06
377.448	92.06
377.674	96.06
377.899	95.06
378.125	94.06
378.35	105.06
378.576	100.06
378.802	96.06
379.027	95.06
379.253	86.06
379.478	93.06
379.704	96.06
379.929	101.06
380.155	98.06
380.38	90.06
380.606	95.06
380.831	113.06
381.057	105.06
381.282	98.06
381.507	96.06
381.733	104.06
381.958	91.06
382.184	105.06
382.409	106.06
382.634	98.06
382.86	102.06
383.085	103.06
383.31	93.06
383.535	95.06
383.761	92.06
383.986	102.06
384.211	87.06
384.436	92.06
384.662	112.06
384.887	109.06
385.112	114.06
385.337	102.06
385.562	104.06
385.787	100.06
386.013	114.06
386.238	114.06
386.463	115.06
386.688	118.06
386.913	110.06
387.138	116.06
387.363	111.06
387.588	96.06
387.813	104.06
388.038	102.06
388.263	113.06
388.488	117.06
388.713	105.06
388.938	102.06
389.163	103.06
389.387	83.06
389.612	101.06
389.837	83.06
390.062	109.06
390.287	90.06
390.512	104.06
390.736	101.06
390.961	99.06
391.186	89.06
391.411	97.06
391.636	84.06
391.86	89.06
392.085	92.06
392.31	101.06
392.534	100.06
392.759	82.06
392.984	90.06
393.208	96.06
393.433	98.06
393.658	88.06
393.882	91.06
394.107	87.06
394.331	80.06
394.556	97.06
394.78	94.06
395.005	97.06
395.229	89.06
395.454	86.06
395.678	98.06
395.903	89.06
396.127	92.06
396.352	84.06
396.576	80.06
396.801	95.06
397.025	72.06
397.249	85.06
397.474	95.06
397.698	91.06
397.922	81.06
398.147	105.06
398.371	104.06
398.595	98.06
398.82	99.06
399.044	82.06
399.268	85.06
399.492	75.06
399.717	85.06
399.941	104.06
400.165	98.06
400.389	91.06
400.613	88.06
400.837	97.06
401.062	78.06
401.286	85.06
401.51	102.06
401.734	91.06
401.958	103.06
402.182	100.06
402.406	155.06
402.63	116.06
402.854	99.06
403.078	100.06
403.302	101.06
403.526	91.06
403.75	96.06
403.974	87.06
404.198	83.06
404.422	109.06
404.645	96.06
404.869	98.06
405.093	83.06
405.317	73.06
405.541	81.06
405.765	106.06
405.988	121.06
406.212	156.06
406.436	182.06
406.66	134.06
406.883	104.06
407.107	100.06
407.331	97.06
407.555	102.06
407.778	91.06
408.002	90.06
408.226	101.06
408.449	90.06
408.673	80.06
408.896	96.06
409.12	96.06
409.344	94.06
409.567	82.06
409.791	84.06
410.014	88.06
410.238	98.06
410.461	84.06
410.685	86.06
410.908	86.06
411.132	84.06
411.355	110.06
411.578	97.06
411.802	90.06
412.025	94.06
412.249	83.06
412.472	92.06
412.695	87.06
412.919	100.06
413.142	92.06
413.365	100.06
413.589	88.06
413.812	98.06
414.035	84.06
414.258	93.06
414.482	92.06
414.705	85.06
414.928	78.06
415.151	88.06
415.374	95.06
415.597	94.06
415.821	87.06
416.044	89.06
416.267	81.06
416.49	84.06
416.713	89.06
416.936	89.06
417.159	96.06
417.382	80.06
417.605	88.06
417.828	90.06
418.051	82.06
418.274	103.06
418.497	74.06
418.72	74.06
418.943	88.06
419.166	90.06
419.389	86.06
419.611	89.06
419.834	101.06
420.057	115.06
420.28	82.06
420.503	92.06
420.726	96.06
420.948	98.06
421.171	91.06
421.394	87.06
421.617	97.06
421.839	85.06
422.062	90.06
422.285	100.06
422.507	112.06
422.73	97.06
422.953	91.06
423.175	78.06
423.398	94.06
423.621	95.06
423.843	91.06
424.066	95.06
424.288	108.06
424.511	74.06
424.733	89.06
424.956	94.06
425.178	109.06
425.401	93.06
425.623	105.06
425.846	90.06
426.068	90.06
426.291	94.06
426.513	86.06
426.735	104.06
426.958	90.06
427.18	100.06
427.402	129.06
427.625	154.06
427.847	135.06
428.069	95.06
428.292	88.06
428.514	86.06
428.736	86.06
428.958	83.06
429.181	82.06
429.403	93.06
429.625	85.06
429.847	86.06
430.069	84.06
430.292	93.06
430.514	90.06
430.736	83.06
430.958	91.06
431.18	94.06
431.402	87.06
431.624	89.06
431.846	89.06
432.068	80.06
432.29	98.06
432.512	83.06
432.734	90.06
432.956	85.06
433.178	96.06
433.4	108.06
433.622	86.06
433.844	77.06
434.066	86.06
434.287	92.06
434.509	86.06
434.731	94.06
434.953	79.06
435.175	92.06
435.397	103.06
435.618	82.06
435.84	92.06
436.062	110.06
436.284	104.06
436.505	99.06
436.727	112.06
436.949	86.06
437.17	91.06
437.392	88.06
437.614	99.06
437.835	94.06
438.057	90.06
438.278	110.06
438.5	103.06
438.721	120.06
438.943	105.06
439.165	89.06
439.386	91.06
439.608	79.06
439.829	90.06
440.05	117.06
440.272	133.06
440.493	101.06
440.715	87.06
440.936	77.06
441.158	81.06
441.379	79.06
441.6	88.06
441.822	93.06
442.043	98.06
442.264	103.06
442.486	78.06
442.707	101.06
442.928	103.06
443.149	138.06
443.371	110.06
443.592	92.06
443.813	98.06
444.034	86.06
444.255	86.06
444.476	97.06
444.698	80.06
444.919	90.06
445.14	126.06
445.361	108.06
445.582	104.06
445.803	117.06
446.024	110.06
446.245	120.06
446.466	107.06
446.687	80.06
446.908	82.06
447.129	89.06
447.35	83.06
447.571	85.06
447.792	99.06
448.013	101.06
448.234	103.06
448.455	78.06
448.675	94.06
448.896	76.06
449.117	103.06
449.338	81.06
449.559	110.06
449.779	113.06
450	87.06
450.221	99.06
450.442	75.06
450.662	91.06
450.883	95.06
451.104	98.06
451.324	105.06
451.545	90.06
451.766	94.06
451.986	90.06
452.207	84.06
452.428	99.06
452.648	95.06
452.869	111.06
453.089	112.06
453.31	104.06
453.53	90.06
453.751	71.06
453.971	103.06
454.192	110.06
454.412	100.06
454.633	85.06
454.853	101.06
455.073	84.06
455.294	88.06
455.514	83.06
455.734	84.06
455.955	78.06
456.175	93.06
456.395	77.06
456.616	76.06
456.836	88.06
457.056	88.06
457.276	84.06
457.497	96.06
457.717	96.06
457.937	93.06
458.157	93.06
458.377	110.06
458.598	104.06
458.818	123.06
459.038	146.06
459.258	90.06
459.478	102.06
459.698	83.06
459.918	85.06
460.138	99.06
460.358	96.06
460.578	97.06
460.798	85.06
461.018	77.06
461.238	86.06
461.458	91.06
461.678	73.06
461.898	92.06
462.118	89.06
462.338	94.06
462.558	85.06
462.777	88.06
462.997	81.06
463.217	89.06
463.437	84.06
463.657	80.06
463.876	89.06
464.096	81.06
464.316	95.06
464.536	96.06
464.755	99.06
464.975	92.06
465.195	122.06
465.414	129.06
465.634	83.06
465.854	80.06
466.073	93.06
466.293	89.06
466.512	72.06
466.732	87.06
466.951	76.06
467.171	81.06
467.391	89.06
467.61	86.06
467.829	103.06
468.049	88.06
468.268	95.06
468.488	90.06
468.707	87.06
468.927	95.06
469.146	86.06
469.365	91.06
469.585	97.06
469.804	102.06
470.023	92.06
470.243	80.06
470.462	87.06
470.681	93.06
470.901	96.06
471.12	93.06
471.339	89.06
471.558	85.06
471.777	77.06
471.997	93.06
472.216	90.06
472.435	87.06
472.654	86.06
472.873	85.06
473.092	81.06
473.311	86.06
473.53	79.06
473.749	89.06
473.968	90.06
474.187	94.06
474.406	94.06
474.625	102.06
474.844	79.06
475.063	95.06
475.282	83.06
475.501	95.06
475.72	97.06
475.939	84.06
476.158	89.06
476.377	86.06
476.596	87.06
476.814	107.06
477.033	85.06
477.252	100.06
477.471	86.06
477.69	97.06
477.908	87.06
478.127	89.06
478.346	84.06
478.564	88.06
478.783	89.06
479.002	90.06
479.22	98.06
479.439	86.06
479.658	96.06
479.876	92.06
480.095	111.06
480.313	98.06
480.532	84.06
480.751	98.06
480.969	94.06
481.188	88.06
481.406	87.06
481.624	92.06
481.843	83.06
482.061	91.06
482.28	91.06
482.498	82.06
482.717	64.06
482.935	82.06
483.153	80.06
483.372	90.06
483.59	78.06
483.808	76.06
484.027	90.06
484.245	99.06
484.463	83.06
484.681	95.06
484.9	100.06
485.118	113.06
485.336	85.06
485.554	111.06
485.772	107.06
485.99	96.06
486.209	103.06
486.427	84.06
486.645	98.06
486.863	103.06
487.081	95.06
487.299	102.06
487.517	105.06
487.735	101.06
487.953	97.06
488.171	94.06
488.389	97.06
488.607	97.06
488.825	108.06
489.043	86.06
489.261	97.06
489.479	76.06
489.696	86.06
489.914	83.06
490.132	92.06
490.35	80.06
490.568	88.06
490.786	95.06
491.003	85.06
491.221	93.06
491.439	97.06
491.657	93.06
491.874	94.06
492.092	95.06
492.31	94.06
492.527	77.06
492.745	96.06
492.963	100.06
493.18	79.06
493.398	96.06
493.615	88.06
493.833	98.06
494.05	88.06
494.268	96.06
494.485	84.06
494.703	93.06
494.92	95.06
495.138	90.06
495.355	82.06
495.573	90.06
495.79	87.06
496.008	90.06
496.225	99.06
496.442	83.06
496.66	87.06
496.877	95.06
497.094	94.06
497.312	84.06
497.529	97.06
497.746	86.06
497.963	84.06
498.181	79.06
498.398	100.06
498.615	101.06
498.832	113.06
499.049	94.06
499.267	93.06
499.484	87.06
499.701	103.06
499.918	99.06
500.135	95.06
500.352	85.06
500.569	82.06
500.786	93.06
501.003	104.06
501.22	108.06
501.437	99.06
501.654	91.06
501.871	90.06
502.088	90.06
502.305	91.06
502.522	84.06
502.739	104.06
502.956	103.06
503.172	103.06
503.389	95.06
503.606	108.06
503.823	89.06
504.04	94.06
504.256	98.06
504.473	83.06
504.69	93.06
504.907	83.06
505.123	96.06
505.34	80.06
505.557	90.06
505.773	102.06
505.99	88.06
506.207	90.06
506.423	77.06
506.64	95.06
506.856	87.06
507.073	82.06
507.289	105.06
507.506	90.06
507.722	111.06
507.939	104.06
508.155	86.06
508.372	89.06
508.588	82.06
508.805	100.06
509.021	108.06
509.238	83.06
509.454	85.06
509.67	110.06
509.887	117.06
510.103	121.06
510.319	206.06
510.536	652.06
510.752	2018.06
510.968	580.06
511.184	144.06
511.401	115.06
511.617	114.06
511.833	86.06
512.049	104.06
512.265	82.06
512.481	78.06
512.698	87.06
512.914	96.06
513.13	86.06
513.346	102.06
513.562	97.06
513.778	90.06
513.994	89.06
514.21	99.06
514.426	118.06
514.642	125.06
514.858	116.06
515.074	136.06
515.29	356.06
515.506	1157.06
