Data from Uncirc_2006_H10_HRD10591_00004.txt Node
Date: Wed Jan 03 10:24:55 EST 2024
User: Yrep
Spectrometer: HR+D1059
Trigger mode: 1
Integration Time (sec): 1.000000E-1
Scans to average: 1
Electric dark correction enabled: true
Nonlinearity correction enabled: false
Boxcar width: 0
XAxis mode: Wavelengths
Number of Pixels in Spectrum: 2048
>>>>>Begin Spectral Data<<<<<
223.165	-16.88
223.4	-16.88
223.635	-16.88
223.869	-14.88
224.104	-20.88
224.338	-19.88
224.573	-21.88
224.808	-9.88
225.042	1.12
225.277	4.12
225.511	-3.88
225.746	4.12
225.98	8.12
226.215	3.12
226.449	27.12
226.683	22.12
226.918	20.12
227.152	18.12
227.387	22.12
227.621	44.12
227.856	38.12
228.09	36.12
228.324	61.12
228.559	51.12
228.793	42.12
229.027	65.12
229.262	55.12
229.496	66.12
229.73	95.12
229.964	82.12
230.199	68.12
230.433	62.12
230.667	80.12
230.901	75.12
231.136	78.12
231.37	68.12
231.604	92.12
231.838	80.12
232.072	86.12
232.306	86.12
232.541	92.12
232.775	85.12
233.009	69.12
233.243	82.12
233.477	76.12
233.711	73.12
233.945	72.12
234.179	69.12
234.413	77.12
234.647	75.12
234.881	79.12
235.115	83.12
235.349	86.12
235.583	84.12
235.817	70.12
236.051	91.12
236.285	88.12
236.519	89.12
236.753	81.12
236.987	77.12
237.221	71.12
237.455	86.12
237.689	81.12
237.922	85.12
238.156	88.12
238.39	86.12
238.624	75.12
238.858	78.12
239.091	81.12
239.325	62.12
239.559	82.12
239.793	85.12
240.027	78.12
240.26	82.12
240.494	80.12
240.728	81.12
240.961	71.12
241.195	82.12
241.429	85.12
241.662	79.12
241.896	82.12
242.13	74.12
242.363	66.12
242.597	60.12
242.83	85.12
243.064	80.12
243.298	78.12
243.531	92.12
243.765	74.12
243.998	81.12
244.232	69.12
244.465	80.12
244.699	70.12
244.932	76.12
245.166	87.12
245.399	80.12
245.633	77.12
245.866	76.12
246.099	82.12
246.333	76.12
246.566	69.12
246.8	89.12
247.033	56.12
247.266	61.12
247.5	82.12
247.733	69.12
247.966	82.12
248.2	80.12
248.433	73.12
248.666	77.12
248.899	83.12
249.133	86.12
249.366	95.12
249.599	101.12
249.832	78.12
250.066	72.12
250.299	61.12
250.532	80.12
250.765	72.12
250.998	74.12
251.231	76.12
251.465	92.12
251.698	83.12
251.931	78.12
252.164	73.12
252.397	68.12
252.63	73.12
252.863	64.12
253.096	85.12
253.329	93.12
253.562	82.12
253.795	77.12
254.028	87.12
254.261	77.12
254.494	64.12
254.727	92.12
254.96	81.12
255.193	76.12
255.426	94.12
255.659	72.12
255.892	85.12
256.124	83.12
256.357	75.12
256.59	88.12
256.823	84.12
257.056	70.12
257.289	72.12
257.521	88.12
257.754	90.12
257.987	79.12
258.22	77.12
258.452	86.12
258.685	71.12
258.918	95.12
259.151	79.12
259.383	77.12
259.616	84.12
259.849	70.12
260.081	78.12
260.314	75.12
260.547	86.12
260.779	92.12
261.012	89.12
261.244	86.12
261.477	86.12
261.71	99.12
261.942	105.12
262.175	120.12
262.407	83.12
262.64	83.12
262.872	86.12
263.105	94.12
263.337	86.12
263.57	89.12
263.802	85.12
264.035	88.12
264.267	77.12
264.499	81.12
264.732	88.12
264.964	88.12
265.197	92.12
265.429	90.12
265.661	84.12
265.894	84.12
266.126	82.12
266.358	81.12
266.591	84.12
266.823	77.12
267.055	73.12
267.287	77.12
267.52	82.12
267.752	94.12
267.984	93.12
268.216	98.12
268.448	88.12
268.681	89.12
268.913	84.12
269.145	91.12
269.377	78.12
269.609	81.12
269.841	90.12
270.073	72.12
270.306	88.12
270.538	78.12
270.77	74.12
271.002	79.12
271.234	79.12
271.466	76.12
271.698	93.12
271.93	81.12
272.162	70.12
272.394	88.12
272.626	89.12
272.858	70.12
273.09	79.12
273.322	75.12
273.553	74.12
273.785	83.12
274.017	85.12
274.249	82.12
274.481	90.12
274.713	92.12
274.945	80.12
275.176	91.12
275.408	72.12
275.64	78.12
275.872	81.12
276.104	78.12
276.335	85.12
276.567	89.12
276.799	90.12
277.031	92.12
277.262	93.12
277.494	87.12
277.726	82.12
277.957	81.12
278.189	90.12
278.421	84.12
278.652	91.12
278.884	80.12
279.115	78.12
279.347	86.12
279.579	100.12
279.81	78.12
280.042	96.12
280.273	83.12
280.505	98.12
280.736	105.12
280.968	86.12
281.199	78.12
281.431	84.12
281.662	86.12
281.894	90.12
282.125	75.12
282.356	102.12
282.588	117.12
282.819	113.12
283.051	91.12
283.282	94.12
283.513	93.12
283.745	80.12
283.976	87.12
284.207	83.12
284.439	92.12
284.67	90.12
284.901	75.12
285.132	93.12
285.364	77.12
285.595	93.12
285.826	84.12
286.057	76.12
286.288	83.12
286.52	104.12
286.751	74.12
286.982	80.12
287.213	86.12
287.444	70.12
287.675	78.12
287.906	88.12
288.138	96.12
288.369	106.12
288.6	79.12
288.831	69.12
289.062	96.12
289.293	84.12
289.524	97.12
289.755	84.12
289.986	88.12
290.217	101.12
290.448	89.12
290.679	86.12
290.91	90.12
291.141	93.12
291.371	92.12
291.602	84.12
291.833	85.12
292.064	93.12
292.295	101.12
292.526	98.12
292.757	94.12
292.987	85.12
293.218	94.12
293.449	80.12
293.68	88.12
293.91	90.12
294.141	96.12
294.372	81.12
294.603	92.12
294.833	104.12
295.064	82.12
295.295	105.12
295.525	81.12
295.756	98.12
295.987	104.12
296.217	126.12
296.448	116.12
296.679	86.12
296.909	95.12
297.14	83.12
297.37	94.12
297.601	99.12
297.831	86.12
298.062	92.12
298.292	84.12
298.523	91.12
298.753	83.12
298.984	82.12
299.214	75.12
299.445	83.12
299.675	81.12
299.905	93.12
300.136	94.12
300.366	85.12
300.597	98.12
300.827	90.12
301.057	94.12
301.288	88.12
301.518	89.12
301.748	86.12
301.979	99.12
302.209	87.12
302.439	85.12
302.669	94.12
302.9	82.12
303.13	100.12
303.36	91.12
303.59	107.12
303.82	101.12
304.051	93.12
304.281	92.12
304.511	89.12
304.741	73.12
304.971	76.12
305.201	88.12
305.431	71.12
305.661	80.12
305.891	105.12
306.121	82.12
306.352	110.12
306.582	110.12
306.812	99.12
307.042	73.12
307.272	80.12
307.502	106.12
307.731	93.12
307.961	98.12
308.191	105.12
308.421	82.12
308.651	90.12
308.881	97.12
309.111	99.12
309.341	92.12
309.571	96.12
309.8	89.12
310.03	91.12
310.26	105.12
310.49	83.12
310.72	97.12
310.949	88.12
311.179	89.12
311.409	90.12
311.639	81.12
311.868	95.12
312.098	101.12
312.328	94.12
312.557	102.12
312.787	101.12
313.017	87.12
313.246	85.12
313.476	95.12
313.706	94.12
313.935	91.12
314.165	85.12
314.394	96.12
314.624	102.12
314.853	97.12
315.083	91.12
315.312	76.12
315.542	97.12
315.771	78.12
316.001	88.12
316.23	98.12
316.46	86.12
316.689	86.12
316.919	100.12
317.148	96.12
317.377	95.12
317.607	94.12
317.836	98.12
318.065	88.12
318.295	85.12
318.524	100.12
318.753	96.12
318.983	95.12
319.212	89.12
319.441	95.12
319.67	117.12
319.9	92.12
320.129	82.12
320.358	93.12
320.587	102.12
320.816	97.12
321.046	97.12
321.275	84.12
321.504	101.12
321.733	84.12
321.962	83.12
322.191	113.12
322.42	102.12
322.649	107.12
322.878	113.12
323.108	108.12
323.337	121.12
323.566	123.12
323.795	142.12
324.024	189.12
324.253	371.12
324.482	764.12
324.71	1490.12
324.939	1993.12
325.168	748.12
325.397	227.12
325.626	135.12
325.855	116.12
326.084	112.12
326.313	121.12
326.542	147.12
326.77	219.12
326.999	435.12
327.228	880.12
327.457	1555.12
327.686	1285.12
327.914	340.12
328.143	164.12
328.372	144.12
328.6	117.12
328.829	113.12
329.058	124.12
329.287	122.12
329.515	115.12
329.744	89.12
329.972	99.12
330.201	90.12
330.43	92.12
330.658	106.12
330.887	118.12
331.115	99.12
331.344	102.12
331.572	110.12
331.801	95.12
332.03	103.12
332.258	99.12
332.486	92.12
332.715	78.12
332.943	86.12
333.172	93.12
333.4	108.12
333.629	91.12
333.857	113.12
334.085	96.12
334.314	94.12
334.542	93.12
334.771	93.12
334.999	91.12
335.227	109.12
335.455	97.12
335.684	90.12
335.912	97.12
336.14	89.12
336.369	104.12
336.597	92.12
336.825	95.12
337.053	96.12
337.281	81.12
337.51	84.12
337.738	94.12
337.966	92.12
338.194	91.12
338.422	96.12
338.65	86.12
338.878	98.12
339.106	82.12
339.334	94.12
339.562	86.12
339.79	90.12
340.018	67.12
340.246	93.12
340.474	90.12
340.702	76.12
340.93	104.12
341.158	94.12
341.386	85.12
341.614	92.12
341.842	91.12
342.07	81.12
342.298	93.12
342.526	87.12
342.754	99.12
342.981	86.12
343.209	87.12
343.437	90.12
343.665	73.12
343.893	82.12
344.12	86.12
344.348	90.12
344.576	93.12
344.804	84.12
345.031	84.12
345.259	92.12
345.487	83.12
345.714	96.12
345.942	92.12
346.17	82.12
346.397	92.12
346.625	93.12
346.853	89.12
347.08	94.12
347.308	91.12
347.535	99.12
347.763	97.12
347.99	95.12
348.218	106.12
348.445	107.12
348.673	91.12
348.9	80.12
349.128	93.12
349.355	99.12
349.583	88.12
349.81	98.12
350.037	102.12
350.265	100.12
350.492	97.12
350.72	87.12
350.947	80.12
351.174	89.12
351.402	103.12
351.629	108.12
351.856	99.12
352.083	109.12
352.311	90.12
352.538	97.12
352.765	98.12
352.992	116.12
353.22	110.12
353.447	105.12
353.674	92.12
353.901	104.12
354.128	97.12
354.355	88.12
354.583	86.12
354.81	104.12
355.037	90.12
355.264	86.12
355.491	96.12
355.718	89.12
355.945	108.12
356.172	98.12
356.399	98.12
356.626	78.12
356.853	98.12
357.08	97.12
357.307	85.12
357.534	91.12
357.761	99.12
357.988	108.12
358.215	99.12
358.441	103.12
358.668	92.12
358.895	86.12
359.122	91.12
359.349	83.12
359.576	95.12
359.802	84.12
360.029	93.12
360.256	105.12
360.483	92.12
360.709	81.12
360.936	113.12
361.163	86.12
361.39	90.12
361.616	87.12
361.843	84.12
362.07	102.12
362.296	91.12
362.523	99.12
362.749	80.12
362.976	90.12
363.203	89.12
363.429	80.12
363.656	90.12
363.882	85.12
364.109	91.12
364.335	83.12
364.562	88.12
364.788	79.12
365.015	76.12
365.241	70.12
365.468	90.12
365.694	92.12
365.92	86.12
366.147	86.12
366.373	85.12
366.599	77.12
366.826	87.12
367.052	90.12
367.278	97.12
367.505	98.12
367.731	89.12
367.957	79.12
368.184	101.12
368.41	95.12
368.636	104.12
368.862	99.12
369.089	100.12
369.315	82.12
369.541	88.12
369.767	90.12
369.993	88.12
370.219	82.12
370.445	84.12
370.672	76.12
370.898	85.12
371.124	79.12
371.35	97.12
371.576	91.12
371.802	83.12
372.028	82.12
372.254	96.12
372.48	85.12
372.706	83.12
372.932	94.12
373.158	74.12
373.384	78.12
373.61	93.12
373.835	97.12
374.061	92.12
374.287	89.12
374.513	83.12
374.739	90.12
374.965	83.12
375.191	78.12
375.416	91.12
375.642	84.12
375.868	94.12
376.094	88.12
376.319	87.12
376.545	80.12
376.771	86.12
376.997	92.12
377.222	83.12
377.448	87.12
377.674	94.12
377.899	86.12
378.125	99.12
378.35	97.12
378.576	78.12
378.802	82.12
379.027	90.12
379.253	93.12
379.478	87.12
379.704	104.12
379.929	88.12
380.155	84.12
380.38	85.12
380.606	109.12
380.831	80.12
381.057	107.12
381.282	108.12
381.507	100.12
381.733	98.12
381.958	103.12
382.184	116.12
382.409	102.12
382.634	113.12
382.86	94.12
383.085	104.12
383.31	94.12
383.535	108.12
383.761	106.12
383.986	97.12
384.211	93.12
384.436	113.12
384.662	121.12
384.887	110.12
385.112	101.12
385.337	122.12
385.562	121.12
385.787	116.12
386.013	119.12
386.238	120.12
386.463	110.12
386.688	119.12
386.913	99.12
387.138	120.12
387.363	107.12
387.588	93.12
387.813	101.12
388.038	138.12
388.263	111.12
388.488	109.12
388.713	97.12
388.938	96.12
389.163	91.12
389.387	111.12
389.612	85.12
389.837	85.12
390.062	94.12
390.287	98.12
390.512	84.12
390.736	99.12
390.961	97.12
391.186	94.12
391.411	95.12
391.636	76.12
391.86	81.12
392.085	83.12
392.31	75.12
392.534	80.12
392.759	86.12
392.984	84.12
393.208	71.12
393.433	92.12
393.658	78.12
393.882	67.12
394.107	84.12
394.331	87.12
394.556	86.12
394.78	86.12
395.005	71.12
395.229	86.12
395.454	90.12
395.678	91.12
395.903	99.12
396.127	79.12
396.352	81.12
396.576	93.12
396.801	84.12
397.025	82.12
397.249	86.12
397.474	87.12
397.698	82.12
397.922	82.12
398.147	85.12
398.371	87.12
398.595	95.12
398.82	72.12
399.044	89.12
399.268	100.12
399.492	98.12
399.717	86.12
399.941	100.12
400.165	91.12
400.389	86.12
400.613	81.12
400.837	92.12
401.062	84.12
401.286	85.12
401.51	102.12
401.734	83.12
401.958	91.12
402.182	116.12
402.406	148.12
402.63	103.12
402.854	84.12
403.078	83.12
403.302	87.12
403.526	82.12
403.75	95.12
403.974	87.12
404.198	82.12
404.422	84.12
404.645	85.12
404.869	89.12
405.093	99.12
405.317	88.12
405.541	92.12
405.765	102.12
405.988	125.12
406.212	151.12
406.436	200.12
406.66	128.12
406.883	92.12
407.107	92.12
407.331	86.12
407.555	82.12
407.778	83.12
408.002	83.12
408.226	90.12
408.449	92.12
408.673	92.12
408.896	91.12
409.12	98.12
409.344	98.12
409.567	98.12
409.791	95.12
410.014	89.12
410.238	97.12
410.461	93.12
410.685	100.12
410.908	98.12
411.132	89.12
411.355	111.12
411.578	96.12
411.802	84.12
412.025	91.12
412.249	72.12
412.472	91.12
412.695	86.12
412.919	92.12
413.142	80.12
413.365	92.12
413.589	72.12
413.812	85.12
414.035	79.12
414.258	90.12
414.482	98.12
414.705	108.12
414.928	96.12
415.151	93.12
415.374	93.12
415.597	83.12
415.821	96.12
416.044	82.12
416.267	85.12
416.49	95.12
416.713	93.12
416.936	83.12
417.159	92.12
417.382	94.12
417.605	93.12
417.828	86.12
418.051	96.12
418.274	91.12
418.497	99.12
418.72	91.12
418.943	91.12
419.166	82.12
419.389	89.12
419.611	95.12
419.834	91.12
420.057	92.12
420.28	95.12
420.503	88.12
420.726	82.12
420.948	87.12
421.171	73.12
421.394	88.12
421.617	82.12
421.839	90.12
422.062	98.12
422.285	101.12
422.507	88.12
422.73	97.12
422.953	90.12
423.175	74.12
423.398	84.12
423.621	85.12
423.843	88.12
424.066	84.12
424.288	80.12
424.511	90.12
424.733	96.12
424.956	104.12
425.178	79.12
425.401	80.12
425.623	85.12
425.846	92.12
426.068	90.12
426.291	101.12
426.513	75.12
426.735	83.12
426.958	98.12
427.18	98.12
427.402	121.12
427.625	135.12
427.847	110.12
428.069	78.12
428.292	91.12
428.514	82.12
428.736	78.12
428.958	82.12
429.181	91.12
429.403	89.12
429.625	89.12
429.847	95.12
430.069	90.12
430.292	91.12
430.514	92.12
430.736	88.12
430.958	83.12
431.18	79.12
431.402	86.12
431.624	85.12
431.846	81.12
432.068	92.12
432.29	84.12
432.512	97.12
432.734	83.12
432.956	78.12
433.178	105.12
433.4	98.12
433.622	85.12
433.844	95.12
434.066	99.12
434.287	85.12
434.509	92.12
434.731	86.12
434.953	91.12
435.175	94.12
435.397	85.12
435.618	88.12
435.84	93.12
436.062	107.12
436.284	100.12
436.505	103.12
436.727	99.12
436.949	81.12
437.17	83.12
437.392	98.12
437.614	103.12
437.835	90.12
438.057	105.12
438.278	102.12
438.5	96.12
438.721	101.12
438.943	94.12
439.165	79.12
439.386	105.12
439.608	93.12
439.829	96.12
440.05	101.12
440.272	121.12
440.493	92.12
440.715	84.12
440.936	80.12
441.158	80.12
441.379	84.12
441.6	80.12
441.822	66.12
442.043	80.12
442.264	92.12
442.486	99.12
442.707	84.12
442.928	81.12
443.149	103.12
443.371	112.12
443.592	97.12
443.813	111.12
444.034	100.12
444.255	94.12
444.476	93.12
444.698	85.12
444.919	85.12
445.14	131.12
445.361	120.12
445.582	90.12
445.803	109.12
446.024	135.12
446.245	120.12
446.466	104.12
446.687	88.12
446.908	78.12
447.129	92.12
447.35	68.12
447.571	76.12
447.792	85.12
448.013	96.12
448.234	90.12
448.455	91.12
448.675	102.12
448.896	112.12
449.117	109.12
449.338	109.12
449.559	99.12
449.779	127.12
450	77.12
450.221	88.12
450.442	81.12
450.662	99.12
450.883	94.12
451.104	121.12
451.324	82.12
451.545	85.12
451.766	81.12
451.986	76.12
452.207	75.12
452.428	81.12
452.648	91.12
452.869	97.12
453.089	97.12
453.31	98.12
453.53	85.12
453.751	95.12
453.971	85.12
454.192	111.12
454.412	88.12
454.633	86.12
454.853	86.12
455.073	82.12
455.294	100.12
455.514	91.12
455.734	83.12
455.955	76.12
456.175	97.12
456.395	92.12
456.616	86.12
456.836	90.12
457.056	85.12
457.276	81.12
457.497	75.12
457.717	79.12
457.937	98.12
458.157	79.12
458.377	88.12
458.598	83.12
458.818	135.12
459.038	148.12
459.258	107.12
459.478	83.12
459.698	81.12
459.918	84.12
460.138	91.12
460.358	105.12
460.578	86.12
460.798	98.12
461.018	92.12
461.238	70.12
461.458	88.12
461.678	99.12
461.898	104.12
462.118	82.12
462.338	91.12
462.558	82.12
462.777	78.12
462.997	76.12
463.217	89.12
463.437	90.12
463.657	90.12
463.876	77.12
464.096	77.12
464.316	92.12
464.536	83.12
464.755	83.12
464.975	99.12
465.195	140.12
465.414	134.12
465.634	82.12
465.854	99.12
466.073	82.12
466.293	75.12
466.512	78.12
466.732	75.12
466.951	89.12
467.171	80.12
467.391	89.12
467.61	98.12
467.829	83.12
468.049	77.12
468.268	83.12
468.488	73.12
468.707	81.12
468.927	98.12
469.146	81.12
469.365	81.12
469.585	85.12
469.804	84.12
470.023	81.12
470.243	86.12
470.462	97.12
470.681	121.12
470.901	88.12
471.12	85.12
471.339	70.12
471.558	90.12
471.777	79.12
471.997	83.12
472.216	81.12
472.435	93.12
472.654	91.12
472.873	84.12
473.092	83.12
473.311	103.12
473.53	80.12
473.749	93.12
473.968	92.12
474.187	95.12
474.406	100.12
474.625	77.12
474.844	87.12
475.063	88.12
475.282	81.12
475.501	98.12
475.72	91.12
475.939	83.12
476.158	88.12
476.377	97.12
476.596	84.12
476.814	80.12
477.033	90.12
477.252	107.12
477.471	84.12
477.69	96.12
477.908	93.12
478.127	84.12
478.346	77.12
478.564	86.12
478.783	99.12
479.002	88.12
479.22	109.12
479.439	92.12
479.658	96.12
479.876	86.12
480.095	79.12
480.313	88.12
480.532	86.12
480.751	84.12
480.969	99.12
481.188	86.12
481.406	93.12
481.624	93.12
481.843	82.12
482.061	82.12
482.28	82.12
482.498	85.12
482.717	97.12
482.935	79.12
483.153	107.12
483.372	84.12
483.59	88.12
483.808	91.12
484.027	87.12
484.245	100.12
484.463	99.12
484.681	99.12
484.9	81.12
485.118	82.12
485.336	94.12
485.554	105.12
485.772	98.12
485.99	90.12
486.209	97.12
486.427	98.12
486.645	96.12
486.863	107.12
487.081	92.12
487.299	86.12
487.517	109.12
487.735	104.12
487.953	87.12
488.171	87.12
488.389	100.12
488.607	106.12
488.825	96.12
489.043	86.12
489.261	85.12
489.479	84.12
489.696	96.12
489.914	90.12
490.132	82.12
490.35	95.12
490.568	82.12
490.786	80.12
491.003	92.12
491.221	82.12
491.439	87.12
491.657	101.12
491.874	91.12
492.092	74.12
492.31	97.12
492.527	94.12
492.745	89.12
492.963	84.12
493.18	95.12
493.398	87.12
493.615	77.12
493.833	105.12
494.05	94.12
494.268	86.12
494.485	97.12
494.703	78.12
494.92	97.12
495.138	91.12
495.355	99.12
495.573	74.12
495.79	90.12
496.008	92.12
496.225	88.12
496.442	95.12
496.66	98.12
496.877	79.12
497.094	87.12
497.312	88.12
497.529	87.12
497.746	87.12
497.963	96.12
498.181	82.12
498.398	91.12
498.615	111.12
498.832	91.12
499.049	92.12
499.267	90.12
499.484	80.12
499.701	94.12
499.918	88.12
500.135	102.12
500.352	93.12
500.569	101.12
500.786	88.12
501.003	85.12
501.22	83.12
501.437	99.12
501.654	86.12
501.871	85.12
502.088	93.12
502.305	90.12
502.522	94.12
502.739	82.12
502.956	91.12
503.172	95.12
503.389	94.12
503.606	105.12
503.823	96.12
504.04	93.12
504.256	93.12
504.473	93.12
504.69	88.12
504.907	103.12
505.123	80.12
505.34	83.12
505.557	85.12
505.773	91.12
505.99	87.12
506.207	66.12
506.423	94.12
506.64	90.12
506.856	96.12
507.073	93.12
507.289	96.12
507.506	93.12
507.722	103.12
507.939	96.12
508.155	92.12
508.372	106.12
508.588	80.12
508.805	102.12
509.021	75.12
509.238	102.12
509.454	96.12
509.67	96.12
509.887	102.12
510.103	129.12
510.319	204.12
510.536	696.12
510.752	2026.12
510.968	586.12
511.184	153.12
511.401	120.12
511.617	96.12
511.833	89.12
512.049	101.12
512.265	80.12
512.481	89.12
512.698	106.12
512.914	95.12
513.13	102.12
513.346	84.12
513.562	85.12
513.778	88.12
513.994	89.12
514.21	84.12
514.426	101.12
514.642	120.12
514.858	114.12
515.074	147.12
515.29	401.12
515.506	1262.12
515.721	465.12
515.937	124.12
516.153	97.12
516.369	103.12
516.585	88.12
516.801	87.12
