Data from Uncirc_2006_H10_HRD10591_00032.txt Node
Date: Wed Jan 03 10:25:01 EST 2024
User: Yrep
Spectrometer: HR+D1059
Trigger mode: 1
Integration Time (sec): 1.000000E-1
Scans to average: 1
Electric dark correction enabled: true
Nonlinearity correction enabled: false
Boxcar width: 0
XAxis mode: Wavelengths
Number of Pixels in Spectrum: 2048
>>>>>Begin Spectral Data<<<<<
223.165	-22.06
223.4	-22.06
223.635	-22.06
223.869	-13.06
224.104	-17.06
224.338	-19.06
224.573	-21.06
224.808	-24.06
225.042	-6.06
225.277	3.94
225.511	-9.06
225.746	10.94
225.98	-3.06
226.215	-0.06
226.449	22.94
226.683	28.94
226.918	27.94
227.152	39.94
227.387	33.94
227.621	40.94
227.856	52.94
228.09	48.94
228.324	45.94
228.559	53.94
228.793	46.94
229.027	62.94
229.262	63.94
229.496	73.94
229.73	90.94
229.964	71.94
230.199	79.94
230.433	70.94
230.667	74.94
230.901	79.94
231.136	56.94
231.37	90.94
231.604	87.94
231.838	73.94
232.072	75.94
232.306	77.94
232.541	98.94
232.775	85.94
233.009	75.94
233.243	73.94
233.477	66.94
233.711	75.94
233.945	75.94
234.179	63.94
234.413	83.94
234.647	68.94
234.881	74.94
235.115	73.94
235.349	79.94
235.583	80.94
235.817	81.94
236.051	85.94
236.285	78.94
236.519	72.94
236.753	70.94
236.987	78.94
237.221	79.94
237.455	91.94
237.689	82.94
237.922	81.94
238.156	83.94
238.39	75.94
238.624	85.94
238.858	80.94
239.091	70.94
239.325	81.94
239.559	101.94
239.793	78.94
240.027	85.94
240.26	79.94
240.494	72.94
240.728	73.94
240.961	72.94
241.195	66.94
241.429	74.94
241.662	79.94
241.896	70.94
242.13	87.94
242.363	77.94
242.597	82.94
242.83	75.94
243.064	68.94
243.298	76.94
243.531	80.94
243.765	69.94
243.998	79.94
244.232	77.94
244.465	83.94
244.699	76.94
244.932	74.94
245.166	87.94
245.399	82.94
245.633	73.94
245.866	74.94
246.099	75.94
246.333	83.94
246.566	74.94
246.8	77.94
247.033	82.94
247.266	93.94
247.5	81.94
247.733	78.94
247.966	72.94
248.2	84.94
248.433	82.94
248.666	68.94
248.899	78.94
249.133	81.94
249.366	95.94
249.599	89.94
249.832	94.94
250.066	84.94
250.299	73.94
250.532	83.94
250.765	87.94
250.998	76.94
251.231	83.94
251.465	67.94
251.698	77.94
251.931	82.94
252.164	80.94
252.397	83.94
252.63	80.94
252.863	69.94
253.096	89.94
253.329	74.94
253.562	86.94
253.795	83.94
254.028	84.94
254.261	85.94
254.494	77.94
254.727	79.94
254.96	85.94
255.193	87.94
255.426	91.94
255.659	67.94
255.892	72.94
256.124	70.94
256.357	84.94
256.59	76.94
256.823	77.94
257.056	76.94
257.289	74.94
257.521	84.94
257.754	76.94
257.987	82.94
258.22	88.94
258.452	82.94
258.685	85.94
258.918	79.94
259.151	78.94
259.383	88.94
259.616	83.94
259.849	78.94
260.081	90.94
260.314	76.94
260.547	64.94
260.779	80.94
261.012	87.94
261.244	85.94
261.477	86.94
261.71	87.94
261.942	109.94
262.175	106.94
262.407	89.94
262.64	81.94
262.872	87.94
263.105	75.94
263.337	76.94
263.57	79.94
263.802	85.94
264.035	82.94
264.267	76.94
264.499	94.94
264.732	82.94
264.964	79.94
265.197	94.94
265.429	90.94
265.661	90.94
265.894	86.94
266.126	81.94
266.358	76.94
266.591	63.94
266.823	84.94
267.055	81.94
267.287	79.94
267.52	72.94
267.752	79.94
267.984	79.94
268.216	92.94
268.448	77.94
268.681	93.94
268.913	84.94
269.145	93.94
269.377	78.94
269.609	79.94
269.841	79.94
270.073	78.94
270.306	66.94
270.538	77.94
270.77	86.94
271.002	94.94
271.234	73.94
271.466	92.94
271.698	78.94
271.93	83.94
272.162	83.94
272.394	70.94
272.626	87.94
272.858	99.94
273.09	67.94
273.322	85.94
273.553	97.94
273.785	77.94
274.017	86.94
274.249	76.94
274.481	78.94
274.713	90.94
274.945	91.94
275.176	86.94
275.408	86.94
275.64	92.94
275.872	97.94
276.104	87.94
276.335	86.94
276.567	85.94
276.799	96.94
277.031	103.94
277.262	79.94
277.494	69.94
277.726	101.94
277.957	91.94
278.189	78.94
278.421	88.94
278.652	96.94
278.884	88.94
279.115	84.94
279.347	89.94
279.579	93.94
279.81	76.94
280.042	68.94
280.273	87.94
280.505	94.94
280.736	93.94
280.968	81.94
281.199	95.94
281.431	88.94
281.662	92.94
281.894	83.94
282.125	87.94
282.356	101.94
282.588	116.94
282.819	95.94
283.051	94.94
283.282	91.94
283.513	81.94
283.745	75.94
283.976	76.94
284.207	84.94
284.439	79.94
284.67	97.94
284.901	80.94
285.132	100.94
285.364	81.94
285.595	79.94
285.826	85.94
286.057	87.94
286.288	91.94
286.52	87.94
286.751	77.94
286.982	97.94
287.213	85.94
287.444	88.94
287.675	92.94
287.906	89.94
288.138	82.94
288.369	91.94
288.6	73.94
288.831	78.94
289.062	82.94
289.293	98.94
289.524	80.94
289.755	85.94
289.986	77.94
290.217	77.94
290.448	84.94
290.679	78.94
290.91	79.94
291.141	97.94
291.371	90.94
291.602	88.94
291.833	75.94
292.064	85.94
292.295	85.94
292.526	90.94
292.757	78.94
292.987	76.94
293.218	86.94
293.449	68.94
293.68	89.94
293.91	73.94
294.141	82.94
294.372	80.94
294.603	84.94
294.833	90.94
295.064	91.94
295.295	107.94
295.525	94.94
295.756	87.94
295.987	106.94
296.217	114.94
296.448	107.94
296.679	83.94
296.909	86.94
297.14	85.94
297.37	89.94
297.601	100.94
297.831	80.94
298.062	80.94
298.292	78.94
298.523	78.94
298.753	89.94
298.984	87.94
299.214	80.94
299.445	100.94
299.675	85.94
299.905	94.94
300.136	82.94
300.366	95.94
300.597	97.94
300.827	85.94
301.057	85.94
301.288	84.94
301.518	80.94
301.748	87.94
301.979	96.94
302.209	85.94
302.439	85.94
302.669	95.94
302.9	92.94
303.13	87.94
303.36	96.94
303.59	96.94
303.82	91.94
304.051	99.94
304.281	76.94
304.511	92.94
304.741	77.94
304.971	87.94
305.201	95.94
305.431	105.94
305.661	75.94
305.891	83.94
306.121	91.94
306.352	82.94
306.582	89.94
306.812	88.94
307.042	96.94
307.272	89.94
307.502	100.94
307.731	95.94
307.961	105.94
308.191	80.94
308.421	98.94
308.651	103.94
308.881	103.94
309.111	101.94
309.341	95.94
309.571	96.94
309.8	93.94
310.03	88.94
310.26	92.94
310.49	90.94
310.72	108.94
310.949	97.94
311.179	95.94
311.409	85.94
311.639	94.94
311.868	89.94
312.098	77.94
312.328	87.94
312.557	103.94
312.787	93.94
313.017	108.94
313.246	83.94
313.476	89.94
313.706	89.94
313.935	82.94
314.165	86.94
314.394	89.94
314.624	96.94
314.853	106.94
315.083	92.94
315.312	98.94
315.542	82.94
315.771	88.94
316.001	93.94
316.23	79.94
316.46	96.94
316.689	84.94
316.919	90.94
317.148	92.94
317.377	95.94
317.607	99.94
317.836	88.94
318.065	91.94
318.295	85.94
318.524	89.94
318.753	81.94
318.983	79.94
319.212	95.94
319.441	106.94
319.67	109.94
319.9	83.94
320.129	79.94
320.358	79.94
320.587	82.94
320.816	85.94
321.046	92.94
321.275	93.94
321.504	105.94
321.733	94.94
321.962	116.94
322.191	95.94
322.42	105.94
322.649	110.94
322.878	111.94
323.108	101.94
323.337	111.94
323.566	128.94
323.795	135.94
324.024	175.94
324.253	327.94
324.482	719.94
324.71	1451.94
324.939	1930.94
325.168	737.94
325.397	228.94
325.626	132.94
325.855	124.94
326.084	101.94
326.313	134.94
326.542	139.94
326.77	214.94
326.999	424.94
327.228	863.94
327.457	1522.94
327.686	1210.94
327.914	338.94
328.143	160.94
328.372	137.94
328.6	123.94
328.829	124.94
329.058	124.94
329.287	125.94
329.515	106.94
329.744	89.94
329.972	89.94
330.201	91.94
330.43	105.94
330.658	106.94
330.887	117.94
331.115	118.94
331.344	98.94
331.572	87.94
331.801	91.94
332.03	95.94
332.258	77.94
332.486	88.94
332.715	85.94
332.943	82.94
333.172	97.94
333.4	89.94
333.629	115.94
333.857	103.94
334.085	87.94
334.314	92.94
334.542	79.94
334.771	82.94
334.999	91.94
335.227	87.94
335.455	93.94
335.684	94.94
335.912	76.94
336.14	97.94
336.369	78.94
336.597	98.94
336.825	98.94
337.053	91.94
337.281	95.94
337.51	101.94
337.738	100.94
337.966	87.94
338.194	97.94
338.422	93.94
338.65	93.94
338.878	80.94
339.106	109.94
339.334	94.94
339.562	83.94
339.79	87.94
340.018	91.94
340.246	105.94
340.474	90.94
340.702	81.94
340.93	81.94
341.158	91.94
341.386	88.94
341.614	93.94
341.842	85.94
342.07	87.94
342.298	91.94
342.526	91.94
342.754	95.94
342.981	87.94
343.209	84.94
343.437	94.94
343.665	91.94
343.893	89.94
344.12	87.94
344.348	92.94
344.576	84.94
344.804	84.94
345.031	91.94
345.259	91.94
345.487	90.94
345.714	94.94
345.942	89.94
346.17	94.94
346.397	97.94
346.625	98.94
346.853	92.94
347.08	89.94
347.308	91.94
347.535	96.94
347.763	70.94
347.99	92.94
348.218	95.94
348.445	97.94
348.673	83.94
348.9	99.94
349.128	88.94
349.355	104.94
349.583	106.94
349.81	97.94
350.037	110.94
350.265	101.94
350.492	88.94
350.72	97.94
350.947	96.94
351.174	107.94
351.402	95.94
351.629	105.94
351.856	105.94
352.083	85.94
352.311	95.94
352.538	105.94
352.765	107.94
352.992	128.94
353.22	109.94
353.447	108.94
353.674	98.94
353.901	96.94
354.128	95.94
354.355	91.94
354.583	101.94
354.81	92.94
355.037	101.94
355.264	96.94
355.491	113.94
355.718	94.94
355.945	87.94
356.172	93.94
356.399	96.94
356.626	77.94
356.853	82.94
357.08	77.94
357.307	111.94
357.534	72.94
357.761	90.94
357.988	82.94
358.215	104.94
358.441	104.94
358.668	93.94
358.895	84.94
359.122	90.94
359.349	88.94
359.576	83.94
359.802	100.94
360.029	105.94
360.256	93.94
360.483	96.94
360.709	89.94
360.936	83.94
361.163	95.94
361.39	95.94
361.616	89.94
361.843	90.94
362.07	85.94
362.296	100.94
362.523	93.94
362.749	88.94
362.976	90.94
363.203	87.94
363.429	88.94
363.656	96.94
363.882	88.94
364.109	81.94
364.335	100.94
364.562	85.94
364.788	92.94
365.015	94.94
365.241	98.94
365.468	116.94
365.694	94.94
365.92	80.94
366.147	90.94
366.373	87.94
366.599	75.94
366.826	84.94
367.052	84.94
367.278	81.94
367.505	83.94
367.731	73.94
367.957	91.94
368.184	95.94
368.41	108.94
368.636	97.94
368.862	105.94
369.089	96.94
369.315	83.94
369.541	81.94
369.767	85.94
369.993	91.94
370.219	87.94
370.445	92.94
370.672	89.94
370.898	73.94
371.124	83.94
371.35	65.94
371.576	76.94
371.802	79.94
372.028	93.94
372.254	96.94
372.48	92.94
372.706	79.94
372.932	88.94
373.158	79.94
373.384	85.94
373.61	93.94
373.835	84.94
374.061	87.94
374.287	91.94
374.513	90.94
374.739	90.94
374.965	81.94
375.191	83.94
375.416	76.94
375.642	98.94
375.868	95.94
376.094	84.94
376.319	80.94
376.545	94.94
376.771	87.94
376.997	87.94
377.222	85.94
377.448	92.94
377.674	66.94
377.899	80.94
378.125	92.94
378.35	96.94
378.576	93.94
378.802	98.94
379.027	97.94
379.253	94.94
379.478	91.94
379.704	95.94
379.929	96.94
380.155	95.94
380.38	99.94
380.606	99.94
380.831	92.94
381.057	90.94
381.282	93.94
381.507	92.94
381.733	106.94
381.958	93.94
382.184	105.94
382.409	105.94
382.634	104.94
382.86	97.94
383.085	106.94
383.31	107.94
383.535	110.94
383.761	98.94
383.986	97.94
384.211	99.94
384.436	95.94
384.662	96.94
384.887	114.94
385.112	107.94
385.337	116.94
385.562	101.94
385.787	91.94
386.013	99.94
386.238	131.94
386.463	98.94
386.688	106.94
386.913	100.94
387.138	115.94
387.363	107.94
387.588	90.94
387.813	88.94
388.038	96.94
388.263	117.94
388.488	111.94
388.713	108.94
388.938	83.94
389.163	87.94
389.387	92.94
389.612	98.94
389.837	83.94
390.062	95.94
390.287	84.94
390.512	90.94
390.736	85.94
390.961	96.94
391.186	100.94
391.411	105.94
391.636	100.94
391.86	82.94
392.085	90.94
392.31	90.94
392.534	104.94
392.759	89.94
392.984	92.94
393.208	78.94
393.433	91.94
393.658	84.94
393.882	82.94
394.107	92.94
394.331	103.94
394.556	85.94
394.78	101.94
395.005	93.94
395.229	94.94
395.454	75.94
395.678	82.94
395.903	95.94
396.127	86.94
396.352	80.94
396.576	75.94
396.801	83.94
397.025	83.94
397.249	79.94
397.474	94.94
397.698	89.94
397.922	80.94
398.147	89.94
398.371	77.94
398.595	84.94
398.82	77.94
399.044	85.94
399.268	100.94
399.492	100.94
399.717	93.94
399.941	92.94
400.165	96.94
400.389	98.94
400.613	77.94
400.837	80.94
401.062	88.94
401.286	87.94
401.51	96.94
401.734	73.94
401.958	98.94
402.182	130.94
402.406	135.94
402.63	102.94
402.854	71.94
403.078	83.94
403.302	85.94
403.526	76.94
403.75	89.94
403.974	85.94
404.198	87.94
404.422	73.94
404.645	88.94
404.869	84.94
405.093	81.94
405.317	92.94
405.541	88.94
405.765	88.94
405.988	101.94
406.212	143.94
406.436	192.94
406.66	129.94
406.883	101.94
407.107	87.94
407.331	89.94
407.555	102.94
407.778	88.94
408.002	81.94
408.226	82.94
408.449	73.94
408.673	91.94
408.896	84.94
409.12	80.94
409.344	87.94
409.567	84.94
409.791	88.94
410.014	97.94
410.238	91.94
410.461	97.94
410.685	91.94
410.908	100.94
411.132	102.94
411.355	90.94
411.578	90.94
411.802	97.94
412.025	82.94
412.249	93.94
412.472	91.94
412.695	82.94
412.919	81.94
413.142	88.94
413.365	82.94
413.589	84.94
413.812	93.94
414.035	69.94
414.258	81.94
414.482	87.94
414.705	90.94
414.928	78.94
415.151	88.94
415.374	95.94
415.597	92.94
415.821	73.94
416.044	93.94
416.267	81.94
416.49	84.94
416.713	84.94
416.936	90.94
417.159	91.94
417.382	86.94
417.605	87.94
417.828	93.94
418.051	87.94
418.274	77.94
418.497	75.94
418.72	80.94
418.943	77.94
419.166	78.94
419.389	90.94
419.611	88.94
419.834	91.94
420.057	71.94
420.28	78.94
420.503	96.94
420.726	94.94
420.948	91.94
421.171	85.94
421.394	99.94
421.617	89.94
421.839	95.94
422.062	80.94
422.285	82.94
422.507	103.94
422.73	100.94
422.953	92.94
423.175	78.94
423.398	91.94
423.621	68.94
423.843	86.94
424.066	92.94
424.288	89.94
424.511	98.94
424.733	89.94
424.956	105.94
425.178	103.94
425.401	96.94
425.623	100.94
425.846	96.94
426.068	85.94
426.291	85.94
426.513	99.94
426.735	85.94
426.958	94.94
427.18	101.94
427.402	127.94
427.625	137.94
427.847	115.94
428.069	79.94
428.292	67.94
428.514	82.94
428.736	88.94
428.958	81.94
429.181	70.94
429.403	78.94
429.625	69.94
429.847	90.94
430.069	94.94
430.292	86.94
430.514	78.94
430.736	90.94
430.958	87.94
431.18	74.94
431.402	90.94
431.624	85.94
431.846	94.94
432.068	96.94
432.29	84.94
432.512	93.94
432.734	95.94
432.956	90.94
433.178	89.94
433.4	85.94
433.622	75.94
433.844	83.94
434.066	87.94
434.287	106.94
434.509	92.94
434.731	87.94
434.953	85.94
435.175	89.94
435.397	93.94
435.618	83.94
435.84	90.94
436.062	109.94
436.284	110.94
436.505	89.94
436.727	106.94
436.949	87.94
437.17	68.94
437.392	77.94
437.614	85.94
437.835	106.94
438.057	110.94
438.278	103.94
438.5	94.94
438.721	99.94
438.943	87.94
439.165	89.94
439.386	79.94
439.608	83.94
439.829	93.94
440.05	108.94
440.272	123.94
440.493	95.94
440.715	83.94
440.936	84.94
441.158	85.94
441.379	68.94
441.6	99.94
441.822	88.94
442.043	98.94
442.264	96.94
442.486	89.94
442.707	79.94
442.928	93.94
443.149	109.94
443.371	108.94
443.592	108.94
443.813	92.94
444.034	80.94
444.255	88.94
444.476	91.94
444.698	76.94
444.919	80.94
445.14	116.94
445.361	114.94
445.582	99.94
445.803	135.94
446.024	117.94
446.245	111.94
446.466	95.94
446.687	81.94
446.908	95.94
447.129	88.94
447.35	99.94
447.571	97.94
447.792	85.94
448.013	90.94
448.234	94.94
448.455	110.94
448.675	102.94
448.896	115.94
449.117	95.94
449.338	105.94
449.559	105.94
449.779	107.94
450	99.94
450.221	74.94
450.442	78.94
450.662	81.94
450.883	95.94
451.104	104.94
451.324	94.94
451.545	100.94
451.766	81.94
451.986	71.94
452.207	80.94
452.428	97.94
452.648	85.94
452.869	96.94
453.089	101.94
453.31	109.94
453.53	101.94
453.751	86.94
453.971	102.94
454.192	104.94
454.412	95.94
454.633	71.94
454.853	86.94
455.073	96.94
455.294	77.94
455.514	84.94
455.734	80.94
455.955	93.94
456.175	77.94
456.395	93.94
456.616	82.94
456.836	87.94
457.056	84.94
457.276	88.94
457.497	82.94
457.717	90.94
457.937	86.94
458.157	84.94
458.377	75.94
458.598	101.94
458.818	114.94
459.038	124.94
459.258	97.94
459.478	79.94
459.698	88.94
459.918	87.94
460.138	80.94
460.358	77.94
460.578	80.94
460.798	92.94
461.018	76.94
461.238	86.94
461.458	71.94
461.678	100.94
461.898	79.94
462.118	79.94
462.338	95.94
462.558	77.94
462.777	85.94
462.997	83.94
463.217	90.94
463.437	93.94
463.657	78.94
463.876	88.94
464.096	77.94
464.316	77.94
464.536	103.94
464.755	95.94
464.975	104.94
465.195	135.94
465.414	121.94
465.634	93.94
465.854	72.94
466.073	75.94
466.293	83.94
466.512	80.94
466.732	69.94
466.951	84.94
467.171	87.94
467.391	93.94
467.61	97.94
467.829	75.94
468.049	84.94
468.268	84.94
468.488	88.94
468.707	77.94
468.927	81.94
469.146	91.94
469.365	78.94
469.585	82.94
469.804	93.94
470.023	93.94
470.243	93.94
470.462	99.94
470.681	93.94
470.901	84.94
471.12	86.94
471.339	92.94
471.558	83.94
471.777	79.94
471.997	102.94
472.216	90.94
472.435	79.94
472.654	91.94
472.873	86.94
473.092	77.94
473.311	79.94
473.53	84.94
473.749	91.94
473.968	85.94
474.187	80.94
474.406	90.94
474.625	79.94
474.844	84.94
475.063	76.94
475.282	94.94
475.501	81.94
475.72	77.94
475.939	81.94
476.158	74.94
476.377	79.94
476.596	79.94
476.814	82.94
477.033	98.94
477.252	89.94
477.471	83.94
477.69	78.94
477.908	97.94
478.127	88.94
478.346	91.94
478.564	83.94
478.783	84.94
479.002	73.94
479.22	91.94
479.439	76.94
479.658	104.94
479.876	80.94
480.095	104.94
480.313	78.94
480.532	93.94
480.751	73.94
480.969	82.94
481.188	83.94
481.406	83.94
481.624	88.94
481.843	84.94
482.061	93.94
482.28	86.94
482.498	82.94
482.717	77.94
482.935	89.94
483.153	85.94
483.372	96.94
483.59	103.94
483.808	83.94
484.027	91.94
484.245	83.94
484.463	81.94
484.681	88.94
484.9	92.94
485.118	89.94
485.336	104.94
485.554	92.94
485.772	111.94
485.99	103.94
486.209	90.94
486.427	106.94
486.645	103.94
486.863	104.94
487.081	92.94
487.299	93.94
487.517	91.94
487.735	100.94
487.953	96.94
488.171	92.94
488.389	85.94
488.607	104.94
488.825	80.94
489.043	92.94
489.261	100.94
489.479	78.94
489.696	78.94
489.914	92.94
490.132	87.94
490.35	87.94
490.568	88.94
490.786	80.94
491.003	88.94
491.221	71.94
491.439	87.94
491.657	86.94
491.874	94.94
492.092	87.94
492.31	86.94
492.527	89.94
492.745	80.94
492.963	78.94
493.18	87.94
493.398	77.94
493.615	86.94
493.833	97.94
494.05	90.94
494.268	85.94
494.485	91.94
494.703	83.94
494.92	89.94
495.138	89.94
495.355	84.94
495.573	79.94
495.79	91.94
496.008	91.94
496.225	78.94
496.442	96.94
496.66	92.94
496.877	94.94
497.094	92.94
497.312	83.94
497.529	92.94
497.746	76.94
497.963	84.94
498.181	91.94
498.398	102.94
498.615	81.94
498.832	104.94
499.049	82.94
499.267	95.94
499.484	88.94
499.701	84.94
499.918	90.94
500.135	84.94
500.352	96.94
500.569	85.94
500.786	89.94
501.003	91.94
501.22	85.94
501.437	89.94
501.654	67.94
501.871	104.94
502.088	90.94
502.305	92.94
502.522	93.94
502.739	82.94
502.956	78.94
503.172	83.94
503.389	84.94
503.606	90.94
503.823	91.94
504.04	92.94
504.256	96.94
504.473	76.94
504.69	80.94
504.907	90.94
505.123	80.94
505.34	91.94
505.557	93.94
505.773	81.94
505.99	74.94
506.207	89.94
506.423	89.94
506.64	98.94
506.856	97.94
507.073	95.94
507.289	88.94
507.506	72.94
507.722	109.94
507.939	106.94
508.155	91.94
508.372	85.94
508.588	100.94
508.805	90.94
509.021	88.94
509.238	100.94
509.454	90.94
509.67	106.94
509.887	84.94
510.103	107.94
510.319	209.94
510.536	694.94
510.752	2165.94
510.968	624.94
511.184	147.94
511.401	110.94
511.617	97.94
511.833	74.94
512.049	82.94
512.265	81.94
512.481	99.94
512.698	88.94
512.914	78.94
513.13	89.94
513.346	98.94
513.562	87.94
513.778	97.94
513.994	89.94
514.21	95.94
514.426	111.94
514.642	121.94
514.858	129.94
515.074	138.94
515.29	389.94
515.506	1264.94
515.721	466.94
515.937	153.94
516.153	110.94
516.369	105.94
516.585	100.94
516.801	81.94
517.016	95.94
