Data from Uncirc_2006_H10_HRD10591_00008.txt Node
Date: Wed Jan 03 10:24:56 EST 2024
User: Yrep
Spectrometer: HR+D1059
Trigger mode: 1
Integration Time (sec): 1.000000E-1
Scans to average: 1
Electric dark correction enabled: true
Nonlinearity correction enabled: false
Boxcar width: 0
XAxis mode: Wavelengths
Number of Pixels in Spectrum: 2048
>>>>>Begin Spectral Data<<<<<
223.165	-22.25
223.4	-22.25
223.635	-22.25
223.869	-17.25
224.104	-26.25
224.338	-25.25
224.573	-5.25
224.808	-9.25
225.042	-19.25
225.277	-18.25
225.511	-2.25
225.746	5.75
225.98	5.75
226.215	20.75
226.449	15.75
226.683	27.75
226.918	33.75
227.152	35.75
227.387	20.75
227.621	51.75
227.856	57.75
228.09	53.75
228.324	57.75
228.559	66.75
228.793	59.75
229.027	53.75
229.262	53.75
229.496	82.75
229.73	86.75
229.964	79.75
230.199	68.75
230.433	62.75
230.667	74.75
230.901	67.75
231.136	74.75
231.37	75.75
231.604	71.75
231.838	78.75
232.072	86.75
232.306	76.75
232.541	89.75
232.775	74.75
233.009	81.75
233.243	80.75
233.477	76.75
233.711	92.75
233.945	84.75
234.179	71.75
234.413	87.75
234.647	68.75
234.881	77.75
235.115	94.75
235.349	75.75
235.583	81.75
235.817	78.75
236.051	85.75
236.285	86.75
236.519	75.75
236.753	81.75
236.987	80.75
237.221	81.75
237.455	83.75
237.689	97.75
237.922	67.75
238.156	76.75
238.39	77.75
238.624	71.75
238.858	87.75
239.091	82.75
239.325	61.75
239.559	76.75
239.793	68.75
240.027	77.75
240.26	75.75
240.494	83.75
240.728	82.75
240.961	69.75
241.195	74.75
241.429	67.75
241.662	68.75
241.896	76.75
242.13	83.75
242.363	73.75
242.597	77.75
242.83	78.75
243.064	71.75
243.298	79.75
243.531	74.75
243.765	71.75
243.998	83.75
244.232	80.75
244.465	89.75
244.699	78.75
244.932	73.75
245.166	69.75
245.399	89.75
245.633	79.75
245.866	60.75
246.099	90.75
246.333	76.75
246.566	58.75
246.8	78.75
247.033	84.75
247.266	77.75
247.5	83.75
247.733	82.75
247.966	78.75
248.2	97.75
248.433	70.75
248.666	83.75
248.899	79.75
249.133	83.75
249.366	88.75
249.599	87.75
249.832	70.75
250.066	69.75
250.299	83.75
250.532	89.75
250.765	77.75
250.998	70.75
251.231	94.75
251.465	87.75
251.698	85.75
251.931	80.75
252.164	88.75
252.397	81.75
252.63	83.75
252.863	87.75
253.096	89.75
253.329	73.75
253.562	85.75
253.795	74.75
254.028	73.75
254.261	75.75
254.494	66.75
254.727	83.75
254.96	82.75
255.193	82.75
255.426	94.75
255.659	76.75
255.892	93.75
256.124	76.75
256.357	78.75
256.59	80.75
256.823	80.75
257.056	83.75
257.289	68.75
257.521	61.75
257.754	74.75
257.987	75.75
258.22	68.75
258.452	93.75
258.685	91.75
258.918	78.75
259.151	73.75
259.383	76.75
259.616	76.75
259.849	77.75
260.081	91.75
260.314	70.75
260.547	81.75
260.779	87.75
261.012	88.75
261.244	82.75
261.477	89.75
261.71	97.75
261.942	106.75
262.175	108.75
262.407	90.75
262.64	81.75
262.872	80.75
263.105	87.75
263.337	87.75
263.57	71.75
263.802	80.75
264.035	86.75
264.267	79.75
264.499	82.75
264.732	85.75
264.964	87.75
265.197	87.75
265.429	92.75
265.661	86.75
265.894	81.75
266.126	85.75
266.358	83.75
266.591	84.75
266.823	85.75
267.055	74.75
267.287	87.75
267.52	80.75
267.752	77.75
267.984	94.75
268.216	86.75
268.448	87.75
268.681	93.75
268.913	73.75
269.145	84.75
269.377	100.75
269.609	81.75
269.841	77.75
270.073	81.75
270.306	83.75
270.538	87.75
270.77	78.75
271.002	85.75
271.234	102.75
271.466	91.75
271.698	88.75
271.93	83.75
272.162	96.75
272.394	86.75
272.626	86.75
272.858	99.75
273.09	75.75
273.322	76.75
273.553	80.75
273.785	63.75
274.017	75.75
274.249	71.75
274.481	94.75
274.713	84.75
274.945	84.75
275.176	90.75
275.408	91.75
275.64	84.75
275.872	73.75
276.104	86.75
276.335	78.75
276.567	86.75
276.799	99.75
277.031	102.75
277.262	102.75
277.494	90.75
277.726	87.75
277.957	70.75
278.189	76.75
278.421	82.75
278.652	93.75
278.884	91.75
279.115	91.75
279.347	93.75
279.579	78.75
279.81	86.75
280.042	71.75
280.273	78.75
280.505	79.75
280.736	80.75
280.968	84.75
281.199	81.75
281.431	82.75
281.662	77.75
281.894	83.75
282.125	99.75
282.356	119.75
282.588	127.75
282.819	111.75
283.051	74.75
283.282	78.75
283.513	83.75
283.745	86.75
283.976	91.75
284.207	77.75
284.439	83.75
284.67	88.75
284.901	86.75
285.132	85.75
285.364	89.75
285.595	78.75
285.826	86.75
286.057	78.75
286.288	95.75
286.52	90.75
286.751	77.75
286.982	87.75
287.213	93.75
287.444	81.75
287.675	86.75
287.906	83.75
288.138	70.75
288.369	75.75
288.6	91.75
288.831	96.75
289.062	106.75
289.293	82.75
289.524	83.75
289.755	96.75
289.986	79.75
290.217	91.75
290.448	85.75
290.679	86.75
290.91	69.75
291.141	78.75
291.371	83.75
291.602	80.75
291.833	85.75
292.064	92.75
292.295	82.75
292.526	106.75
292.757	89.75
292.987	81.75
293.218	100.75
293.449	85.75
293.68	87.75
293.91	78.75
294.141	75.75
294.372	95.75
294.603	91.75
294.833	94.75
295.064	80.75
295.295	84.75
295.525	85.75
295.756	103.75
295.987	100.75
296.217	116.75
296.448	119.75
296.679	91.75
296.909	115.75
297.14	86.75
297.37	96.75
297.601	75.75
297.831	85.75
298.062	79.75
298.292	92.75
298.523	94.75
298.753	94.75
298.984	96.75
299.214	89.75
299.445	81.75
299.675	81.75
299.905	89.75
300.136	93.75
300.366	89.75
300.597	92.75
300.827	94.75
301.057	85.75
301.288	101.75
301.518	85.75
301.748	90.75
301.979	94.75
302.209	83.75
302.439	80.75
302.669	95.75
302.9	85.75
303.13	86.75
303.36	99.75
303.59	94.75
303.82	106.75
304.051	85.75
304.281	86.75
304.511	91.75
304.741	81.75
304.971	93.75
305.201	90.75
305.431	94.75
305.661	95.75
305.891	96.75
306.121	98.75
306.352	94.75
306.582	100.75
306.812	94.75
307.042	85.75
307.272	89.75
307.502	94.75
307.731	98.75
307.961	97.75
308.191	97.75
308.421	82.75
308.651	91.75
308.881	100.75
309.111	92.75
309.341	99.75
309.571	87.75
309.8	97.75
310.03	93.75
310.26	109.75
310.49	92.75
310.72	76.75
310.949	96.75
311.179	73.75
311.409	86.75
311.639	103.75
311.868	97.75
312.098	98.75
312.328	91.75
312.557	94.75
312.787	96.75
313.017	97.75
313.246	101.75
313.476	91.75
313.706	93.75
313.935	91.75
314.165	108.75
314.394	98.75
314.624	95.75
314.853	95.75
315.083	82.75
315.312	106.75
315.542	94.75
315.771	91.75
316.001	101.75
316.23	81.75
316.46	89.75
316.689	90.75
316.919	90.75
317.148	88.75
317.377	90.75
317.607	70.75
317.836	92.75
318.065	87.75
318.295	80.75
318.524	95.75
318.753	78.75
318.983	69.75
319.212	96.75
319.441	93.75
319.67	99.75
319.9	94.75
320.129	93.75
320.358	97.75
320.587	105.75
320.816	106.75
321.046	102.75
321.275	102.75
321.504	99.75
321.733	81.75
321.962	89.75
322.191	93.75
322.42	94.75
322.649	105.75
322.878	110.75
323.108	118.75
323.337	120.75
323.566	116.75
323.795	141.75
324.024	191.75
324.253	345.75
324.482	735.75
324.71	1462.75
324.939	1916.75
325.168	687.75
325.397	208.75
325.626	123.75
325.855	133.75
326.084	132.75
326.313	142.75
326.542	151.75
326.77	220.75
326.999	418.75
327.228	853.75
327.457	1481.75
327.686	1202.75
327.914	331.75
328.143	175.75
328.372	122.75
328.6	106.75
328.829	107.75
329.058	113.75
329.287	102.75
329.515	108.75
329.744	95.75
329.972	107.75
330.201	107.75
330.43	99.75
330.658	103.75
330.887	121.75
331.115	108.75
331.344	95.75
331.572	118.75
331.801	106.75
332.03	87.75
332.258	84.75
332.486	88.75
332.715	97.75
332.943	94.75
333.172	98.75
333.4	98.75
333.629	94.75
333.857	117.75
334.085	99.75
334.314	99.75
334.542	94.75
334.771	83.75
334.999	97.75
335.227	91.75
335.455	98.75
335.684	80.75
335.912	100.75
336.14	93.75
336.369	104.75
336.597	97.75
336.825	109.75
337.053	98.75
337.281	88.75
337.51	95.75
337.738	101.75
337.966	92.75
338.194	97.75
338.422	101.75
338.65	96.75
338.878	110.75
339.106	93.75
339.334	96.75
339.562	87.75
339.79	97.75
340.018	80.75
340.246	91.75
340.474	90.75
340.702	94.75
340.93	82.75
341.158	84.75
341.386	78.75
341.614	95.75
341.842	91.75
342.07	88.75
342.298	100.75
342.526	86.75
342.754	81.75
342.981	88.75
343.209	101.75
343.437	96.75
343.665	86.75
343.893	93.75
344.12	98.75
344.348	94.75
344.576	98.75
344.804	98.75
345.031	95.75
345.259	101.75
345.487	87.75
345.714	76.75
345.942	108.75
346.17	90.75
346.397	97.75
346.625	105.75
346.853	99.75
347.08	97.75
347.308	90.75
347.535	106.75
347.763	86.75
347.99	95.75
348.218	93.75
348.445	91.75
348.673	94.75
348.9	87.75
349.128	87.75
349.355	90.75
349.583	87.75
349.81	94.75
350.037	100.75
350.265	101.75
350.492	91.75
350.72	80.75
350.947	105.75
351.174	98.75
351.402	118.75
351.629	100.75
351.856	104.75
352.083	98.75
352.311	95.75
352.538	100.75
352.765	95.75
352.992	122.75
353.22	102.75
353.447	126.75
353.674	100.75
353.901	93.75
354.128	96.75
354.355	89.75
354.583	91.75
354.81	90.75
355.037	107.75
355.264	88.75
355.491	93.75
355.718	95.75
355.945	85.75
356.172	99.75
356.399	117.75
356.626	93.75
356.853	74.75
357.08	89.75
357.307	94.75
357.534	81.75
357.761	101.75
357.988	100.75
358.215	93.75
358.441	101.75
358.668	98.75
358.895	94.75
359.122	95.75
359.349	110.75
359.576	96.75
359.802	95.75
360.029	110.75
360.256	110.75
360.483	98.75
360.709	86.75
360.936	84.75
361.163	97.75
361.39	92.75
361.616	107.75
361.843	70.75
362.07	78.75
362.296	86.75
362.523	105.75
362.749	95.75
362.976	86.75
363.203	94.75
363.429	109.75
363.656	94.75
363.882	86.75
364.109	79.75
364.335	100.75
364.562	97.75
364.788	92.75
365.015	84.75
365.241	96.75
365.468	93.75
365.694	91.75
365.92	105.75
366.147	91.75
366.373	92.75
366.599	78.75
366.826	87.75
367.052	89.75
367.278	84.75
367.505	99.75
367.731	97.75
367.957	82.75
368.184	87.75
368.41	105.75
368.636	105.75
368.862	114.75
369.089	100.75
369.315	92.75
369.541	98.75
369.767	80.75
369.993	101.75
370.219	92.75
370.445	93.75
370.672	66.75
370.898	97.75
371.124	85.75
371.35	81.75
371.576	87.75
371.802	87.75
372.028	80.75
372.254	73.75
372.48	104.75
372.706	83.75
372.932	84.75
373.158	77.75
373.384	99.75
373.61	93.75
373.835	84.75
374.061	86.75
374.287	98.75
374.513	87.75
374.739	80.75
374.965	85.75
375.191	79.75
375.416	90.75
375.642	92.75
375.868	98.75
376.094	82.75
376.319	93.75
376.545	105.75
376.771	102.75
376.997	71.75
377.222	84.75
377.448	94.75
377.674	95.75
377.899	85.75
378.125	96.75
378.35	77.75
378.576	87.75
378.802	90.75
379.027	98.75
379.253	103.75
379.478	98.75
379.704	106.75
379.929	100.75
380.155	102.75
380.38	75.75
380.606	81.75
380.831	87.75
381.057	103.75
381.282	114.75
381.507	99.75
381.733	99.75
381.958	110.75
382.184	99.75
382.409	112.75
382.634	101.75
382.86	107.75
383.085	112.75
383.31	117.75
383.535	106.75
383.761	87.75
383.986	119.75
384.211	109.75
384.436	95.75
384.662	102.75
384.887	106.75
385.112	124.75
385.337	114.75
385.562	109.75
385.787	91.75
386.013	116.75
386.238	113.75
386.463	101.75
386.688	107.75
386.913	124.75
387.138	127.75
387.363	114.75
387.588	116.75
387.813	111.75
388.038	103.75
388.263	112.75
388.488	104.75
388.713	96.75
388.938	98.75
389.163	101.75
389.387	86.75
389.612	102.75
389.837	99.75
390.062	87.75
390.287	100.75
390.512	96.75
390.736	105.75
390.961	98.75
391.186	93.75
391.411	94.75
391.636	99.75
391.86	92.75
392.085	84.75
392.31	99.75
392.534	91.75
392.759	81.75
392.984	85.75
393.208	83.75
393.433	87.75
393.658	89.75
393.882	73.75
394.107	82.75
394.331	91.75
394.556	95.75
394.78	83.75
395.005	105.75
395.229	91.75
395.454	81.75
395.678	70.75
395.903	82.75
396.127	92.75
396.352	91.75
396.576	87.75
396.801	98.75
397.025	83.75
397.249	86.75
397.474	86.75
397.698	86.75
397.922	85.75
398.147	82.75
398.371	91.75
398.595	86.75
398.82	74.75
399.044	81.75
399.268	99.75
399.492	93.75
399.717	94.75
399.941	93.75
400.165	99.75
400.389	98.75
400.613	83.75
400.837	99.75
401.062	92.75
401.286	87.75
401.51	94.75
401.734	94.75
401.958	95.75
402.182	118.75
402.406	134.75
402.63	101.75
402.854	87.75
403.078	95.75
403.302	75.75
403.526	87.75
403.75	86.75
403.974	79.75
404.198	72.75
404.422	71.75
404.645	97.75
404.869	102.75
405.093	103.75
405.317	97.75
405.541	106.75
405.765	102.75
405.988	107.75
406.212	148.75
406.436	195.75
406.66	126.75
406.883	98.75
407.107	88.75
407.331	92.75
407.555	86.75
407.778	91.75
408.002	97.75
408.226	90.75
408.449	81.75
408.673	100.75
408.896	96.75
409.12	95.75
409.344	81.75
409.567	98.75
409.791	95.75
410.014	94.75
410.238	108.75
410.461	99.75
410.685	98.75
410.908	95.75
411.132	106.75
411.355	94.75
411.578	95.75
411.802	82.75
412.025	78.75
412.249	94.75
412.472	85.75
412.695	98.75
412.919	85.75
413.142	97.75
413.365	71.75
413.589	89.75
413.812	105.75
414.035	94.75
414.258	85.75
414.482	90.75
414.705	101.75
414.928	94.75
415.151	86.75
415.374	95.75
415.597	82.75
415.821	93.75
416.044	82.75
416.267	86.75
416.49	90.75
416.713	85.75
416.936	87.75
417.159	81.75
417.382	81.75
417.605	92.75
417.828	83.75
418.051	89.75
418.274	95.75
418.497	93.75
418.72	91.75
418.943	94.75
419.166	94.75
419.389	106.75
419.611	80.75
419.834	99.75
420.057	91.75
420.28	94.75
420.503	84.75
420.726	82.75
420.948	95.75
421.171	89.75
421.394	87.75
421.617	97.75
421.839	90.75
422.062	95.75
422.285	84.75
422.507	105.75
422.73	92.75
422.953	93.75
423.175	101.75
423.398	97.75
423.621	82.75
423.843	83.75
424.066	89.75
424.288	101.75
424.511	87.75
424.733	86.75
424.956	98.75
425.178	93.75
425.401	86.75
425.623	108.75
425.846	78.75
426.068	91.75
426.291	83.75
426.513	92.75
426.735	90.75
426.958	93.75
427.18	91.75
427.402	122.75
427.625	124.75
427.847	113.75
428.069	93.75
428.292	84.75
428.514	88.75
428.736	79.75
428.958	78.75
429.181	77.75
429.403	90.75
429.625	92.75
429.847	86.75
430.069	90.75
430.292	82.75
430.514	85.75
430.736	83.75
430.958	92.75
431.18	80.75
431.402	74.75
431.624	80.75
431.846	90.75
432.068	92.75
432.29	84.75
432.512	91.75
432.734	101.75
432.956	82.75
433.178	112.75
433.4	99.75
433.622	79.75
433.844	85.75
434.066	80.75
434.287	82.75
434.509	98.75
434.731	93.75
434.953	87.75
435.175	95.75
435.397	93.75
435.618	81.75
435.84	97.75
436.062	112.75
436.284	104.75
436.505	74.75
436.727	79.75
436.949	91.75
437.17	97.75
437.392	85.75
437.614	91.75
437.835	88.75
438.057	104.75
438.278	99.75
438.5	90.75
438.721	108.75
438.943	107.75
439.165	86.75
439.386	83.75
439.608	102.75
439.829	98.75
440.05	106.75
440.272	117.75
440.493	85.75
440.715	86.75
440.936	86.75
441.158	99.75
441.379	79.75
441.6	88.75
441.822	96.75
442.043	90.75
442.264	85.75
442.486	96.75
442.707	84.75
442.928	92.75
443.149	122.75
443.371	110.75
443.592	101.75
443.813	93.75
444.034	94.75
444.255	87.75
444.476	100.75
444.698	87.75
444.919	80.75
445.14	130.75
445.361	114.75
445.582	108.75
445.803	106.75
446.024	99.75
446.245	124.75
446.466	93.75
446.687	85.75
446.908	78.75
447.129	83.75
447.35	84.75
447.571	93.75
447.792	106.75
448.013	98.75
448.234	99.75
448.455	91.75
448.675	98.75
448.896	101.75
449.117	101.75
449.338	100.75
449.559	114.75
449.779	100.75
450	91.75
450.221	86.75
450.442	82.75
450.662	92.75
450.883	93.75
451.104	113.75
451.324	101.75
451.545	78.75
451.766	86.75
451.986	68.75
452.207	79.75
452.428	73.75
452.648	85.75
452.869	97.75
453.089	94.75
453.31	108.75
453.53	95.75
453.751	92.75
453.971	108.75
454.192	98.75
454.412	88.75
454.633	80.75
454.853	96.75
455.073	93.75
455.294	95.75
455.514	94.75
455.734	101.75
455.955	79.75
456.175	74.75
456.395	88.75
456.616	84.75
456.836	90.75
457.056	89.75
457.276	80.75
457.497	83.75
457.717	93.75
457.937	85.75
458.157	88.75
458.377	83.75
458.598	97.75
458.818	129.75
459.038	117.75
459.258	113.75
459.478	76.75
459.698	93.75
459.918	73.75
460.138	96.75
460.358	75.75
460.578	106.75
460.798	77.75
461.018	88.75
461.238	90.75
461.458	82.75
461.678	100.75
461.898	89.75
462.118	99.75
462.338	71.75
462.558	78.75
462.777	93.75
462.997	85.75
463.217	88.75
463.437	82.75
463.657	100.75
463.876	100.75
464.096	103.75
464.316	86.75
464.536	84.75
464.755	85.75
464.975	102.75
465.195	139.75
465.414	132.75
465.634	104.75
465.854	106.75
466.073	88.75
466.293	81.75
466.512	78.75
466.732	85.75
466.951	79.75
467.171	72.75
467.391	97.75
467.61	101.75
467.829	96.75
468.049	84.75
468.268	85.75
468.488	83.75
468.707	76.75
468.927	80.75
469.146	80.75
469.365	86.75
469.585	77.75
469.804	81.75
470.023	90.75
470.243	100.75
470.462	103.75
470.681	110.75
470.901	98.75
471.12	105.75
471.339	90.75
471.558	87.75
471.777	81.75
471.997	88.75
472.216	87.75
472.435	84.75
472.654	81.75
472.873	86.75
473.092	90.75
473.311	93.75
473.53	71.75
473.749	83.75
473.968	97.75
474.187	104.75
474.406	78.75
474.625	93.75
474.844	75.75
475.063	87.75
475.282	101.75
475.501	82.75
475.72	98.75
475.939	86.75
476.158	81.75
476.377	92.75
476.596	93.75
476.814	99.75
477.033	87.75
477.252	97.75
477.471	93.75
477.69	88.75
477.908	70.75
478.127	82.75
478.346	75.75
478.564	85.75
478.783	90.75
479.002	99.75
479.22	108.75
479.439	106.75
479.658	109.75
479.876	95.75
480.095	97.75
480.313	82.75
480.532	93.75
480.751	89.75
480.969	89.75
481.188	93.75
481.406	109.75
481.624	87.75
481.843	99.75
482.061	92.75
482.28	98.75
482.498	72.75
482.717	85.75
482.935	85.75
483.153	96.75
483.372	86.75
483.59	106.75
483.808	81.75
484.027	91.75
484.245	98.75
484.463	96.75
484.681	94.75
484.9	94.75
485.118	93.75
485.336	107.75
485.554	90.75
485.772	95.75
485.99	102.75
486.209	102.75
486.427	99.75
486.645	100.75
486.863	96.75
487.081	97.75
487.299	105.75
487.517	95.75
487.735	81.75
487.953	96.75
488.171	95.75
488.389	98.75
488.607	89.75
488.825	99.75
489.043	92.75
489.261	102.75
489.479	103.75
489.696	79.75
489.914	91.75
490.132	102.75
490.35	91.75
490.568	90.75
490.786	92.75
491.003	82.75
491.221	75.75
491.439	84.75
491.657	83.75
491.874	90.75
492.092	89.75
492.31	82.75
492.527	99.75
492.745	86.75
492.963	100.75
493.18	85.75
493.398	98.75
493.615	100.75
493.833	95.75
494.05	101.75
494.268	90.75
494.485	93.75
494.703	86.75
494.92	100.75
495.138	91.75
495.355	99.75
495.573	97.75
495.79	87.75
496.008	102.75
496.225	89.75
496.442	93.75
496.66	94.75
496.877	84.75
497.094	83.75
497.312	86.75
497.529	75.75
497.746	81.75
497.963	102.75
498.181	96.75
498.398	89.75
498.615	99.75
498.832	111.75
499.049	96.75
499.267	84.75
499.484	98.75
499.701	84.75
499.918	88.75
500.135	89.75
500.352	92.75
500.569	95.75
500.786	97.75
501.003	90.75
501.22	96.75
501.437	95.75
501.654	94.75
501.871	105.75
502.088	89.75
502.305	86.75
502.522	94.75
502.739	85.75
502.956	89.75
503.172	92.75
503.389	86.75
503.606	86.75
503.823	79.75
504.04	103.75
504.256	92.75
504.473	85.75
504.69	83.75
504.907	100.75
505.123	87.75
505.34	85.75
505.557	95.75
505.773	97.75
505.99	92.75
506.207	80.75
506.423	87.75
506.64	71.75
506.856	80.75
507.073	68.75
507.289	89.75
507.506	89.75
507.722	94.75
507.939	109.75
508.155	101.75
508.372	91.75
508.588	102.75
508.805	94.75
509.021	94.75
509.238	94.75
509.454	93.75
509.67	86.75
509.887	103.75
510.103	121.75
510.319	197.75
510.536	631.75
510.752	1902.75
510.968	555.75
511.184	133.75
511.401	86.75
511.617	91.75
511.833	95.75
512.049	83.75
512.265	93.75
512.481	85.75
512.698	101.75
512.914	87.75
513.13	92.75
513.346	91.75
513.562	104.75
513.778	94.75
513.994	102.75
514.21	103.75
514.426	121.75
514.642	123.75
514.858	115.75
515.074	144.75
515.29	365.75
515.506	1174.75
515.721	445.75
515.937	139.75
516.153	92.75
