Data from Uncirc_2006_H10_HRD10591_00053.txt Node
Date: Wed Jan 03 10:25:05 EST 2024
User: Yrep
Spectrometer: HR+D1059
Trigger mode: 1
Integration Time (sec): 1.000000E-1
Scans to average: 1
Electric dark correction enabled: true
Nonlinearity correction enabled: false
Boxcar width: 0
XAxis mode: Wavelengths
Number of Pixels in Spectrum: 2048
>>>>>Begin Spectral Data<<<<<
223.165	-34.12
223.4	-34.12
223.635	-34.12
223.869	-6.12
224.104	-14.12
224.338	-30.12
224.573	-13.12
224.808	-11.12
225.042	-12.12
225.277	-4.12
225.511	-3.12
225.746	2.88
225.98	3.88
226.215	12.88
226.449	10.88
226.683	33.88
226.918	27.88
227.152	35.88
227.387	34.88
227.621	44.88
227.856	50.88
228.09	50.88
228.324	57.88
228.559	59.88
228.793	70.88
229.027	63.88
229.262	81.88
229.496	76.88
229.73	90.88
229.964	81.88
230.199	76.88
230.433	72.88
230.667	77.88
230.901	73.88
231.136	65.88
231.37	69.88
231.604	84.88
231.838	90.88
232.072	79.88
232.306	69.88
232.541	82.88
232.775	85.88
233.009	87.88
233.243	92.88
233.477	89.88
233.711	86.88
233.945	74.88
234.179	88.88
234.413	85.88
234.647	90.88
234.881	98.88
235.115	71.88
235.349	93.88
235.583	95.88
235.817	86.88
236.051	69.88
236.285	88.88
236.519	87.88
236.753	67.88
236.987	65.88
237.221	92.88
237.455	77.88
237.689	73.88
237.922	74.88
238.156	59.88
238.39	73.88
238.624	73.88
238.858	72.88
239.091	76.88
239.325	87.88
239.559	82.88
239.793	77.88
240.027	81.88
240.26	62.88
240.494	99.88
240.728	82.88
240.961	84.88
241.195	77.88
241.429	85.88
241.662	77.88
241.896	86.88
242.13	81.88
242.363	61.88
242.597	71.88
242.83	86.88
243.064	73.88
243.298	89.88
243.531	75.88
243.765	75.88
243.998	89.88
244.232	77.88
244.465	94.88
244.699	86.88
244.932	75.88
245.166	70.88
245.399	85.88
245.633	88.88
245.866	81.88
246.099	79.88
246.333	79.88
246.566	80.88
246.8	66.88
247.033	67.88
247.266	76.88
247.5	68.88
247.733	79.88
247.966	73.88
248.2	89.88
248.433	81.88
248.666	72.88
248.899	91.88
249.133	82.88
249.366	105.88
249.599	108.88
249.832	96.88
250.066	81.88
250.299	86.88
250.532	80.88
250.765	67.88
250.998	69.88
251.231	74.88
251.465	83.88
251.698	84.88
251.931	78.88
252.164	73.88
252.397	80.88
252.63	75.88
252.863	75.88
253.096	92.88
253.329	87.88
253.562	77.88
253.795	79.88
254.028	91.88
254.261	89.88
254.494	68.88
254.727	77.88
254.96	83.88
255.193	72.88
255.426	65.88
255.659	89.88
255.892	98.88
256.124	86.88
256.357	81.88
256.59	76.88
256.823	78.88
257.056	92.88
257.289	88.88
257.521	105.88
257.754	84.88
257.987	82.88
258.22	89.88
258.452	69.88
258.685	74.88
258.918	94.88
259.151	82.88
259.383	65.88
259.616	69.88
259.849	91.88
260.081	85.88
260.314	89.88
260.547	93.88
260.779	87.88
261.012	74.88
261.244	78.88
261.477	87.88
261.71	93.88
261.942	108.88
262.175	124.88
262.407	86.88
262.64	86.88
262.872	71.88
263.105	82.88
263.337	94.88
263.57	80.88
263.802	97.88
264.035	81.88
264.267	69.88
264.499	86.88
264.732	86.88
264.964	90.88
265.197	79.88
265.429	88.88
265.661	86.88
265.894	82.88
266.126	69.88
266.358	70.88
266.591	69.88
266.823	91.88
267.055	81.88
267.287	92.88
267.52	95.88
267.752	106.88
267.984	86.88
268.216	81.88
268.448	85.88
268.681	91.88
268.913	91.88
269.145	93.88
269.377	80.88
269.609	87.88
269.841	86.88
270.073	74.88
270.306	82.88
270.538	86.88
270.77	77.88
271.002	71.88
271.234	90.88
271.466	92.88
271.698	84.88
271.93	82.88
272.162	83.88
272.394	78.88
272.626	84.88
272.858	75.88
273.09	84.88
273.322	91.88
273.553	92.88
273.785	86.88
274.017	79.88
274.249	86.88
274.481	74.88
274.713	84.88
274.945	78.88
275.176	83.88
275.408	85.88
275.64	96.88
275.872	95.88
276.104	83.88
276.335	91.88
276.567	103.88
276.799	103.88
277.031	97.88
277.262	81.88
277.494	90.88
277.726	92.88
277.957	83.88
278.189	82.88
278.421	85.88
278.652	86.88
278.884	87.88
279.115	73.88
279.347	79.88
279.579	81.88
279.81	79.88
280.042	85.88
280.273	80.88
280.505	99.88
280.736	92.88
280.968	78.88
281.199	73.88
281.431	80.88
281.662	70.88
281.894	96.88
282.125	94.88
282.356	107.88
282.588	140.88
282.819	108.88
283.051	86.88
283.282	87.88
283.513	84.88
283.745	95.88
283.976	83.88
284.207	91.88
284.439	79.88
284.67	83.88
284.901	84.88
285.132	84.88
285.364	75.88
285.595	92.88
285.826	91.88
286.057	86.88
286.288	78.88
286.52	83.88
286.751	81.88
286.982	92.88
287.213	75.88
287.444	71.88
287.675	88.88
287.906	83.88
288.138	79.88
288.369	90.88
288.6	82.88
288.831	86.88
289.062	91.88
289.293	92.88
289.524	85.88
289.755	79.88
289.986	85.88
290.217	87.88
290.448	81.88
290.679	83.88
290.91	72.88
291.141	84.88
291.371	94.88
291.602	95.88
291.833	96.88
292.064	79.88
292.295	103.88
292.526	104.88
292.757	77.88
292.987	79.88
293.218	79.88
293.449	77.88
293.68	90.88
293.91	93.88
294.141	85.88
294.372	88.88
294.603	92.88
294.833	91.88
295.064	78.88
295.295	93.88
295.525	90.88
295.756	90.88
295.987	101.88
296.217	127.88
296.448	115.88
296.679	94.88
296.909	105.88
297.14	100.88
297.37	92.88
297.601	98.88
297.831	97.88
298.062	92.88
298.292	87.88
298.523	77.88
298.753	71.88
298.984	73.88
299.214	82.88
299.445	99.88
299.675	90.88
299.905	92.88
300.136	79.88
300.366	90.88
300.597	92.88
300.827	97.88
301.057	93.88
301.288	85.88
301.518	91.88
301.748	86.88
301.979	103.88
302.209	91.88
302.439	90.88
302.669	100.88
302.9	84.88
303.13	84.88
303.36	94.88
303.59	88.88
303.82	83.88
304.051	107.88
304.281	96.88
304.511	93.88
304.741	73.88
304.971	85.88
305.201	87.88
305.431	75.88
305.661	86.88
305.891	95.88
306.121	91.88
306.352	100.88
306.582	101.88
306.812	99.88
307.042	97.88
307.272	99.88
307.502	101.88
307.731	101.88
307.961	93.88
308.191	94.88
308.421	76.88
308.651	71.88
308.881	84.88
309.111	89.88
309.341	100.88
309.571	96.88
309.8	96.88
310.03	95.88
310.26	77.88
310.49	83.88
310.72	102.88
310.949	105.88
311.179	82.88
311.409	93.88
311.639	96.88
311.868	100.88
312.098	86.88
312.328	83.88
312.557	102.88
312.787	109.88
313.017	105.88
313.246	91.88
313.476	87.88
313.706	98.88
313.935	83.88
314.165	102.88
314.394	81.88
314.624	100.88
314.853	101.88
315.083	90.88
315.312	84.88
315.542	83.88
315.771	100.88
316.001	101.88
316.23	84.88
316.46	87.88
316.689	61.88
316.919	92.88
317.148	93.88
317.377	92.88
317.607	82.88
317.836	92.88
318.065	81.88
318.295	92.88
318.524	101.88
318.753	81.88
318.983	98.88
319.212	96.88
319.441	110.88
319.67	111.88
319.9	87.88
320.129	78.88
320.358	79.88
320.587	91.88
320.816	90.88
321.046	89.88
321.275	94.88
321.504	94.88
321.733	106.88
321.962	104.88
322.191	95.88
322.42	104.88
322.649	104.88
322.878	134.88
323.108	111.88
323.337	121.88
323.566	129.88
323.795	140.88
324.024	185.88
324.253	367.88
324.482	758.88
324.71	1582.88
324.939	2031.88
325.168	759.88
325.397	216.88
325.626	139.88
325.855	134.88
326.084	118.88
326.313	125.88
326.542	141.88
326.77	217.88
326.999	449.88
327.228	904.88
327.457	1601.88
327.686	1281.88
327.914	343.88
328.143	183.88
328.372	149.88
328.6	122.88
328.829	113.88
329.058	116.88
329.287	121.88
329.515	108.88
329.744	94.88
329.972	97.88
330.201	106.88
330.43	109.88
330.658	119.88
330.887	126.88
331.115	135.88
331.344	102.88
331.572	97.88
331.801	109.88
332.03	98.88
332.258	97.88
332.486	100.88
332.715	83.88
332.943	85.88
333.172	85.88
333.4	98.88
333.629	107.88
333.857	109.88
334.085	100.88
334.314	93.88
334.542	92.88
334.771	78.88
334.999	105.88
335.227	100.88
335.455	105.88
335.684	87.88
335.912	92.88
336.14	98.88
336.369	86.88
336.597	87.88
336.825	106.88
337.053	86.88
337.281	97.88
337.51	101.88
337.738	85.88
337.966	85.88
338.194	94.88
338.422	93.88
338.65	94.88
338.878	78.88
339.106	87.88
339.334	92.88
339.562	88.88
339.79	97.88
340.018	95.88
340.246	90.88
340.474	89.88
340.702	92.88
340.93	103.88
341.158	99.88
341.386	85.88
341.614	87.88
341.842	94.88
342.07	85.88
342.298	82.88
342.526	105.88
342.754	86.88
342.981	87.88
343.209	78.88
343.437	90.88
343.665	81.88
343.893	79.88
344.12	84.88
344.348	95.88
344.576	68.88
344.804	90.88
345.031	83.88
345.259	100.88
345.487	82.88
345.714	106.88
345.942	94.88
346.17	91.88
346.397	96.88
346.625	75.88
346.853	89.88
347.08	84.88
347.308	89.88
347.535	101.88
347.763	68.88
347.99	85.88
348.218	91.88
348.445	93.88
348.673	98.88
348.9	89.88
349.128	86.88
349.355	98.88
349.583	98.88
349.81	93.88
350.037	96.88
350.265	86.88
350.492	94.88
350.72	84.88
350.947	100.88
351.174	110.88
351.402	115.88
351.629	105.88
351.856	105.88
352.083	100.88
352.311	103.88
352.538	99.88
352.765	103.88
352.992	111.88
353.22	116.88
353.447	92.88
353.674	107.88
353.901	81.88
354.128	96.88
354.355	83.88
354.583	96.88
354.81	88.88
355.037	99.88
355.264	78.88
355.491	89.88
355.718	86.88
355.945	93.88
356.172	89.88
356.399	96.88
356.626	95.88
356.853	92.88
357.08	89.88
357.307	77.88
357.534	83.88
357.761	92.88
357.988	79.88
358.215	86.88
358.441	84.88
358.668	93.88
358.895	87.88
359.122	94.88
359.349	76.88
359.576	77.88
359.802	94.88
360.029	92.88
360.256	96.88
360.483	85.88
360.709	77.88
360.936	91.88
361.163	84.88
361.39	87.88
361.616	92.88
361.843	86.88
362.07	95.88
362.296	93.88
362.523	93.88
362.749	92.88
362.976	105.88
363.203	104.88
363.429	100.88
363.656	85.88
363.882	94.88
364.109	98.88
364.335	83.88
364.562	78.88
364.788	105.88
365.015	85.88
365.241	100.88
365.468	99.88
365.694	89.88
365.92	90.88
366.147	83.88
366.373	92.88
366.599	82.88
366.826	101.88
367.052	96.88
367.278	90.88
367.505	76.88
367.731	67.88
367.957	86.88
368.184	80.88
368.41	85.88
368.636	133.88
368.862	119.88
369.089	98.88
369.315	87.88
369.541	82.88
369.767	84.88
369.993	94.88
370.219	97.88
370.445	87.88
370.672	106.88
370.898	81.88
371.124	86.88
371.35	91.88
371.576	88.88
371.802	90.88
372.028	90.88
372.254	75.88
372.48	77.88
372.706	90.88
372.932	81.88
373.158	84.88
373.384	96.88
373.61	97.88
373.835	91.88
374.061	88.88
374.287	90.88
374.513	99.88
374.739	87.88
374.965	80.88
375.191	86.88
375.416	93.88
375.642	98.88
375.868	78.88
376.094	106.88
376.319	110.88
376.545	68.88
376.771	87.88
376.997	94.88
377.222	103.88
377.448	92.88
377.674	97.88
377.899	94.88
378.125	78.88
378.35	97.88
378.576	98.88
378.802	89.88
379.027	96.88
379.253	87.88
379.478	87.88
379.704	99.88
379.929	84.88
380.155	92.88
380.38	88.88
380.606	81.88
380.831	82.88
381.057	91.88
381.282	96.88
381.507	94.88
381.733	98.88
381.958	91.88
382.184	91.88
382.409	87.88
382.634	99.88
382.86	90.88
383.085	89.88
383.31	100.88
383.535	81.88
383.761	92.88
383.986	90.88
384.211	105.88
384.436	101.88
384.662	99.88
384.887	97.88
385.112	90.88
385.337	102.88
385.562	105.88
385.787	93.88
386.013	104.88
386.238	107.88
386.463	111.88
386.688	103.88
386.913	98.88
387.138	102.88
387.363	99.88
387.588	100.88
387.813	83.88
388.038	93.88
388.263	114.88
388.488	118.88
388.713	102.88
388.938	89.88
389.163	91.88
389.387	105.88
389.612	107.88
389.837	94.88
390.062	106.88
390.287	85.88
390.512	86.88
390.736	90.88
390.961	86.88
391.186	89.88
391.411	94.88
391.636	95.88
391.86	89.88
392.085	74.88
392.31	95.88
392.534	93.88
392.759	101.88
392.984	85.88
393.208	70.88
393.433	91.88
393.658	73.88
393.882	86.88
394.107	92.88
394.331	88.88
394.556	91.88
394.78	93.88
395.005	69.88
395.229	78.88
395.454	93.88
395.678	83.88
395.903	88.88
396.127	97.88
396.352	89.88
396.576	81.88
396.801	79.88
397.025	79.88
397.249	103.88
397.474	86.88
397.698	74.88
397.922	80.88
398.147	84.88
398.371	79.88
398.595	86.88
398.82	86.88
399.044	83.88
399.268	73.88
399.492	91.88
399.717	94.88
399.941	86.88
400.165	81.88
400.389	87.88
400.613	89.88
400.837	87.88
401.062	88.88
401.286	79.88
401.51	85.88
401.734	106.88
401.958	108.88
402.182	135.88
402.406	157.88
402.63	115.88
402.854	97.88
403.078	82.88
403.302	78.88
403.526	84.88
403.75	94.88
403.974	93.88
404.198	86.88
404.422	91.88
404.645	74.88
404.869	84.88
405.093	75.88
405.317	79.88
405.541	83.88
405.765	95.88
405.988	110.88
406.212	147.88
406.436	197.88
406.66	140.88
406.883	95.88
407.107	88.88
407.331	110.88
407.555	109.88
407.778	100.88
408.002	100.88
408.226	107.88
408.449	105.88
408.673	100.88
408.896	87.88
409.12	93.88
409.344	86.88
409.567	97.88
409.791	78.88
410.014	108.88
410.238	92.88
410.461	85.88
410.685	101.88
410.908	106.88
411.132	99.88
411.355	88.88
411.578	102.88
411.802	83.88
412.025	94.88
412.249	80.88
412.472	82.88
412.695	83.88
412.919	83.88
413.142	93.88
413.365	86.88
413.589	91.88
413.812	91.88
414.035	101.88
414.258	88.88
414.482	98.88
414.705	93.88
414.928	99.88
415.151	80.88
415.374	110.88
415.597	92.88
415.821	82.88
416.044	88.88
416.267	81.88
416.49	93.88
416.713	81.88
416.936	90.88
417.159	93.88
417.382	96.88
417.605	90.88
417.828	87.88
418.051	101.88
418.274	88.88
418.497	78.88
418.72	83.88
418.943	83.88
419.166	80.88
419.389	91.88
419.611	79.88
419.834	82.88
420.057	98.88
420.28	95.88
420.503	74.88
420.726	81.88
420.948	84.88
421.171	109.88
421.394	80.88
421.617	91.88
421.839	79.88
422.062	87.88
422.285	87.88
422.507	102.88
422.73	82.88
422.953	104.88
423.175	88.88
423.398	101.88
423.621	93.88
423.843	85.88
424.066	89.88
424.288	94.88
424.511	86.88
424.733	92.88
424.956	92.88
425.178	94.88
425.401	82.88
425.623	89.88
425.846	87.88
426.068	94.88
426.291	90.88
426.513	91.88
426.735	93.88
426.958	91.88
427.18	102.88
427.402	116.88
427.625	131.88
427.847	107.88
428.069	79.88
428.292	89.88
428.514	82.88
428.736	82.88
428.958	87.88
429.181	83.88
429.403	70.88
429.625	91.88
429.847	93.88
430.069	101.88
430.292	96.88
430.514	78.88
430.736	87.88
430.958	99.88
431.18	85.88
431.402	76.88
431.624	73.88
431.846	90.88
432.068	84.88
432.29	86.88
432.512	93.88
432.734	82.88
432.956	77.88
433.178	98.88
433.4	86.88
433.622	93.88
433.844	87.88
434.066	93.88
434.287	82.88
434.509	92.88
434.731	80.88
434.953	92.88
435.175	79.88
435.397	76.88
435.618	80.88
435.84	101.88
436.062	119.88
436.284	101.88
436.505	98.88
436.727	91.88
436.949	84.88
437.17	77.88
437.392	82.88
437.614	97.88
437.835	86.88
438.057	113.88
438.278	114.88
438.5	94.88
438.721	110.88
438.943	103.88
439.165	87.88
439.386	75.88
439.608	80.88
439.829	93.88
440.05	118.88
440.272	116.88
440.493	103.88
440.715	100.88
440.936	95.88
441.158	81.88
441.379	82.88
441.6	83.88
441.822	87.88
442.043	87.88
442.264	87.88
442.486	94.88
442.707	97.88
442.928	100.88
443.149	114.88
443.371	129.88
443.592	100.88
443.813	109.88
444.034	103.88
444.255	94.88
444.476	79.88
444.698	84.88
444.919	77.88
445.14	127.88
445.361	124.88
445.582	103.88
445.803	122.88
446.024	125.88
446.245	131.88
446.466	88.88
446.687	87.88
446.908	96.88
447.129	91.88
447.35	99.88
447.571	85.88
447.792	101.88
448.013	102.88
448.234	108.88
448.455	99.88
448.675	94.88
448.896	106.88
449.117	85.88
449.338	100.88
449.559	117.88
449.779	104.88
450	92.88
450.221	93.88
450.442	70.88
450.662	85.88
450.883	97.88
451.104	109.88
451.324	100.88
451.545	88.88
451.766	74.88
451.986	99.88
452.207	85.88
452.428	81.88
452.648	87.88
452.869	100.88
453.089	106.88
453.31	101.88
453.53	98.88
453.751	89.88
453.971	123.88
454.192	102.88
454.412	85.88
454.633	79.88
454.853	88.88
455.073	80.88
455.294	83.88
455.514	82.88
455.734	96.88
455.955	86.88
456.175	78.88
456.395	89.88
456.616	79.88
456.836	79.88
457.056	79.88
457.276	78.88
457.497	86.88
457.717	83.88
457.937	89.88
458.157	100.88
458.377	95.88
458.598	76.88
458.818	127.88
459.038	130.88
459.258	100.88
459.478	88.88
459.698	79.88
459.918	65.88
460.138	74.88
460.358	75.88
460.578	86.88
460.798	91.88
461.018	89.88
461.238	76.88
461.458	85.88
461.678	78.88
461.898	91.88
462.118	88.88
462.338	79.88
462.558	91.88
462.777	80.88
462.997	79.88
463.217	73.88
463.437	90.88
463.657	83.88
463.876	90.88
464.096	89.88
464.316	101.88
464.536	91.88
464.755	107.88
464.975	95.88
465.195	142.88
465.414	139.88
465.634	94.88
465.854	97.88
466.073	83.88
466.293	91.88
466.512	74.88
466.732	78.88
466.951	86.88
467.171	97.88
467.391	92.88
467.61	94.88
467.829	91.88
468.049	78.88
468.268	86.88
468.488	74.88
468.707	80.88
468.927	87.88
469.146	94.88
469.365	77.88
469.585	83.88
469.804	93.88
470.023	81.88
470.243	90.88
470.462	93.88
470.681	94.88
470.901	93.88
471.12	85.88
471.339	84.88
471.558	76.88
471.777	93.88
471.997	71.88
472.216	84.88
472.435	90.88
472.654	87.88
472.873	89.88
473.092	85.88
473.311	75.88
473.53	80.88
473.749	89.88
473.968	97.88
474.187	99.88
474.406	100.88
474.625	83.88
474.844	89.88
475.063	76.88
475.282	87.88
475.501	78.88
475.72	80.88
475.939	98.88
476.158	94.88
476.377	94.88
476.596	90.88
476.814	95.88
477.033	107.88
477.252	85.88
477.471	89.88
477.69	97.88
477.908	81.88
478.127	87.88
478.346	92.88
478.564	85.88
478.783	89.88
479.002	90.88
479.22	86.88
479.439	91.88
479.658	99.88
479.876	98.88
480.095	87.88
480.313	78.88
480.532	98.88
480.751	90.88
480.969	66.88
481.188	87.88
481.406	78.88
481.624	91.88
481.843	79.88
482.061	78.88
482.28	92.88
482.498	98.88
482.717	77.88
482.935	86.88
483.153	94.88
483.372	81.88
483.59	82.88
483.808	99.88
484.027	87.88
484.245	85.88
484.463	94.88
484.681	98.88
484.9	85.88
485.118	93.88
485.336	79.88
485.554	87.88
485.772	108.88
485.99	94.88
486.209	101.88
486.427	109.88
486.645	100.88
486.863	107.88
487.081	87.88
487.299	79.88
487.517	101.88
487.735	87.88
487.953	98.88
488.171	91.88
488.389	86.88
488.607	93.88
488.825	98.88
489.043	87.88
489.261	82.88
489.479	85.88
489.696	93.88
489.914	88.88
490.132	85.88
490.35	97.88
490.568	93.88
490.786	94.88
491.003	73.88
491.221	69.88
491.439	83.88
491.657	87.88
491.874	95.88
492.092	84.88
492.31	86.88
492.527	94.88
492.745	98.88
492.963	93.88
493.18	86.88
493.398	87.88
493.615	90.88
493.833	97.88
494.05	96.88
494.268	91.88
494.485	91.88
494.703	86.88
494.92	94.88
495.138	72.88
495.355	79.88
495.573	82.88
495.79	110.88
496.008	99.88
496.225	86.88
496.442	95.88
496.66	94.88
496.877	92.88
497.094	89.88
497.312	93.88
497.529	90.88
497.746	92.88
497.963	85.88
498.181	85.88
498.398	98.88
498.615	109.88
498.832	93.88
499.049	88.88
499.267	101.88
499.484	89.88
499.701	85.88
499.918	93.88
500.135	81.88
500.352	83.88
500.569	92.88
500.786	87.88
501.003	95.88
501.22	83.88
501.437	97.88
501.654	93.88
501.871	94.88
502.088	96.88
502.305	87.88
502.522	95.88
502.739	93.88
502.956	94.88
503.172	96.88
503.389	107.88
503.606	103.88
503.823	89.88
504.04	81.88
504.256	72.88
504.473	83.88
504.69	86.88
504.907	94.88
505.123	93.88
505.34	97.88
505.557	86.88
505.773	88.88
505.99	86.88
506.207	87.88
506.423	95.88
506.64	97.88
506.856	85.88
507.073	90.88
507.289	89.88
507.506	90.88
507.722	98.88
507.939	107.88
508.155	88.88
508.372	103.88
508.588	93.88
508.805	95.88
509.021	84.88
509.238	109.88
509.454	88.88
509.67	87.88
509.887	94.88
510.103	121.88
510.319	191.88
510.536	718.88
510.752	2169.88
510.968	610.88
511.184	147.88
511.401	107.88
511.617	108.88
511.833	87.88
512.049	95.88
512.265	102.88
512.481	86.88
512.698	75.88
512.914	89.88
513.13	94.88
513.346	87.88
513.562	105.88
513.778	93.88
513.994	88.88
514.21	116.88
514.426	101.88
514.642	116.88
514.858	111.88
515.074	138.88
515.29	377.88
515.506	1276.88
515.721	481.88
515.937	157.88
516.153	114.88
516.369	86.88
516.585	101.88
