Data from Uncirc_2006_H10_HRD10591_00043.txt Node
Date: Wed Jan 03 10:25:03 EST 2024
User: Yrep
Spectrometer: HR+D1059
Trigger mode: 1
Integration Time (sec): 1.000000E-1
Scans to average: 1
Electric dark correction enabled: true
Nonlinearity correction enabled: false
Boxcar width: 0
XAxis mode: Wavelengths
Number of Pixels in Spectrum: 2048
>>>>>Begin Spectral Data<<<<<
223.165	-20.88
223.4	-20.88
223.635	-20.88
223.869	-10.88
224.104	-15.88
224.338	-20.88
224.573	-2.88
224.808	-6.88
225.042	-8.88
225.277	-6.88
225.511	-7.88
225.746	5.12
225.98	16.12
226.215	8.12
226.449	10.12
226.683	0.12
226.918	26.12
227.152	36.12
227.387	42.12
227.621	36.12
227.856	36.12
228.09	43.12
228.324	50.12
228.559	52.12
228.793	60.12
229.027	67.12
229.262	58.12
229.496	78.12
229.73	69.12
229.964	73.12
230.199	69.12
230.433	85.12
230.667	68.12
230.901	75.12
231.136	84.12
231.37	85.12
231.604	74.12
231.838	79.12
232.072	82.12
232.306	73.12
232.541	80.12
232.775	76.12
233.009	87.12
233.243	74.12
233.477	77.12
233.711	85.12
233.945	80.12
234.179	81.12
234.413	73.12
234.647	84.12
234.881	72.12
235.115	78.12
235.349	82.12
235.583	85.12
235.817	76.12
236.051	83.12
236.285	96.12
236.519	70.12
236.753	74.12
236.987	83.12
237.221	89.12
237.455	86.12
237.689	70.12
237.922	73.12
238.156	65.12
238.39	81.12
238.624	72.12
238.858	73.12
239.091	72.12
239.325	81.12
239.559	74.12
239.793	77.12
240.027	85.12
240.26	77.12
240.494	74.12
240.728	67.12
240.961	67.12
241.195	98.12
241.429	63.12
241.662	69.12
241.896	92.12
242.13	93.12
242.363	85.12
242.597	77.12
242.83	77.12
243.064	76.12
243.298	73.12
243.531	69.12
243.765	72.12
243.998	74.12
244.232	78.12
244.465	82.12
244.699	82.12
244.932	74.12
245.166	91.12
245.399	84.12
245.633	75.12
245.866	64.12
246.099	88.12
246.333	84.12
246.566	83.12
246.8	77.12
247.033	80.12
247.266	84.12
247.5	82.12
247.733	82.12
247.966	95.12
248.2	80.12
248.433	65.12
248.666	74.12
248.899	75.12
249.133	83.12
249.366	91.12
249.599	97.12
249.832	79.12
250.066	82.12
250.299	91.12
250.532	89.12
250.765	87.12
250.998	81.12
251.231	77.12
251.465	81.12
251.698	73.12
251.931	82.12
252.164	84.12
252.397	78.12
252.63	83.12
252.863	91.12
253.096	70.12
253.329	78.12
253.562	79.12
253.795	73.12
254.028	85.12
254.261	87.12
254.494	79.12
254.727	73.12
254.96	84.12
255.193	93.12
255.426	67.12
255.659	78.12
255.892	87.12
256.124	83.12
256.357	87.12
256.59	75.12
256.823	66.12
257.056	79.12
257.289	75.12
257.521	84.12
257.754	81.12
257.987	87.12
258.22	87.12
258.452	96.12
258.685	80.12
258.918	70.12
259.151	90.12
259.383	88.12
259.616	84.12
259.849	80.12
260.081	89.12
260.314	94.12
260.547	82.12
260.779	83.12
261.012	75.12
261.244	83.12
261.477	87.12
261.71	96.12
261.942	107.12
262.175	107.12
262.407	93.12
262.64	91.12
262.872	78.12
263.105	73.12
263.337	89.12
263.57	74.12
263.802	73.12
264.035	83.12
264.267	69.12
264.499	78.12
264.732	83.12
264.964	72.12
265.197	81.12
265.429	83.12
265.661	75.12
265.894	74.12
266.126	81.12
266.358	95.12
266.591	77.12
266.823	90.12
267.055	80.12
267.287	83.12
267.52	97.12
267.752	92.12
267.984	94.12
268.216	85.12
268.448	89.12
268.681	98.12
268.913	87.12
269.145	78.12
269.377	80.12
269.609	81.12
269.841	73.12
270.073	78.12
270.306	84.12
270.538	91.12
270.77	83.12
271.002	93.12
271.234	80.12
271.466	94.12
271.698	85.12
271.93	94.12
272.162	75.12
272.394	85.12
272.626	80.12
272.858	86.12
273.09	88.12
273.322	78.12
273.553	82.12
273.785	84.12
274.017	85.12
274.249	89.12
274.481	82.12
274.713	74.12
274.945	82.12
275.176	71.12
275.408	82.12
275.64	85.12
275.872	86.12
276.104	83.12
276.335	87.12
276.567	93.12
276.799	105.12
277.031	98.12
277.262	73.12
277.494	81.12
277.726	95.12
277.957	84.12
278.189	86.12
278.421	74.12
278.652	87.12
278.884	87.12
279.115	91.12
279.347	109.12
279.579	84.12
279.81	85.12
280.042	88.12
280.273	73.12
280.505	85.12
280.736	71.12
280.968	97.12
281.199	84.12
281.431	69.12
281.662	95.12
281.894	81.12
282.125	87.12
282.356	100.12
282.588	119.12
282.819	101.12
283.051	88.12
283.282	94.12
283.513	103.12
283.745	86.12
283.976	90.12
284.207	79.12
284.439	78.12
284.67	79.12
284.901	82.12
285.132	87.12
285.364	80.12
285.595	61.12
285.826	84.12
286.057	80.12
286.288	85.12
286.52	93.12
286.751	93.12
286.982	91.12
287.213	94.12
287.444	91.12
287.675	81.12
287.906	77.12
288.138	84.12
288.369	89.12
288.6	73.12
288.831	71.12
289.062	73.12
289.293	82.12
289.524	81.12
289.755	82.12
289.986	82.12
290.217	91.12
290.448	88.12
290.679	64.12
290.91	92.12
291.141	84.12
291.371	78.12
291.602	79.12
291.833	98.12
292.064	75.12
292.295	85.12
292.526	92.12
292.757	63.12
292.987	89.12
293.218	86.12
293.449	88.12
293.68	91.12
293.91	80.12
294.141	86.12
294.372	86.12
294.603	87.12
294.833	94.12
295.064	86.12
295.295	91.12
295.525	91.12
295.756	109.12
295.987	99.12
296.217	144.12
296.448	112.12
296.679	87.12
296.909	79.12
297.14	87.12
297.37	92.12
297.601	84.12
297.831	96.12
298.062	89.12
298.292	94.12
298.523	87.12
298.753	83.12
298.984	76.12
299.214	89.12
299.445	95.12
299.675	107.12
299.905	97.12
300.136	75.12
300.366	98.12
300.597	73.12
300.827	87.12
301.057	105.12
301.288	99.12
301.518	88.12
301.748	86.12
301.979	103.12
302.209	77.12
302.439	79.12
302.669	87.12
302.9	88.12
303.13	105.12
303.36	100.12
303.59	88.12
303.82	98.12
304.051	83.12
304.281	85.12
304.511	97.12
304.741	95.12
304.971	82.12
305.201	83.12
305.431	94.12
305.661	93.12
305.891	92.12
306.121	97.12
306.352	89.12
306.582	84.12
306.812	90.12
307.042	80.12
307.272	78.12
307.502	86.12
307.731	92.12
307.961	86.12
308.191	85.12
308.421	85.12
308.651	69.12
308.881	81.12
309.111	96.12
309.341	88.12
309.571	92.12
309.8	102.12
310.03	103.12
310.26	85.12
310.49	97.12
310.72	94.12
310.949	96.12
311.179	98.12
311.409	99.12
311.639	100.12
311.868	111.12
312.098	83.12
312.328	93.12
312.557	100.12
312.787	100.12
313.017	93.12
313.246	97.12
313.476	105.12
313.706	96.12
313.935	75.12
314.165	98.12
314.394	92.12
314.624	105.12
314.853	86.12
315.083	98.12
315.312	86.12
315.542	91.12
315.771	75.12
316.001	94.12
316.23	100.12
316.46	92.12
316.689	78.12
316.919	77.12
317.148	76.12
317.377	86.12
317.607	97.12
317.836	97.12
318.065	82.12
318.295	88.12
318.524	86.12
318.753	87.12
318.983	95.12
319.212	104.12
319.441	100.12
319.67	104.12
319.9	93.12
320.129	84.12
320.358	91.12
320.587	83.12
320.816	86.12
321.046	101.12
321.275	101.12
321.504	91.12
321.733	110.12
321.962	105.12
322.191	99.12
322.42	97.12
322.649	96.12
322.878	101.12
323.108	113.12
323.337	120.12
323.566	122.12
323.795	158.12
324.024	206.12
324.253	406.12
324.482	856.12
324.71	1733.12
324.939	2294.12
325.168	833.12
325.397	238.12
325.626	142.12
325.855	117.12
326.084	142.12
326.313	137.12
326.542	148.12
326.77	238.12
326.999	477.12
327.228	995.12
327.457	1757.12
327.686	1425.12
327.914	354.12
328.143	184.12
328.372	144.12
328.6	118.12
328.829	118.12
329.058	127.12
329.287	100.12
329.515	103.12
329.744	93.12
329.972	110.12
330.201	103.12
330.43	99.12
330.658	106.12
330.887	125.12
331.115	114.12
331.344	115.12
331.572	86.12
331.801	99.12
332.03	106.12
332.258	86.12
332.486	91.12
332.715	92.12
332.943	91.12
333.172	106.12
333.4	92.12
333.629	98.12
333.857	117.12
334.085	112.12
334.314	87.12
334.542	101.12
334.771	92.12
334.999	102.12
335.227	91.12
335.455	100.12
335.684	91.12
335.912	93.12
336.14	92.12
336.369	103.12
336.597	94.12
336.825	94.12
337.053	87.12
337.281	90.12
337.51	84.12
337.738	91.12
337.966	86.12
338.194	105.12
338.422	92.12
338.65	82.12
338.878	91.12
339.106	79.12
339.334	95.12
339.562	99.12
339.79	89.12
340.018	87.12
340.246	94.12
340.474	81.12
340.702	90.12
340.93	90.12
341.158	84.12
341.386	105.12
341.614	89.12
341.842	92.12
342.07	91.12
342.298	91.12
342.526	81.12
342.754	69.12
342.981	93.12
343.209	87.12
343.437	87.12
343.665	82.12
343.893	92.12
344.12	88.12
344.348	84.12
344.576	89.12
344.804	92.12
345.031	98.12
345.259	92.12
345.487	94.12
345.714	102.12
345.942	101.12
346.17	81.12
346.397	83.12
346.625	85.12
346.853	103.12
347.08	96.12
347.308	91.12
347.535	99.12
347.763	101.12
347.99	88.12
348.218	107.12
348.445	98.12
348.673	101.12
348.9	81.12
349.128	94.12
349.355	104.12
349.583	102.12
349.81	98.12
350.037	104.12
350.265	77.12
350.492	73.12
350.72	85.12
350.947	96.12
351.174	107.12
351.402	110.12
351.629	108.12
351.856	101.12
352.083	87.12
352.311	88.12
352.538	105.12
352.765	113.12
352.992	110.12
353.22	100.12
353.447	104.12
353.674	105.12
353.901	97.12
354.128	93.12
354.355	102.12
354.583	97.12
354.81	98.12
355.037	89.12
355.264	82.12
355.491	81.12
355.718	85.12
355.945	97.12
356.172	91.12
356.399	86.12
356.626	100.12
356.853	95.12
357.08	96.12
357.307	77.12
357.534	90.12
357.761	88.12
357.988	89.12
358.215	106.12
358.441	108.12
358.668	104.12
358.895	95.12
359.122	99.12
359.349	96.12
359.576	76.12
359.802	87.12
360.029	101.12
360.256	112.12
360.483	101.12
360.709	79.12
360.936	100.12
361.163	89.12
361.39	98.12
361.616	102.12
361.843	95.12
362.07	89.12
362.296	85.12
362.523	97.12
362.749	90.12
362.976	105.12
363.203	80.12
363.429	93.12
363.656	79.12
363.882	94.12
364.109	87.12
364.335	95.12
364.562	96.12
364.788	93.12
365.015	93.12
365.241	101.12
365.468	100.12
365.694	101.12
365.92	95.12
366.147	91.12
366.373	85.12
366.599	89.12
366.826	78.12
367.052	94.12
367.278	85.12
367.505	104.12
367.731	92.12
367.957	100.12
368.184	86.12
368.41	89.12
368.636	106.12
368.862	109.12
369.089	104.12
369.315	84.12
369.541	94.12
369.767	87.12
369.993	79.12
370.219	82.12
370.445	91.12
370.672	91.12
370.898	77.12
371.124	75.12
371.35	94.12
371.576	82.12
371.802	84.12
372.028	85.12
372.254	87.12
372.48	83.12
372.706	96.12
372.932	77.12
373.158	83.12
373.384	78.12
373.61	93.12
373.835	86.12
374.061	88.12
374.287	105.12
374.513	86.12
374.739	93.12
374.965	98.12
375.191	89.12
375.416	95.12
375.642	98.12
375.868	70.12
376.094	75.12
376.319	92.12
376.545	105.12
376.771	78.12
376.997	85.12
377.222	108.12
377.448	87.12
377.674	97.12
377.899	96.12
378.125	92.12
378.35	97.12
378.576	96.12
378.802	100.12
379.027	85.12
379.253	91.12
379.478	100.12
379.704	85.12
379.929	81.12
380.155	83.12
380.38	97.12
380.606	86.12
380.831	105.12
381.057	110.12
381.282	86.12
381.507	94.12
381.733	96.12
381.958	93.12
382.184	91.12
382.409	98.12
382.634	100.12
382.86	101.12
383.085	96.12
383.31	102.12
383.535	107.12
383.761	108.12
383.986	111.12
384.211	97.12
384.436	95.12
384.662	126.12
384.887	93.12
385.112	104.12
385.337	94.12
385.562	106.12
385.787	78.12
386.013	130.12
386.238	118.12
386.463	97.12
386.688	112.12
386.913	105.12
387.138	99.12
387.363	88.12
387.588	100.12
387.813	93.12
388.038	114.12
388.263	125.12
388.488	106.12
388.713	91.12
388.938	90.12
389.163	97.12
389.387	103.12
389.612	101.12
389.837	95.12
390.062	97.12
390.287	104.12
390.512	84.12
390.736	93.12
390.961	94.12
391.186	95.12
391.411	105.12
391.636	83.12
391.86	92.12
392.085	87.12
392.31	84.12
392.534	86.12
392.759	92.12
392.984	98.12
393.208	76.12
393.433	92.12
393.658	85.12
393.882	85.12
394.107	88.12
394.331	89.12
394.556	90.12
394.78	96.12
395.005	86.12
395.229	86.12
395.454	83.12
395.678	70.12
395.903	82.12
396.127	83.12
396.352	99.12
396.576	88.12
396.801	91.12
397.025	84.12
397.249	89.12
397.474	81.12
397.698	93.12
397.922	92.12
398.147	79.12
398.371	103.12
398.595	85.12
398.82	98.12
399.044	95.12
399.268	85.12
399.492	92.12
399.717	98.12
399.941	105.12
400.165	97.12
400.389	101.12
400.613	87.12
400.837	96.12
401.062	76.12
401.286	90.12
401.51	86.12
401.734	96.12
401.958	95.12
402.182	126.12
402.406	158.12
402.63	106.12
402.854	87.12
403.078	94.12
403.302	71.12
403.526	87.12
403.75	87.12
403.974	86.12
404.198	82.12
404.422	98.12
404.645	89.12
404.869	82.12
405.093	93.12
405.317	91.12
405.541	95.12
405.765	95.12
405.988	119.12
406.212	170.12
406.436	222.12
406.66	142.12
406.883	90.12
407.107	80.12
407.331	99.12
407.555	91.12
407.778	99.12
408.002	102.12
408.226	94.12
408.449	73.12
408.673	85.12
408.896	90.12
409.12	101.12
409.344	93.12
409.567	98.12
409.791	100.12
410.014	94.12
410.238	79.12
410.461	78.12
410.685	86.12
410.908	109.12
411.132	104.12
411.355	106.12
411.578	95.12
411.802	94.12
412.025	93.12
412.249	91.12
412.472	109.12
412.695	87.12
412.919	107.12
413.142	90.12
413.365	93.12
413.589	89.12
413.812	89.12
414.035	115.12
414.258	99.12
414.482	98.12
414.705	68.12
414.928	93.12
415.151	89.12
415.374	97.12
415.597	79.12
415.821	101.12
416.044	93.12
416.267	77.12
416.49	87.12
416.713	95.12
416.936	96.12
417.159	85.12
417.382	104.12
417.605	85.12
417.828	93.12
418.051	82.12
418.274	90.12
418.497	92.12
418.72	91.12
418.943	97.12
419.166	91.12
419.389	78.12
419.611	86.12
419.834	87.12
420.057	85.12
420.28	104.12
420.503	80.12
420.726	83.12
420.948	85.12
421.171	83.12
421.394	96.12
421.617	105.12
421.839	96.12
422.062	84.12
422.285	96.12
422.507	87.12
422.73	115.12
422.953	104.12
423.175	95.12
423.398	83.12
423.621	77.12
423.843	90.12
424.066	83.12
424.288	99.12
424.511	79.12
424.733	92.12
424.956	96.12
425.178	92.12
425.401	108.12
425.623	102.12
425.846	91.12
426.068	93.12
426.291	90.12
426.513	96.12
426.735	94.12
426.958	97.12
427.18	112.12
427.402	129.12
427.625	157.12
427.847	137.12
428.069	75.12
428.292	83.12
428.514	88.12
428.736	82.12
428.958	87.12
429.181	87.12
429.403	94.12
429.625	80.12
429.847	87.12
430.069	100.12
430.292	100.12
430.514	78.12
430.736	93.12
430.958	80.12
431.18	88.12
431.402	84.12
431.624	87.12
431.846	99.12
432.068	89.12
432.29	90.12
432.512	86.12
432.734	86.12
432.956	107.12
433.178	89.12
433.4	95.12
433.622	85.12
433.844	81.12
434.066	81.12
434.287	100.12
434.509	83.12
434.731	93.12
434.953	77.12
435.175	83.12
435.397	97.12
435.618	95.12
435.84	91.12
436.062	106.12
436.284	115.12
436.505	116.12
436.727	84.12
436.949	106.12
437.17	101.12
437.392	89.12
437.614	87.12
437.835	106.12
438.057	115.12
438.278	102.12
438.5	88.12
438.721	115.12
438.943	100.12
439.165	87.12
439.386	89.12
439.608	86.12
439.829	91.12
440.05	105.12
440.272	145.12
440.493	90.12
440.715	94.12
440.936	90.12
441.158	77.12
441.379	85.12
441.6	73.12
441.822	103.12
442.043	98.12
442.264	97.12
442.486	95.12
442.707	103.12
442.928	113.12
443.149	139.12
443.371	125.12
443.592	121.12
443.813	96.12
444.034	115.12
444.255	96.12
444.476	82.12
444.698	106.12
444.919	91.12
445.14	124.12
445.361	127.12
445.582	116.12
445.803	125.12
446.024	138.12
446.245	127.12
446.466	107.12
446.687	103.12
446.908	80.12
447.129	88.12
447.35	89.12
447.571	94.12
447.792	88.12
448.013	97.12
448.234	90.12
448.455	113.12
448.675	123.12
448.896	121.12
449.117	82.12
449.338	95.12
449.559	117.12
449.779	131.12
450	96.12
450.221	83.12
450.442	94.12
450.662	99.12
450.883	82.12
451.104	100.12
451.324	101.12
451.545	85.12
451.766	96.12
451.986	97.12
452.207	98.12
452.428	85.12
452.648	82.12
452.869	112.12
453.089	96.12
453.31	114.12
453.53	99.12
453.751	103.12
453.971	105.12
454.192	114.12
454.412	90.12
454.633	83.12
454.853	86.12
455.073	79.12
455.294	77.12
455.514	90.12
455.734	80.12
455.955	73.12
456.175	90.12
456.395	81.12
456.616	79.12
456.836	81.12
457.056	79.12
457.276	91.12
457.497	78.12
457.717	92.12
457.937	101.12
458.157	84.12
458.377	91.12
458.598	98.12
458.818	134.12
459.038	143.12
459.258	110.12
459.478	98.12
459.698	78.12
459.918	84.12
460.138	86.12
460.358	76.12
460.578	81.12
460.798	99.12
461.018	102.12
461.238	89.12
461.458	78.12
461.678	91.12
461.898	86.12
462.118	73.12
462.338	88.12
462.558	95.12
462.777	81.12
462.997	89.12
463.217	75.12
463.437	81.12
463.657	99.12
463.876	92.12
464.096	104.12
464.316	102.12
464.536	95.12
464.755	100.12
464.975	116.12
465.195	150.12
465.414	162.12
465.634	106.12
465.854	98.12
466.073	77.12
466.293	91.12
466.512	88.12
466.732	91.12
466.951	83.12
467.171	87.12
467.391	100.12
467.61	95.12
467.829	96.12
468.049	75.12
468.268	82.12
468.488	98.12
468.707	78.12
468.927	87.12
469.146	91.12
469.365	81.12
469.585	84.12
469.804	92.12
470.023	82.12
470.243	107.12
470.462	107.12
470.681	101.12
470.901	73.12
471.12	93.12
471.339	88.12
471.558	89.12
471.777	92.12
471.997	90.12
472.216	84.12
472.435	79.12
472.654	81.12
472.873	91.12
473.092	89.12
473.311	82.12
473.53	76.12
473.749	93.12
473.968	90.12
474.187	102.12
474.406	91.12
474.625	89.12
474.844	86.12
475.063	93.12
475.282	95.12
475.501	91.12
475.72	94.12
475.939	88.12
476.158	80.12
476.377	84.12
476.596	106.12
476.814	93.12
477.033	76.12
477.252	87.12
477.471	63.12
477.69	82.12
477.908	86.12
478.127	82.12
478.346	82.12
478.564	85.12
478.783	94.12
479.002	84.12
479.22	99.12
479.439	88.12
479.658	85.12
479.876	93.12
480.095	85.12
480.313	106.12
480.532	86.12
480.751	92.12
480.969	92.12
481.188	94.12
481.406	102.12
481.624	93.12
481.843	96.12
482.061	79.12
482.28	91.12
482.498	83.12
482.717	85.12
482.935	84.12
483.153	75.12
483.372	81.12
483.59	85.12
483.808	79.12
484.027	85.12
484.245	89.12
484.463	97.12
484.681	100.12
484.9	89.12
485.118	78.12
485.336	89.12
485.554	102.12
485.772	99.12
485.99	110.12
486.209	89.12
486.427	90.12
486.645	114.12
486.863	102.12
487.081	95.12
487.299	80.12
487.517	101.12
487.735	115.12
487.953	113.12
488.171	102.12
488.389	110.12
488.607	103.12
488.825	93.12
489.043	102.12
489.261	84.12
489.479	91.12
489.696	86.12
489.914	81.12
490.132	69.12
490.35	76.12
490.568	105.12
490.786	99.12
491.003	89.12
491.221	87.12
491.439	99.12
491.657	94.12
491.874	96.12
492.092	98.12
492.31	95.12
492.527	86.12
492.745	84.12
492.963	85.12
493.18	86.12
493.398	80.12
493.615	95.12
493.833	90.12
494.05	89.12
494.268	93.12
494.485	91.12
494.703	81.12
494.92	93.12
495.138	90.12
495.355	93.12
495.573	96.12
495.79	85.12
496.008	90.12
496.225	91.12
496.442	97.12
496.66	92.12
496.877	84.12
497.094	75.12
497.312	96.12
497.529	82.12
497.746	94.12
497.963	91.12
498.181	84.12
498.398	83.12
498.615	103.12
498.832	99.12
499.049	92.12
499.267	95.12
499.484	89.12
499.701	91.12
499.918	96.12
500.135	91.12
500.352	98.12
500.569	102.12
500.786	96.12
501.003	96.12
501.22	88.12
501.437	91.12
501.654	87.12
501.871	103.12
502.088	84.12
502.305	84.12
502.522	94.12
502.739	87.12
502.956	99.12
503.172	101.12
503.389	96.12
503.606	96.12
503.823	96.12
504.04	99.12
504.256	87.12
504.473	95.12
504.69	102.12
504.907	89.12
505.123	85.12
505.34	88.12
505.557	81.12
505.773	100.12
505.99	102.12
506.207	99.12
506.423	92.12
506.64	73.12
506.856	91.12
507.073	101.12
507.289	87.12
507.506	109.12
507.722	117.12
507.939	100.12
508.155	90.12
508.372	84.12
508.588	97.12
508.805	94.12
509.021	74.12
509.238	108.12
509.454	82.12
509.67	92.12
509.887	108.12
510.103	126.12
510.319	203.12
510.536	754.12
510.752	2311.12
510.968	668.12
511.184	165.12
511.401	103.12
511.617	90.12
511.833	102.12
512.049	94.12
512.265	84.12
512.481	90.12
512.698	95.12
512.914	90.12
513.13	85.12
513.346	95.12
513.562	86.12
513.778	93.12
513.994	101.12
514.21	100.12
514.426	113.12
514.642	141.12
514.858	109.12
515.074	161.12
515.29	468.12
515.506	1449.12
515.721	548.12
515.937	144.12
516.153	107.12
