Data from 10100_2_HRD10591_00041.txt Node
Date: Mon Jan 19 14:01:44 EST 2026
User: Yrep
Spectrometer: HR+D1059
Trigger mode: 1
Integration Time (sec): 1.000000E-1
Scans to average: 1
Electric dark correction enabled: true
Nonlinearity correction enabled: false
Boxcar width: 0
XAxis mode: Wavelengths
Number of Pixels in Spectrum: 2048
>>>>>Begin Spectral Data<<<<<
223.165	-21.69
223.4	-21.69
223.635	-21.69
223.869	-16.69
224.104	-10.69
224.338	-20.69
224.573	-17.69
224.808	-10.69
225.042	-11.69
225.277	-1.69
225.511	-6.69
225.746	18.31
225.98	3.31
226.215	21.31
226.449	17.31
226.683	10.31
226.918	21.31
227.152	26.31
227.387	44.31
227.621	44.31
227.856	51.31
228.09	58.31
228.324	46.31
228.559	65.31
228.793	67.31
229.027	73.31
229.262	66.31
229.496	66.31
229.73	72.31
229.964	71.31
230.199	74.31
230.433	74.31
230.667	71.31
230.901	88.31
231.136	87.31
231.37	88.31
231.604	78.31
231.838	93.31
232.072	74.31
232.306	80.31
232.541	84.31
232.775	85.31
233.009	90.31
233.243	94.31
233.477	72.31
233.711	82.31
233.945	89.31
234.179	79.31
234.413	91.31
234.647	87.31
234.881	82.31
235.115	90.31
235.349	92.31
235.583	85.31
235.817	87.31
236.051	92.31
236.285	74.31
236.519	78.31
236.753	70.31
236.987	76.31
237.221	68.31
237.455	82.31
237.689	94.31
237.922	87.31
238.156	90.31
238.39	78.31
238.624	88.31
238.858	84.31
239.091	71.31
239.325	73.31
239.559	89.31
239.793	85.31
240.027	85.31
240.26	79.31
240.494	81.31
240.728	79.31
240.961	83.31
241.195	78.31
241.429	69.31
241.662	77.31
241.896	88.31
242.13	92.31
242.363	68.31
242.597	78.31
242.83	75.31
243.064	78.31
243.298	73.31
243.531	78.31
243.765	89.31
243.998	80.31
244.232	86.31
244.465	92.31
244.699	72.31
244.932	89.31
245.166	78.31
245.399	89.31
245.633	68.31
245.866	92.31
246.099	76.31
246.333	87.31
246.566	89.31
246.8	79.31
247.033	85.31
247.266	80.31
247.5	87.31
247.733	73.31
247.966	79.31
248.2	77.31
248.433	92.31
248.666	76.31
248.899	91.31
249.133	85.31
249.366	77.31
249.599	73.31
249.832	85.31
250.066	80.31
250.299	76.31
250.532	85.31
250.765	84.31
250.998	74.31
251.231	89.31
251.465	74.31
251.698	88.31
251.931	90.31
252.164	77.31
252.397	86.31
252.63	71.31
252.863	67.31
253.096	78.31
253.329	94.31
253.562	92.31
253.795	80.31
254.028	75.31
254.261	85.31
254.494	82.31
254.727	91.31
254.96	74.31
255.193	93.31
255.426	83.31
255.659	81.31
255.892	94.31
256.124	84.31
256.357	85.31
256.59	86.31
256.823	82.31
257.056	79.31
257.289	97.31
257.521	87.31
257.754	80.31
257.987	79.31
258.22	84.31
258.452	80.31
258.685	77.31
258.918	75.31
259.151	87.31
259.383	78.31
259.616	82.31
259.849	90.31
260.081	91.31
260.314	81.31
260.547	77.31
260.779	84.31
261.012	95.31
261.244	94.31
261.477	93.31
261.71	82.31
261.942	86.31
262.175	78.31
262.407	71.31
262.64	82.31
262.872	77.31
263.105	82.31
263.337	91.31
263.57	97.31
263.802	99.31
264.035	83.31
264.267	86.31
264.499	89.31
264.732	84.31
264.964	85.31
265.197	89.31
265.429	92.31
265.661	83.31
265.894	78.31
266.126	76.31
266.358	74.31
266.591	97.31
266.823	71.31
267.055	82.31
267.287	81.31
267.52	75.31
267.752	78.31
267.984	88.31
268.216	97.31
268.448	91.31
268.681	96.31
268.913	95.31
269.145	79.31
269.377	98.31
269.609	75.31
269.841	91.31
270.073	79.31
270.306	83.31
270.538	88.31
270.77	93.31
271.002	83.31
271.234	90.31
271.466	89.31
271.698	89.31
271.93	105.31
272.162	76.31
272.394	86.31
272.626	74.31
272.858	94.31
273.09	78.31
273.322	83.31
273.553	79.31
273.785	99.31
274.017	89.31
274.249	98.31
274.481	88.31
274.713	90.31
274.945	89.31
275.176	87.31
275.408	57.31
275.64	86.31
275.872	85.31
276.104	85.31
276.335	73.31
276.567	86.31
276.799	95.31
277.031	96.31
277.262	80.31
277.494	105.31
277.726	95.31
277.957	78.31
278.189	86.31
278.421	87.31
278.652	82.31
278.884	92.31
279.115	93.31
279.347	77.31
279.579	76.31
279.81	79.31
280.042	107.31
280.273	88.31
280.505	89.31
280.736	74.31
280.968	89.31
281.199	97.31
281.431	79.31
281.662	99.31
281.894	90.31
282.125	89.31
282.356	96.31
282.588	95.31
282.819	71.31
283.051	86.31
283.282	89.31
283.513	85.31
283.745	93.31
283.976	84.31
284.207	85.31
284.439	103.31
284.67	82.31
284.901	78.31
285.132	97.31
285.364	93.31
285.595	85.31
285.826	85.31
286.057	106.31
286.288	90.31
286.52	92.31
286.751	69.31
286.982	78.31
287.213	79.31
287.444	79.31
287.675	89.31
287.906	87.31
288.138	72.31
288.369	93.31
288.6	78.31
288.831	93.31
289.062	81.31
289.293	86.31
289.524	80.31
289.755	94.31
289.986	93.31
290.217	98.31
290.448	84.31
290.679	89.31
290.91	91.31
291.141	102.31
291.371	86.31
291.602	95.31
291.833	95.31
292.064	79.31
292.295	85.31
292.526	86.31
292.757	78.31
292.987	87.31
293.218	83.31
293.449	89.31
293.68	86.31
293.91	89.31
294.141	100.31
294.372	92.31
294.603	93.31
294.833	88.31
295.064	79.31
295.295	87.31
295.525	83.31
295.756	93.31
295.987	87.31
296.217	91.31
296.448	87.31
296.679	91.31
296.909	79.31
297.14	93.31
297.37	80.31
297.601	89.31
297.831	92.31
298.062	91.31
298.292	89.31
298.523	83.31
298.753	92.31
298.984	72.31
299.214	71.31
299.445	96.31
299.675	95.31
299.905	87.31
300.136	86.31
300.366	97.31
300.597	81.31
300.827	87.31
301.057	90.31
301.288	75.31
301.518	73.31
301.748	78.31
301.979	94.31
302.209	105.31
302.439	84.31
302.669	92.31
302.9	79.31
303.13	84.31
303.36	85.31
303.59	82.31
303.82	77.31
304.051	87.31
304.281	97.31
304.511	94.31
304.741	90.31
304.971	83.31
305.201	86.31
305.431	90.31
305.661	86.31
305.891	92.31
306.121	85.31
306.352	95.31
306.582	82.31
306.812	96.31
307.042	98.31
307.272	83.31
307.502	90.31
307.731	90.31
307.961	94.31
308.191	77.31
308.421	79.31
308.651	92.31
308.881	97.31
309.111	87.31
309.341	91.31
309.571	94.31
309.8	85.31
310.03	84.31
310.26	88.31
310.49	93.31
310.72	90.31
310.949	71.31
311.179	99.31
311.409	92.31
311.639	89.31
311.868	107.31
312.098	93.31
312.328	85.31
312.557	81.31
312.787	84.31
313.017	89.31
313.246	89.31
313.476	92.31
313.706	83.31
313.935	96.31
314.165	80.31
314.394	90.31
314.624	92.31
314.853	90.31
315.083	78.31
315.312	93.31
315.542	97.31
315.771	102.31
316.001	93.31
316.23	88.31
316.46	84.31
316.689	91.31
316.919	86.31
317.148	94.31
317.377	102.31
317.607	83.31
317.836	86.31
318.065	94.31
318.295	84.31
318.524	92.31
318.753	93.31
318.983	82.31
319.212	94.31
319.441	84.31
319.67	95.31
319.9	86.31
320.129	93.31
320.358	83.31
320.587	77.31
320.816	87.31
321.046	95.31
321.275	95.31
321.504	91.31
321.733	78.31
321.962	70.31
322.191	82.31
322.42	78.31
322.649	72.31
322.878	92.31
323.108	92.31
323.337	80.31
323.566	91.31
323.795	89.31
324.024	74.31
324.253	78.31
324.482	90.31
324.71	95.31
324.939	98.31
325.168	101.31
325.397	81.31
325.626	102.31
325.855	100.31
326.084	94.31
326.313	100.31
326.542	72.31
326.77	99.31
326.999	84.31
327.228	91.31
327.457	91.31
327.686	90.31
327.914	78.31
328.143	96.31
328.372	88.31
328.6	75.31
328.829	92.31
329.058	94.31
329.287	89.31
329.515	80.31
329.744	100.31
329.972	84.31
330.201	86.31
330.43	99.31
330.658	73.31
330.887	78.31
331.115	83.31
331.344	88.31
331.572	91.31
331.801	100.31
332.03	96.31
332.258	93.31
332.486	97.31
332.715	91.31
332.943	66.31
333.172	91.31
333.4	85.31
333.629	87.31
333.857	79.31
334.085	88.31
334.314	80.31
334.542	92.31
334.771	86.31
334.999	92.31
335.227	94.31
335.455	82.31
335.684	90.31
335.912	93.31
336.14	94.31
336.369	86.31
336.597	94.31
336.825	94.31
337.053	93.31
337.281	84.31
337.51	91.31
337.738	81.31
337.966	98.31
338.194	101.31
338.422	89.31
338.65	87.31
338.878	84.31
339.106	79.31
339.334	87.31
339.562	91.31
339.79	94.31
340.018	76.31
340.246	79.31
340.474	87.31
340.702	89.31
340.93	96.31
341.158	90.31
341.386	85.31
341.614	77.31
341.842	77.31
342.07	85.31
342.298	86.31
342.526	95.31
342.754	93.31
342.981	82.31
343.209	87.31
343.437	105.31
343.665	98.31
343.893	98.31
344.12	84.31
344.348	87.31
344.576	87.31
344.804	89.31
345.031	94.31
345.259	87.31
345.487	85.31
345.714	80.31
345.942	89.31
346.17	93.31
346.397	94.31
346.625	89.31
346.853	89.31
347.08	94.31
347.308	80.31
347.535	69.31
347.763	63.31
347.99	86.31
348.218	101.31
348.445	94.31
348.673	96.31
348.9	79.31
349.128	93.31
349.355	93.31
349.583	94.31
349.81	87.31
350.037	85.31
350.265	99.31
350.492	87.31
350.72	89.31
350.947	92.31
351.174	88.31
351.402	94.31
351.629	97.31
351.856	81.31
352.083	96.31
352.311	77.31
352.538	83.31
352.765	92.31
352.992	91.31
353.22	83.31
353.447	85.31
353.674	100.31
353.901	97.31
354.128	93.31
354.355	93.31
354.583	66.31
354.81	74.31
355.037	92.31
355.264	99.31
355.491	97.31
355.718	94.31
355.945	93.31
356.172	84.31
356.399	106.31
356.626	79.31
356.853	76.31
357.08	78.31
357.307	87.31
357.534	97.31
357.761	85.31
357.988	110.31
358.215	89.31
358.441	83.31
358.668	94.31
358.895	90.31
359.122	85.31
359.349	90.31
359.576	94.31
359.802	91.31
360.029	75.31
360.256	87.31
360.483	94.31
360.709	84.31
360.936	90.31
361.163	97.31
361.39	83.31
361.616	96.31
361.843	92.31
362.07	81.31
362.296	98.31
362.523	91.31
362.749	75.31
362.976	90.31
363.203	79.31
363.429	79.31
363.656	99.31
363.882	88.31
364.109	91.31
364.335	87.31
364.562	84.31
364.788	89.31
365.015	106.31
365.241	85.31
365.468	107.31
365.694	110.31
365.92	92.31
366.147	87.31
366.373	82.31
366.599	76.31
366.826	91.31
367.052	91.31
367.278	88.31
367.505	86.31
367.731	81.31
367.957	81.31
368.184	83.31
368.41	84.31
368.636	79.31
368.862	79.31
369.089	82.31
369.315	84.31
369.541	78.31
369.767	83.31
369.993	85.31
370.219	77.31
370.445	75.31
370.672	87.31
370.898	81.31
371.124	92.31
371.35	86.31
371.576	83.31
371.802	77.31
372.028	83.31
372.254	78.31
372.48	93.31
372.706	85.31
372.932	98.31
373.158	78.31
373.384	89.31
373.61	102.31
373.835	106.31
374.061	96.31
374.287	107.31
374.513	77.31
374.739	82.31
374.965	81.31
375.191	89.31
375.416	91.31
375.642	89.31
375.868	87.31
376.094	90.31
376.319	85.31
376.545	88.31
376.771	85.31
376.997	81.31
377.222	90.31
377.448	82.31
377.674	81.31
377.899	71.31
378.125	93.31
378.35	97.31
378.576	84.31
378.802	93.31
379.027	97.31
379.253	80.31
379.478	83.31
379.704	90.31
379.929	88.31
380.155	83.31
380.38	91.31
380.606	88.31
380.831	75.31
381.057	75.31
381.282	84.31
381.507	86.31
381.733	82.31
381.958	84.31
382.184	79.31
382.409	88.31
382.634	99.31
382.86	95.31
383.085	77.31
383.31	90.31
383.535	79.31
383.761	87.31
383.986	72.31
384.211	85.31
384.436	93.31
384.662	91.31
384.887	90.31
385.112	88.31
385.337	97.31
385.562	73.31
385.787	86.31
386.013	94.31
386.238	83.31
386.463	97.31
386.688	98.31
386.913	78.31
387.138	86.31
387.363	89.31
387.588	95.31
387.813	106.31
388.038	110.31
388.263	78.31
388.488	79.31
388.713	89.31
388.938	72.31
389.163	87.31
389.387	73.31
389.612	102.31
389.837	93.31
390.062	106.31
390.287	85.31
390.512	83.31
390.736	82.31
390.961	77.31
391.186	83.31
391.411	95.31
391.636	84.31
391.86	82.31
392.085	74.31
392.31	75.31
392.534	99.31
392.759	98.31
392.984	109.31
393.208	129.31
393.433	149.31
393.658	124.31
393.882	97.31
394.107	90.31
394.331	94.31
394.556	100.31
394.78	82.31
395.005	87.31
395.229	74.31
395.454	87.31
395.678	79.31
395.903	100.31
396.127	93.31
396.352	73.31
396.576	100.31
396.801	130.31
397.025	147.31
397.249	119.31
397.474	88.31
397.698	75.31
397.922	95.31
398.147	87.31
398.371	70.31
398.595	87.31
398.82	98.31
399.044	82.31
399.268	91.31
399.492	92.31
399.717	78.31
399.941	89.31
400.165	71.31
400.389	93.31
400.613	97.31
400.837	73.31
401.062	91.31
401.286	87.31
401.51	82.31
401.734	104.31
401.958	79.31
402.182	83.31
402.406	78.31
402.63	75.31
402.854	74.31
403.078	78.31
403.302	86.31
403.526	99.31
403.75	91.31
403.974	74.31
404.198	82.31
404.422	83.31
404.645	98.31
404.869	82.31
405.093	82.31
405.317	87.31
405.541	84.31
405.765	87.31
405.988	85.31
406.212	85.31
406.436	85.31
406.66	93.31
406.883	95.31
407.107	84.31
407.331	102.31
407.555	93.31
407.778	86.31
408.002	95.31
408.226	90.31
408.449	94.31
408.673	78.31
408.896	91.31
409.12	69.31
409.344	83.31
409.567	77.31
409.791	84.31
410.014	91.31
410.238	74.31
410.461	91.31
410.685	89.31
410.908	77.31
411.132	81.31
411.355	86.31
411.578	87.31
411.802	80.31
412.025	83.31
412.249	92.31
412.472	84.31
412.695	85.31
412.919	82.31
413.142	87.31
413.365	90.31
413.589	89.31
413.812	88.31
414.035	92.31
414.258	95.31
414.482	87.31
414.705	84.31
414.928	90.31
415.151	80.31
415.374	92.31
415.597	91.31
415.821	91.31
416.044	79.31
416.267	85.31
416.49	82.31
416.713	100.31
416.936	89.31
417.159	94.31
417.382	82.31
417.605	78.31
417.828	88.31
418.051	91.31
418.274	79.31
418.497	72.31
418.72	83.31
418.943	90.31
419.166	80.31
419.389	77.31
419.611	86.31
419.834	81.31
420.057	79.31
420.28	83.31
420.503	81.31
420.726	85.31
420.948	90.31
421.171	85.31
421.394	97.31
421.617	89.31
421.839	100.31
422.062	74.31
422.285	94.31
422.507	117.31
422.73	136.31
422.953	119.31
423.175	100.31
423.398	79.31
423.621	87.31
423.843	92.31
424.066	90.31
424.288	93.31
424.511	83.31
424.733	73.31
424.956	87.31
425.178	90.31
425.401	86.31
425.623	85.31
425.846	74.31
426.068	99.31
426.291	79.31
426.513	77.31
426.735	106.31
426.958	85.31
427.18	88.31
427.402	91.31
427.625	94.31
427.847	89.31
428.069	89.31
428.292	79.31
428.514	94.31
428.736	91.31
428.958	87.31
429.181	88.31
429.403	78.31
429.625	87.31
429.847	89.31
430.069	93.31
430.292	91.31
430.514	97.31
430.736	89.31
430.958	98.31
431.18	90.31
431.402	100.31
431.624	92.31
431.846	87.31
432.068	90.31
432.29	72.31
432.512	93.31
432.734	86.31
432.956	75.31
433.178	85.31
433.4	85.31
433.622	76.31
433.844	97.31
434.066	82.31
434.287	94.31
434.509	94.31
434.731	85.31
434.953	63.31
435.175	99.31
435.397	99.31
435.618	100.31
435.84	86.31
436.062	83.31
436.284	95.31
436.505	91.31
436.727	83.31
436.949	88.31
437.17	86.31
437.392	75.31
437.614	86.31
437.835	89.31
438.057	99.31
438.278	84.31
438.5	81.31
438.721	82.31
438.943	78.31
439.165	101.31
439.386	85.31
439.608	97.31
439.829	87.31
440.05	96.31
440.272	77.31
440.493	97.31
440.715	90.31
440.936	87.31
441.158	89.31
441.379	85.31
441.6	75.31
441.822	89.31
442.043	97.31
442.264	86.31
442.486	77.31
442.707	77.31
442.928	75.31
443.149	85.31
443.371	84.31
443.592	85.31
443.813	104.31
444.034	85.31
444.255	91.31
444.476	91.31
444.698	79.31
444.919	98.31
445.14	181.31
445.361	145.31
445.582	91.31
445.803	89.31
446.024	76.31
446.245	88.31
446.466	78.31
446.687	82.31
446.908	93.31
447.129	95.31
447.35	93.31
447.571	87.31
447.792	102.31
448.013	75.31
448.234	76.31
448.455	93.31
448.675	82.31
448.896	71.31
449.117	88.31
449.338	88.31
449.559	72.31
449.779	97.31
450	86.31
450.221	72.31
450.442	87.31
450.662	85.31
450.883	72.31
451.104	95.31
451.324	81.31
451.545	88.31
451.766	87.31
451.986	91.31
452.207	93.31
452.428	90.31
452.648	81.31
452.869	92.31
453.089	89.31
453.31	95.31
453.53	77.31
453.751	77.31
453.971	90.31
454.192	88.31
454.412	84.31
454.633	100.31
454.853	78.31
455.073	83.31
455.294	65.31
455.514	80.31
455.734	78.31
455.955	89.31
456.175	77.31
456.395	87.31
456.616	87.31
456.836	89.31
457.056	86.31
457.276	86.31
457.497	82.31
457.717	76.31
457.937	83.31
458.157	82.31
458.377	91.31
458.598	86.31
458.818	88.31
459.038	85.31
459.258	75.31
459.478	65.31
459.698	76.31
459.918	99.31
460.138	71.31
460.358	67.31
460.578	83.31
460.798	88.31
461.018	94.31
461.238	82.31
461.458	85.31
461.678	74.31
461.898	85.31
462.118	91.31
462.338	79.31
462.558	79.31
462.777	81.31
462.997	102.31
463.217	83.31
463.437	83.31
463.657	93.31
463.876	82.31
464.096	87.31
464.316	88.31
464.536	74.31
464.755	88.31
464.975	82.31
465.195	94.31
465.414	87.31
465.634	80.31
465.854	84.31
466.073	82.31
466.293	67.31
466.512	82.31
466.732	85.31
466.951	92.31
467.171	87.31
467.391	102.31
467.61	94.31
467.829	85.31
468.049	87.31
468.268	90.31
468.488	76.31
468.707	95.31
468.927	83.31
469.146	75.31
469.365	102.31
469.585	91.31
469.804	94.31
470.023	90.31
470.243	80.31
470.462	77.31
470.681	94.31
470.901	96.31
471.12	97.31
471.339	81.31
471.558	90.31
471.777	87.31
471.997	83.31
472.216	99.31
472.435	82.31
472.654	90.31
472.873	88.31
473.092	87.31
473.311	90.31
473.53	83.31
473.749	82.31
473.968	80.31
474.187	91.31
474.406	83.31
474.625	77.31
474.844	99.31
475.063	93.31
475.282	80.31
475.501	81.31
475.72	90.31
475.939	92.31
476.158	78.31
476.377	107.31
476.596	79.31
476.814	101.31
477.033	93.31
477.252	104.31
477.471	69.31
477.69	84.31
477.908	93.31
478.127	78.31
478.346	94.31
478.564	83.31
478.783	85.31
479.002	80.31
479.22	83.31
479.439	74.31
479.658	72.31
479.876	97.31
480.095	76.31
480.313	75.31
480.532	93.31
480.751	90.31
480.969	93.31
481.188	79.31
481.406	86.31
481.624	89.31
481.843	80.31
482.061	85.31
482.28	70.31
482.498	78.31
482.717	92.31
482.935	95.31
483.153	79.31
483.372	92.31
483.59	81.31
483.808	92.31
484.027	91.31
484.245	91.31
484.463	79.31
484.681	80.31
484.9	100.31
485.118	103.31
485.336	90.31
485.554	77.31
485.772	81.31
485.99	89.31
486.209	82.31
486.427	88.31
486.645	83.31
486.863	73.31
487.081	83.31
487.299	84.31
487.517	90.31
487.735	84.31
487.953	110.31
488.171	98.31
488.389	77.31
488.607	81.31
488.825	89.31
489.043	85.31
489.261	102.31
489.479	93.31
489.696	99.31
489.914	88.31
490.132	76.31
490.35	85.31
490.568	83.31
490.786	86.31
491.003	77.31
491.221	89.31
491.439	91.31
491.657	87.31
491.874	97.31
492.092	82.31
492.31	107.31
492.527	89.31
492.745	87.31
492.963	86.31
493.18	100.31
493.398	79.31
493.615	85.31
493.833	82.31
494.05	90.31
494.268	93.31
494.485	92.31
494.703	88.31
494.92	82.31
495.138	79.31
495.355	88.31
495.573	89.31
495.79	81.31
496.008	89.31
496.225	88.31
496.442	83.31
496.66	96.31
496.877	70.31
497.094	97.31
497.312	76.31
497.529	77.31
497.746	92.31
497.963	91.31
498.181	94.31
498.398	85.31
498.615	101.31
498.832	80.31
499.049	87.31
499.267	82.31
499.484	97.31
499.701	106.31
499.918	88.31
500.135	85.31
500.352	94.31
500.569	105.31
500.786	97.31
501.003	79.31
501.22	87.31
501.437	86.31
501.654	85.31
501.871	85.31
502.088	78.31
502.305	94.31
502.522	82.31
502.739	82.31
502.956	77.31
503.172	85.31
503.389	91.31
503.606	86.31
503.823	97.31
504.04	90.31
504.256	65.31
504.473	87.31
504.69	94.31
504.907	95.31
505.123	84.31
505.34	92.31
505.557	87.31
505.773	92.31
505.99	87.31
506.207	91.31
506.423	79.31
506.64	107.31
506.856	101.31
507.073	83.31
507.289	89.31
507.506	83.31
507.722	86.31
507.939	83.31
508.155	90.31
508.372	86.31
508.588	82.31
508.805	100.31
509.021	101.31
509.238	83.31
509.454	91.31
509.67	77.31
509.887	104.31
510.103	91.31
510.319	87.31
510.536	90.31
510.752	87.31
510.968	93.31
511.184	76.31
511.401	77.31
511.617	87.31
511.833	95.31
512.049	76.31
512.265	101.31
512.481	92.31
512.698	93.31
512.914	74.31
513.13	90.31
513.346	90.31
513.562	95.31
513.778	90.31
513.994	78.31
514.21	80.31
514.426	86.31
514.642	96.31
514.858	101.31
515.074	91.31
515.29	108.31
515.506	82.31
515.721	92.31
515.937	94.31
516.153	93.31
516.369	101.31
516.585	90.31
516.801	93.31
517.016	93.31
517.232	88.31
517.448	102.31
517.664	81.31
517.879	91.31
518.095	95.31
518.311	90.31
518.527	78.31
518.742	90.31
518.958	97.31
