Data from 10100_2_HRD10591_00040.txt Node
Date: Mon Jan 19 14:01:44 EST 2026
User: Yrep
Spectrometer: HR+D1059
Trigger mode: 1
Integration Time (sec): 1.000000E-1
Scans to average: 1
Electric dark correction enabled: true
Nonlinearity correction enabled: false
Boxcar width: 0
XAxis mode: Wavelengths
Number of Pixels in Spectrum: 2048
>>>>>Begin Spectral Data<<<<<
223.165	-18.06
223.4	-18.06
223.635	-18.06
223.869	-15.06
224.104	-19.06
224.338	-17.06
224.573	-28.06
224.808	-3.06
225.042	-7.06
225.277	-4.06
225.511	-8.06
225.746	3.94
225.98	-0.06
226.215	8.94
226.449	28.94
226.683	22.94
226.918	18.94
227.152	35.94
227.387	42.94
227.621	47.94
227.856	33.94
228.09	40.94
228.324	38.94
228.559	67.94
228.793	72.94
229.027	64.94
229.262	64.94
229.496	68.94
229.73	74.94
229.964	81.94
230.199	69.94
230.433	73.94
230.667	82.94
230.901	81.94
231.136	87.94
231.37	88.94
231.604	75.94
231.838	80.94
232.072	89.94
232.306	73.94
232.541	82.94
232.775	95.94
233.009	82.94
233.243	82.94
233.477	69.94
233.711	90.94
233.945	67.94
234.179	79.94
234.413	70.94
234.647	75.94
234.881	77.94
235.115	88.94
235.349	89.94
235.583	92.94
235.817	71.94
236.051	72.94
236.285	76.94
236.519	75.94
236.753	81.94
236.987	84.94
237.221	74.94
237.455	82.94
237.689	85.94
237.922	69.94
238.156	64.94
238.39	98.94
238.624	74.94
238.858	75.94
239.091	80.94
239.325	75.94
239.559	88.94
239.793	69.94
240.027	85.94
240.26	89.94
240.494	82.94
240.728	70.94
240.961	73.94
241.195	81.94
241.429	70.94
241.662	76.94
241.896	77.94
242.13	79.94
242.363	62.94
242.597	75.94
242.83	73.94
243.064	73.94
243.298	63.94
243.531	83.94
243.765	72.94
243.998	81.94
244.232	72.94
244.465	81.94
244.699	74.94
244.932	71.94
245.166	75.94
245.399	75.94
245.633	84.94
245.866	79.94
246.099	83.94
246.333	68.94
246.566	75.94
246.8	82.94
247.033	72.94
247.266	69.94
247.5	82.94
247.733	70.94
247.966	70.94
248.2	89.94
248.433	71.94
248.666	74.94
248.899	94.94
249.133	83.94
249.366	87.94
249.599	77.94
249.832	83.94
250.066	73.94
250.299	81.94
250.532	81.94
250.765	86.94
250.998	86.94
251.231	75.94
251.465	71.94
251.698	80.94
251.931	93.94
252.164	83.94
252.397	83.94
252.63	88.94
252.863	89.94
253.096	86.94
253.329	80.94
253.562	71.94
253.795	87.94
254.028	74.94
254.261	68.94
254.494	89.94
254.727	90.94
254.96	86.94
255.193	70.94
255.426	65.94
255.659	87.94
255.892	85.94
256.124	97.94
256.357	90.94
256.59	87.94
256.823	68.94
257.056	67.94
257.289	81.94
257.521	80.94
257.754	75.94
257.987	75.94
258.22	89.94
258.452	80.94
258.685	84.94
258.918	90.94
259.151	72.94
259.383	101.94
259.616	81.94
259.849	75.94
260.081	79.94
260.314	99.94
260.547	79.94
260.779	86.94
261.012	79.94
261.244	80.94
261.477	97.94
261.71	65.94
261.942	86.94
262.175	74.94
262.407	70.94
262.64	79.94
262.872	69.94
263.105	91.94
263.337	93.94
263.57	87.94
263.802	90.94
264.035	67.94
264.267	79.94
264.499	83.94
264.732	85.94
264.964	77.94
265.197	72.94
265.429	84.94
265.661	87.94
265.894	93.94
266.126	81.94
266.358	84.94
266.591	67.94
266.823	75.94
267.055	75.94
267.287	82.94
267.52	81.94
267.752	76.94
267.984	81.94
268.216	75.94
268.448	80.94
268.681	81.94
268.913	88.94
269.145	90.94
269.377	81.94
269.609	85.94
269.841	98.94
270.073	82.94
270.306	76.94
270.538	79.94
270.77	82.94
271.002	82.94
271.234	84.94
271.466	89.94
271.698	82.94
271.93	82.94
272.162	75.94
272.394	89.94
272.626	91.94
272.858	81.94
273.09	100.94
273.322	76.94
273.553	72.94
273.785	83.94
274.017	90.94
274.249	75.94
274.481	80.94
274.713	77.94
274.945	89.94
275.176	100.94
275.408	99.94
275.64	85.94
275.872	75.94
276.104	76.94
276.335	72.94
276.567	83.94
276.799	83.94
277.031	87.94
277.262	76.94
277.494	86.94
277.726	98.94
277.957	85.94
278.189	69.94
278.421	88.94
278.652	81.94
278.884	86.94
279.115	79.94
279.347	83.94
279.579	84.94
279.81	70.94
280.042	76.94
280.273	82.94
280.505	90.94
280.736	84.94
280.968	63.94
281.199	93.94
281.431	82.94
281.662	75.94
281.894	84.94
282.125	98.94
282.356	81.94
282.588	76.94
282.819	89.94
283.051	74.94
283.282	83.94
283.513	78.94
283.745	87.94
283.976	90.94
284.207	90.94
284.439	84.94
284.67	92.94
284.901	94.94
285.132	97.94
285.364	100.94
285.595	85.94
285.826	83.94
286.057	94.94
286.288	72.94
286.52	90.94
286.751	96.94
286.982	74.94
287.213	69.94
287.444	83.94
287.675	87.94
287.906	86.94
288.138	69.94
288.369	81.94
288.6	74.94
288.831	106.94
289.062	80.94
289.293	85.94
289.524	77.94
289.755	81.94
289.986	77.94
290.217	79.94
290.448	78.94
290.679	79.94
290.91	74.94
291.141	82.94
291.371	67.94
291.602	90.94
291.833	81.94
292.064	83.94
292.295	94.94
292.526	89.94
292.757	76.94
292.987	83.94
293.218	83.94
293.449	85.94
293.68	82.94
293.91	86.94
294.141	90.94
294.372	80.94
294.603	81.94
294.833	92.94
295.064	82.94
295.295	95.94
295.525	84.94
295.756	93.94
295.987	81.94
296.217	76.94
296.448	75.94
296.679	92.94
296.909	83.94
297.14	89.94
297.37	97.94
297.601	75.94
297.831	87.94
298.062	82.94
298.292	85.94
298.523	81.94
298.753	88.94
298.984	81.94
299.214	75.94
299.445	83.94
299.675	85.94
299.905	83.94
300.136	77.94
300.366	91.94
300.597	83.94
300.827	78.94
301.057	89.94
301.288	84.94
301.518	87.94
301.748	89.94
301.979	88.94
302.209	89.94
302.439	79.94
302.669	83.94
302.9	88.94
303.13	102.94
303.36	86.94
303.59	68.94
303.82	71.94
304.051	90.94
304.281	84.94
304.511	98.94
304.741	75.94
304.971	77.94
305.201	74.94
305.431	97.94
305.661	96.94
305.891	79.94
306.121	88.94
306.352	80.94
306.582	82.94
306.812	85.94
307.042	81.94
307.272	87.94
307.502	91.94
307.731	85.94
307.961	77.94
308.191	83.94
308.421	97.94
308.651	85.94
308.881	93.94
309.111	74.94
309.341	87.94
309.571	87.94
309.8	89.94
310.03	75.94
310.26	86.94
310.49	80.94
310.72	85.94
310.949	85.94
311.179	79.94
311.409	84.94
311.639	94.94
311.868	79.94
312.098	91.94
312.328	94.94
312.557	93.94
312.787	80.94
313.017	81.94
313.246	82.94
313.476	89.94
313.706	78.94
313.935	83.94
314.165	77.94
314.394	74.94
314.624	67.94
314.853	94.94
315.083	81.94
315.312	75.94
315.542	83.94
315.771	102.94
316.001	101.94
316.23	92.94
316.46	83.94
316.689	87.94
316.919	77.94
317.148	84.94
317.377	95.94
317.607	90.94
317.836	82.94
318.065	85.94
318.295	76.94
318.524	83.94
318.753	86.94
318.983	76.94
319.212	76.94
319.441	91.94
319.67	83.94
319.9	87.94
320.129	98.94
320.358	87.94
320.587	75.94
320.816	85.94
321.046	77.94
321.275	102.94
321.504	83.94
321.733	83.94
321.962	82.94
322.191	79.94
322.42	79.94
322.649	72.94
322.878	91.94
323.108	93.94
323.337	79.94
323.566	102.94
323.795	97.94
324.024	90.94
324.253	94.94
324.482	94.94
324.71	90.94
324.939	78.94
325.168	79.94
325.397	83.94
325.626	75.94
325.855	77.94
326.084	94.94
326.313	95.94
326.542	89.94
326.77	75.94
326.999	89.94
327.228	93.94
327.457	78.94
327.686	89.94
327.914	80.94
328.143	90.94
328.372	97.94
328.6	103.94
328.829	95.94
329.058	85.94
329.287	68.94
329.515	83.94
329.744	84.94
329.972	91.94
330.201	85.94
330.43	89.94
330.658	99.94
330.887	89.94
331.115	72.94
331.344	85.94
331.572	83.94
331.801	87.94
332.03	87.94
332.258	86.94
332.486	97.94
332.715	91.94
332.943	91.94
333.172	88.94
333.4	99.94
333.629	85.94
333.857	83.94
334.085	100.94
334.314	87.94
334.542	76.94
334.771	101.94
334.999	77.94
335.227	80.94
335.455	100.94
335.684	80.94
335.912	94.94
336.14	106.94
336.369	90.94
336.597	89.94
336.825	84.94
337.053	82.94
337.281	73.94
337.51	88.94
337.738	95.94
337.966	99.94
338.194	114.94
338.422	87.94
338.65	90.94
338.878	79.94
339.106	87.94
339.334	88.94
339.562	85.94
339.79	86.94
340.018	89.94
340.246	92.94
340.474	85.94
340.702	81.94
340.93	76.94
341.158	86.94
341.386	75.94
341.614	97.94
341.842	85.94
342.07	89.94
342.298	93.94
342.526	87.94
342.754	90.94
342.981	81.94
343.209	85.94
343.437	106.94
343.665	72.94
343.893	82.94
344.12	88.94
344.348	91.94
344.576	83.94
344.804	95.94
345.031	91.94
345.259	96.94
345.487	85.94
345.714	83.94
345.942	95.94
346.17	110.94
346.397	93.94
346.625	86.94
346.853	86.94
347.08	77.94
347.308	81.94
347.535	94.94
347.763	77.94
347.99	96.94
348.218	81.94
348.445	88.94
348.673	102.94
348.9	85.94
349.128	97.94
349.355	83.94
349.583	82.94
349.81	89.94
350.037	88.94
350.265	76.94
350.492	79.94
350.72	87.94
350.947	78.94
351.174	86.94
351.402	91.94
351.629	75.94
351.856	85.94
352.083	89.94
352.311	89.94
352.538	77.94
352.765	90.94
352.992	89.94
353.22	88.94
353.447	75.94
353.674	82.94
353.901	87.94
354.128	76.94
354.355	75.94
354.583	87.94
354.81	94.94
355.037	78.94
355.264	73.94
355.491	91.94
355.718	79.94
355.945	83.94
356.172	85.94
356.399	87.94
356.626	85.94
356.853	86.94
357.08	90.94
357.307	96.94
357.534	85.94
357.761	96.94
357.988	101.94
358.215	91.94
358.441	83.94
358.668	90.94
358.895	93.94
359.122	84.94
359.349	98.94
359.576	89.94
359.802	94.94
360.029	85.94
360.256	84.94
360.483	81.94
360.709	85.94
360.936	97.94
361.163	89.94
361.39	100.94
361.616	76.94
361.843	88.94
362.07	85.94
362.296	73.94
362.523	75.94
362.749	91.94
362.976	114.94
363.203	117.94
363.429	76.94
363.656	92.94
363.882	69.94
364.109	107.94
364.335	101.94
364.562	102.94
364.788	90.94
365.015	82.94
365.241	92.94
365.468	90.94
365.694	75.94
365.92	74.94
366.147	95.94
366.373	70.94
366.599	81.94
366.826	82.94
367.052	81.94
367.278	81.94
367.505	78.94
367.731	89.94
367.957	94.94
368.184	70.94
368.41	91.94
368.636	76.94
368.862	98.94
369.089	89.94
369.315	76.94
369.541	96.94
369.767	89.94
369.993	97.94
370.219	71.94
370.445	72.94
370.672	91.94
370.898	85.94
371.124	82.94
371.35	83.94
371.576	83.94
371.802	94.94
372.028	91.94
372.254	80.94
372.48	85.94
372.706	106.94
372.932	96.94
373.158	90.94
373.384	109.94
373.61	111.94
373.835	116.94
374.061	90.94
374.287	92.94
374.513	86.94
374.739	90.94
374.965	84.94
375.191	75.94
375.416	85.94
375.642	93.94
375.868	90.94
376.094	99.94
376.319	89.94
376.545	82.94
376.771	82.94
376.997	90.94
377.222	90.94
377.448	84.94
377.674	95.94
377.899	85.94
378.125	98.94
378.35	91.94
378.576	83.94
378.802	82.94
379.027	89.94
379.253	84.94
379.478	91.94
379.704	79.94
379.929	83.94
380.155	102.94
380.38	84.94
380.606	97.94
380.831	89.94
381.057	86.94
381.282	85.94
381.507	93.94
381.733	94.94
381.958	106.94
382.184	103.94
382.409	98.94
382.634	107.94
382.86	99.94
383.085	81.94
383.31	94.94
383.535	88.94
383.761	93.94
383.986	89.94
384.211	101.94
384.436	95.94
384.662	61.94
384.887	94.94
385.112	78.94
385.337	95.94
385.562	89.94
385.787	95.94
386.013	88.94
386.238	123.94
386.463	105.94
386.688	99.94
386.913	94.94
387.138	83.94
387.363	91.94
387.588	92.94
387.813	107.94
388.038	102.94
388.263	95.94
388.488	85.94
388.713	81.94
388.938	103.94
389.163	91.94
389.387	93.94
389.612	84.94
389.837	92.94
390.062	91.94
390.287	90.94
390.512	74.94
390.736	68.94
390.961	103.94
391.186	93.94
391.411	72.94
391.636	84.94
391.86	90.94
392.085	90.94
392.31	96.94
392.534	110.94
392.759	93.94
392.984	134.94
393.208	212.94
393.433	322.94
393.658	269.94
393.882	130.94
394.107	103.94
394.331	93.94
394.556	98.94
394.78	102.94
395.005	96.94
395.229	87.94
395.454	89.94
395.678	100.94
395.903	114.94
396.127	135.94
396.352	155.94
396.576	170.94
396.801	230.94
397.025	241.94
397.249	161.94
397.474	105.94
397.698	98.94
397.922	91.94
398.147	99.94
398.371	83.94
398.595	82.94
398.82	88.94
399.044	103.94
399.268	65.94
399.492	85.94
399.717	93.94
399.941	90.94
400.165	82.94
400.389	91.94
400.613	83.94
400.837	84.94
401.062	72.94
401.286	82.94
401.51	91.94
401.734	91.94
401.958	98.94
402.182	77.94
402.406	77.94
402.63	82.94
402.854	90.94
403.078	94.94
403.302	85.94
403.526	87.94
403.75	80.94
403.974	79.94
404.198	84.94
404.422	88.94
404.645	99.94
404.869	95.94
405.093	90.94
405.317	74.94
405.541	89.94
405.765	82.94
405.988	90.94
406.212	85.94
406.436	85.94
406.66	86.94
406.883	93.94
407.107	82.94
407.331	89.94
407.555	86.94
407.778	96.94
408.002	102.94
408.226	97.94
408.449	93.94
408.673	101.94
408.896	107.94
409.12	91.94
409.344	96.94
409.567	94.94
409.791	93.94
410.014	83.94
410.238	86.94
410.461	84.94
410.685	91.94
410.908	82.94
411.132	86.94
411.355	83.94
411.578	81.94
411.802	79.94
412.025	87.94
412.249	90.94
412.472	78.94
412.695	89.94
412.919	112.94
413.142	91.94
413.365	68.94
413.589	94.94
413.812	91.94
414.035	96.94
414.258	87.94
414.482	77.94
414.705	82.94
414.928	96.94
415.151	89.94
415.374	77.94
415.597	67.94
415.821	90.94
416.044	85.94
416.267	87.94
416.49	81.94
416.713	88.94
416.936	83.94
417.159	86.94
417.382	70.94
417.605	86.94
417.828	103.94
418.051	87.94
418.274	72.94
418.497	81.94
418.72	96.94
418.943	84.94
419.166	91.94
419.389	80.94
419.611	86.94
419.834	97.94
420.057	104.94
420.28	88.94
420.503	77.94
420.726	85.94
420.948	83.94
421.171	90.94
421.394	85.94
421.617	100.94
421.839	102.94
422.062	126.94
422.285	140.94
422.507	209.94
422.73	387.94
422.953	339.94
423.175	169.94
423.398	111.94
423.621	103.94
423.843	84.94
424.066	81.94
424.288	103.94
424.511	96.94
424.733	105.94
424.956	79.94
425.178	86.94
425.401	82.94
425.623	83.94
425.846	83.94
426.068	86.94
426.291	77.94
426.513	73.94
426.735	86.94
426.958	83.94
427.18	82.94
427.402	91.94
427.625	100.94
427.847	82.94
428.069	97.94
428.292	109.94
428.514	117.94
428.736	101.94
428.958	133.94
429.181	123.94
429.403	109.94
429.625	101.94
429.847	100.94
430.069	130.94
430.292	154.94
430.514	151.94
430.736	130.94
430.958	138.94
431.18	97.94
431.402	94.94
431.624	92.94
431.846	100.94
432.068	110.94
432.29	113.94
432.512	91.94
432.734	97.94
432.956	94.94
433.178	96.94
433.4	110.94
433.622	94.94
433.844	82.94
434.066	88.94
434.287	83.94
434.509	83.94
434.731	75.94
434.953	81.94
435.175	96.94
435.397	74.94
435.618	95.94
435.84	65.94
436.062	75.94
436.284	92.94
436.505	77.94
436.727	85.94
436.949	87.94
437.17	81.94
437.392	93.94
437.614	83.94
437.835	78.94
438.057	69.94
438.278	89.94
438.5	89.94
438.721	87.94
438.943	81.94
439.165	90.94
439.386	95.94
439.608	85.94
439.829	85.94
440.05	89.94
440.272	86.94
440.493	80.94
440.715	103.94
440.936	91.94
441.158	86.94
441.379	98.94
441.6	92.94
441.822	85.94
442.043	86.94
442.264	103.94
442.486	107.94
442.707	146.94
442.928	113.94
443.149	103.94
443.371	138.94
443.592	213.94
443.813	162.94
444.034	112.94
444.255	115.94
444.476	92.94
444.698	98.94
444.919	83.94
445.14	179.94
445.361	182.94
445.582	238.94
445.803	193.94
446.024	129.94
446.245	103.94
446.466	81.94
446.687	89.94
446.908	79.94
447.129	85.94
447.35	93.94
447.571	80.94
447.792	69.94
448.013	93.94
448.234	86.94
448.455	92.94
448.675	79.94
448.896	79.94
449.117	88.94
449.338	73.94
449.559	95.94
449.779	87.94
450	71.94
450.221	81.94
450.442	85.94
450.662	90.94
450.883	85.94
451.104	81.94
451.324	92.94
451.545	88.94
451.766	68.94
451.986	77.94
452.207	93.94
452.428	74.94
452.648	93.94
452.869	95.94
453.089	85.94
453.31	82.94
453.53	88.94
453.751	92.94
453.971	68.94
454.192	74.94
454.412	74.94
454.633	74.94
454.853	90.94
455.073	88.94
455.294	99.94
455.514	87.94
455.734	78.94
455.955	87.94
456.175	76.94
456.395	89.94
456.616	91.94
456.836	76.94
457.056	70.94
457.276	76.94
457.497	95.94
457.717	81.94
457.937	99.94
458.157	108.94
458.377	109.94
458.598	96.94
458.818	106.94
459.038	92.94
459.258	97.94
459.478	81.94
459.698	65.94
459.918	81.94
460.138	87.94
460.358	78.94
460.578	110.94
460.798	122.94
461.018	123.94
461.238	92.94
461.458	78.94
461.678	81.94
461.898	94.94
462.118	84.94
462.338	82.94
462.558	79.94
462.777	83.94
462.997	80.94
463.217	82.94
463.437	83.94
463.657	95.94
463.876	76.94
464.096	87.94
464.316	68.94
464.536	93.94
464.755	77.94
464.975	81.94
465.195	94.94
465.414	83.94
465.634	77.94
465.854	95.94
466.073	80.94
466.293	95.94
466.512	85.94
466.732	86.94
466.951	89.94
467.171	88.94
467.391	67.94
467.61	85.94
467.829	88.94
468.049	91.94
468.268	81.94
468.488	91.94
468.707	85.94
468.927	83.94
469.146	97.94
469.365	81.94
469.585	82.94
469.804	85.94
470.023	73.94
470.243	93.94
470.462	93.94
470.681	96.94
470.901	85.94
471.12	94.94
471.339	76.94
471.558	83.94
471.777	80.94
471.997	91.94
472.216	88.94
472.435	81.94
472.654	83.94
472.873	89.94
473.092	86.94
473.311	77.94
473.53	88.94
473.749	77.94
473.968	98.94
474.187	94.94
474.406	81.94
474.625	80.94
474.844	97.94
475.063	71.94
475.282	69.94
475.501	92.94
475.72	87.94
475.939	78.94
476.158	111.94
476.377	85.94
476.596	93.94
476.814	83.94
477.033	81.94
477.252	84.94
477.471	97.94
477.69	90.94
477.908	79.94
478.127	85.94
478.346	82.94
478.564	87.94
478.783	93.94
479.002	85.94
479.22	92.94
479.439	89.94
479.658	97.94
479.876	79.94
480.095	74.94
480.313	72.94
480.532	83.94
480.751	89.94
480.969	88.94
481.188	90.94
481.406	86.94
481.624	87.94
481.843	83.94
482.061	82.94
482.28	71.94
482.498	91.94
482.717	93.94
482.935	91.94
483.153	81.94
483.372	86.94
483.59	99.94
483.808	75.94
484.027	75.94
484.245	79.94
484.463	82.94
484.681	89.94
484.9	75.94
485.118	93.94
485.336	99.94
485.554	80.94
485.772	80.94
485.99	78.94
486.209	89.94
486.427	84.94
486.645	78.94
486.863	87.94
487.081	89.94
487.299	86.94
487.517	87.94
487.735	104.94
487.953	140.94
488.171	113.94
488.389	97.94
488.607	76.94
488.825	95.94
489.043	79.94
489.261	82.94
489.479	90.94
489.696	90.94
489.914	102.94
490.132	91.94
490.35	88.94
490.568	76.94
490.786	92.94
491.003	93.94
491.221	89.94
491.439	70.94
491.657	79.94
491.874	77.94
492.092	82.94
492.31	105.94
492.527	84.94
492.745	81.94
492.963	82.94
493.18	99.94
493.398	107.94
493.615	103.94
493.833	93.94
494.05	86.94
494.268	76.94
494.485	95.94
494.703	83.94
494.92	78.94
495.138	89.94
495.355	91.94
495.573	86.94
495.79	89.94
496.008	88.94
496.225	97.94
496.442	96.94
496.66	86.94
496.877	96.94
497.094	97.94
497.312	92.94
497.529	92.94
497.746	109.94
497.963	83.94
498.181	103.94
498.398	92.94
498.615	79.94
498.832	86.94
499.049	85.94
499.267	94.94
499.484	94.94
499.701	97.94
499.918	93.94
500.135	97.94
500.352	97.94
500.569	91.94
500.786	98.94
501.003	95.94
501.22	75.94
501.437	96.94
501.654	93.94
501.871	93.94
502.088	90.94
502.305	88.94
502.522	91.94
502.739	84.94
502.956	103.94
503.172	106.94
503.389	77.94
503.606	95.94
503.823	72.94
504.04	89.94
504.256	125.94
504.473	121.94
504.69	95.94
504.907	88.94
505.123	81.94
505.34	89.94
505.557	85.94
505.773	88.94
505.99	94.94
506.207	97.94
506.423	83.94
506.64	95.94
506.856	89.94
507.073	75.94
507.289	88.94
507.506	79.94
507.722	79.94
507.939	84.94
508.155	75.94
508.372	85.94
508.588	82.94
508.805	83.94
509.021	79.94
509.238	101.94
509.454	86.94
509.67	83.94
509.887	97.94
510.103	89.94
510.319	87.94
510.536	95.94
510.752	84.94
510.968	98.94
511.184	91.94
511.401	88.94
511.617	92.94
511.833	84.94
512.049	91.94
512.265	93.94
512.481	95.94
512.698	87.94
512.914	92.94
513.13	89.94
513.346	90.94
513.562	83.94
513.778	93.94
513.994	84.94
514.21	83.94
514.426	94.94
514.642	109.94
514.858	86.94
515.074	95.94
515.29	89.94
515.506	86.94
515.721	85.94
515.937	100.94
516.153	84.94
516.369	71.94
516.585	87.94
516.801	92.94
517.016	94.94
517.232	83.94
517.448	89.94
517.664	98.94
517.879	86.94
518.095	93.94
518.311	92.94
