Data from 10100_2_HRD10591_00014.txt Node
Date: Mon Jan 19 14:01:31 EST 2026
User: Yrep
Spectrometer: HR+D1059
Trigger mode: 1
Integration Time (sec): 1.000000E-1
Scans to average: 1
Electric dark correction enabled: true
Nonlinearity correction enabled: false
Boxcar width: 0
XAxis mode: Wavelengths
Number of Pixels in Spectrum: 2048
>>>>>Begin Spectral Data<<<<<
223.165	-19.75
223.4	-19.75
223.635	-19.75
223.869	-18.75
224.104	-13.75
224.338	-6.75
224.573	-19.75
224.808	-8.75
225.042	-11.75
225.277	3.25
225.511	-4.75
225.746	2.25
225.98	19.25
226.215	12.25
226.449	3.25
226.683	19.25
226.918	21.25
227.152	23.25
227.387	28.25
227.621	36.25
227.856	38.25
228.09	38.25
228.324	47.25
228.559	52.25
228.793	57.25
229.027	71.25
229.262	59.25
229.496	66.25
229.73	78.25
229.964	69.25
230.199	76.25
230.433	74.25
230.667	67.25
230.901	85.25
231.136	92.25
231.37	83.25
231.604	75.25
231.838	80.25
232.072	94.25
232.306	75.25
232.541	78.25
232.775	66.25
233.009	80.25
233.243	75.25
233.477	74.25
233.711	79.25
233.945	94.25
234.179	79.25
234.413	95.25
234.647	68.25
234.881	81.25
235.115	79.25
235.349	80.25
235.583	79.25
235.817	74.25
236.051	76.25
236.285	74.25
236.519	80.25
236.753	68.25
236.987	84.25
237.221	72.25
237.455	73.25
237.689	74.25
237.922	69.25
238.156	86.25
238.39	75.25
238.624	70.25
238.858	79.25
239.091	67.25
239.325	68.25
239.559	66.25
239.793	82.25
240.027	65.25
240.26	65.25
240.494	77.25
240.728	76.25
240.961	72.25
241.195	81.25
241.429	74.25
241.662	78.25
241.896	82.25
242.13	74.25
242.363	69.25
242.597	78.25
242.83	60.25
243.064	73.25
243.298	72.25
243.531	81.25
243.765	76.25
243.998	77.25
244.232	77.25
244.465	84.25
244.699	72.25
244.932	72.25
245.166	76.25
245.399	71.25
245.633	78.25
245.866	89.25
246.099	66.25
246.333	78.25
246.566	74.25
246.8	82.25
247.033	76.25
247.266	69.25
247.5	74.25
247.733	68.25
247.966	77.25
248.2	83.25
248.433	75.25
248.666	77.25
248.899	88.25
249.133	66.25
249.366	72.25
249.599	92.25
249.832	60.25
250.066	78.25
250.299	87.25
250.532	69.25
250.765	72.25
250.998	77.25
251.231	82.25
251.465	82.25
251.698	71.25
251.931	55.25
252.164	74.25
252.397	68.25
252.63	82.25
252.863	80.25
253.096	90.25
253.329	78.25
253.562	67.25
253.795	93.25
254.028	80.25
254.261	68.25
254.494	60.25
254.727	76.25
254.96	69.25
255.193	82.25
255.426	81.25
255.659	79.25
255.892	68.25
256.124	75.25
256.357	82.25
256.59	78.25
256.823	69.25
257.056	78.25
257.289	75.25
257.521	77.25
257.754	88.25
257.987	72.25
258.22	61.25
258.452	78.25
258.685	84.25
258.918	97.25
259.151	74.25
259.383	81.25
259.616	80.25
259.849	82.25
260.081	70.25
260.314	77.25
260.547	78.25
260.779	83.25
261.012	90.25
261.244	84.25
261.477	86.25
261.71	74.25
261.942	74.25
262.175	77.25
262.407	75.25
262.64	82.25
262.872	86.25
263.105	75.25
263.337	99.25
263.57	80.25
263.802	86.25
264.035	69.25
264.267	79.25
264.499	78.25
264.732	75.25
264.964	68.25
265.197	80.25
265.429	75.25
265.661	91.25
265.894	69.25
266.126	89.25
266.358	74.25
266.591	86.25
266.823	89.25
267.055	81.25
267.287	65.25
267.52	74.25
267.752	86.25
267.984	77.25
268.216	74.25
268.448	84.25
268.681	69.25
268.913	68.25
269.145	82.25
269.377	88.25
269.609	65.25
269.841	78.25
270.073	73.25
270.306	96.25
270.538	94.25
270.77	78.25
271.002	62.25
271.234	88.25
271.466	81.25
271.698	85.25
271.93	77.25
272.162	86.25
272.394	90.25
272.626	89.25
272.858	69.25
273.09	85.25
273.322	72.25
273.553	73.25
273.785	86.25
274.017	80.25
274.249	85.25
274.481	86.25
274.713	89.25
274.945	81.25
275.176	83.25
275.408	85.25
275.64	85.25
275.872	74.25
276.104	78.25
276.335	64.25
276.567	78.25
276.799	69.25
277.031	81.25
277.262	70.25
277.494	84.25
277.726	85.25
277.957	77.25
278.189	81.25
278.421	64.25
278.652	82.25
278.884	83.25
279.115	82.25
279.347	78.25
279.579	70.25
279.81	98.25
280.042	85.25
280.273	85.25
280.505	90.25
280.736	73.25
280.968	79.25
281.199	76.25
281.431	82.25
281.662	80.25
281.894	78.25
282.125	73.25
282.356	99.25
282.588	78.25
282.819	78.25
283.051	87.25
283.282	85.25
283.513	81.25
283.745	83.25
283.976	65.25
284.207	73.25
284.439	75.25
284.67	82.25
284.901	91.25
285.132	92.25
285.364	82.25
285.595	96.25
285.826	78.25
286.057	93.25
286.288	82.25
286.52	81.25
286.751	68.25
286.982	70.25
287.213	81.25
287.444	90.25
287.675	86.25
287.906	72.25
288.138	74.25
288.369	72.25
288.6	88.25
288.831	76.25
289.062	80.25
289.293	85.25
289.524	86.25
289.755	83.25
289.986	76.25
290.217	80.25
290.448	84.25
290.679	84.25
290.91	87.25
291.141	82.25
291.371	75.25
291.602	95.25
291.833	78.25
292.064	61.25
292.295	78.25
292.526	74.25
292.757	81.25
292.987	61.25
293.218	74.25
293.449	73.25
293.68	89.25
293.91	92.25
294.141	86.25
294.372	67.25
294.603	80.25
294.833	86.25
295.064	74.25
295.295	69.25
295.525	82.25
295.756	80.25
295.987	87.25
296.217	80.25
296.448	81.25
296.679	86.25
296.909	93.25
297.14	99.25
297.37	79.25
297.601	84.25
297.831	90.25
298.062	80.25
298.292	82.25
298.523	88.25
298.753	80.25
298.984	93.25
299.214	85.25
299.445	83.25
299.675	90.25
299.905	80.25
300.136	80.25
300.366	94.25
300.597	86.25
300.827	84.25
301.057	74.25
301.288	86.25
301.518	100.25
301.748	77.25
301.979	91.25
302.209	75.25
302.439	79.25
302.669	84.25
302.9	85.25
303.13	75.25
303.36	75.25
303.59	88.25
303.82	80.25
304.051	72.25
304.281	96.25
304.511	82.25
304.741	78.25
304.971	83.25
305.201	77.25
305.431	92.25
305.661	89.25
305.891	89.25
306.121	81.25
306.352	82.25
306.582	85.25
306.812	87.25
307.042	65.25
307.272	77.25
307.502	85.25
307.731	94.25
307.961	87.25
308.191	85.25
308.421	87.25
308.651	94.25
308.881	79.25
309.111	82.25
309.341	105.25
309.571	85.25
309.8	85.25
310.03	69.25
310.26	87.25
310.49	87.25
310.72	79.25
310.949	81.25
311.179	97.25
311.409	79.25
311.639	90.25
311.868	82.25
312.098	83.25
312.328	72.25
312.557	87.25
312.787	84.25
313.017	88.25
313.246	81.25
313.476	92.25
313.706	76.25
313.935	85.25
314.165	84.25
314.394	69.25
314.624	72.25
314.853	87.25
315.083	77.25
315.312	88.25
315.542	76.25
315.771	75.25
316.001	72.25
316.23	95.25
316.46	84.25
316.689	86.25
316.919	89.25
317.148	74.25
317.377	74.25
317.607	73.25
317.836	72.25
318.065	87.25
318.295	84.25
318.524	84.25
318.753	83.25
318.983	88.25
319.212	89.25
319.441	87.25
319.67	73.25
319.9	81.25
320.129	97.25
320.358	69.25
320.587	89.25
320.816	87.25
321.046	79.25
321.275	79.25
321.504	86.25
321.733	82.25
321.962	65.25
322.191	82.25
322.42	88.25
322.649	74.25
322.878	90.25
323.108	84.25
323.337	77.25
323.566	87.25
323.795	84.25
324.024	84.25
324.253	89.25
324.482	83.25
324.71	75.25
324.939	76.25
325.168	86.25
325.397	90.25
325.626	82.25
325.855	88.25
326.084	81.25
326.313	82.25
326.542	81.25
326.77	86.25
326.999	68.25
327.228	73.25
327.457	80.25
327.686	78.25
327.914	67.25
328.143	87.25
328.372	80.25
328.6	82.25
328.829	77.25
329.058	92.25
329.287	100.25
329.515	90.25
329.744	70.25
329.972	77.25
330.201	73.25
330.43	91.25
330.658	85.25
330.887	87.25
331.115	86.25
331.344	81.25
331.572	94.25
331.801	74.25
332.03	80.25
332.258	87.25
332.486	82.25
332.715	100.25
332.943	86.25
333.172	97.25
333.4	84.25
333.629	93.25
333.857	85.25
334.085	71.25
334.314	91.25
334.542	85.25
334.771	87.25
334.999	98.25
335.227	92.25
335.455	88.25
335.684	87.25
335.912	80.25
336.14	90.25
336.369	81.25
336.597	90.25
336.825	88.25
337.053	96.25
337.281	68.25
337.51	77.25
337.738	79.25
337.966	99.25
338.194	75.25
338.422	79.25
338.65	87.25
338.878	101.25
339.106	85.25
339.334	92.25
339.562	85.25
339.79	78.25
340.018	60.25
340.246	82.25
340.474	94.25
340.702	85.25
340.93	84.25
341.158	92.25
341.386	88.25
341.614	85.25
341.842	70.25
342.07	92.25
342.298	77.25
342.526	78.25
342.754	76.25
342.981	82.25
343.209	93.25
343.437	101.25
343.665	91.25
343.893	94.25
344.12	73.25
344.348	87.25
344.576	88.25
344.804	81.25
345.031	82.25
345.259	80.25
345.487	86.25
345.714	68.25
345.942	66.25
346.17	94.25
346.397	104.25
346.625	82.25
346.853	83.25
347.08	82.25
347.308	80.25
347.535	90.25
347.763	81.25
347.99	86.25
348.218	90.25
348.445	82.25
348.673	81.25
348.9	95.25
349.128	70.25
349.355	85.25
349.583	93.25
349.81	75.25
350.037	94.25
350.265	81.25
350.492	86.25
350.72	79.25
350.947	83.25
351.174	85.25
351.402	73.25
351.629	88.25
351.856	95.25
352.083	96.25
352.311	86.25
352.538	97.25
352.765	87.25
352.992	96.25
353.22	89.25
353.447	94.25
353.674	105.25
353.901	90.25
354.128	81.25
354.355	89.25
354.583	79.25
354.81	77.25
355.037	83.25
355.264	94.25
355.491	74.25
355.718	79.25
355.945	97.25
356.172	76.25
356.399	77.25
356.626	86.25
356.853	81.25
357.08	90.25
357.307	65.25
357.534	94.25
357.761	84.25
357.988	86.25
358.215	93.25
358.441	82.25
358.668	92.25
358.895	74.25
359.122	74.25
359.349	88.25
359.576	84.25
359.802	80.25
360.029	77.25
360.256	82.25
360.483	93.25
360.709	85.25
360.936	78.25
361.163	82.25
361.39	94.25
361.616	80.25
361.843	84.25
362.07	99.25
362.296	78.25
362.523	80.25
362.749	99.25
362.976	101.25
363.203	110.25
363.429	89.25
363.656	88.25
363.882	84.25
364.109	101.25
364.335	104.25
364.562	112.25
364.788	95.25
365.015	76.25
365.241	88.25
365.468	78.25
365.694	71.25
365.92	76.25
366.147	73.25
366.373	81.25
366.599	89.25
366.826	90.25
367.052	85.25
367.278	72.25
367.505	68.25
367.731	91.25
367.957	81.25
368.184	87.25
368.41	89.25
368.636	85.25
368.862	74.25
369.089	72.25
369.315	82.25
369.541	88.25
369.767	80.25
369.993	74.25
370.219	93.25
370.445	81.25
370.672	92.25
370.898	96.25
371.124	61.25
371.35	85.25
371.576	80.25
371.802	75.25
372.028	101.25
372.254	104.25
372.48	81.25
372.706	81.25
372.932	95.25
373.158	101.25
373.384	96.25
373.61	98.25
373.835	89.25
374.061	89.25
374.287	94.25
374.513	98.25
374.739	93.25
374.965	92.25
375.191	87.25
375.416	86.25
375.642	84.25
375.868	78.25
376.094	82.25
376.319	77.25
376.545	90.25
376.771	90.25
376.997	90.25
377.222	80.25
377.448	88.25
377.674	101.25
377.899	88.25
378.125	79.25
378.35	82.25
378.576	89.25
378.802	90.25
379.027	78.25
379.253	85.25
379.478	92.25
379.704	88.25
379.929	92.25
380.155	83.25
380.38	89.25
380.606	88.25
380.831	86.25
381.057	94.25
381.282	85.25
381.507	93.25
381.733	91.25
381.958	94.25
382.184	100.25
382.409	94.25
382.634	87.25
382.86	98.25
383.085	92.25
383.31	90.25
383.535	86.25
383.761	97.25
383.986	88.25
384.211	84.25
384.436	93.25
384.662	90.25
384.887	82.25
385.112	84.25
385.337	84.25
385.562	88.25
385.787	83.25
386.013	98.25
386.238	87.25
386.463	86.25
386.688	101.25
386.913	94.25
387.138	90.25
387.363	78.25
387.588	85.25
387.813	82.25
388.038	91.25
388.263	84.25
388.488	85.25
388.713	82.25
388.938	78.25
389.163	77.25
389.387	70.25
389.612	98.25
389.837	73.25
390.062	96.25
390.287	89.25
390.512	95.25
390.736	87.25
390.961	88.25
391.186	82.25
391.411	88.25
391.636	73.25
391.86	78.25
392.085	81.25
392.31	104.25
392.534	84.25
392.759	79.25
392.984	114.25
393.208	149.25
393.433	176.25
393.658	152.25
393.882	78.25
394.107	89.25
394.331	100.25
394.556	88.25
394.78	97.25
395.005	83.25
395.229	84.25
395.454	103.25
395.678	110.25
395.903	90.25
396.127	108.25
396.352	104.25
396.576	103.25
396.801	134.25
397.025	172.25
397.249	114.25
397.474	110.25
397.698	94.25
397.922	84.25
398.147	92.25
398.371	86.25
398.595	80.25
398.82	82.25
399.044	81.25
399.268	88.25
399.492	85.25
399.717	106.25
399.941	91.25
400.165	89.25
400.389	72.25
400.613	74.25
400.837	78.25
401.062	84.25
401.286	78.25
401.51	74.25
401.734	101.25
401.958	68.25
402.182	88.25
402.406	76.25
402.63	88.25
402.854	97.25
403.078	86.25
403.302	78.25
403.526	74.25
403.75	93.25
403.974	88.25
404.198	88.25
404.422	95.25
404.645	71.25
404.869	99.25
405.093	82.25
405.317	84.25
405.541	83.25
405.765	81.25
405.988	81.25
406.212	93.25
406.436	85.25
406.66	77.25
406.883	75.25
407.107	66.25
407.331	90.25
407.555	80.25
407.778	87.25
408.002	104.25
408.226	89.25
408.449	88.25
408.673	87.25
408.896	106.25
409.12	83.25
409.344	88.25
409.567	86.25
409.791	85.25
410.014	87.25
410.238	68.25
410.461	85.25
410.685	93.25
410.908	91.25
411.132	86.25
411.355	74.25
411.578	96.25
411.802	91.25
412.025	80.25
412.249	88.25
412.472	88.25
412.695	77.25
412.919	78.25
413.142	85.25
413.365	95.25
413.589	95.25
413.812	81.25
414.035	78.25
414.258	97.25
414.482	80.25
414.705	89.25
414.928	83.25
415.151	85.25
415.374	84.25
415.597	81.25
415.821	84.25
416.044	82.25
416.267	89.25
416.49	87.25
416.713	87.25
416.936	70.25
417.159	70.25
417.382	86.25
417.605	86.25
417.828	81.25
418.051	88.25
418.274	77.25
418.497	84.25
418.72	85.25
418.943	81.25
419.166	86.25
419.389	76.25
419.611	79.25
419.834	87.25
420.057	85.25
420.28	84.25
420.503	85.25
420.726	81.25
420.948	91.25
421.171	86.25
421.394	96.25
421.617	92.25
421.839	104.25
422.062	108.25
422.285	140.25
422.507	200.25
422.73	252.25
422.953	241.25
423.175	164.25
423.398	129.25
423.621	108.25
423.843	90.25
424.066	92.25
424.288	84.25
424.511	84.25
424.733	79.25
424.956	89.25
425.178	94.25
425.401	88.25
425.623	85.25
425.846	76.25
426.068	93.25
426.291	85.25
426.513	70.25
426.735	94.25
426.958	85.25
427.18	71.25
427.402	97.25
427.625	101.25
427.847	84.25
428.069	95.25
428.292	97.25
428.514	109.25
428.736	89.25
428.958	98.25
429.181	103.25
429.403	91.25
429.625	93.25
429.847	97.25
430.069	126.25
430.292	138.25
430.514	110.25
430.736	108.25
430.958	104.25
431.18	92.25
431.402	80.25
431.624	94.25
431.846	98.25
432.068	109.25
432.29	95.25
432.512	75.25
432.734	73.25
432.956	77.25
433.178	92.25
433.4	75.25
433.622	93.25
433.844	83.25
434.066	83.25
434.287	84.25
434.509	81.25
434.731	102.25
434.953	84.25
435.175	85.25
435.397	96.25
435.618	96.25
435.84	84.25
436.062	76.25
436.284	70.25
436.505	72.25
436.727	69.25
436.949	93.25
437.17	94.25
437.392	79.25
437.614	77.25
437.835	81.25
438.057	92.25
438.278	98.25
438.5	89.25
438.721	81.25
438.943	84.25
439.165	78.25
439.386	101.25
439.608	82.25
439.829	77.25
440.05	74.25
440.272	78.25
440.493	81.25
440.715	96.25
440.936	86.25
441.158	99.25
441.379	83.25
441.6	80.25
441.822	62.25
442.043	85.25
442.264	95.25
442.486	114.25
442.707	121.25
442.928	98.25
443.149	89.25
443.371	127.25
443.592	161.25
443.813	135.25
444.034	88.25
444.255	95.25
444.476	83.25
444.698	98.25
444.919	104.25
445.14	189.25
445.361	153.25
445.582	175.25
445.803	168.25
446.024	99.25
446.245	96.25
446.466	92.25
446.687	103.25
446.908	86.25
447.129	70.25
447.35	89.25
447.571	81.25
447.792	88.25
448.013	76.25
448.234	86.25
448.455	85.25
448.675	84.25
448.896	78.25
449.117	85.25
449.338	84.25
449.559	86.25
449.779	79.25
450	83.25
450.221	100.25
450.442	90.25
450.662	87.25
450.883	94.25
451.104	80.25
451.324	75.25
451.545	78.25
451.766	93.25
451.986	75.25
452.207	84.25
452.428	75.25
452.648	84.25
452.869	92.25
453.089	89.25
453.31	86.25
453.53	100.25
453.751	79.25
453.971	102.25
454.192	80.25
454.412	79.25
454.633	74.25
454.853	84.25
455.073	80.25
455.294	82.25
455.514	78.25
455.734	99.25
455.955	90.25
456.175	79.25
456.395	80.25
456.616	86.25
456.836	74.25
457.056	84.25
457.276	93.25
457.497	77.25
457.717	86.25
457.937	81.25
458.157	101.25
458.377	104.25
458.598	98.25
458.818	113.25
459.038	88.25
459.258	94.25
459.478	84.25
459.698	86.25
459.918	96.25
460.138	79.25
460.358	86.25
460.578	86.25
460.798	114.25
461.018	97.25
461.238	89.25
461.458	81.25
461.678	78.25
461.898	85.25
462.118	85.25
462.338	81.25
462.558	87.25
462.777	81.25
462.997	77.25
463.217	80.25
463.437	84.25
463.657	89.25
463.876	90.25
464.096	96.25
464.316	96.25
464.536	75.25
464.755	96.25
464.975	78.25
465.195	86.25
465.414	85.25
465.634	88.25
465.854	81.25
466.073	94.25
466.293	93.25
466.512	82.25
466.732	76.25
466.951	84.25
467.171	78.25
467.391	78.25
467.61	88.25
467.829	89.25
468.049	69.25
468.268	72.25
468.488	85.25
468.707	74.25
468.927	96.25
469.146	84.25
469.365	86.25
469.585	93.25
469.804	80.25
470.023	83.25
470.243	85.25
470.462	66.25
470.681	81.25
470.901	71.25
471.12	82.25
471.339	84.25
471.558	97.25
471.777	84.25
471.997	83.25
472.216	88.25
472.435	86.25
472.654	89.25
472.873	80.25
473.092	75.25
473.311	96.25
473.53	98.25
473.749	74.25
473.968	92.25
474.187	90.25
474.406	86.25
474.625	85.25
474.844	90.25
475.063	83.25
475.282	77.25
475.501	84.25
475.72	82.25
475.939	94.25
476.158	78.25
476.377	82.25
476.596	77.25
476.814	97.25
477.033	90.25
477.252	92.25
477.471	81.25
477.69	87.25
477.908	88.25
478.127	86.25
478.346	105.25
478.564	79.25
478.783	89.25
479.002	74.25
479.22	88.25
479.439	100.25
479.658	88.25
479.876	85.25
480.095	94.25
480.313	87.25
480.532	96.25
480.751	87.25
480.969	81.25
481.188	83.25
481.406	96.25
481.624	65.25
481.843	88.25
482.061	90.25
482.28	90.25
482.498	80.25
482.717	96.25
482.935	84.25
483.153	95.25
483.372	92.25
483.59	78.25
483.808	72.25
484.027	84.25
484.245	85.25
484.463	86.25
484.681	100.25
484.9	89.25
485.118	74.25
485.336	96.25
485.554	87.25
485.772	97.25
485.99	95.25
486.209	93.25
486.427	83.25
486.645	99.25
486.863	100.25
487.081	114.25
487.299	100.25
487.517	86.25
487.735	98.25
487.953	149.25
488.171	113.25
488.389	95.25
488.607	91.25
488.825	86.25
489.043	95.25
489.261	80.25
489.479	94.25
489.696	103.25
489.914	87.25
490.132	83.25
490.35	76.25
490.568	80.25
490.786	91.25
491.003	89.25
491.221	100.25
491.439	76.25
491.657	84.25
491.874	95.25
492.092	92.25
492.31	99.25
492.527	97.25
492.745	83.25
492.963	96.25
493.18	84.25
493.398	95.25
493.615	87.25
493.833	89.25
494.05	83.25
494.268	95.25
494.485	89.25
494.703	84.25
494.92	84.25
495.138	90.25
495.355	86.25
495.573	83.25
495.79	75.25
496.008	98.25
496.225	86.25
496.442	82.25
496.66	86.25
496.877	74.25
497.094	90.25
497.312	81.25
497.529	82.25
497.746	95.25
497.963	90.25
498.181	94.25
498.398	96.25
498.615	89.25
498.832	78.25
499.049	84.25
499.267	96.25
499.484	93.25
499.701	101.25
499.918	96.25
500.135	92.25
500.352	90.25
500.569	62.25
500.786	94.25
501.003	86.25
501.22	89.25
501.437	81.25
501.654	70.25
501.871	89.25
502.088	92.25
502.305	82.25
502.522	90.25
502.739	85.25
502.956	87.25
503.172	87.25
503.389	90.25
503.606	89.25
503.823	91.25
504.04	108.25
504.256	115.25
504.473	98.25
504.69	88.25
504.907	81.25
505.123	82.25
505.34	98.25
505.557	83.25
505.773	89.25
505.99	80.25
506.207	84.25
506.423	95.25
506.64	82.25
506.856	92.25
507.073	85.25
507.289	94.25
507.506	97.25
507.722	85.25
507.939	89.25
508.155	83.25
508.372	69.25
508.588	59.25
508.805	97.25
509.021	90.25
509.238	88.25
509.454	83.25
509.67	100.25
509.887	81.25
510.103	88.25
510.319	81.25
510.536	92.25
510.752	87.25
510.968	80.25
511.184	96.25
511.401	88.25
511.617	85.25
511.833	84.25
512.049	92.25
512.265	100.25
512.481	88.25
512.698	101.25
512.914	77.25
513.13	83.25
513.346	77.25
513.562	81.25
513.778	85.25
513.994	102.25
514.21	71.25
514.426	92.25
514.642	80.25
514.858	86.25
515.074	96.25
515.29	83.25
515.506	95.25
515.721	75.25
515.937	89.25
516.153	90.25
516.369	90.25
516.585	85.25
516.801	87.25
517.016	98.25
517.232	96.25
517.448	91.25
517.664	100.25
517.879	83.25
518.095	85.25
518.311	87.25
518.527	112.25
518.742	94.25
518.958	115.25
