Data from 10100_2_HRD10591_00031.txt Node
Date: Mon Jan 19 14:01:39 EST 2026
User: Yrep
Spectrometer: HR+D1059
Trigger mode: 1
Integration Time (sec): 1.000000E-1
Scans to average: 1
Electric dark correction enabled: true
Nonlinearity correction enabled: false
Boxcar width: 0
XAxis mode: Wavelengths
Number of Pixels in Spectrum: 2048
>>>>>Begin Spectral Data<<<<<
223.165	-8.81
223.4	-8.81
223.635	-8.81
223.869	-17.81
224.104	-12.81
224.338	-18.81
224.573	-8.81
224.808	-29.81
225.042	-6.81
225.277	-8.81
225.511	-14.81
225.746	16.19
225.98	11.19
226.215	7.19
226.449	18.19
226.683	10.19
226.918	41.19
227.152	23.19
227.387	27.19
227.621	39.19
227.856	48.19
228.09	44.19
228.324	69.19
228.559	71.19
228.793	55.19
229.027	64.19
229.262	65.19
229.496	83.19
229.73	71.19
229.964	86.19
230.199	73.19
230.433	61.19
230.667	84.19
230.901	82.19
231.136	76.19
231.37	85.19
231.604	63.19
231.838	72.19
232.072	77.19
232.306	87.19
232.541	79.19
232.775	88.19
233.009	85.19
233.243	76.19
233.477	87.19
233.711	85.19
233.945	75.19
234.179	81.19
234.413	84.19
234.647	82.19
234.881	72.19
235.115	75.19
235.349	95.19
235.583	81.19
235.817	74.19
236.051	82.19
236.285	71.19
236.519	77.19
236.753	80.19
236.987	80.19
237.221	77.19
237.455	92.19
237.689	78.19
237.922	70.19
238.156	74.19
238.39	88.19
238.624	79.19
238.858	83.19
239.091	86.19
239.325	67.19
239.559	83.19
239.793	70.19
240.027	80.19
240.26	88.19
240.494	90.19
240.728	81.19
240.961	68.19
241.195	65.19
241.429	69.19
241.662	77.19
241.896	83.19
242.13	85.19
242.363	84.19
242.597	82.19
242.83	78.19
243.064	74.19
243.298	80.19
243.531	89.19
243.765	85.19
243.998	89.19
244.232	81.19
244.465	74.19
244.699	77.19
244.932	74.19
245.166	71.19
245.399	83.19
245.633	85.19
245.866	87.19
246.099	84.19
246.333	86.19
246.566	81.19
246.8	91.19
247.033	90.19
247.266	82.19
247.5	87.19
247.733	64.19
247.966	75.19
248.2	85.19
248.433	81.19
248.666	92.19
248.899	89.19
249.133	73.19
249.366	92.19
249.599	88.19
249.832	78.19
250.066	86.19
250.299	87.19
250.532	85.19
250.765	84.19
250.998	85.19
251.231	78.19
251.465	87.19
251.698	85.19
251.931	89.19
252.164	75.19
252.397	87.19
252.63	80.19
252.863	84.19
253.096	93.19
253.329	75.19
253.562	88.19
253.795	86.19
254.028	76.19
254.261	96.19
254.494	76.19
254.727	70.19
254.96	65.19
255.193	77.19
255.426	76.19
255.659	74.19
255.892	85.19
256.124	88.19
256.357	83.19
256.59	72.19
256.823	81.19
257.056	75.19
257.289	89.19
257.521	68.19
257.754	81.19
257.987	78.19
258.22	96.19
258.452	87.19
258.685	71.19
258.918	94.19
259.151	84.19
259.383	71.19
259.616	73.19
259.849	85.19
260.081	86.19
260.314	86.19
260.547	82.19
260.779	85.19
261.012	77.19
261.244	71.19
261.477	69.19
261.71	86.19
261.942	89.19
262.175	74.19
262.407	85.19
262.64	81.19
262.872	82.19
263.105	84.19
263.337	86.19
263.57	92.19
263.802	91.19
264.035	70.19
264.267	99.19
264.499	85.19
264.732	77.19
264.964	78.19
265.197	77.19
265.429	96.19
265.661	78.19
265.894	78.19
266.126	77.19
266.358	89.19
266.591	80.19
266.823	82.19
267.055	88.19
267.287	91.19
267.52	97.19
267.752	86.19
267.984	91.19
268.216	79.19
268.448	81.19
268.681	83.19
268.913	89.19
269.145	81.19
269.377	78.19
269.609	86.19
269.841	76.19
270.073	68.19
270.306	86.19
270.538	84.19
270.77	85.19
271.002	92.19
271.234	79.19
271.466	82.19
271.698	89.19
271.93	68.19
272.162	80.19
272.394	76.19
272.626	84.19
272.858	76.19
273.09	91.19
273.322	93.19
273.553	77.19
273.785	85.19
274.017	86.19
274.249	96.19
274.481	91.19
274.713	87.19
274.945	83.19
275.176	67.19
275.408	78.19
275.64	84.19
275.872	101.19
276.104	89.19
276.335	95.19
276.567	83.19
276.799	75.19
277.031	78.19
277.262	92.19
277.494	77.19
277.726	87.19
277.957	80.19
278.189	83.19
278.421	82.19
278.652	84.19
278.884	88.19
279.115	79.19
279.347	89.19
279.579	84.19
279.81	76.19
280.042	96.19
280.273	87.19
280.505	90.19
280.736	76.19
280.968	87.19
281.199	81.19
281.431	78.19
281.662	77.19
281.894	94.19
282.125	81.19
282.356	81.19
282.588	89.19
282.819	64.19
283.051	81.19
283.282	69.19
283.513	68.19
283.745	79.19
283.976	91.19
284.207	78.19
284.439	84.19
284.67	81.19
284.901	93.19
285.132	76.19
285.364	83.19
285.595	90.19
285.826	77.19
286.057	88.19
286.288	87.19
286.52	93.19
286.751	95.19
286.982	81.19
287.213	90.19
287.444	85.19
287.675	81.19
287.906	106.19
288.138	76.19
288.369	79.19
288.6	81.19
288.831	86.19
289.062	85.19
289.293	81.19
289.524	93.19
289.755	65.19
289.986	97.19
290.217	101.19
290.448	84.19
290.679	85.19
290.91	88.19
291.141	97.19
291.371	86.19
291.602	89.19
291.833	96.19
292.064	86.19
292.295	100.19
292.526	77.19
292.757	76.19
292.987	96.19
293.218	90.19
293.449	89.19
293.68	80.19
293.91	98.19
294.141	91.19
294.372	85.19
294.603	90.19
294.833	72.19
295.064	87.19
295.295	84.19
295.525	82.19
295.756	84.19
295.987	73.19
296.217	98.19
296.448	95.19
296.679	101.19
296.909	74.19
297.14	74.19
297.37	80.19
297.601	73.19
297.831	75.19
298.062	61.19
298.292	86.19
298.523	87.19
298.753	92.19
298.984	96.19
299.214	77.19
299.445	75.19
299.675	78.19
299.905	91.19
300.136	90.19
300.366	84.19
300.597	99.19
300.827	89.19
301.057	93.19
301.288	80.19
301.518	99.19
301.748	92.19
301.979	100.19
302.209	88.19
302.439	90.19
302.669	92.19
302.9	74.19
303.13	90.19
303.36	84.19
303.59	71.19
303.82	83.19
304.051	75.19
304.281	94.19
304.511	98.19
304.741	78.19
304.971	86.19
305.201	85.19
305.431	100.19
305.661	92.19
305.891	87.19
306.121	78.19
306.352	84.19
306.582	79.19
306.812	90.19
307.042	101.19
307.272	83.19
307.502	83.19
307.731	84.19
307.961	87.19
308.191	87.19
308.421	79.19
308.651	87.19
308.881	84.19
309.111	90.19
309.341	74.19
309.571	98.19
309.8	81.19
310.03	96.19
310.26	90.19
310.49	83.19
310.72	87.19
310.949	92.19
311.179	82.19
311.409	100.19
311.639	93.19
311.868	78.19
312.098	92.19
312.328	98.19
312.557	75.19
312.787	83.19
313.017	88.19
313.246	91.19
313.476	90.19
313.706	73.19
313.935	86.19
314.165	83.19
314.394	72.19
314.624	75.19
314.853	104.19
315.083	83.19
315.312	93.19
315.542	86.19
315.771	78.19
316.001	73.19
316.23	77.19
316.46	92.19
316.689	78.19
316.919	73.19
317.148	79.19
317.377	96.19
317.607	91.19
317.836	85.19
318.065	90.19
318.295	92.19
318.524	68.19
318.753	74.19
318.983	95.19
319.212	77.19
319.441	95.19
319.67	101.19
319.9	91.19
320.129	73.19
320.358	77.19
320.587	90.19
320.816	72.19
321.046	91.19
321.275	103.19
321.504	96.19
321.733	86.19
321.962	90.19
322.191	76.19
322.42	90.19
322.649	94.19
322.878	99.19
323.108	82.19
323.337	76.19
323.566	99.19
323.795	83.19
324.024	97.19
324.253	87.19
324.482	91.19
324.71	86.19
324.939	99.19
325.168	91.19
325.397	85.19
325.626	76.19
325.855	87.19
326.084	79.19
326.313	80.19
326.542	99.19
326.77	102.19
326.999	87.19
327.228	81.19
327.457	96.19
327.686	91.19
327.914	90.19
328.143	84.19
328.372	97.19
328.6	84.19
328.829	88.19
329.058	77.19
329.287	82.19
329.515	97.19
329.744	88.19
329.972	83.19
330.201	71.19
330.43	78.19
330.658	105.19
330.887	76.19
331.115	91.19
331.344	77.19
331.572	89.19
331.801	88.19
332.03	92.19
332.258	88.19
332.486	80.19
332.715	87.19
332.943	78.19
333.172	93.19
333.4	81.19
333.629	97.19
333.857	92.19
334.085	87.19
334.314	100.19
334.542	91.19
334.771	92.19
334.999	80.19
335.227	77.19
335.455	101.19
335.684	85.19
335.912	91.19
336.14	78.19
336.369	79.19
336.597	78.19
336.825	85.19
337.053	82.19
337.281	86.19
337.51	76.19
337.738	94.19
337.966	89.19
338.194	93.19
338.422	87.19
338.65	95.19
338.878	102.19
339.106	79.19
339.334	96.19
339.562	83.19
339.79	98.19
340.018	78.19
340.246	81.19
340.474	88.19
340.702	85.19
340.93	95.19
341.158	88.19
341.386	77.19
341.614	99.19
341.842	67.19
342.07	83.19
342.298	91.19
342.526	75.19
342.754	104.19
342.981	103.19
343.209	83.19
343.437	79.19
343.665	87.19
343.893	85.19
344.12	89.19
344.348	79.19
344.576	83.19
344.804	77.19
345.031	78.19
345.259	81.19
345.487	82.19
345.714	85.19
345.942	91.19
346.17	90.19
346.397	91.19
346.625	93.19
346.853	95.19
347.08	90.19
347.308	82.19
347.535	98.19
347.763	85.19
347.99	96.19
348.218	85.19
348.445	87.19
348.673	85.19
348.9	78.19
349.128	95.19
349.355	78.19
349.583	75.19
349.81	80.19
350.037	79.19
350.265	75.19
350.492	77.19
350.72	72.19
350.947	82.19
351.174	85.19
351.402	92.19
351.629	91.19
351.856	87.19
352.083	89.19
352.311	82.19
352.538	85.19
352.765	83.19
352.992	99.19
353.22	92.19
353.447	91.19
353.674	86.19
353.901	88.19
354.128	82.19
354.355	89.19
354.583	85.19
354.81	81.19
355.037	84.19
355.264	82.19
355.491	81.19
355.718	71.19
355.945	76.19
356.172	89.19
356.399	93.19
356.626	79.19
356.853	89.19
357.08	96.19
357.307	82.19
357.534	87.19
357.761	84.19
357.988	85.19
358.215	89.19
358.441	87.19
358.668	65.19
358.895	84.19
359.122	81.19
359.349	78.19
359.576	80.19
359.802	86.19
360.029	88.19
360.256	97.19
360.483	87.19
360.709	93.19
360.936	92.19
361.163	92.19
361.39	94.19
361.616	85.19
361.843	95.19
362.07	72.19
362.296	78.19
362.523	85.19
362.749	83.19
362.976	77.19
363.203	90.19
363.429	93.19
363.656	82.19
363.882	74.19
364.109	86.19
364.335	78.19
364.562	90.19
364.788	86.19
365.015	83.19
365.241	97.19
365.468	88.19
365.694	85.19
365.92	84.19
366.147	90.19
366.373	91.19
366.599	89.19
366.826	75.19
367.052	80.19
367.278	101.19
367.505	88.19
367.731	81.19
367.957	79.19
368.184	82.19
368.41	71.19
368.636	87.19
368.862	75.19
369.089	91.19
369.315	77.19
369.541	75.19
369.767	92.19
369.993	90.19
370.219	75.19
370.445	84.19
370.672	96.19
370.898	86.19
371.124	87.19
371.35	90.19
371.576	80.19
371.802	84.19
372.028	88.19
372.254	85.19
372.48	83.19
372.706	83.19
372.932	81.19
373.158	87.19
373.384	86.19
373.61	90.19
373.835	87.19
374.061	84.19
374.287	86.19
374.513	80.19
374.739	91.19
374.965	81.19
375.191	83.19
375.416	83.19
375.642	92.19
375.868	94.19
376.094	81.19
376.319	80.19
376.545	88.19
376.771	87.19
376.997	81.19
377.222	89.19
377.448	81.19
377.674	91.19
377.899	73.19
378.125	90.19
378.35	90.19
378.576	93.19
378.802	87.19
379.027	83.19
379.253	77.19
379.478	87.19
379.704	89.19
379.929	86.19
380.155	92.19
380.38	89.19
380.606	97.19
380.831	86.19
381.057	102.19
381.282	91.19
381.507	85.19
381.733	84.19
381.958	77.19
382.184	73.19
382.409	84.19
382.634	80.19
382.86	88.19
383.085	91.19
383.31	97.19
383.535	96.19
383.761	89.19
383.986	92.19
384.211	85.19
384.436	74.19
384.662	76.19
384.887	78.19
385.112	81.19
385.337	91.19
385.562	95.19
385.787	83.19
386.013	85.19
386.238	91.19
386.463	72.19
386.688	102.19
386.913	77.19
387.138	99.19
387.363	97.19
387.588	69.19
387.813	86.19
388.038	86.19
388.263	92.19
388.488	90.19
388.713	90.19
388.938	91.19
389.163	81.19
389.387	72.19
389.612	91.19
389.837	88.19
390.062	80.19
390.287	89.19
390.512	86.19
390.736	93.19
390.961	78.19
391.186	94.19
391.411	75.19
391.636	104.19
391.86	79.19
392.085	80.19
392.31	89.19
392.534	92.19
392.759	87.19
392.984	101.19
393.208	123.19
393.433	147.19
393.658	117.19
393.882	99.19
394.107	74.19
394.331	78.19
394.556	90.19
394.78	89.19
395.005	85.19
395.229	77.19
395.454	85.19
395.678	95.19
395.903	95.19
396.127	78.19
396.352	94.19
396.576	90.19
396.801	116.19
397.025	130.19
397.249	89.19
397.474	96.19
397.698	85.19
397.922	99.19
398.147	83.19
398.371	76.19
398.595	76.19
398.82	88.19
399.044	80.19
399.268	89.19
399.492	77.19
399.717	85.19
399.941	87.19
400.165	72.19
400.389	81.19
400.613	95.19
400.837	96.19
401.062	88.19
401.286	80.19
401.51	85.19
401.734	96.19
401.958	91.19
402.182	79.19
402.406	77.19
402.63	84.19
402.854	66.19
403.078	95.19
403.302	92.19
403.526	85.19
403.75	81.19
403.974	69.19
404.198	81.19
404.422	70.19
404.645	81.19
404.869	93.19
405.093	77.19
405.317	82.19
405.541	96.19
405.765	86.19
405.988	72.19
406.212	103.19
406.436	89.19
406.66	85.19
406.883	96.19
407.107	79.19
407.331	77.19
407.555	73.19
407.778	93.19
408.002	83.19
408.226	86.19
408.449	81.19
408.673	86.19
408.896	80.19
409.12	84.19
409.344	80.19
409.567	91.19
409.791	86.19
410.014	94.19
410.238	75.19
410.461	89.19
410.685	99.19
410.908	97.19
411.132	76.19
411.355	86.19
411.578	73.19
411.802	95.19
412.025	96.19
412.249	99.19
412.472	85.19
412.695	76.19
412.919	85.19
413.142	77.19
413.365	77.19
413.589	81.19
413.812	85.19
414.035	75.19
414.258	91.19
414.482	96.19
414.705	84.19
414.928	84.19
415.151	85.19
415.374	79.19
415.597	80.19
415.821	72.19
416.044	106.19
416.267	75.19
416.49	88.19
416.713	87.19
416.936	72.19
417.159	75.19
417.382	100.19
417.605	74.19
417.828	92.19
418.051	83.19
418.274	79.19
418.497	77.19
418.72	85.19
418.943	89.19
419.166	78.19
419.389	96.19
419.611	83.19
419.834	90.19
420.057	88.19
420.28	77.19
420.503	96.19
420.726	97.19
420.948	76.19
421.171	85.19
421.394	81.19
421.617	71.19
421.839	83.19
422.062	92.19
422.285	102.19
422.507	119.19
422.73	138.19
422.953	127.19
423.175	103.19
423.398	76.19
423.621	84.19
423.843	83.19
424.066	85.19
424.288	85.19
424.511	93.19
424.733	86.19
424.956	92.19
425.178	68.19
425.401	88.19
425.623	76.19
425.846	75.19
426.068	88.19
426.291	54.19
426.513	82.19
426.735	83.19
426.958	87.19
427.18	87.19
427.402	82.19
427.625	91.19
427.847	83.19
428.069	87.19
428.292	96.19
428.514	92.19
428.736	93.19
428.958	92.19
429.181	84.19
429.403	82.19
429.625	88.19
429.847	77.19
430.069	91.19
430.292	83.19
430.514	90.19
430.736	84.19
430.958	100.19
431.18	93.19
431.402	78.19
431.624	97.19
431.846	96.19
432.068	93.19
432.29	96.19
432.512	89.19
432.734	88.19
432.956	84.19
433.178	96.19
433.4	89.19
433.622	86.19
433.844	75.19
434.066	83.19
434.287	80.19
434.509	89.19
434.731	99.19
434.953	87.19
435.175	92.19
435.397	87.19
435.618	80.19
435.84	84.19
436.062	72.19
436.284	72.19
436.505	72.19
436.727	84.19
436.949	85.19
437.17	80.19
437.392	83.19
437.614	83.19
437.835	68.19
438.057	81.19
438.278	79.19
438.5	92.19
438.721	83.19
438.943	78.19
439.165	80.19
439.386	96.19
439.608	91.19
439.829	88.19
440.05	75.19
440.272	90.19
440.493	84.19
440.715	84.19
440.936	78.19
441.158	87.19
441.379	86.19
441.6	88.19
441.822	78.19
442.043	84.19
442.264	76.19
442.486	83.19
442.707	95.19
442.928	80.19
443.149	89.19
443.371	89.19
443.592	83.19
443.813	101.19
444.034	91.19
444.255	84.19
444.476	80.19
444.698	84.19
444.919	71.19
445.14	171.19
445.361	126.19
445.582	98.19
445.803	97.19
446.024	81.19
446.245	87.19
446.466	96.19
446.687	89.19
446.908	87.19
447.129	88.19
447.35	73.19
447.571	76.19
447.792	92.19
448.013	92.19
448.234	97.19
448.455	103.19
448.675	87.19
448.896	76.19
449.117	89.19
449.338	75.19
449.559	87.19
449.779	88.19
450	80.19
450.221	87.19
450.442	82.19
450.662	102.19
450.883	87.19
451.104	81.19
451.324	77.19
451.545	81.19
451.766	77.19
451.986	62.19
452.207	83.19
452.428	88.19
452.648	81.19
452.869	92.19
453.089	85.19
453.31	75.19
453.53	84.19
453.751	72.19
453.971	94.19
454.192	73.19
454.412	97.19
454.633	77.19
454.853	100.19
455.073	80.19
455.294	80.19
455.514	78.19
455.734	78.19
455.955	92.19
456.175	71.19
456.395	90.19
456.616	85.19
456.836	83.19
457.056	86.19
457.276	66.19
457.497	77.19
457.717	88.19
457.937	87.19
458.157	81.19
458.377	87.19
458.598	95.19
458.818	86.19
459.038	76.19
459.258	80.19
459.478	77.19
459.698	95.19
459.918	93.19
460.138	95.19
460.358	68.19
460.578	85.19
460.798	100.19
461.018	80.19
461.238	94.19
461.458	85.19
461.678	82.19
461.898	88.19
462.118	86.19
462.338	98.19
462.558	76.19
462.777	84.19
462.997	85.19
463.217	76.19
463.437	74.19
463.657	59.19
463.876	80.19
464.096	81.19
464.316	81.19
464.536	78.19
464.755	89.19
464.975	87.19
465.195	85.19
465.414	81.19
465.634	82.19
465.854	87.19
466.073	89.19
466.293	92.19
466.512	88.19
466.732	87.19
466.951	87.19
467.171	75.19
467.391	90.19
467.61	83.19
467.829	89.19
468.049	92.19
468.268	85.19
468.488	76.19
468.707	92.19
468.927	73.19
469.146	81.19
469.365	82.19
469.585	73.19
469.804	81.19
470.023	90.19
470.243	83.19
470.462	84.19
470.681	89.19
470.901	97.19
471.12	77.19
471.339	71.19
471.558	71.19
471.777	66.19
471.997	74.19
472.216	80.19
472.435	87.19
472.654	70.19
472.873	96.19
473.092	78.19
473.311	100.19
473.53	72.19
473.749	83.19
473.968	81.19
474.187	92.19
474.406	85.19
474.625	83.19
474.844	93.19
475.063	94.19
475.282	78.19
475.501	89.19
475.72	91.19
475.939	78.19
476.158	71.19
476.377	68.19
476.596	95.19
476.814	94.19
477.033	86.19
477.252	81.19
477.471	68.19
477.69	74.19
477.908	71.19
478.127	98.19
478.346	99.19
478.564	81.19
478.783	80.19
479.002	90.19
479.22	81.19
479.439	92.19
479.658	77.19
479.876	94.19
480.095	86.19
480.313	81.19
480.532	92.19
480.751	78.19
480.969	85.19
481.188	73.19
481.406	75.19
481.624	75.19
481.843	71.19
482.061	77.19
482.28	76.19
482.498	87.19
482.717	81.19
482.935	73.19
483.153	86.19
483.372	73.19
483.59	59.19
483.808	88.19
484.027	76.19
484.245	82.19
484.463	84.19
484.681	89.19
484.9	105.19
485.118	93.19
485.336	82.19
485.554	91.19
485.772	84.19
485.99	84.19
486.209	68.19
486.427	86.19
486.645	90.19
486.863	86.19
487.081	85.19
487.299	74.19
487.517	88.19
487.735	70.19
487.953	98.19
488.171	83.19
488.389	99.19
488.607	89.19
488.825	77.19
489.043	85.19
489.261	87.19
489.479	73.19
489.696	83.19
489.914	67.19
490.132	80.19
490.35	69.19
490.568	90.19
490.786	80.19
491.003	69.19
491.221	70.19
491.439	86.19
491.657	79.19
491.874	84.19
492.092	97.19
492.31	93.19
492.527	82.19
492.745	103.19
492.963	89.19
493.18	88.19
493.398	88.19
493.615	89.19
493.833	93.19
494.05	72.19
494.268	99.19
494.485	77.19
494.703	91.19
494.92	96.19
495.138	90.19
495.355	87.19
495.573	98.19
495.79	91.19
496.008	87.19
496.225	90.19
496.442	82.19
496.66	97.19
496.877	95.19
497.094	99.19
497.312	100.19
497.529	99.19
497.746	84.19
497.963	79.19
498.181	77.19
498.398	78.19
498.615	81.19
498.832	80.19
499.049	79.19
499.267	81.19
499.484	81.19
499.701	86.19
499.918	87.19
500.135	83.19
500.352	86.19
500.569	89.19
500.786	85.19
501.003	97.19
501.22	96.19
501.437	95.19
501.654	80.19
501.871	103.19
502.088	77.19
502.305	92.19
502.522	82.19
502.739	90.19
502.956	84.19
503.172	81.19
503.389	85.19
503.606	84.19
503.823	92.19
504.04	83.19
504.256	82.19
504.473	88.19
504.69	95.19
504.907	94.19
505.123	98.19
505.34	85.19
505.557	93.19
505.773	82.19
505.99	97.19
506.207	85.19
506.423	74.19
506.64	98.19
506.856	82.19
507.073	80.19
507.289	88.19
507.506	85.19
507.722	81.19
507.939	90.19
508.155	66.19
508.372	97.19
508.588	85.19
508.805	91.19
509.021	98.19
509.238	96.19
509.454	76.19
509.67	84.19
509.887	95.19
510.103	89.19
510.319	77.19
510.536	94.19
510.752	88.19
510.968	82.19
511.184	84.19
511.401	74.19
511.617	81.19
511.833	89.19
512.049	81.19
512.265	80.19
512.481	87.19
512.698	93.19
512.914	87.19
513.13	86.19
513.346	98.19
513.562	87.19
513.778	79.19
513.994	81.19
514.21	90.19
514.426	91.19
514.642	71.19
514.858	84.19
515.074	87.19
515.29	81.19
515.506	85.19
515.721	90.19
515.937	74.19
516.153	92.19
516.369	83.19
516.585	83.19
516.801	88.19
517.016	83.19
517.232	91.19
517.448	83.19
517.664	76.19
517.879	73.19
518.095	88.19
518.311	78.19
518.527	92.19
518.742	100.19
518.958	107.19
519.173	90.19
519.389	82.19
519.605	91.19
