Data from 10100_2_HRD10591_00022.txt Node
Date: Mon Jan 19 14:01:35 EST 2026
User: Yrep
Spectrometer: HR+D1059
Trigger mode: 1
Integration Time (sec): 1.000000E-1
Scans to average: 1
Electric dark correction enabled: true
Nonlinearity correction enabled: false
Boxcar width: 0
XAxis mode: Wavelengths
Number of Pixels in Spectrum: 2048
>>>>>Begin Spectral Data<<<<<
223.165	-29.12
223.4	-29.12
223.635	-29.12
223.869	-17.12
224.104	-22.12
224.338	-11.12
224.573	-10.12
224.808	8.88
225.042	-11.12
225.277	-13.12
225.511	3.88
225.746	6.88
225.98	4.88
226.215	10.88
226.449	7.88
226.683	26.88
226.918	26.88
227.152	16.88
227.387	31.88
227.621	34.88
227.856	26.88
228.09	38.88
228.324	51.88
228.559	58.88
228.793	56.88
229.027	54.88
229.262	66.88
229.496	61.88
229.73	62.88
229.964	65.88
230.199	66.88
230.433	63.88
230.667	72.88
230.901	79.88
231.136	83.88
231.37	68.88
231.604	79.88
231.838	82.88
232.072	66.88
232.306	88.88
232.541	77.88
232.775	80.88
233.009	72.88
233.243	87.88
233.477	87.88
233.711	79.88
233.945	82.88
234.179	86.88
234.413	93.88
234.647	78.88
234.881	73.88
235.115	58.88
235.349	78.88
235.583	82.88
235.817	86.88
236.051	79.88
236.285	69.88
236.519	68.88
236.753	68.88
236.987	72.88
237.221	67.88
237.455	75.88
237.689	76.88
237.922	73.88
238.156	90.88
238.39	58.88
238.624	86.88
238.858	73.88
239.091	82.88
239.325	62.88
239.559	72.88
239.793	65.88
240.027	68.88
240.26	79.88
240.494	64.88
240.728	82.88
240.961	82.88
241.195	77.88
241.429	56.88
241.662	75.88
241.896	78.88
242.13	68.88
242.363	72.88
242.597	77.88
242.83	84.88
243.064	76.88
243.298	79.88
243.531	79.88
243.765	78.88
243.998	69.88
244.232	82.88
244.465	68.88
244.699	67.88
244.932	70.88
245.166	62.88
245.399	85.88
245.633	60.88
245.866	67.88
246.099	69.88
246.333	81.88
246.566	82.88
246.8	70.88
247.033	70.88
247.266	74.88
247.5	79.88
247.733	67.88
247.966	67.88
248.2	70.88
248.433	80.88
248.666	70.88
248.899	65.88
249.133	70.88
249.366	86.88
249.599	75.88
249.832	72.88
250.066	72.88
250.299	79.88
250.532	94.88
250.765	82.88
250.998	90.88
251.231	69.88
251.465	85.88
251.698	82.88
251.931	82.88
252.164	70.88
252.397	78.88
252.63	88.88
252.863	80.88
253.096	75.88
253.329	70.88
253.562	88.88
253.795	76.88
254.028	68.88
254.261	68.88
254.494	74.88
254.727	88.88
254.96	90.88
255.193	87.88
255.426	81.88
255.659	59.88
255.892	78.88
256.124	78.88
256.357	83.88
256.59	70.88
256.823	67.88
257.056	78.88
257.289	69.88
257.521	87.88
257.754	73.88
257.987	82.88
258.22	86.88
258.452	92.88
258.685	68.88
258.918	63.88
259.151	82.88
259.383	90.88
259.616	92.88
259.849	79.88
260.081	78.88
260.314	76.88
260.547	84.88
260.779	91.88
261.012	92.88
261.244	84.88
261.477	65.88
261.71	91.88
261.942	76.88
262.175	89.88
262.407	72.88
262.64	74.88
262.872	76.88
263.105	64.88
263.337	94.88
263.57	72.88
263.802	89.88
264.035	74.88
264.267	78.88
264.499	83.88
264.732	91.88
264.964	82.88
265.197	71.88
265.429	76.88
265.661	82.88
265.894	68.88
266.126	80.88
266.358	84.88
266.591	73.88
266.823	78.88
267.055	77.88
267.287	91.88
267.52	72.88
267.752	91.88
267.984	98.88
268.216	90.88
268.448	71.88
268.681	83.88
268.913	75.88
269.145	81.88
269.377	86.88
269.609	76.88
269.841	82.88
270.073	72.88
270.306	82.88
270.538	74.88
270.77	72.88
271.002	92.88
271.234	71.88
271.466	86.88
271.698	81.88
271.93	76.88
272.162	80.88
272.394	88.88
272.626	78.88
272.858	81.88
273.09	79.88
273.322	85.88
273.553	98.88
273.785	76.88
274.017	81.88
274.249	93.88
274.481	73.88
274.713	84.88
274.945	76.88
275.176	86.88
275.408	83.88
275.64	94.88
275.872	77.88
276.104	75.88
276.335	79.88
276.567	84.88
276.799	78.88
277.031	82.88
277.262	74.88
277.494	72.88
277.726	82.88
277.957	85.88
278.189	89.88
278.421	76.88
278.652	82.88
278.884	68.88
279.115	91.88
279.347	82.88
279.579	90.88
279.81	86.88
280.042	84.88
280.273	75.88
280.505	91.88
280.736	78.88
280.968	75.88
281.199	76.88
281.431	79.88
281.662	86.88
281.894	73.88
282.125	91.88
282.356	80.88
282.588	78.88
282.819	85.88
283.051	80.88
283.282	86.88
283.513	81.88
283.745	84.88
283.976	84.88
284.207	71.88
284.439	96.88
284.67	91.88
284.901	81.88
285.132	94.88
285.364	87.88
285.595	84.88
285.826	94.88
286.057	84.88
286.288	84.88
286.52	68.88
286.751	71.88
286.982	74.88
287.213	91.88
287.444	96.88
287.675	92.88
287.906	96.88
288.138	101.88
288.369	86.88
288.6	86.88
288.831	80.88
289.062	83.88
289.293	86.88
289.524	75.88
289.755	88.88
289.986	80.88
290.217	84.88
290.448	88.88
290.679	79.88
290.91	90.88
291.141	98.88
291.371	86.88
291.602	80.88
291.833	77.88
292.064	82.88
292.295	77.88
292.526	73.88
292.757	87.88
292.987	68.88
293.218	75.88
293.449	74.88
293.68	79.88
293.91	82.88
294.141	98.88
294.372	89.88
294.603	84.88
294.833	92.88
295.064	93.88
295.295	86.88
295.525	74.88
295.756	84.88
295.987	73.88
296.217	81.88
296.448	84.88
296.679	92.88
296.909	91.88
297.14	89.88
297.37	86.88
297.601	92.88
297.831	86.88
298.062	79.88
298.292	83.88
298.523	100.88
298.753	90.88
298.984	86.88
299.214	87.88
299.445	102.88
299.675	95.88
299.905	111.88
300.136	72.88
300.366	89.88
300.597	72.88
300.827	101.88
301.057	97.88
301.288	108.88
301.518	106.88
301.748	97.88
301.979	100.88
302.209	106.88
302.439	91.88
302.669	86.88
302.9	70.88
303.13	93.88
303.36	102.88
303.59	86.88
303.82	93.88
304.051	96.88
304.281	81.88
304.511	85.88
304.741	98.88
304.971	80.88
305.201	91.88
305.431	86.88
305.661	84.88
305.891	95.88
306.121	85.88
306.352	78.88
306.582	99.88
306.812	75.88
307.042	74.88
307.272	98.88
307.502	90.88
307.731	100.88
307.961	100.88
308.191	100.88
308.421	94.88
308.651	102.88
308.881	91.88
309.111	108.88
309.341	114.88
309.571	117.88
309.8	95.88
310.03	94.88
310.26	83.88
310.49	103.88
310.72	90.88
310.949	88.88
311.179	65.88
311.409	87.88
311.639	85.88
311.868	86.88
312.098	87.88
312.328	90.88
312.557	76.88
312.787	89.88
313.017	88.88
313.246	90.88
313.476	86.88
313.706	70.88
313.935	82.88
314.165	103.88
314.394	79.88
314.624	80.88
314.853	90.88
315.083	95.88
315.312	90.88
315.542	94.88
315.771	99.88
316.001	116.88
316.23	116.88
316.46	107.88
316.689	110.88
316.919	90.88
317.148	94.88
317.377	95.88
317.607	108.88
317.836	123.88
318.065	131.88
318.295	108.88
318.524	92.88
318.753	100.88
318.983	83.88
319.212	87.88
319.441	79.88
319.67	89.88
319.9	104.88
320.129	99.88
320.358	83.88
320.587	85.88
320.816	83.88
321.046	89.88
321.275	99.88
321.504	94.88
321.733	90.88
321.962	83.88
322.191	87.88
322.42	101.88
322.649	95.88
322.878	99.88
323.108	110.88
323.337	82.88
323.566	95.88
323.795	78.88
324.024	87.88
324.253	96.88
324.482	95.88
324.71	102.88
324.939	92.88
325.168	86.88
325.397	101.88
325.626	88.88
325.855	93.88
326.084	89.88
326.313	88.88
326.542	95.88
326.77	83.88
326.999	101.88
327.228	106.88
327.457	84.88
327.686	82.88
327.914	92.88
328.143	80.88
328.372	89.88
328.6	110.88
328.829	58.88
329.058	78.88
329.287	87.88
329.515	90.88
329.744	97.88
329.972	96.88
330.201	90.88
330.43	78.88
330.658	88.88
330.887	70.88
331.115	77.88
331.344	78.88
331.572	82.88
331.801	93.88
332.03	84.88
332.258	84.88
332.486	78.88
332.715	88.88
332.943	80.88
333.172	82.88
333.4	78.88
333.629	90.88
333.857	101.88
334.085	80.88
334.314	104.88
334.542	107.88
334.771	108.88
334.999	134.88
335.227	122.88
335.455	98.88
335.684	112.88
335.912	110.88
336.14	117.88
336.369	113.88
336.597	100.88
336.825	96.88
337.053	87.88
337.281	91.88
337.51	102.88
337.738	81.88
337.966	80.88
338.194	94.88
338.422	101.88
338.65	82.88
338.878	92.88
339.106	76.88
339.334	106.88
339.562	86.88
339.79	80.88
340.018	89.88
340.246	90.88
340.474	92.88
340.702	99.88
340.93	88.88
341.158	84.88
341.386	98.88
341.614	87.88
341.842	92.88
342.07	84.88
342.298	97.88
342.526	93.88
342.754	82.88
342.981	104.88
343.209	95.88
343.437	93.88
343.665	84.88
343.893	80.88
344.12	103.88
344.348	106.88
344.576	106.88
344.804	79.88
345.031	73.88
345.259	86.88
345.487	86.88
345.714	87.88
345.942	81.88
346.17	86.88
346.397	91.88
346.625	90.88
346.853	94.88
347.08	82.88
347.308	97.88
347.535	101.88
347.763	107.88
347.99	78.88
348.218	84.88
348.445	79.88
348.673	91.88
348.9	98.88
349.128	107.88
349.355	90.88
349.583	93.88
349.81	80.88
350.037	102.88
350.265	84.88
350.492	76.88
350.72	82.88
350.947	85.88
351.174	103.88
351.402	88.88
351.629	97.88
351.856	90.88
352.083	75.88
352.311	97.88
352.538	86.88
352.765	94.88
352.992	84.88
353.22	100.88
353.447	88.88
353.674	95.88
353.901	79.88
354.128	82.88
354.355	80.88
354.583	85.88
354.81	96.88
355.037	95.88
355.264	97.88
355.491	88.88
355.718	103.88
355.945	99.88
356.172	96.88
356.399	102.88
356.626	98.88
356.853	108.88
357.08	115.88
357.307	103.88
357.534	95.88
357.761	114.88
357.988	126.88
358.215	125.88
358.441	110.88
358.668	101.88
358.895	101.88
359.122	98.88
359.349	93.88
359.576	96.88
359.802	105.88
360.029	83.88
360.256	85.88
360.483	95.88
360.709	89.88
360.936	118.88
361.163	98.88
361.39	107.88
361.616	99.88
361.843	104.88
362.07	130.88
362.296	138.88
362.523	162.88
362.749	169.88
362.976	178.88
363.203	215.88
363.429	161.88
363.656	111.88
363.882	98.88
364.109	165.88
364.335	228.88
364.562	251.88
364.788	182.88
365.015	128.88
365.241	99.88
365.468	102.88
365.694	78.88
365.92	98.88
366.147	82.88
366.373	95.88
366.599	96.88
366.826	82.88
367.052	95.88
367.278	99.88
367.505	101.88
367.731	115.88
367.957	96.88
368.184	91.88
368.41	103.88
368.636	104.88
368.862	109.88
369.089	103.88
369.315	90.88
369.541	95.88
369.767	86.88
369.993	110.88
370.219	107.88
370.445	114.88
370.672	148.88
370.898	128.88
371.124	109.88
371.35	88.88
371.576	94.88
371.802	112.88
372.028	122.88
372.254	116.88
372.48	99.88
372.706	99.88
372.932	109.88
373.158	112.88
373.384	140.88
373.61	189.88
373.835	190.88
374.061	140.88
374.287	118.88
374.513	122.88
374.739	147.88
374.965	125.88
375.191	139.88
375.416	121.88
375.642	102.88
375.868	102.88
376.094	103.88
376.319	111.88
376.545	96.88
376.771	108.88
376.997	97.88
377.222	108.88
377.448	99.88
377.674	96.88
377.899	100.88
378.125	86.88
378.35	87.88
378.576	91.88
378.802	87.88
379.027	97.88
379.253	110.88
379.478	115.88
379.704	110.88
379.929	100.88
380.155	106.88
380.38	89.88
380.606	87.88
380.831	84.88
381.057	99.88
381.282	111.88
381.507	124.88
381.733	115.88
381.958	127.88
382.184	141.88
382.409	147.88
382.634	157.88
382.86	135.88
383.085	139.88
383.31	137.88
383.535	134.88
383.761	151.88
383.986	143.88
384.211	133.88
384.436	118.88
384.662	123.88
384.887	111.88
385.112	106.88
385.337	100.88
385.562	120.88
385.787	120.88
386.013	132.88
386.238	125.88
386.463	121.88
386.688	122.88
386.913	128.88
387.138	113.88
387.363	129.88
387.588	140.88
387.813	139.88
388.038	134.88
388.263	108.88
388.488	112.88
388.713	134.88
388.938	107.88
389.163	103.88
389.387	100.88
389.612	102.88
389.837	101.88
390.062	112.88
390.287	106.88
390.512	95.88
390.736	100.88
390.961	92.88
391.186	91.88
391.411	113.88
391.636	110.88
391.86	112.88
392.085	125.88
392.31	135.88
392.534	162.88
392.759	212.88
392.984	351.88
393.208	752.88
393.433	1116.88
393.658	806.88
393.882	318.88
394.107	178.88
394.331	198.88
394.556	207.88
394.78	140.88
395.005	119.88
395.229	99.88
395.454	139.88
395.678	155.88
395.903	203.88
396.127	252.88
396.352	318.88
396.576	417.88
396.801	700.88
397.025	840.88
397.249	407.88
397.474	234.88
397.698	148.88
397.922	113.88
398.147	120.88
398.371	110.88
398.595	114.88
398.82	94.88
399.044	100.88
399.268	101.88
399.492	93.88
399.717	94.88
399.941	108.88
400.165	104.88
400.389	96.88
400.613	100.88
400.837	103.88
401.062	91.88
401.286	88.88
401.51	106.88
401.734	85.88
401.958	103.88
402.182	96.88
402.406	85.88
402.63	99.88
402.854	115.88
403.078	93.88
403.302	94.88
403.526	92.88
403.75	99.88
403.974	99.88
404.198	95.88
404.422	103.88
404.645	113.88
404.869	114.88
405.093	94.88
405.317	88.88
405.541	79.88
405.765	85.88
405.988	97.88
406.212	102.88
406.436	124.88
406.66	101.88
406.883	98.88
407.107	110.88
407.331	122.88
407.555	134.88
407.778	175.88
408.002	174.88
408.226	117.88
408.449	90.88
408.673	108.88
408.896	98.88
409.12	97.88
409.344	115.88
409.567	135.88
409.791	135.88
410.014	140.88
410.238	126.88
410.461	108.88
410.685	110.88
410.908	99.88
411.132	108.88
411.355	100.88
411.578	82.88
411.802	89.88
412.025	88.88
412.249	84.88
412.472	91.88
412.695	92.88
412.919	110.88
413.142	82.88
413.365	114.88
413.589	103.88
413.812	86.88
414.035	90.88
414.258	86.88
414.482	90.88
414.705	98.88
414.928	100.88
415.151	84.88
415.374	104.88
415.597	95.88
415.821	95.88
416.044	80.88
416.267	87.88
416.49	88.88
416.713	85.88
416.936	85.88
417.159	109.88
417.382	98.88
417.605	90.88
417.828	85.88
418.051	82.88
418.274	92.88
418.497	91.88
418.72	82.88
418.943	97.88
419.166	102.88
419.389	88.88
419.611	93.88
419.834	86.88
420.057	110.88
420.28	91.88
420.503	102.88
420.726	108.88
420.948	112.88
421.171	111.88
421.394	159.88
421.617	198.88
421.839	202.88
422.062	217.88
422.285	332.88
422.507	666.88
422.73	1091.88
422.953	985.88
423.175	455.88
423.398	233.88
423.621	157.88
423.843	135.88
424.066	142.88
424.288	126.88
424.511	110.88
424.733	106.88
424.956	91.88
425.178	106.88
425.401	122.88
425.623	94.88
425.846	90.88
426.068	108.88
426.291	92.88
426.513	113.88
426.735	106.88
426.958	102.88
427.18	110.88
427.402	111.88
427.625	100.88
427.847	123.88
428.069	139.88
428.292	216.88
428.514	252.88
428.736	177.88
428.958	248.88
429.181	234.88
429.403	128.88
429.625	144.88
429.847	225.88
430.069	306.88
430.292	397.88
430.514	357.88
430.736	256.88
430.958	266.88
431.18	146.88
431.402	118.88
431.624	116.88
431.846	204.88
432.068	243.88
432.29	134.88
432.512	110.88
432.734	120.88
432.956	89.88
433.178	84.88
433.4	82.88
433.622	88.88
433.844	86.88
434.066	87.88
434.287	90.88
434.509	84.88
434.731	94.88
434.953	78.88
435.175	84.88
435.397	106.88
435.618	120.88
435.84	114.88
436.062	111.88
436.284	88.88
436.505	90.88
436.727	95.88
436.949	82.88
437.17	83.88
437.392	85.88
437.614	78.88
437.835	93.88
438.057	98.88
438.278	101.88
438.5	127.88
438.721	114.88
438.943	96.88
439.165	100.88
439.386	85.88
439.608	81.88
439.829	99.88
440.05	92.88
440.272	81.88
440.493	103.88
440.715	113.88
440.936	92.88
441.158	110.88
441.379	86.88
441.6	90.88
441.822	104.88
442.043	112.88
442.264	131.88
442.486	245.88
442.707	348.88
442.928	203.88
443.149	170.88
443.371	293.88
443.592	602.88
443.813	519.88
444.034	188.88
444.255	109.88
444.476	110.88
444.698	103.88
444.919	126.88
445.14	255.88
445.361	391.88
445.582	752.88
445.803	592.88
446.024	210.88
446.245	122.88
446.466	94.88
446.687	96.88
446.908	95.88
447.129	95.88
447.35	93.88
447.571	90.88
447.792	80.88
448.013	82.88
448.234	76.88
448.455	94.88
448.675	83.88
448.896	87.88
449.117	72.88
449.338	86.88
449.559	90.88
449.779	98.88
450	88.88
450.221	88.88
450.442	100.88
450.662	76.88
450.883	92.88
451.104	108.88
451.324	90.88
451.545	85.88
451.766	90.88
451.986	99.88
452.207	92.88
452.428	103.88
452.648	118.88
452.869	147.88
453.089	114.88
453.31	97.88
453.53	105.88
453.751	99.88
453.971	90.88
454.192	81.88
454.412	109.88
454.633	76.88
454.853	89.88
455.073	97.88
455.294	101.88
455.514	105.88
455.734	106.88
455.955	90.88
456.175	80.88
456.395	87.88
456.616	85.88
456.836	86.88
457.056	87.88
457.276	96.88
457.497	84.88
457.717	119.88
457.937	176.88
458.157	232.88
458.377	223.88
458.598	227.88
458.818	238.88
459.038	127.88
459.258	79.88
459.478	97.88
459.698	103.88
459.918	86.88
460.138	92.88
460.358	92.88
460.578	122.88
460.798	177.88
461.018	182.88
461.238	95.88
461.458	93.88
461.678	101.88
461.898	96.88
462.118	95.88
462.338	90.88
462.558	86.88
462.777	82.88
462.997	90.88
463.217	98.88
463.437	74.88
463.657	86.88
463.876	84.88
464.096	95.88
464.316	85.88
464.536	86.88
464.755	88.88
464.975	99.88
465.195	86.88
465.414	79.88
465.634	84.88
465.854	86.88
466.073	90.88
466.293	99.88
466.512	93.88
466.732	87.88
466.951	84.88
467.171	91.88
467.391	97.88
467.61	90.88
467.829	87.88
468.049	88.88
468.268	97.88
468.488	90.88
468.707	114.88
468.927	87.88
469.146	85.88
469.365	80.88
469.585	93.88
469.804	100.88
470.023	83.88
470.243	96.88
470.462	90.88
470.681	90.88
470.901	85.88
471.12	82.88
471.339	92.88
471.558	96.88
471.777	75.88
471.997	77.88
472.216	92.88
472.435	93.88
472.654	84.88
472.873	82.88
473.092	84.88
473.311	98.88
473.53	96.88
473.749	88.88
473.968	101.88
474.187	92.88
474.406	75.88
474.625	78.88
474.844	91.88
475.063	98.88
475.282	80.88
475.501	83.88
475.72	91.88
475.939	88.88
476.158	90.88
476.377	85.88
476.596	80.88
476.814	74.88
477.033	86.88
477.252	82.88
477.471	87.88
477.69	98.88
477.908	86.88
478.127	82.88
478.346	75.88
478.564	82.88
478.783	95.88
479.002	78.88
479.22	99.88
479.439	94.88
479.658	95.88
479.876	103.88
480.095	94.88
480.313	85.88
480.532	91.88
480.751	94.88
480.969	80.88
481.188	97.88
481.406	112.88
481.624	107.88
481.843	90.88
482.061	96.88
482.28	94.88
482.498	100.88
482.717	94.88
482.935	96.88
483.153	102.88
483.372	106.88
483.59	94.88
483.808	100.88
484.027	99.88
484.245	86.88
484.463	93.88
484.681	100.88
484.9	104.88
485.118	104.88
485.336	90.88
485.554	93.88
485.772	111.88
485.99	99.88
486.209	106.88
486.427	95.88
486.645	96.88
486.863	103.88
487.081	107.88
487.299	121.88
487.517	116.88
487.735	183.88
487.953	397.88
488.171	289.88
488.389	130.88
488.607	104.88
488.825	92.88
489.043	94.88
489.261	92.88
489.479	97.88
489.696	105.88
489.914	92.88
490.132	92.88
490.35	94.88
490.568	106.88
490.786	95.88
491.003	88.88
491.221	103.88
491.439	110.88
491.657	104.88
491.874	92.88
492.092	106.88
492.31	106.88
492.527	99.88
492.745	75.88
492.963	93.88
493.18	111.88
493.398	113.88
493.615	126.88
493.833	99.88
494.05	92.88
494.268	96.88
494.485	102.88
494.703	99.88
494.92	96.88
495.138	102.88
495.355	77.88
495.573	97.88
495.79	107.88
496.008	91.88
496.225	95.88
496.442	93.88
496.66	116.88
496.877	83.88
497.094	112.88
497.312	90.88
497.529	98.88
497.746	92.88
497.963	102.88
498.181	114.88
498.398	145.88
498.615	100.88
498.832	94.88
499.049	109.88
499.267	123.88
499.484	104.88
499.701	107.88
499.918	108.88
500.135	114.88
500.352	105.88
500.569	91.88
500.786	104.88
501.003	108.88
501.22	93.88
501.437	100.88
501.654	112.88
501.871	100.88
502.088	99.88
502.305	103.88
502.522	86.88
502.739	112.88
502.956	116.88
503.172	101.88
503.389	96.88
503.606	112.88
503.823	137.88
504.04	142.88
504.256	258.88
504.473	250.88
504.69	122.88
504.907	124.88
505.123	106.88
505.34	101.88
505.557	86.88
505.773	94.88
505.99	101.88
506.207	73.88
506.423	87.88
506.64	112.88
506.856	95.88
507.073	88.88
507.289	94.88
507.506	91.88
507.722	96.88
507.939	88.88
508.155	84.88
508.372	95.88
508.588	92.88
508.805	100.88
509.021	103.88
509.238	106.88
509.454	98.88
509.67	94.88
509.887	100.88
510.103	90.88
510.319	93.88
510.536	94.88
510.752	96.88
510.968	95.88
511.184	94.88
511.401	93.88
511.617	84.88
511.833	90.88
512.049	94.88
512.265	93.88
512.481	85.88
512.698	90.88
512.914	96.88
513.13	103.88
513.346	97.88
513.562	95.88
513.778	86.88
513.994	108.88
514.21	102.88
