Data from 10100_2_HRD10591_00029.txt Node
Date: Mon Jan 19 14:01:38 EST 2026
User: Yrep
Spectrometer: HR+D1059
Trigger mode: 1
Integration Time (sec): 1.000000E-1
Scans to average: 1
Electric dark correction enabled: true
Nonlinearity correction enabled: false
Boxcar width: 0
XAxis mode: Wavelengths
Number of Pixels in Spectrum: 2048
>>>>>Begin Spectral Data<<<<<
223.165	-23.81
223.4	-23.81
223.635	-23.81
223.869	-30.81
224.104	-10.81
224.338	-9.81
224.573	-18.81
224.808	-4.81
225.042	-18.81
225.277	-12.81
225.511	-4.81
225.746	5.19
225.98	22.19
226.215	6.19
226.449	17.19
226.683	23.19
226.918	27.19
227.152	34.19
227.387	25.19
227.621	49.19
227.856	56.19
228.09	56.19
228.324	54.19
228.559	72.19
228.793	65.19
229.027	56.19
229.262	57.19
229.496	62.19
229.73	75.19
229.964	76.19
230.199	101.19
230.433	76.19
230.667	90.19
230.901	94.19
231.136	79.19
231.37	86.19
231.604	87.19
231.838	97.19
232.072	95.19
232.306	88.19
232.541	72.19
232.775	77.19
233.009	84.19
233.243	82.19
233.477	82.19
233.711	85.19
233.945	79.19
234.179	90.19
234.413	77.19
234.647	101.19
234.881	87.19
235.115	85.19
235.349	75.19
235.583	85.19
235.817	85.19
236.051	81.19
236.285	78.19
236.519	74.19
236.753	74.19
236.987	88.19
237.221	74.19
237.455	78.19
237.689	84.19
237.922	83.19
238.156	64.19
238.39	59.19
238.624	87.19
238.858	73.19
239.091	84.19
239.325	89.19
239.559	76.19
239.793	89.19
240.027	87.19
240.26	84.19
240.494	76.19
240.728	71.19
240.961	62.19
241.195	76.19
241.429	76.19
241.662	78.19
241.896	75.19
242.13	83.19
242.363	85.19
242.597	75.19
242.83	84.19
243.064	90.19
243.298	72.19
243.531	95.19
243.765	81.19
243.998	85.19
244.232	89.19
244.465	85.19
244.699	80.19
244.932	80.19
245.166	78.19
245.399	61.19
245.633	63.19
245.866	91.19
246.099	83.19
246.333	83.19
246.566	81.19
246.8	68.19
247.033	80.19
247.266	74.19
247.5	84.19
247.733	76.19
247.966	66.19
248.2	99.19
248.433	67.19
248.666	82.19
248.899	88.19
249.133	91.19
249.366	77.19
249.599	92.19
249.832	86.19
250.066	87.19
250.299	92.19
250.532	97.19
250.765	78.19
250.998	74.19
251.231	89.19
251.465	101.19
251.698	71.19
251.931	77.19
252.164	82.19
252.397	73.19
252.63	82.19
252.863	81.19
253.096	69.19
253.329	82.19
253.562	83.19
253.795	73.19
254.028	87.19
254.261	83.19
254.494	71.19
254.727	93.19
254.96	103.19
255.193	92.19
255.426	85.19
255.659	67.19
255.892	77.19
256.124	88.19
256.357	78.19
256.59	71.19
256.823	87.19
257.056	86.19
257.289	73.19
257.521	96.19
257.754	73.19
257.987	79.19
258.22	82.19
258.452	76.19
258.685	76.19
258.918	84.19
259.151	84.19
259.383	74.19
259.616	86.19
259.849	85.19
260.081	83.19
260.314	73.19
260.547	84.19
260.779	79.19
261.012	78.19
261.244	77.19
261.477	91.19
261.71	85.19
261.942	72.19
262.175	85.19
262.407	89.19
262.64	88.19
262.872	76.19
263.105	85.19
263.337	97.19
263.57	91.19
263.802	81.19
264.035	69.19
264.267	83.19
264.499	75.19
264.732	91.19
264.964	88.19
265.197	69.19
265.429	87.19
265.661	74.19
265.894	84.19
266.126	71.19
266.358	78.19
266.591	85.19
266.823	79.19
267.055	70.19
267.287	88.19
267.52	88.19
267.752	81.19
267.984	94.19
268.216	81.19
268.448	83.19
268.681	105.19
268.913	92.19
269.145	97.19
269.377	88.19
269.609	88.19
269.841	84.19
270.073	97.19
270.306	83.19
270.538	89.19
270.77	84.19
271.002	74.19
271.234	96.19
271.466	92.19
271.698	77.19
271.93	84.19
272.162	78.19
272.394	80.19
272.626	75.19
272.858	85.19
273.09	78.19
273.322	96.19
273.553	88.19
273.785	78.19
274.017	75.19
274.249	76.19
274.481	76.19
274.713	92.19
274.945	81.19
275.176	96.19
275.408	79.19
275.64	95.19
275.872	77.19
276.104	83.19
276.335	88.19
276.567	90.19
276.799	86.19
277.031	82.19
277.262	87.19
277.494	83.19
277.726	91.19
277.957	96.19
278.189	69.19
278.421	81.19
278.652	80.19
278.884	82.19
279.115	74.19
279.347	74.19
279.579	82.19
279.81	90.19
280.042	91.19
280.273	92.19
280.505	80.19
280.736	81.19
280.968	85.19
281.199	90.19
281.431	95.19
281.662	84.19
281.894	86.19
282.125	95.19
282.356	82.19
282.588	87.19
282.819	98.19
283.051	95.19
283.282	104.19
283.513	93.19
283.745	85.19
283.976	89.19
284.207	82.19
284.439	87.19
284.67	89.19
284.901	81.19
285.132	100.19
285.364	87.19
285.595	81.19
285.826	89.19
286.057	81.19
286.288	98.19
286.52	84.19
286.751	104.19
286.982	82.19
287.213	91.19
287.444	83.19
287.675	82.19
287.906	82.19
288.138	77.19
288.369	78.19
288.6	95.19
288.831	85.19
289.062	90.19
289.293	94.19
289.524	73.19
289.755	93.19
289.986	101.19
290.217	80.19
290.448	92.19
290.679	93.19
290.91	93.19
291.141	74.19
291.371	87.19
291.602	79.19
291.833	92.19
292.064	78.19
292.295	85.19
292.526	91.19
292.757	83.19
292.987	94.19
293.218	84.19
293.449	78.19
293.68	99.19
293.91	79.19
294.141	99.19
294.372	85.19
294.603	87.19
294.833	85.19
295.064	83.19
295.295	91.19
295.525	103.19
295.756	69.19
295.987	85.19
296.217	76.19
296.448	72.19
296.679	84.19
296.909	90.19
297.14	83.19
297.37	79.19
297.601	73.19
297.831	86.19
298.062	101.19
298.292	99.19
298.523	83.19
298.753	74.19
298.984	83.19
299.214	76.19
299.445	83.19
299.675	89.19
299.905	89.19
300.136	97.19
300.366	82.19
300.597	85.19
300.827	85.19
301.057	101.19
301.288	84.19
301.518	86.19
301.748	79.19
301.979	85.19
302.209	75.19
302.439	85.19
302.669	90.19
302.9	91.19
303.13	73.19
303.36	80.19
303.59	86.19
303.82	81.19
304.051	90.19
304.281	83.19
304.511	97.19
304.741	96.19
304.971	92.19
305.201	92.19
305.431	89.19
305.661	98.19
305.891	82.19
306.121	90.19
306.352	95.19
306.582	76.19
306.812	87.19
307.042	85.19
307.272	85.19
307.502	81.19
307.731	83.19
307.961	86.19
308.191	95.19
308.421	83.19
308.651	95.19
308.881	79.19
309.111	101.19
309.341	89.19
309.571	95.19
309.8	94.19
310.03	88.19
310.26	81.19
310.49	91.19
310.72	84.19
310.949	95.19
311.179	82.19
311.409	91.19
311.639	78.19
311.868	91.19
312.098	87.19
312.328	91.19
312.557	92.19
312.787	95.19
313.017	81.19
313.246	94.19
313.476	85.19
313.706	87.19
313.935	75.19
314.165	91.19
314.394	73.19
314.624	90.19
314.853	85.19
315.083	80.19
315.312	90.19
315.542	80.19
315.771	71.19
316.001	97.19
316.23	81.19
316.46	83.19
316.689	97.19
316.919	88.19
317.148	87.19
317.377	105.19
317.607	97.19
317.836	68.19
318.065	89.19
318.295	85.19
318.524	108.19
318.753	105.19
318.983	98.19
319.212	90.19
319.441	100.19
319.67	97.19
319.9	95.19
320.129	90.19
320.358	99.19
320.587	96.19
320.816	85.19
321.046	80.19
321.275	91.19
321.504	88.19
321.733	93.19
321.962	77.19
322.191	72.19
322.42	88.19
322.649	106.19
322.878	94.19
323.108	89.19
323.337	78.19
323.566	87.19
323.795	92.19
324.024	101.19
324.253	92.19
324.482	88.19
324.71	97.19
324.939	93.19
325.168	93.19
325.397	86.19
325.626	104.19
325.855	111.19
326.084	84.19
326.313	102.19
326.542	91.19
326.77	90.19
326.999	78.19
327.228	81.19
327.457	86.19
327.686	88.19
327.914	75.19
328.143	88.19
328.372	91.19
328.6	88.19
328.829	85.19
329.058	96.19
329.287	80.19
329.515	80.19
329.744	89.19
329.972	91.19
330.201	98.19
330.43	86.19
330.658	91.19
330.887	76.19
331.115	78.19
331.344	77.19
331.572	95.19
331.801	95.19
332.03	94.19
332.258	92.19
332.486	94.19
332.715	78.19
332.943	98.19
333.172	89.19
333.4	85.19
333.629	87.19
333.857	82.19
334.085	83.19
334.314	78.19
334.542	85.19
334.771	103.19
334.999	107.19
335.227	102.19
335.455	87.19
335.684	81.19
335.912	94.19
336.14	96.19
336.369	82.19
336.597	75.19
336.825	79.19
337.053	82.19
337.281	91.19
337.51	77.19
337.738	83.19
337.966	75.19
338.194	90.19
338.422	72.19
338.65	92.19
338.878	87.19
339.106	97.19
339.334	108.19
339.562	87.19
339.79	95.19
340.018	69.19
340.246	92.19
340.474	86.19
340.702	97.19
340.93	79.19
341.158	84.19
341.386	76.19
341.614	93.19
341.842	89.19
342.07	96.19
342.298	86.19
342.526	93.19
342.754	81.19
342.981	84.19
343.209	90.19
343.437	99.19
343.665	80.19
343.893	82.19
344.12	103.19
344.348	91.19
344.576	91.19
344.804	88.19
345.031	75.19
345.259	76.19
345.487	105.19
345.714	94.19
345.942	86.19
346.17	84.19
346.397	82.19
346.625	88.19
346.853	83.19
347.08	89.19
347.308	106.19
347.535	103.19
347.763	75.19
347.99	74.19
348.218	81.19
348.445	93.19
348.673	99.19
348.9	93.19
349.128	72.19
349.355	87.19
349.583	85.19
349.81	91.19
350.037	83.19
350.265	88.19
350.492	80.19
350.72	88.19
350.947	83.19
351.174	71.19
351.402	82.19
351.629	83.19
351.856	90.19
352.083	85.19
352.311	95.19
352.538	75.19
352.765	89.19
352.992	83.19
353.22	93.19
353.447	96.19
353.674	95.19
353.901	97.19
354.128	94.19
354.355	86.19
354.583	60.19
354.81	69.19
355.037	75.19
355.264	80.19
355.491	85.19
355.718	101.19
355.945	78.19
356.172	84.19
356.399	100.19
356.626	90.19
356.853	82.19
357.08	101.19
357.307	88.19
357.534	96.19
357.761	97.19
357.988	99.19
358.215	99.19
358.441	76.19
358.668	78.19
358.895	69.19
359.122	105.19
359.349	77.19
359.576	99.19
359.802	93.19
360.029	93.19
360.256	79.19
360.483	86.19
360.709	87.19
360.936	92.19
361.163	100.19
361.39	74.19
361.616	103.19
361.843	90.19
362.07	88.19
362.296	99.19
362.523	97.19
362.749	86.19
362.976	99.19
363.203	107.19
363.429	86.19
363.656	88.19
363.882	105.19
364.109	95.19
364.335	111.19
364.562	118.19
364.788	96.19
365.015	91.19
365.241	96.19
365.468	93.19
365.694	95.19
365.92	74.19
366.147	101.19
366.373	93.19
366.599	89.19
366.826	100.19
367.052	78.19
367.278	78.19
367.505	72.19
367.731	86.19
367.957	87.19
368.184	94.19
368.41	81.19
368.636	83.19
368.862	79.19
369.089	84.19
369.315	91.19
369.541	86.19
369.767	90.19
369.993	72.19
370.219	101.19
370.445	81.19
370.672	91.19
370.898	98.19
371.124	87.19
371.35	82.19
371.576	83.19
371.802	97.19
372.028	87.19
372.254	108.19
372.48	100.19
372.706	107.19
372.932	85.19
373.158	102.19
373.384	97.19
373.61	115.19
373.835	104.19
374.061	97.19
374.287	95.19
374.513	88.19
374.739	94.19
374.965	88.19
375.191	95.19
375.416	91.19
375.642	94.19
375.868	91.19
376.094	98.19
376.319	78.19
376.545	87.19
376.771	84.19
376.997	92.19
377.222	94.19
377.448	101.19
377.674	76.19
377.899	84.19
378.125	87.19
378.35	94.19
378.576	92.19
378.802	89.19
379.027	91.19
379.253	92.19
379.478	88.19
379.704	90.19
379.929	91.19
380.155	90.19
380.38	91.19
380.606	85.19
380.831	80.19
381.057	87.19
381.282	80.19
381.507	92.19
381.733	98.19
381.958	89.19
382.184	84.19
382.409	96.19
382.634	92.19
382.86	90.19
383.085	104.19
383.31	88.19
383.535	89.19
383.761	89.19
383.986	96.19
384.211	89.19
384.436	80.19
384.662	102.19
384.887	90.19
385.112	93.19
385.337	89.19
385.562	83.19
385.787	91.19
386.013	94.19
386.238	97.19
386.463	92.19
386.688	107.19
386.913	103.19
387.138	92.19
387.363	100.19
387.588	90.19
387.813	97.19
388.038	97.19
388.263	95.19
388.488	89.19
388.713	100.19
388.938	103.19
389.163	92.19
389.387	92.19
389.612	101.19
389.837	99.19
390.062	83.19
390.287	97.19
390.512	106.19
390.736	83.19
390.961	83.19
391.186	95.19
391.411	85.19
391.636	91.19
391.86	82.19
392.085	96.19
392.31	95.19
392.534	94.19
392.759	124.19
392.984	155.19
393.208	243.19
393.433	343.19
393.658	235.19
393.882	135.19
394.107	105.19
394.331	111.19
394.556	111.19
394.78	100.19
395.005	96.19
395.229	100.19
395.454	87.19
395.678	97.19
395.903	107.19
396.127	125.19
396.352	136.19
396.576	155.19
396.801	232.19
397.025	283.19
397.249	146.19
397.474	113.19
397.698	79.19
397.922	99.19
398.147	92.19
398.371	90.19
398.595	76.19
398.82	76.19
399.044	75.19
399.268	93.19
399.492	80.19
399.717	95.19
399.941	93.19
400.165	92.19
400.389	73.19
400.613	90.19
400.837	105.19
401.062	91.19
401.286	73.19
401.51	82.19
401.734	78.19
401.958	82.19
402.182	75.19
402.406	87.19
402.63	85.19
402.854	84.19
403.078	88.19
403.302	83.19
403.526	92.19
403.75	102.19
403.974	87.19
404.198	83.19
404.422	87.19
404.645	88.19
404.869	106.19
405.093	78.19
405.317	90.19
405.541	79.19
405.765	76.19
405.988	77.19
406.212	99.19
406.436	95.19
406.66	96.19
406.883	100.19
407.107	81.19
407.331	85.19
407.555	94.19
407.778	95.19
408.002	113.19
408.226	90.19
408.449	81.19
408.673	102.19
408.896	90.19
409.12	90.19
409.344	97.19
409.567	94.19
409.791	100.19
410.014	98.19
410.238	83.19
410.461	79.19
410.685	91.19
410.908	89.19
411.132	98.19
411.355	87.19
411.578	98.19
411.802	79.19
412.025	88.19
412.249	86.19
412.472	86.19
412.695	70.19
412.919	89.19
413.142	96.19
413.365	83.19
413.589	81.19
413.812	85.19
414.035	87.19
414.258	86.19
414.482	80.19
414.705	78.19
414.928	84.19
415.151	96.19
415.374	85.19
415.597	91.19
415.821	79.19
416.044	84.19
416.267	80.19
416.49	83.19
416.713	89.19
416.936	83.19
417.159	91.19
417.382	89.19
417.605	91.19
417.828	86.19
418.051	100.19
418.274	92.19
418.497	78.19
418.72	76.19
418.943	92.19
419.166	96.19
419.389	92.19
419.611	76.19
419.834	78.19
420.057	88.19
420.28	95.19
420.503	90.19
420.726	88.19
420.948	84.19
421.171	102.19
421.394	112.19
421.617	113.19
421.839	133.19
422.062	116.19
422.285	148.19
422.507	229.19
422.73	357.19
422.953	297.19
423.175	158.19
423.398	113.19
423.621	107.19
423.843	110.19
424.066	85.19
424.288	95.19
424.511	83.19
424.733	84.19
424.956	93.19
425.178	94.19
425.401	89.19
425.623	75.19
425.846	82.19
426.068	84.19
426.291	78.19
426.513	86.19
426.735	85.19
426.958	85.19
427.18	86.19
427.402	91.19
427.625	107.19
427.847	87.19
428.069	105.19
428.292	113.19
428.514	137.19
428.736	99.19
428.958	132.19
429.181	134.19
429.403	87.19
429.625	95.19
429.847	108.19
430.069	131.19
430.292	164.19
430.514	148.19
430.736	130.19
430.958	140.19
431.18	106.19
431.402	98.19
431.624	93.19
431.846	127.19
432.068	137.19
432.29	89.19
432.512	103.19
432.734	93.19
432.956	96.19
433.178	78.19
433.4	82.19
433.622	82.19
433.844	98.19
434.066	91.19
434.287	89.19
434.509	86.19
434.731	83.19
434.953	87.19
435.175	87.19
435.397	96.19
435.618	94.19
435.84	84.19
436.062	88.19
436.284	91.19
436.505	91.19
436.727	89.19
436.949	89.19
437.17	80.19
437.392	99.19
437.614	86.19
437.835	87.19
438.057	85.19
438.278	104.19
438.5	79.19
438.721	88.19
438.943	88.19
439.165	93.19
439.386	83.19
439.608	83.19
439.829	75.19
440.05	92.19
440.272	85.19
440.493	91.19
440.715	96.19
440.936	89.19
441.158	98.19
441.379	89.19
441.6	87.19
441.822	87.19
442.043	88.19
442.264	101.19
442.486	115.19
442.707	142.19
442.928	113.19
443.149	110.19
443.371	144.19
443.592	220.19
443.813	199.19
444.034	95.19
444.255	89.19
444.476	86.19
444.698	89.19
444.919	91.19
445.14	190.19
445.361	191.19
445.582	239.19
445.803	205.19
446.024	113.19
446.245	100.19
446.466	92.19
446.687	75.19
446.908	89.19
447.129	86.19
447.35	93.19
447.571	92.19
447.792	74.19
448.013	82.19
448.234	73.19
448.455	78.19
448.675	77.19
448.896	86.19
449.117	76.19
449.338	71.19
449.559	75.19
449.779	87.19
450	73.19
450.221	84.19
450.442	95.19
450.662	89.19
450.883	96.19
451.104	77.19
451.324	96.19
451.545	90.19
451.766	101.19
451.986	83.19
452.207	73.19
452.428	78.19
452.648	85.19
452.869	110.19
453.089	95.19
453.31	97.19
453.53	82.19
453.751	95.19
453.971	83.19
454.192	76.19
454.412	74.19
454.633	84.19
454.853	85.19
455.073	90.19
455.294	89.19
455.514	95.19
455.734	74.19
455.955	82.19
456.175	104.19
456.395	82.19
456.616	79.19
456.836	84.19
457.056	87.19
457.276	73.19
457.497	83.19
457.717	82.19
457.937	97.19
458.157	115.19
458.377	118.19
458.598	111.19
458.818	111.19
459.038	102.19
459.258	76.19
459.478	82.19
459.698	86.19
459.918	90.19
460.138	88.19
460.358	94.19
460.578	92.19
460.798	110.19
461.018	101.19
461.238	95.19
461.458	85.19
461.678	95.19
461.898	105.19
462.118	74.19
462.338	101.19
462.558	83.19
462.777	78.19
462.997	90.19
463.217	75.19
463.437	72.19
463.657	81.19
463.876	90.19
464.096	80.19
464.316	82.19
464.536	84.19
464.755	90.19
464.975	73.19
465.195	75.19
465.414	94.19
465.634	80.19
465.854	79.19
466.073	90.19
466.293	86.19
466.512	59.19
466.732	71.19
466.951	72.19
467.171	96.19
467.391	86.19
467.61	89.19
467.829	88.19
468.049	89.19
468.268	84.19
468.488	101.19
468.707	98.19
468.927	90.19
469.146	92.19
469.365	83.19
469.585	79.19
469.804	84.19
470.023	91.19
470.243	84.19
470.462	82.19
470.681	79.19
470.901	83.19
471.12	98.19
471.339	86.19
471.558	69.19
471.777	88.19
471.997	82.19
472.216	88.19
472.435	77.19
472.654	91.19
472.873	85.19
473.092	96.19
473.311	99.19
473.53	90.19
473.749	86.19
473.968	94.19
474.187	87.19
474.406	87.19
474.625	89.19
474.844	88.19
475.063	76.19
475.282	99.19
475.501	86.19
475.72	77.19
475.939	84.19
476.158	90.19
476.377	105.19
476.596	85.19
476.814	81.19
477.033	98.19
477.252	85.19
477.471	92.19
477.69	79.19
477.908	103.19
478.127	101.19
478.346	87.19
478.564	89.19
478.783	95.19
479.002	92.19
479.22	79.19
479.439	74.19
479.658	86.19
479.876	99.19
480.095	76.19
480.313	87.19
480.532	94.19
480.751	69.19
480.969	78.19
481.188	96.19
481.406	82.19
481.624	89.19
481.843	84.19
482.061	90.19
482.28	91.19
482.498	100.19
482.717	83.19
482.935	79.19
483.153	100.19
483.372	83.19
483.59	94.19
483.808	87.19
484.027	104.19
484.245	97.19
484.463	83.19
484.681	89.19
484.9	86.19
485.118	88.19
485.336	91.19
485.554	86.19
485.772	91.19
485.99	89.19
486.209	89.19
486.427	87.19
486.645	86.19
486.863	87.19
487.081	98.19
487.299	92.19
487.517	90.19
487.735	102.19
487.953	151.19
488.171	126.19
488.389	95.19
488.607	76.19
488.825	101.19
489.043	87.19
489.261	89.19
489.479	93.19
489.696	91.19
489.914	87.19
490.132	86.19
490.35	90.19
490.568	98.19
490.786	89.19
491.003	102.19
491.221	90.19
491.439	92.19
491.657	85.19
491.874	98.19
492.092	87.19
492.31	101.19
492.527	80.19
492.745	82.19
492.963	96.19
493.18	95.19
493.398	96.19
493.615	95.19
493.833	88.19
494.05	89.19
494.268	87.19
494.485	84.19
494.703	81.19
494.92	98.19
495.138	81.19
495.355	86.19
495.573	91.19
495.79	79.19
496.008	88.19
496.225	87.19
496.442	95.19
496.66	91.19
496.877	97.19
497.094	96.19
497.312	95.19
497.529	87.19
497.746	84.19
497.963	86.19
498.181	76.19
498.398	90.19
498.615	97.19
498.832	97.19
499.049	86.19
499.267	95.19
499.484	91.19
499.701	103.19
499.918	94.19
500.135	99.19
500.352	92.19
500.569	88.19
500.786	88.19
501.003	92.19
501.22	95.19
501.437	108.19
501.654	107.19
501.871	99.19
502.088	89.19
502.305	106.19
502.522	90.19
502.739	91.19
502.956	82.19
503.172	96.19
503.389	89.19
503.606	104.19
503.823	108.19
504.04	91.19
504.256	111.19
504.473	133.19
504.69	90.19
504.907	89.19
505.123	92.19
505.34	95.19
505.557	95.19
505.773	85.19
505.99	76.19
506.207	87.19
506.423	100.19
506.64	97.19
506.856	84.19
507.073	88.19
507.289	87.19
507.506	91.19
507.722	94.19
507.939	92.19
508.155	74.19
508.372	82.19
508.588	83.19
508.805	88.19
509.021	83.19
509.238	90.19
509.454	94.19
509.67	83.19
509.887	94.19
510.103	84.19
510.319	104.19
510.536	95.19
510.752	92.19
510.968	98.19
511.184	89.19
511.401	86.19
511.617	89.19
511.833	82.19
512.049	89.19
512.265	84.19
512.481	88.19
512.698	89.19
512.914	94.19
513.13	85.19
513.346	85.19
513.562	87.19
513.778	96.19
513.994	84.19
514.21	78.19
514.426	81.19
514.642	89.19
514.858	88.19
515.074	96.19
515.29	88.19
515.506	88.19
515.721	95.19
515.937	90.19
516.153	93.19
516.369	92.19
516.585	89.19
516.801	91.19
517.016	89.19
517.232	92.19
517.448	96.19
517.664	93.19
517.879	77.19
