Data from 10100_2_HRD10591_00011.txt Node
Date: Mon Jan 19 14:01:29 EST 2026
User: Yrep
Spectrometer: HR+D1059
Trigger mode: 1
Integration Time (sec): 1.000000E-1
Scans to average: 1
Electric dark correction enabled: true
Nonlinearity correction enabled: false
Boxcar width: 0
XAxis mode: Wavelengths
Number of Pixels in Spectrum: 2048
>>>>>Begin Spectral Data<<<<<
223.165	-17.44
223.4	-17.44
223.635	-17.44
223.869	-21.44
224.104	-17.44
224.338	-27.44
224.573	-10.44
224.808	-15.44
225.042	0.56
225.277	-6.44
225.511	-14.44
225.746	5.56
225.98	11.56
226.215	22.56
226.449	12.56
226.683	25.56
226.918	24.56
227.152	27.56
227.387	39.56
227.621	24.56
227.856	47.56
228.09	48.56
228.324	58.56
228.559	58.56
228.793	47.56
229.027	63.56
229.262	64.56
229.496	63.56
229.73	70.56
229.964	68.56
230.199	61.56
230.433	80.56
230.667	73.56
230.901	84.56
231.136	76.56
231.37	61.56
231.604	75.56
231.838	64.56
232.072	71.56
232.306	82.56
232.541	78.56
232.775	79.56
233.009	72.56
233.243	86.56
233.477	84.56
233.711	84.56
233.945	72.56
234.179	73.56
234.413	77.56
234.647	80.56
234.881	85.56
235.115	79.56
235.349	77.56
235.583	87.56
235.817	82.56
236.051	74.56
236.285	69.56
236.519	76.56
236.753	76.56
236.987	71.56
237.221	83.56
237.455	72.56
237.689	90.56
237.922	79.56
238.156	76.56
238.39	72.56
238.624	63.56
238.858	73.56
239.091	81.56
239.325	65.56
239.559	74.56
239.793	76.56
240.027	80.56
240.26	68.56
240.494	90.56
240.728	74.56
240.961	78.56
241.195	85.56
241.429	78.56
241.662	77.56
241.896	70.56
242.13	75.56
242.363	68.56
242.597	66.56
242.83	74.56
243.064	78.56
243.298	80.56
243.531	84.56
243.765	72.56
243.998	86.56
244.232	69.56
244.465	65.56
244.699	86.56
244.932	64.56
245.166	62.56
245.399	91.56
245.633	81.56
245.866	79.56
246.099	57.56
246.333	82.56
246.566	78.56
246.8	77.56
247.033	86.56
247.266	72.56
247.5	71.56
247.733	75.56
247.966	72.56
248.2	84.56
248.433	80.56
248.666	77.56
248.899	74.56
249.133	72.56
249.366	82.56
249.599	89.56
249.832	81.56
250.066	75.56
250.299	87.56
250.532	73.56
250.765	54.56
250.998	80.56
251.231	74.56
251.465	68.56
251.698	81.56
251.931	72.56
252.164	71.56
252.397	71.56
252.63	92.56
252.863	83.56
253.096	92.56
253.329	81.56
253.562	73.56
253.795	81.56
254.028	76.56
254.261	62.56
254.494	80.56
254.727	68.56
254.96	78.56
255.193	87.56
255.426	80.56
255.659	69.56
255.892	68.56
256.124	74.56
256.357	82.56
256.59	88.56
256.823	75.56
257.056	74.56
257.289	61.56
257.521	85.56
257.754	80.56
257.987	72.56
258.22	81.56
258.452	94.56
258.685	72.56
258.918	80.56
259.151	76.56
259.383	76.56
259.616	74.56
259.849	68.56
260.081	67.56
260.314	76.56
260.547	75.56
260.779	92.56
261.012	95.56
261.244	88.56
261.477	94.56
261.71	67.56
261.942	92.56
262.175	74.56
262.407	78.56
262.64	73.56
262.872	64.56
263.105	93.56
263.337	86.56
263.57	70.56
263.802	83.56
264.035	80.56
264.267	92.56
264.499	91.56
264.732	89.56
264.964	94.56
265.197	84.56
265.429	74.56
265.661	80.56
265.894	76.56
266.126	64.56
266.358	76.56
266.591	89.56
266.823	81.56
267.055	82.56
267.287	76.56
267.52	82.56
267.752	78.56
267.984	78.56
268.216	80.56
268.448	81.56
268.681	70.56
268.913	78.56
269.145	84.56
269.377	85.56
269.609	88.56
269.841	79.56
270.073	84.56
270.306	73.56
270.538	84.56
270.77	85.56
271.002	82.56
271.234	76.56
271.466	84.56
271.698	81.56
271.93	91.56
272.162	83.56
272.394	91.56
272.626	84.56
272.858	80.56
273.09	72.56
273.322	79.56
273.553	70.56
273.785	70.56
274.017	85.56
274.249	67.56
274.481	79.56
274.713	86.56
274.945	81.56
275.176	81.56
275.408	89.56
275.64	78.56
275.872	77.56
276.104	86.56
276.335	76.56
276.567	70.56
276.799	70.56
277.031	80.56
277.262	71.56
277.494	86.56
277.726	78.56
277.957	83.56
278.189	77.56
278.421	72.56
278.652	86.56
278.884	81.56
279.115	75.56
279.347	99.56
279.579	89.56
279.81	68.56
280.042	84.56
280.273	86.56
280.505	79.56
280.736	82.56
280.968	70.56
281.199	90.56
281.431	97.56
281.662	84.56
281.894	81.56
282.125	82.56
282.356	81.56
282.588	65.56
282.819	71.56
283.051	62.56
283.282	85.56
283.513	70.56
283.745	80.56
283.976	79.56
284.207	87.56
284.439	76.56
284.67	79.56
284.901	78.56
285.132	74.56
285.364	84.56
285.595	84.56
285.826	89.56
286.057	87.56
286.288	96.56
286.52	84.56
286.751	72.56
286.982	76.56
287.213	80.56
287.444	86.56
287.675	74.56
287.906	82.56
288.138	75.56
288.369	87.56
288.6	82.56
288.831	74.56
289.062	84.56
289.293	62.56
289.524	79.56
289.755	78.56
289.986	91.56
290.217	86.56
290.448	78.56
290.679	88.56
290.91	82.56
291.141	80.56
291.371	89.56
291.602	89.56
291.833	89.56
292.064	82.56
292.295	73.56
292.526	80.56
292.757	88.56
292.987	79.56
293.218	74.56
293.449	73.56
293.68	77.56
293.91	93.56
294.141	72.56
294.372	76.56
294.603	100.56
294.833	88.56
295.064	75.56
295.295	91.56
295.525	86.56
295.756	84.56
295.987	84.56
296.217	88.56
296.448	84.56
296.679	94.56
296.909	86.56
297.14	92.56
297.37	87.56
297.601	73.56
297.831	78.56
298.062	77.56
298.292	84.56
298.523	75.56
298.753	81.56
298.984	86.56
299.214	92.56
299.445	74.56
299.675	68.56
299.905	101.56
300.136	94.56
300.366	73.56
300.597	80.56
300.827	87.56
301.057	100.56
301.288	75.56
301.518	67.56
301.748	85.56
301.979	97.56
302.209	78.56
302.439	73.56
302.669	72.56
302.9	102.56
303.13	84.56
303.36	82.56
303.59	92.56
303.82	82.56
304.051	79.56
304.281	87.56
304.511	92.56
304.741	88.56
304.971	86.56
305.201	90.56
305.431	85.56
305.661	80.56
305.891	69.56
306.121	85.56
306.352	93.56
306.582	73.56
306.812	69.56
307.042	73.56
307.272	80.56
307.502	75.56
307.731	97.56
307.961	69.56
308.191	75.56
308.421	80.56
308.651	97.56
308.881	80.56
309.111	86.56
309.341	89.56
309.571	70.56
309.8	92.56
310.03	77.56
310.26	76.56
310.49	78.56
310.72	82.56
310.949	79.56
311.179	84.56
311.409	92.56
311.639	69.56
311.868	93.56
312.098	88.56
312.328	77.56
312.557	74.56
312.787	100.56
313.017	85.56
313.246	88.56
313.476	85.56
313.706	90.56
313.935	73.56
314.165	76.56
314.394	86.56
314.624	67.56
314.853	94.56
315.083	81.56
315.312	82.56
315.542	84.56
315.771	82.56
316.001	82.56
316.23	82.56
316.46	92.56
316.689	85.56
316.919	67.56
317.148	87.56
317.377	87.56
317.607	82.56
317.836	79.56
318.065	92.56
318.295	96.56
318.524	64.56
318.753	79.56
318.983	95.56
319.212	83.56
319.441	64.56
319.67	90.56
319.9	82.56
320.129	89.56
320.358	73.56
320.587	66.56
320.816	80.56
321.046	80.56
321.275	96.56
321.504	99.56
321.733	75.56
321.962	77.56
322.191	95.56
322.42	71.56
322.649	64.56
322.878	90.56
323.108	82.56
323.337	85.56
323.566	80.56
323.795	76.56
324.024	90.56
324.253	93.56
324.482	84.56
324.71	79.56
324.939	82.56
325.168	84.56
325.397	101.56
325.626	81.56
325.855	74.56
326.084	77.56
326.313	76.56
326.542	82.56
326.77	69.56
326.999	69.56
327.228	94.56
327.457	108.56
327.686	86.56
327.914	85.56
328.143	94.56
328.372	86.56
328.6	80.56
328.829	68.56
329.058	68.56
329.287	97.56
329.515	86.56
329.744	82.56
329.972	90.56
330.201	80.56
330.43	77.56
330.658	85.56
330.887	84.56
331.115	72.56
331.344	97.56
331.572	97.56
331.801	79.56
332.03	92.56
332.258	81.56
332.486	78.56
332.715	64.56
332.943	85.56
333.172	80.56
333.4	78.56
333.629	88.56
333.857	90.56
334.085	90.56
334.314	80.56
334.542	64.56
334.771	86.56
334.999	86.56
335.227	92.56
335.455	69.56
335.684	86.56
335.912	89.56
336.14	74.56
336.369	83.56
336.597	94.56
336.825	84.56
337.053	94.56
337.281	91.56
337.51	87.56
337.738	68.56
337.966	76.56
338.194	73.56
338.422	105.56
338.65	94.56
338.878	101.56
339.106	81.56
339.334	82.56
339.562	79.56
339.79	72.56
340.018	95.56
340.246	88.56
340.474	81.56
340.702	74.56
340.93	82.56
341.158	65.56
341.386	83.56
341.614	88.56
341.842	87.56
342.07	77.56
342.298	66.56
342.526	78.56
342.754	74.56
342.981	68.56
343.209	92.56
343.437	87.56
343.665	88.56
343.893	82.56
344.12	74.56
344.348	81.56
344.576	83.56
344.804	73.56
345.031	78.56
345.259	74.56
345.487	77.56
345.714	93.56
345.942	87.56
346.17	83.56
346.397	83.56
346.625	90.56
346.853	88.56
347.08	80.56
347.308	80.56
347.535	88.56
347.763	89.56
347.99	89.56
348.218	80.56
348.445	80.56
348.673	94.56
348.9	74.56
349.128	91.56
349.355	94.56
349.583	78.56
349.81	80.56
350.037	76.56
350.265	81.56
350.492	72.56
350.72	74.56
350.947	89.56
351.174	66.56
351.402	84.56
351.629	89.56
351.856	72.56
352.083	90.56
352.311	85.56
352.538	87.56
352.765	79.56
352.992	86.56
353.22	74.56
353.447	81.56
353.674	67.56
353.901	80.56
354.128	78.56
354.355	80.56
354.583	79.56
354.81	79.56
355.037	82.56
355.264	87.56
355.491	94.56
355.718	73.56
355.945	88.56
356.172	68.56
356.399	86.56
356.626	80.56
356.853	75.56
357.08	85.56
357.307	91.56
357.534	88.56
357.761	74.56
357.988	88.56
358.215	84.56
358.441	78.56
358.668	88.56
358.895	81.56
359.122	82.56
359.349	86.56
359.576	83.56
359.802	87.56
360.029	74.56
360.256	96.56
360.483	89.56
360.709	69.56
360.936	83.56
361.163	80.56
361.39	91.56
361.616	81.56
361.843	84.56
362.07	81.56
362.296	71.56
362.523	96.56
362.749	95.56
362.976	85.56
363.203	94.56
363.429	71.56
363.656	94.56
363.882	97.56
364.109	89.56
364.335	90.56
364.562	96.56
364.788	90.56
365.015	82.56
365.241	72.56
365.468	92.56
365.694	82.56
365.92	83.56
366.147	92.56
366.373	81.56
366.599	67.56
366.826	85.56
367.052	88.56
367.278	88.56
367.505	77.56
367.731	89.56
367.957	85.56
368.184	83.56
368.41	76.56
368.636	70.56
368.862	77.56
369.089	84.56
369.315	81.56
369.541	88.56
369.767	80.56
369.993	75.56
370.219	82.56
370.445	76.56
370.672	79.56
370.898	92.56
371.124	89.56
371.35	94.56
371.576	73.56
371.802	89.56
372.028	94.56
372.254	95.56
372.48	70.56
372.706	89.56
372.932	83.56
373.158	82.56
373.384	76.56
373.61	101.56
373.835	88.56
374.061	77.56
374.287	82.56
374.513	90.56
374.739	84.56
374.965	70.56
375.191	81.56
375.416	66.56
375.642	101.56
375.868	69.56
376.094	78.56
376.319	81.56
376.545	81.56
376.771	93.56
376.997	90.56
377.222	80.56
377.448	95.56
377.674	96.56
377.899	85.56
378.125	80.56
378.35	94.56
378.576	80.56
378.802	85.56
379.027	96.56
379.253	81.56
379.478	88.56
379.704	88.56
379.929	93.56
380.155	82.56
380.38	90.56
380.606	72.56
380.831	78.56
381.057	97.56
381.282	77.56
381.507	82.56
381.733	93.56
381.958	86.56
382.184	84.56
382.409	85.56
382.634	79.56
382.86	74.56
383.085	76.56
383.31	70.56
383.535	97.56
383.761	81.56
383.986	85.56
384.211	85.56
384.436	75.56
384.662	69.56
384.887	89.56
385.112	85.56
385.337	81.56
385.562	80.56
385.787	85.56
386.013	96.56
386.238	96.56
386.463	78.56
386.688	99.56
386.913	91.56
387.138	81.56
387.363	81.56
387.588	87.56
387.813	97.56
388.038	88.56
388.263	88.56
388.488	86.56
388.713	73.56
388.938	80.56
389.163	78.56
389.387	89.56
389.612	88.56
389.837	79.56
390.062	67.56
390.287	86.56
390.512	78.56
390.736	73.56
390.961	66.56
391.186	92.56
391.411	86.56
391.636	76.56
391.86	74.56
392.085	85.56
392.31	100.56
392.534	98.56
392.759	77.56
392.984	91.56
393.208	121.56
393.433	135.56
393.658	132.56
393.882	100.56
394.107	82.56
394.331	89.56
394.556	89.56
394.78	90.56
395.005	87.56
395.229	79.56
395.454	86.56
395.678	87.56
395.903	98.56
396.127	91.56
396.352	93.56
396.576	97.56
396.801	122.56
397.025	127.56
397.249	100.56
397.474	93.56
397.698	87.56
397.922	78.56
398.147	84.56
398.371	85.56
398.595	83.56
398.82	80.56
399.044	97.56
399.268	82.56
399.492	89.56
399.717	86.56
399.941	62.56
400.165	77.56
400.389	74.56
400.613	84.56
400.837	72.56
401.062	90.56
401.286	89.56
401.51	87.56
401.734	80.56
401.958	86.56
402.182	84.56
402.406	92.56
402.63	88.56
402.854	80.56
403.078	88.56
403.302	83.56
403.526	74.56
403.75	74.56
403.974	72.56
404.198	81.56
404.422	88.56
404.645	90.56
404.869	73.56
405.093	73.56
405.317	79.56
405.541	78.56
405.765	88.56
405.988	87.56
406.212	92.56
406.436	104.56
406.66	104.56
406.883	76.56
407.107	82.56
407.331	70.56
407.555	83.56
407.778	80.56
408.002	73.56
408.226	68.56
408.449	82.56
408.673	80.56
408.896	75.56
409.12	82.56
409.344	94.56
409.567	78.56
409.791	93.56
410.014	89.56
410.238	72.56
410.461	74.56
410.685	79.56
410.908	71.56
411.132	81.56
411.355	63.56
411.578	68.56
411.802	78.56
412.025	86.56
412.249	85.56
412.472	87.56
412.695	68.56
412.919	93.56
413.142	82.56
413.365	94.56
413.589	82.56
413.812	92.56
414.035	91.56
414.258	81.56
414.482	94.56
414.705	78.56
414.928	96.56
415.151	85.56
415.374	72.56
415.597	80.56
415.821	82.56
416.044	72.56
416.267	80.56
416.49	91.56
416.713	87.56
416.936	83.56
417.159	74.56
417.382	84.56
417.605	87.56
417.828	94.56
418.051	70.56
418.274	77.56
418.497	86.56
418.72	88.56
418.943	83.56
419.166	85.56
419.389	71.56
419.611	79.56
419.834	75.56
420.057	97.56
420.28	97.56
420.503	78.56
420.726	76.56
420.948	77.56
421.171	88.56
421.394	78.56
421.617	96.56
421.839	88.56
422.062	84.56
422.285	98.56
422.507	127.56
422.73	160.56
422.953	157.56
423.175	120.56
423.398	94.56
423.621	86.56
423.843	78.56
424.066	102.56
424.288	93.56
424.511	78.56
424.733	70.56
424.956	85.56
425.178	87.56
425.401	86.56
425.623	84.56
425.846	79.56
426.068	79.56
426.291	84.56
426.513	72.56
426.735	83.56
426.958	87.56
427.18	79.56
427.402	82.56
427.625	88.56
427.847	78.56
428.069	75.56
428.292	89.56
428.514	100.56
428.736	87.56
428.958	113.56
429.181	91.56
429.403	94.56
429.625	82.56
429.847	92.56
430.069	105.56
430.292	123.56
430.514	100.56
430.736	87.56
430.958	101.56
431.18	73.56
431.402	81.56
431.624	90.56
431.846	86.56
432.068	94.56
432.29	89.56
432.512	76.56
432.734	80.56
432.956	88.56
433.178	80.56
433.4	75.56
433.622	68.56
433.844	80.56
434.066	88.56
434.287	80.56
434.509	83.56
434.731	81.56
434.953	83.56
435.175	85.56
435.397	88.56
435.618	88.56
435.84	72.56
436.062	79.56
436.284	96.56
436.505	87.56
436.727	84.56
436.949	93.56
437.17	84.56
437.392	95.56
437.614	86.56
437.835	74.56
438.057	87.56
438.278	84.56
438.5	79.56
438.721	94.56
438.943	86.56
439.165	88.56
439.386	73.56
439.608	84.56
439.829	89.56
440.05	73.56
440.272	80.56
440.493	77.56
440.715	85.56
440.936	73.56
441.158	73.56
441.379	61.56
441.6	88.56
441.822	78.56
442.043	78.56
442.264	94.56
442.486	103.56
442.707	101.56
442.928	94.56
443.149	91.56
443.371	103.56
443.592	134.56
443.813	108.56
444.034	80.56
444.255	84.56
444.476	92.56
444.698	75.56
444.919	90.56
445.14	177.56
445.361	146.56
445.582	158.56
445.803	115.56
446.024	85.56
446.245	85.56
446.466	75.56
446.687	81.56
446.908	93.56
447.129	84.56
447.35	93.56
447.571	80.56
447.792	80.56
448.013	84.56
448.234	80.56
448.455	90.56
448.675	99.56
448.896	97.56
449.117	71.56
449.338	78.56
449.559	81.56
449.779	78.56
450	82.56
450.221	73.56
450.442	86.56
450.662	72.56
450.883	80.56
451.104	75.56
451.324	75.56
451.545	75.56
451.766	77.56
451.986	78.56
452.207	100.56
452.428	85.56
452.648	92.56
452.869	80.56
453.089	89.56
453.31	75.56
453.53	85.56
453.751	91.56
453.971	77.56
454.192	92.56
454.412	78.56
454.633	77.56
454.853	97.56
455.073	82.56
455.294	80.56
455.514	85.56
455.734	75.56
455.955	85.56
456.175	79.56
456.395	62.56
456.616	74.56
456.836	74.56
457.056	79.56
457.276	83.56
457.497	78.56
457.717	78.56
457.937	88.56
458.157	85.56
458.377	91.56
458.598	97.56
458.818	112.56
459.038	86.56
459.258	101.56
459.478	73.56
459.698	67.56
459.918	75.56
460.138	84.56
460.358	78.56
460.578	81.56
460.798	93.56
461.018	88.56
461.238	88.56
461.458	87.56
461.678	57.56
461.898	78.56
462.118	89.56
462.338	90.56
462.558	82.56
462.777	90.56
462.997	80.56
463.217	78.56
463.437	87.56
463.657	86.56
463.876	90.56
464.096	97.56
464.316	91.56
464.536	92.56
464.755	91.56
464.975	79.56
465.195	80.56
465.414	86.56
465.634	85.56
465.854	78.56
466.073	66.56
466.293	74.56
466.512	88.56
466.732	84.56
466.951	94.56
467.171	82.56
467.391	84.56
467.61	62.56
467.829	87.56
468.049	82.56
468.268	86.56
468.488	93.56
468.707	103.56
468.927	74.56
469.146	93.56
469.365	70.56
469.585	83.56
469.804	76.56
470.023	94.56
470.243	84.56
470.462	73.56
470.681	86.56
470.901	82.56
471.12	79.56
471.339	78.56
471.558	81.56
471.777	91.56
471.997	67.56
472.216	86.56
472.435	93.56
472.654	88.56
472.873	94.56
473.092	84.56
473.311	88.56
473.53	90.56
473.749	97.56
473.968	89.56
474.187	89.56
474.406	76.56
474.625	82.56
474.844	79.56
475.063	88.56
475.282	81.56
475.501	80.56
475.72	87.56
475.939	92.56
476.158	77.56
476.377	88.56
476.596	70.56
476.814	80.56
477.033	74.56
477.252	97.56
477.471	93.56
477.69	93.56
477.908	81.56
478.127	79.56
478.346	90.56
478.564	87.56
478.783	91.56
479.002	66.56
479.22	76.56
479.439	66.56
479.658	87.56
479.876	72.56
480.095	81.56
480.313	84.56
480.532	65.56
480.751	89.56
480.969	84.56
481.188	66.56
481.406	76.56
481.624	80.56
481.843	85.56
482.061	85.56
482.28	85.56
482.498	87.56
482.717	83.56
482.935	87.56
483.153	81.56
483.372	80.56
483.59	81.56
483.808	74.56
484.027	71.56
484.245	82.56
484.463	90.56
484.681	90.56
484.9	91.56
485.118	96.56
485.336	82.56
485.554	91.56
485.772	92.56
485.99	84.56
486.209	98.56
486.427	84.56
486.645	91.56
486.863	101.56
487.081	80.56
487.299	84.56
487.517	83.56
487.735	88.56
487.953	106.56
488.171	101.56
488.389	86.56
488.607	80.56
488.825	89.56
489.043	80.56
489.261	78.56
489.479	88.56
489.696	82.56
489.914	82.56
490.132	93.56
490.35	88.56
490.568	76.56
490.786	77.56
491.003	79.56
491.221	91.56
491.439	98.56
491.657	85.56
491.874	86.56
492.092	83.56
492.31	101.56
492.527	92.56
492.745	78.56
492.963	84.56
493.18	76.56
493.398	87.56
493.615	88.56
493.833	82.56
494.05	73.56
494.268	96.56
494.485	82.56
494.703	93.56
494.92	87.56
495.138	86.56
495.355	80.56
495.573	77.56
495.79	76.56
496.008	95.56
496.225	99.56
496.442	80.56
496.66	84.56
496.877	77.56
497.094	84.56
497.312	89.56
497.529	84.56
497.746	93.56
497.963	85.56
498.181	92.56
498.398	85.56
498.615	94.56
498.832	84.56
499.049	87.56
499.267	89.56
499.484	84.56
499.701	83.56
499.918	89.56
500.135	79.56
500.352	92.56
500.569	81.56
500.786	93.56
501.003	96.56
501.22	80.56
501.437	85.56
501.654	82.56
501.871	83.56
502.088	71.56
502.305	91.56
502.522	97.56
502.739	83.56
502.956	96.56
503.172	80.56
503.389	73.56
503.606	85.56
503.823	94.56
504.04	99.56
504.256	118.56
504.473	86.56
504.69	99.56
504.907	98.56
505.123	84.56
505.34	85.56
505.557	85.56
505.773	80.56
505.99	90.56
506.207	89.56
506.423	73.56
506.64	80.56
506.856	92.56
507.073	83.56
507.289	82.56
507.506	78.56
507.722	77.56
507.939	85.56
508.155	90.56
508.372	82.56
508.588	84.56
508.805	84.56
509.021	76.56
509.238	67.56
509.454	83.56
509.67	77.56
509.887	79.56
510.103	95.56
510.319	81.56
510.536	87.56
510.752	93.56
510.968	86.56
511.184	88.56
511.401	85.56
511.617	98.56
511.833	87.56
512.049	92.56
512.265	74.56
512.481	99.56
512.698	78.56
512.914	88.56
513.13	72.56
513.346	73.56
513.562	84.56
513.778	92.56
513.994	84.56
514.21	95.56
514.426	84.56
514.642	67.56
514.858	85.56
515.074	91.56
515.29	75.56
515.506	87.56
515.721	86.56
515.937	87.56
516.153	94.56
516.369	83.56
516.585	95.56
516.801	78.56
517.016	92.56
517.232	84.56
517.448	92.56
517.664	80.56
517.879	91.56
518.095	88.56
518.311	91.56
518.527	85.56
518.742	93.56
518.958	97.56
519.173	118.56
519.389	84.56
519.605	82.56
