Data from 10100_2_HRD10591_00043.txt Node
Date: Mon Jan 19 14:01:45 EST 2026
User: Yrep
Spectrometer: HR+D1059
Trigger mode: 1
Integration Time (sec): 1.000000E-1
Scans to average: 1
Electric dark correction enabled: true
Nonlinearity correction enabled: false
Boxcar width: 0
XAxis mode: Wavelengths
Number of Pixels in Spectrum: 2048
>>>>>Begin Spectral Data<<<<<
223.165	-15.25
223.4	-15.25
223.635	-15.25
223.869	-28.25
224.104	-28.25
224.338	-23.25
224.573	-10.25
224.808	-5.25
225.042	-7.25
225.277	-9.25
225.511	12.75
225.746	3.75
225.98	12.75
226.215	9.75
226.449	21.75
226.683	14.75
226.918	25.75
227.152	25.75
227.387	46.75
227.621	40.75
227.856	44.75
228.09	37.75
228.324	48.75
228.559	56.75
228.793	58.75
229.027	59.75
229.262	63.75
229.496	68.75
229.73	60.75
229.964	75.75
230.199	83.75
230.433	72.75
230.667	82.75
230.901	76.75
231.136	73.75
231.37	91.75
231.604	85.75
231.838	73.75
232.072	72.75
232.306	86.75
232.541	91.75
232.775	82.75
233.009	95.75
233.243	78.75
233.477	87.75
233.711	71.75
233.945	90.75
234.179	94.75
234.413	76.75
234.647	73.75
234.881	86.75
235.115	86.75
235.349	79.75
235.583	70.75
235.817	87.75
236.051	71.75
236.285	75.75
236.519	58.75
236.753	82.75
236.987	92.75
237.221	72.75
237.455	86.75
237.689	84.75
237.922	82.75
238.156	79.75
238.39	84.75
238.624	68.75
238.858	56.75
239.091	63.75
239.325	71.75
239.559	80.75
239.793	90.75
240.027	81.75
240.26	69.75
240.494	75.75
240.728	70.75
240.961	75.75
241.195	67.75
241.429	66.75
241.662	63.75
241.896	81.75
242.13	77.75
242.363	84.75
242.597	76.75
242.83	68.75
243.064	69.75
243.298	81.75
243.531	79.75
243.765	68.75
243.998	78.75
244.232	72.75
244.465	72.75
244.699	71.75
244.932	72.75
245.166	76.75
245.399	64.75
245.633	78.75
245.866	75.75
246.099	78.75
246.333	84.75
246.566	75.75
246.8	84.75
247.033	75.75
247.266	83.75
247.5	84.75
247.733	68.75
247.966	71.75
248.2	84.75
248.433	66.75
248.666	73.75
248.899	91.75
249.133	86.75
249.366	83.75
249.599	77.75
249.832	82.75
250.066	76.75
250.299	66.75
250.532	86.75
250.765	89.75
250.998	86.75
251.231	71.75
251.465	71.75
251.698	71.75
251.931	79.75
252.164	78.75
252.397	77.75
252.63	85.75
252.863	84.75
253.096	76.75
253.329	82.75
253.562	94.75
253.795	82.75
254.028	78.75
254.261	88.75
254.494	75.75
254.727	86.75
254.96	91.75
255.193	74.75
255.426	89.75
255.659	76.75
255.892	98.75
256.124	88.75
256.357	84.75
256.59	83.75
256.823	80.75
257.056	84.75
257.289	76.75
257.521	64.75
257.754	91.75
257.987	77.75
258.22	85.75
258.452	79.75
258.685	80.75
258.918	77.75
259.151	77.75
259.383	65.75
259.616	68.75
259.849	88.75
260.081	75.75
260.314	76.75
260.547	83.75
260.779	75.75
261.012	72.75
261.244	99.75
261.477	79.75
261.71	82.75
261.942	100.75
262.175	82.75
262.407	78.75
262.64	84.75
262.872	82.75
263.105	66.75
263.337	90.75
263.57	82.75
263.802	70.75
264.035	83.75
264.267	85.75
264.499	72.75
264.732	83.75
264.964	94.75
265.197	80.75
265.429	77.75
265.661	80.75
265.894	66.75
266.126	94.75
266.358	75.75
266.591	94.75
266.823	94.75
267.055	76.75
267.287	64.75
267.52	88.75
267.752	72.75
267.984	71.75
268.216	86.75
268.448	83.75
268.681	82.75
268.913	75.75
269.145	83.75
269.377	76.75
269.609	82.75
269.841	84.75
270.073	76.75
270.306	75.75
270.538	82.75
270.77	71.75
271.002	70.75
271.234	84.75
271.466	86.75
271.698	89.75
271.93	94.75
272.162	85.75
272.394	92.75
272.626	84.75
272.858	80.75
273.09	71.75
273.322	84.75
273.553	96.75
273.785	94.75
274.017	75.75
274.249	91.75
274.481	82.75
274.713	73.75
274.945	87.75
275.176	88.75
275.408	88.75
275.64	83.75
275.872	85.75
276.104	87.75
276.335	97.75
276.567	78.75
276.799	90.75
277.031	80.75
277.262	87.75
277.494	103.75
277.726	87.75
277.957	81.75
278.189	88.75
278.421	69.75
278.652	81.75
278.884	87.75
279.115	81.75
279.347	100.75
279.579	92.75
279.81	100.75
280.042	76.75
280.273	84.75
280.505	91.75
280.736	87.75
280.968	91.75
281.199	94.75
281.431	72.75
281.662	69.75
281.894	73.75
282.125	79.75
282.356	87.75
282.588	76.75
282.819	78.75
283.051	73.75
283.282	66.75
283.513	85.75
283.745	94.75
283.976	74.75
284.207	83.75
284.439	79.75
284.67	85.75
284.901	85.75
285.132	95.75
285.364	81.75
285.595	86.75
285.826	80.75
286.057	79.75
286.288	73.75
286.52	92.75
286.751	96.75
286.982	79.75
287.213	80.75
287.444	91.75
287.675	85.75
287.906	77.75
288.138	87.75
288.369	94.75
288.6	85.75
288.831	89.75
289.062	79.75
289.293	87.75
289.524	84.75
289.755	90.75
289.986	71.75
290.217	78.75
290.448	84.75
290.679	75.75
290.91	71.75
291.141	92.75
291.371	84.75
291.602	80.75
291.833	83.75
292.064	82.75
292.295	77.75
292.526	99.75
292.757	85.75
292.987	89.75
293.218	80.75
293.449	77.75
293.68	87.75
293.91	89.75
294.141	80.75
294.372	77.75
294.603	82.75
294.833	82.75
295.064	88.75
295.295	92.75
295.525	83.75
295.756	81.75
295.987	87.75
296.217	94.75
296.448	85.75
296.679	86.75
296.909	75.75
297.14	93.75
297.37	77.75
297.601	97.75
297.831	97.75
298.062	88.75
298.292	82.75
298.523	88.75
298.753	81.75
298.984	104.75
299.214	86.75
299.445	84.75
299.675	95.75
299.905	87.75
300.136	90.75
300.366	86.75
300.597	86.75
300.827	79.75
301.057	85.75
301.288	89.75
301.518	88.75
301.748	90.75
301.979	110.75
302.209	90.75
302.439	84.75
302.669	87.75
302.9	90.75
303.13	83.75
303.36	89.75
303.59	99.75
303.82	90.75
304.051	96.75
304.281	105.75
304.511	95.75
304.741	92.75
304.971	102.75
305.201	83.75
305.431	77.75
305.661	76.75
305.891	80.75
306.121	92.75
306.352	95.75
306.582	89.75
306.812	84.75
307.042	82.75
307.272	74.75
307.502	84.75
307.731	89.75
307.961	99.75
308.191	86.75
308.421	82.75
308.651	95.75
308.881	87.75
309.111	91.75
309.341	93.75
309.571	92.75
309.8	83.75
310.03	91.75
310.26	100.75
310.49	94.75
310.72	81.75
310.949	80.75
311.179	82.75
311.409	92.75
311.639	86.75
311.868	90.75
312.098	90.75
312.328	65.75
312.557	84.75
312.787	85.75
313.017	79.75
313.246	79.75
313.476	75.75
313.706	75.75
313.935	92.75
314.165	65.75
314.394	80.75
314.624	66.75
314.853	92.75
315.083	94.75
315.312	84.75
315.542	101.75
315.771	85.75
316.001	79.75
316.23	103.75
316.46	95.75
316.689	98.75
316.919	81.75
317.148	94.75
317.377	99.75
317.607	98.75
317.836	94.75
318.065	118.75
318.295	117.75
318.524	94.75
318.753	104.75
318.983	94.75
319.212	86.75
319.441	101.75
319.67	76.75
319.9	92.75
320.129	80.75
320.358	85.75
320.587	85.75
320.816	78.75
321.046	98.75
321.275	100.75
321.504	92.75
321.733	70.75
321.962	82.75
322.191	73.75
322.42	86.75
322.649	82.75
322.878	95.75
323.108	87.75
323.337	94.75
323.566	86.75
323.795	92.75
324.024	82.75
324.253	74.75
324.482	84.75
324.71	78.75
324.939	87.75
325.168	76.75
325.397	92.75
325.626	94.75
325.855	90.75
326.084	83.75
326.313	96.75
326.542	85.75
326.77	83.75
326.999	95.75
327.228	83.75
327.457	99.75
327.686	91.75
327.914	79.75
328.143	82.75
328.372	76.75
328.6	75.75
328.829	81.75
329.058	92.75
329.287	77.75
329.515	99.75
329.744	102.75
329.972	92.75
330.201	94.75
330.43	98.75
330.658	97.75
330.887	76.75
331.115	91.75
331.344	88.75
331.572	98.75
331.801	91.75
332.03	91.75
332.258	83.75
332.486	98.75
332.715	91.75
332.943	74.75
333.172	87.75
333.4	92.75
333.629	96.75
333.857	93.75
334.085	94.75
334.314	94.75
334.542	103.75
334.771	78.75
334.999	86.75
335.227	90.75
335.455	103.75
335.684	92.75
335.912	88.75
336.14	83.75
336.369	91.75
336.597	89.75
336.825	90.75
337.053	92.75
337.281	95.75
337.51	74.75
337.738	90.75
337.966	88.75
338.194	92.75
338.422	94.75
338.65	94.75
338.878	81.75
339.106	91.75
339.334	97.75
339.562	88.75
339.79	84.75
340.018	93.75
340.246	81.75
340.474	73.75
340.702	63.75
340.93	80.75
341.158	75.75
341.386	94.75
341.614	88.75
341.842	91.75
342.07	87.75
342.298	95.75
342.526	96.75
342.754	86.75
342.981	86.75
343.209	86.75
343.437	114.75
343.665	88.75
343.893	86.75
344.12	88.75
344.348	91.75
344.576	81.75
344.804	88.75
345.031	72.75
345.259	83.75
345.487	96.75
345.714	84.75
345.942	75.75
346.17	83.75
346.397	94.75
346.625	68.75
346.853	76.75
347.08	90.75
347.308	79.75
347.535	88.75
347.763	90.75
347.99	98.75
348.218	105.75
348.445	93.75
348.673	76.75
348.9	88.75
349.128	89.75
349.355	102.75
349.583	89.75
349.81	88.75
350.037	87.75
350.265	89.75
350.492	96.75
350.72	90.75
350.947	77.75
351.174	90.75
351.402	91.75
351.629	85.75
351.856	86.75
352.083	90.75
352.311	96.75
352.538	84.75
352.765	95.75
352.992	88.75
353.22	83.75
353.447	84.75
353.674	84.75
353.901	90.75
354.128	86.75
354.355	81.75
354.583	84.75
354.81	104.75
355.037	72.75
355.264	88.75
355.491	82.75
355.718	81.75
355.945	91.75
356.172	85.75
356.399	95.75
356.626	99.75
356.853	106.75
357.08	91.75
357.307	89.75
357.534	90.75
357.761	116.75
357.988	106.75
358.215	122.75
358.441	95.75
358.668	96.75
358.895	86.75
359.122	85.75
359.349	83.75
359.576	80.75
359.802	90.75
360.029	86.75
360.256	81.75
360.483	82.75
360.709	82.75
360.936	106.75
361.163	86.75
361.39	88.75
361.616	81.75
361.843	92.75
362.07	99.75
362.296	85.75
362.523	88.75
362.749	92.75
362.976	107.75
363.203	122.75
363.429	106.75
363.656	83.75
363.882	86.75
364.109	100.75
364.335	113.75
364.562	136.75
364.788	129.75
365.015	103.75
365.241	98.75
365.468	90.75
365.694	90.75
365.92	92.75
366.147	90.75
366.373	79.75
366.599	89.75
366.826	90.75
367.052	90.75
367.278	100.75
367.505	99.75
367.731	79.75
367.957	81.75
368.184	97.75
368.41	76.75
368.636	93.75
368.862	84.75
369.089	89.75
369.315	97.75
369.541	96.75
369.767	81.75
369.993	92.75
370.219	101.75
370.445	92.75
370.672	109.75
370.898	99.75
371.124	92.75
371.35	76.75
371.576	79.75
371.802	87.75
372.028	85.75
372.254	92.75
372.48	104.75
372.706	88.75
372.932	103.75
373.158	79.75
373.384	112.75
373.61	127.75
373.835	113.75
374.061	120.75
374.287	100.75
374.513	110.75
374.739	111.75
374.965	104.75
375.191	93.75
375.416	86.75
375.642	90.75
375.868	104.75
376.094	92.75
376.319	87.75
376.545	87.75
376.771	94.75
376.997	108.75
377.222	74.75
377.448	84.75
377.674	84.75
377.899	87.75
378.125	95.75
378.35	80.75
378.576	87.75
378.802	102.75
379.027	86.75
379.253	97.75
379.478	95.75
379.704	95.75
379.929	97.75
380.155	87.75
380.38	79.75
380.606	83.75
380.831	101.75
381.057	96.75
381.282	88.75
381.507	89.75
381.733	97.75
381.958	88.75
382.184	102.75
382.409	106.75
382.634	110.75
382.86	108.75
383.085	94.75
383.31	103.75
383.535	106.75
383.761	93.75
383.986	113.75
384.211	96.75
384.436	91.75
384.662	90.75
384.887	100.75
385.112	95.75
385.337	97.75
385.562	91.75
385.787	105.75
386.013	108.75
386.238	123.75
386.463	101.75
386.688	116.75
386.913	104.75
387.138	111.75
387.363	116.75
387.588	105.75
387.813	102.75
388.038	110.75
388.263	103.75
388.488	104.75
388.713	92.75
388.938	92.75
389.163	97.75
389.387	95.75
389.612	88.75
389.837	95.75
390.062	103.75
390.287	100.75
390.512	96.75
390.736	84.75
390.961	88.75
391.186	86.75
391.411	94.75
391.636	96.75
391.86	104.75
392.085	102.75
392.31	103.75
392.534	106.75
392.759	115.75
392.984	200.75
393.208	370.75
393.433	561.75
393.658	411.75
393.882	169.75
394.107	130.75
394.331	126.75
394.556	129.75
394.78	119.75
395.005	114.75
395.229	102.75
395.454	99.75
395.678	112.75
395.903	122.75
396.127	141.75
396.352	174.75
396.576	214.75
396.801	361.75
397.025	448.75
397.249	208.75
397.474	126.75
397.698	106.75
397.922	98.75
398.147	90.75
398.371	81.75
398.595	84.75
398.82	97.75
399.044	84.75
399.268	88.75
399.492	98.75
399.717	99.75
399.941	85.75
400.165	96.75
400.389	92.75
400.613	104.75
400.837	91.75
401.062	102.75
401.286	71.75
401.51	93.75
401.734	112.75
401.958	88.75
402.182	73.75
402.406	82.75
402.63	91.75
402.854	89.75
403.078	85.75
403.302	82.75
403.526	86.75
403.75	82.75
403.974	86.75
404.198	84.75
404.422	79.75
404.645	86.75
404.869	87.75
405.093	90.75
405.317	86.75
405.541	89.75
405.765	99.75
405.988	85.75
406.212	97.75
406.436	86.75
406.66	102.75
406.883	98.75
407.107	103.75
407.331	89.75
407.555	108.75
407.778	139.75
408.002	131.75
408.226	86.75
408.449	86.75
408.673	98.75
408.896	82.75
409.12	93.75
409.344	104.75
409.567	125.75
409.791	102.75
410.014	95.75
410.238	92.75
410.461	88.75
410.685	90.75
410.908	83.75
411.132	91.75
411.355	88.75
411.578	82.75
411.802	94.75
412.025	84.75
412.249	87.75
412.472	98.75
412.695	67.75
412.919	86.75
413.142	98.75
413.365	79.75
413.589	89.75
413.812	97.75
414.035	95.75
414.258	98.75
414.482	86.75
414.705	75.75
414.928	89.75
415.151	73.75
415.374	92.75
415.597	82.75
415.821	74.75
416.044	62.75
416.267	82.75
416.49	86.75
416.713	89.75
416.936	84.75
417.159	89.75
417.382	97.75
417.605	82.75
417.828	95.75
418.051	94.75
418.274	90.75
418.497	71.75
418.72	80.75
418.943	90.75
419.166	96.75
419.389	96.75
419.611	104.75
419.834	90.75
420.057	92.75
420.28	82.75
420.503	106.75
420.726	102.75
420.948	92.75
421.171	76.75
421.394	116.75
421.617	138.75
421.839	127.75
422.062	123.75
422.285	148.75
422.507	291.75
422.73	446.75
422.953	375.75
423.175	183.75
423.398	130.75
423.621	104.75
423.843	106.75
424.066	100.75
424.288	97.75
424.511	100.75
424.733	98.75
424.956	89.75
425.178	83.75
425.401	86.75
425.623	92.75
425.846	84.75
426.068	98.75
426.291	96.75
426.513	88.75
426.735	100.75
426.958	97.75
427.18	94.75
427.402	102.75
427.625	103.75
427.847	81.75
428.069	107.75
428.292	130.75
428.514	146.75
428.736	100.75
428.958	136.75
429.181	121.75
429.403	111.75
429.625	98.75
429.847	128.75
430.069	138.75
430.292	194.75
430.514	159.75
430.736	137.75
430.958	151.75
431.18	113.75
431.402	92.75
431.624	98.75
431.846	129.75
432.068	144.75
432.29	105.75
432.512	86.75
432.734	85.75
432.956	100.75
433.178	72.75
433.4	97.75
433.622	73.75
433.844	81.75
434.066	84.75
434.287	81.75
434.509	85.75
434.731	89.75
434.953	79.75
435.175	84.75
435.397	96.75
435.618	100.75
435.84	90.75
436.062	104.75
436.284	92.75
436.505	103.75
436.727	100.75
436.949	72.75
437.17	88.75
437.392	84.75
437.614	96.75
437.835	86.75
438.057	86.75
438.278	78.75
438.5	84.75
438.721	90.75
438.943	88.75
439.165	101.75
439.386	106.75
439.608	70.75
439.829	84.75
440.05	78.75
440.272	89.75
440.493	97.75
440.715	102.75
440.936	93.75
441.158	97.75
441.379	100.75
441.6	87.75
441.822	86.75
442.043	106.75
442.264	85.75
442.486	128.75
442.707	163.75
442.928	120.75
443.149	117.75
443.371	156.75
443.592	243.75
443.813	231.75
444.034	129.75
444.255	94.75
444.476	86.75
444.698	89.75
444.919	94.75
445.14	180.75
445.361	194.75
445.582	302.75
445.803	245.75
446.024	124.75
446.245	106.75
446.466	105.75
446.687	82.75
446.908	87.75
447.129	89.75
447.35	88.75
447.571	88.75
447.792	94.75
448.013	77.75
448.234	80.75
448.455	76.75
448.675	83.75
448.896	71.75
449.117	81.75
449.338	91.75
449.559	86.75
449.779	91.75
450	91.75
450.221	97.75
450.442	84.75
450.662	86.75
450.883	86.75
451.104	96.75
451.324	88.75
451.545	88.75
451.766	91.75
451.986	97.75
452.207	95.75
452.428	88.75
452.648	117.75
452.869	96.75
453.089	96.75
453.31	99.75
453.53	89.75
453.751	102.75
453.971	82.75
454.192	85.75
454.412	75.75
454.633	95.75
454.853	87.75
455.073	81.75
455.294	96.75
455.514	97.75
455.734	94.75
455.955	75.75
456.175	84.75
456.395	87.75
456.616	96.75
456.836	89.75
457.056	91.75
457.276	93.75
457.497	88.75
457.717	97.75
457.937	114.75
458.157	129.75
458.377	131.75
458.598	121.75
458.818	124.75
459.038	87.75
459.258	79.75
459.478	85.75
459.698	86.75
459.918	91.75
460.138	84.75
460.358	86.75
460.578	97.75
460.798	122.75
461.018	122.75
461.238	81.75
461.458	78.75
461.678	88.75
461.898	83.75
462.118	91.75
462.338	99.75
462.558	97.75
462.777	94.75
462.997	85.75
463.217	82.75
463.437	85.75
463.657	87.75
463.876	77.75
464.096	84.75
464.316	90.75
464.536	94.75
464.755	93.75
464.975	85.75
465.195	90.75
465.414	79.75
465.634	72.75
465.854	80.75
466.073	91.75
466.293	84.75
466.512	77.75
466.732	76.75
466.951	86.75
467.171	92.75
467.391	80.75
467.61	94.75
467.829	82.75
468.049	76.75
468.268	62.75
468.488	96.75
468.707	99.75
468.927	102.75
469.146	86.75
469.365	90.75
469.585	88.75
469.804	91.75
470.023	84.75
470.243	85.75
470.462	93.75
470.681	79.75
470.901	97.75
471.12	79.75
471.339	80.75
471.558	90.75
471.777	84.75
471.997	75.75
472.216	93.75
472.435	85.75
472.654	76.75
472.873	94.75
473.092	82.75
473.311	95.75
473.53	86.75
473.749	71.75
473.968	80.75
474.187	89.75
474.406	95.75
474.625	92.75
474.844	95.75
475.063	88.75
475.282	86.75
475.501	72.75
475.72	84.75
475.939	97.75
476.158	103.75
476.377	86.75
476.596	77.75
476.814	86.75
477.033	95.75
477.252	88.75
477.471	74.75
477.69	79.75
477.908	80.75
478.127	98.75
478.346	98.75
478.564	95.75
478.783	105.75
479.002	96.75
479.22	87.75
479.439	97.75
479.658	82.75
479.876	87.75
480.095	90.75
480.313	84.75
480.532	91.75
480.751	83.75
480.969	93.75
481.188	99.75
481.406	98.75
481.624	80.75
481.843	85.75
482.061	94.75
482.28	98.75
482.498	86.75
482.717	94.75
482.935	90.75
483.153	87.75
483.372	101.75
483.59	93.75
483.808	101.75
484.027	83.75
484.245	86.75
484.463	78.75
484.681	103.75
484.9	98.75
485.118	95.75
485.336	100.75
485.554	96.75
485.772	89.75
485.99	97.75
486.209	88.75
486.427	90.75
486.645	95.75
486.863	82.75
487.081	94.75
487.299	82.75
487.517	93.75
487.735	110.75
487.953	176.75
488.171	141.75
488.389	104.75
488.607	86.75
488.825	86.75
489.043	88.75
489.261	103.75
489.479	97.75
489.696	83.75
489.914	98.75
490.132	96.75
490.35	99.75
490.568	94.75
490.786	94.75
491.003	87.75
491.221	100.75
491.439	95.75
491.657	102.75
491.874	95.75
492.092	89.75
492.31	83.75
492.527	103.75
492.745	89.75
492.963	86.75
493.18	95.75
493.398	74.75
493.615	116.75
493.833	90.75
494.05	88.75
494.268	93.75
494.485	95.75
494.703	90.75
494.92	90.75
495.138	83.75
495.355	77.75
495.573	98.75
495.79	86.75
496.008	88.75
496.225	95.75
496.442	112.75
496.66	97.75
496.877	90.75
497.094	75.75
497.312	76.75
497.529	83.75
497.746	96.75
497.963	106.75
498.181	92.75
498.398	96.75
498.615	86.75
498.832	96.75
499.049	95.75
499.267	86.75
499.484	91.75
499.701	103.75
499.918	105.75
500.135	91.75
500.352	107.75
500.569	97.75
500.786	84.75
501.003	92.75
501.22	73.75
501.437	88.75
501.654	107.75
501.871	88.75
502.088	84.75
502.305	101.75
502.522	82.75
502.739	92.75
502.956	91.75
503.172	74.75
503.389	88.75
503.606	86.75
503.823	94.75
504.04	114.75
504.256	142.75
504.473	130.75
504.69	117.75
504.907	90.75
505.123	83.75
505.34	87.75
505.557	84.75
505.773	85.75
505.99	88.75
506.207	88.75
506.423	87.75
506.64	95.75
506.856	94.75
507.073	87.75
507.289	86.75
507.506	91.75
507.722	83.75
507.939	96.75
508.155	95.75
508.372	92.75
508.588	89.75
508.805	100.75
509.021	85.75
509.238	79.75
509.454	87.75
509.67	95.75
509.887	96.75
510.103	92.75
510.319	85.75
510.536	83.75
510.752	91.75
510.968	81.75
511.184	77.75
511.401	82.75
511.617	81.75
511.833	95.75
512.049	87.75
512.265	90.75
512.481	97.75
512.698	84.75
512.914	86.75
513.13	96.75
513.346	92.75
513.562	98.75
513.778	99.75
513.994	90.75
514.21	92.75
514.426	105.75
514.642	92.75
514.858	91.75
515.074	78.75
515.29	82.75
515.506	89.75
515.721	78.75
515.937	88.75
516.153	103.75
516.369	93.75
516.585	93.75
516.801	81.75
517.016	104.75
517.232	86.75
