Data from 10100_2_HRD10591_00013.txt Node
Date: Mon Jan 19 14:01:30 EST 2026
User: Yrep
Spectrometer: HR+D1059
Trigger mode: 1
Integration Time (sec): 1.000000E-1
Scans to average: 1
Electric dark correction enabled: true
Nonlinearity correction enabled: false
Boxcar width: 0
XAxis mode: Wavelengths
Number of Pixels in Spectrum: 2048
>>>>>Begin Spectral Data<<<<<
223.165	-14.44
223.4	-14.44
223.635	-14.44
223.869	-18.44
224.104	-19.44
224.338	-18.44
224.573	-20.44
224.808	-4.44
225.042	-3.44
225.277	-11.44
225.511	-1.44
225.746	5.56
225.98	1.56
226.215	15.56
226.449	-4.44
226.683	27.56
226.918	30.56
227.152	35.56
227.387	32.56
227.621	37.56
227.856	49.56
228.09	41.56
228.324	46.56
228.559	55.56
228.793	43.56
229.027	49.56
229.262	62.56
229.496	60.56
229.73	66.56
229.964	75.56
230.199	56.56
230.433	77.56
230.667	81.56
230.901	64.56
231.136	75.56
231.37	69.56
231.604	81.56
231.838	59.56
232.072	63.56
232.306	76.56
232.541	76.56
232.775	67.56
233.009	67.56
233.243	90.56
233.477	85.56
233.711	81.56
233.945	80.56
234.179	76.56
234.413	77.56
234.647	83.56
234.881	84.56
235.115	65.56
235.349	74.56
235.583	84.56
235.817	87.56
236.051	73.56
236.285	79.56
236.519	56.56
236.753	64.56
236.987	80.56
237.221	64.56
237.455	77.56
237.689	85.56
237.922	78.56
238.156	71.56
238.39	73.56
238.624	62.56
238.858	81.56
239.091	78.56
239.325	81.56
239.559	69.56
239.793	77.56
240.027	71.56
240.26	88.56
240.494	77.56
240.728	74.56
240.961	78.56
241.195	65.56
241.429	70.56
241.662	70.56
241.896	71.56
242.13	73.56
242.363	76.56
242.597	69.56
242.83	61.56
243.064	85.56
243.298	73.56
243.531	61.56
243.765	74.56
243.998	57.56
244.232	79.56
244.465	72.56
244.699	76.56
244.932	67.56
245.166	79.56
245.399	76.56
245.633	76.56
245.866	78.56
246.099	72.56
246.333	67.56
246.566	85.56
246.8	83.56
247.033	74.56
247.266	77.56
247.5	83.56
247.733	73.56
247.966	81.56
248.2	76.56
248.433	80.56
248.666	72.56
248.899	83.56
249.133	64.56
249.366	84.56
249.599	80.56
249.832	69.56
250.066	79.56
250.299	77.56
250.532	89.56
250.765	73.56
250.998	68.56
251.231	70.56
251.465	78.56
251.698	74.56
251.931	78.56
252.164	75.56
252.397	80.56
252.63	74.56
252.863	84.56
253.096	78.56
253.329	76.56
253.562	88.56
253.795	79.56
254.028	85.56
254.261	73.56
254.494	74.56
254.727	73.56
254.96	68.56
255.193	75.56
255.426	67.56
255.659	78.56
255.892	79.56
256.124	74.56
256.357	85.56
256.59	73.56
256.823	72.56
257.056	80.56
257.289	76.56
257.521	81.56
257.754	83.56
257.987	89.56
258.22	85.56
258.452	75.56
258.685	83.56
258.918	77.56
259.151	52.56
259.383	83.56
259.616	77.56
259.849	81.56
260.081	83.56
260.314	68.56
260.547	74.56
260.779	70.56
261.012	87.56
261.244	77.56
261.477	88.56
261.71	83.56
261.942	84.56
262.175	73.56
262.407	71.56
262.64	78.56
262.872	80.56
263.105	87.56
263.337	84.56
263.57	74.56
263.802	61.56
264.035	97.56
264.267	81.56
264.499	70.56
264.732	85.56
264.964	65.56
265.197	79.56
265.429	67.56
265.661	83.56
265.894	84.56
266.126	87.56
266.358	73.56
266.591	95.56
266.823	91.56
267.055	78.56
267.287	87.56
267.52	87.56
267.752	64.56
267.984	83.56
268.216	74.56
268.448	75.56
268.681	71.56
268.913	88.56
269.145	84.56
269.377	77.56
269.609	78.56
269.841	76.56
270.073	80.56
270.306	67.56
270.538	72.56
270.77	77.56
271.002	74.56
271.234	91.56
271.466	96.56
271.698	90.56
271.93	69.56
272.162	85.56
272.394	96.56
272.626	57.56
272.858	72.56
273.09	85.56
273.322	79.56
273.553	72.56
273.785	94.56
274.017	84.56
274.249	89.56
274.481	75.56
274.713	85.56
274.945	90.56
275.176	71.56
275.408	61.56
275.64	74.56
275.872	71.56
276.104	69.56
276.335	87.56
276.567	79.56
276.799	84.56
277.031	82.56
277.262	87.56
277.494	61.56
277.726	81.56
277.957	80.56
278.189	89.56
278.421	87.56
278.652	89.56
278.884	88.56
279.115	82.56
279.347	93.56
279.579	84.56
279.81	69.56
280.042	74.56
280.273	81.56
280.505	78.56
280.736	90.56
280.968	78.56
281.199	80.56
281.431	77.56
281.662	77.56
281.894	92.56
282.125	81.56
282.356	85.56
282.588	84.56
282.819	82.56
283.051	81.56
283.282	90.56
283.513	93.56
283.745	85.56
283.976	84.56
284.207	78.56
284.439	77.56
284.67	81.56
284.901	81.56
285.132	80.56
285.364	80.56
285.595	88.56
285.826	77.56
286.057	91.56
286.288	90.56
286.52	78.56
286.751	74.56
286.982	85.56
287.213	75.56
287.444	76.56
287.675	73.56
287.906	89.56
288.138	80.56
288.369	76.56
288.6	81.56
288.831	66.56
289.062	87.56
289.293	71.56
289.524	87.56
289.755	79.56
289.986	87.56
290.217	83.56
290.448	88.56
290.679	77.56
290.91	81.56
291.141	87.56
291.371	67.56
291.602	86.56
291.833	81.56
292.064	74.56
292.295	73.56
292.526	68.56
292.757	80.56
292.987	84.56
293.218	78.56
293.449	88.56
293.68	76.56
293.91	84.56
294.141	80.56
294.372	73.56
294.603	71.56
294.833	76.56
295.064	87.56
295.295	77.56
295.525	87.56
295.756	104.56
295.987	87.56
296.217	97.56
296.448	79.56
296.679	70.56
296.909	77.56
297.14	83.56
297.37	88.56
297.601	88.56
297.831	72.56
298.062	76.56
298.292	71.56
298.523	86.56
298.753	69.56
298.984	90.56
299.214	81.56
299.445	76.56
299.675	84.56
299.905	67.56
300.136	88.56
300.366	79.56
300.597	92.56
300.827	84.56
301.057	97.56
301.288	83.56
301.518	89.56
301.748	83.56
301.979	101.56
302.209	89.56
302.439	88.56
302.669	93.56
302.9	86.56
303.13	91.56
303.36	91.56
303.59	81.56
303.82	79.56
304.051	78.56
304.281	78.56
304.511	91.56
304.741	77.56
304.971	74.56
305.201	76.56
305.431	80.56
305.661	97.56
305.891	72.56
306.121	73.56
306.352	75.56
306.582	96.56
306.812	77.56
307.042	80.56
307.272	81.56
307.502	74.56
307.731	92.56
307.961	95.56
308.191	96.56
308.421	96.56
308.651	89.56
308.881	90.56
309.111	88.56
309.341	85.56
309.571	86.56
309.8	92.56
310.03	89.56
310.26	71.56
310.49	76.56
310.72	94.56
310.949	102.56
311.179	85.56
311.409	73.56
311.639	88.56
311.868	94.56
312.098	95.56
312.328	86.56
312.557	95.56
312.787	99.56
313.017	77.56
313.246	98.56
313.476	94.56
313.706	79.56
313.935	74.56
314.165	77.56
314.394	76.56
314.624	76.56
314.853	90.56
315.083	94.56
315.312	79.56
315.542	72.56
315.771	86.56
316.001	79.56
316.23	94.56
316.46	68.56
316.689	80.56
316.919	89.56
317.148	94.56
317.377	90.56
317.607	98.56
317.836	85.56
318.065	89.56
318.295	92.56
318.524	88.56
318.753	97.56
318.983	87.56
319.212	69.56
319.441	78.56
319.67	103.56
319.9	87.56
320.129	83.56
320.358	89.56
320.587	79.56
320.816	86.56
321.046	72.56
321.275	92.56
321.504	78.56
321.733	85.56
321.962	86.56
322.191	82.56
322.42	90.56
322.649	79.56
322.878	93.56
323.108	78.56
323.337	79.56
323.566	73.56
323.795	77.56
324.024	87.56
324.253	84.56
324.482	74.56
324.71	76.56
324.939	90.56
325.168	81.56
325.397	76.56
325.626	73.56
325.855	95.56
326.084	91.56
326.313	74.56
326.542	92.56
326.77	76.56
326.999	80.56
327.228	86.56
327.457	83.56
327.686	74.56
327.914	95.56
328.143	85.56
328.372	80.56
328.6	77.56
328.829	79.56
329.058	79.56
329.287	78.56
329.515	99.56
329.744	60.56
329.972	65.56
330.201	86.56
330.43	94.56
330.658	82.56
330.887	89.56
331.115	74.56
331.344	76.56
331.572	97.56
331.801	91.56
332.03	89.56
332.258	81.56
332.486	78.56
332.715	76.56
332.943	92.56
333.172	72.56
333.4	81.56
333.629	83.56
333.857	77.56
334.085	93.56
334.314	78.56
334.542	88.56
334.771	93.56
334.999	86.56
335.227	96.56
335.455	85.56
335.684	85.56
335.912	81.56
336.14	98.56
336.369	95.56
336.597	74.56
336.825	84.56
337.053	86.56
337.281	86.56
337.51	81.56
337.738	77.56
337.966	81.56
338.194	91.56
338.422	101.56
338.65	73.56
338.878	63.56
339.106	76.56
339.334	83.56
339.562	88.56
339.79	79.56
340.018	79.56
340.246	73.56
340.474	76.56
340.702	69.56
340.93	77.56
341.158	68.56
341.386	83.56
341.614	93.56
341.842	86.56
342.07	65.56
342.298	87.56
342.526	83.56
342.754	87.56
342.981	85.56
343.209	65.56
343.437	93.56
343.665	88.56
343.893	84.56
344.12	104.56
344.348	79.56
344.576	79.56
344.804	91.56
345.031	74.56
345.259	95.56
345.487	90.56
345.714	85.56
345.942	81.56
346.17	79.56
346.397	72.56
346.625	72.56
346.853	74.56
347.08	75.56
347.308	83.56
347.535	91.56
347.763	93.56
347.99	98.56
348.218	89.56
348.445	82.56
348.673	83.56
348.9	88.56
349.128	91.56
349.355	82.56
349.583	96.56
349.81	80.56
350.037	88.56
350.265	92.56
350.492	84.56
350.72	77.56
350.947	76.56
351.174	65.56
351.402	72.56
351.629	101.56
351.856	88.56
352.083	91.56
352.311	90.56
352.538	78.56
352.765	88.56
352.992	104.56
353.22	103.56
353.447	75.56
353.674	92.56
353.901	76.56
354.128	87.56
354.355	77.56
354.583	82.56
354.81	82.56
355.037	80.56
355.264	80.56
355.491	83.56
355.718	103.56
355.945	95.56
356.172	77.56
356.399	87.56
356.626	78.56
356.853	92.56
357.08	71.56
357.307	73.56
357.534	88.56
357.761	89.56
357.988	89.56
358.215	80.56
358.441	99.56
358.668	83.56
358.895	92.56
359.122	88.56
359.349	83.56
359.576	83.56
359.802	77.56
360.029	66.56
360.256	87.56
360.483	76.56
360.709	85.56
360.936	87.56
361.163	80.56
361.39	81.56
361.616	88.56
361.843	77.56
362.07	76.56
362.296	91.56
362.523	87.56
362.749	98.56
362.976	102.56
363.203	108.56
363.429	78.56
363.656	77.56
363.882	69.56
364.109	94.56
364.335	99.56
364.562	110.56
364.788	95.56
365.015	104.56
365.241	85.56
365.468	87.56
365.694	80.56
365.92	86.56
366.147	80.56
366.373	84.56
366.599	75.56
366.826	74.56
367.052	80.56
367.278	92.56
367.505	77.56
367.731	89.56
367.957	87.56
368.184	73.56
368.41	85.56
368.636	84.56
368.862	84.56
369.089	72.56
369.315	81.56
369.541	72.56
369.767	91.56
369.993	89.56
370.219	87.56
370.445	75.56
370.672	95.56
370.898	83.56
371.124	97.56
371.35	99.56
371.576	68.56
371.802	80.56
372.028	86.56
372.254	102.56
372.48	93.56
372.706	90.56
372.932	88.56
373.158	81.56
373.384	96.56
373.61	101.56
373.835	91.56
374.061	95.56
374.287	86.56
374.513	85.56
374.739	83.56
374.965	87.56
375.191	94.56
375.416	80.56
375.642	59.56
375.868	92.56
376.094	80.56
376.319	83.56
376.545	95.56
376.771	93.56
376.997	74.56
377.222	82.56
377.448	100.56
377.674	97.56
377.899	104.56
378.125	82.56
378.35	92.56
378.576	87.56
378.802	66.56
379.027	95.56
379.253	85.56
379.478	86.56
379.704	81.56
379.929	73.56
380.155	86.56
380.38	92.56
380.606	82.56
380.831	63.56
381.057	91.56
381.282	89.56
381.507	92.56
381.733	96.56
381.958	91.56
382.184	88.56
382.409	87.56
382.634	95.56
382.86	88.56
383.085	100.56
383.31	96.56
383.535	83.56
383.761	97.56
383.986	95.56
384.211	96.56
384.436	87.56
384.662	91.56
384.887	93.56
385.112	87.56
385.337	89.56
385.562	86.56
385.787	97.56
386.013	95.56
386.238	88.56
386.463	81.56
386.688	114.56
386.913	86.56
387.138	87.56
387.363	99.56
387.588	92.56
387.813	79.56
388.038	81.56
388.263	76.56
388.488	90.56
388.713	77.56
388.938	80.56
389.163	89.56
389.387	75.56
389.612	91.56
389.837	94.56
390.062	99.56
390.287	84.56
390.512	77.56
390.736	83.56
390.961	80.56
391.186	86.56
391.411	75.56
391.636	100.56
391.86	95.56
392.085	88.56
392.31	77.56
392.534	105.56
392.759	91.56
392.984	107.56
393.208	187.56
393.433	271.56
393.658	212.56
393.882	116.56
394.107	97.56
394.331	101.56
394.556	86.56
394.78	90.56
395.005	95.56
395.229	88.56
395.454	93.56
395.678	87.56
395.903	112.56
396.127	112.56
396.352	118.56
396.576	120.56
396.801	195.56
397.025	220.56
397.249	128.56
397.474	104.56
397.698	93.56
397.922	80.56
398.147	92.56
398.371	96.56
398.595	90.56
398.82	83.56
399.044	81.56
399.268	67.56
399.492	83.56
399.717	89.56
399.941	87.56
400.165	87.56
400.389	82.56
400.613	95.56
400.837	91.56
401.062	84.56
401.286	70.56
401.51	84.56
401.734	73.56
401.958	89.56
402.182	87.56
402.406	63.56
402.63	77.56
402.854	94.56
403.078	76.56
403.302	85.56
403.526	93.56
403.75	84.56
403.974	81.56
404.198	80.56
404.422	77.56
404.645	91.56
404.869	96.56
405.093	95.56
405.317	88.56
405.541	75.56
405.765	77.56
405.988	80.56
406.212	99.56
406.436	74.56
406.66	83.56
406.883	77.56
407.107	60.56
407.331	98.56
407.555	94.56
407.778	85.56
408.002	97.56
408.226	83.56
408.449	83.56
408.673	82.56
408.896	96.56
409.12	81.56
409.344	94.56
409.567	117.56
409.791	86.56
410.014	90.56
410.238	74.56
410.461	86.56
410.685	85.56
410.908	93.56
411.132	83.56
411.355	75.56
411.578	84.56
411.802	76.56
412.025	75.56
412.249	89.56
412.472	80.56
412.695	82.56
412.919	87.56
413.142	67.56
413.365	89.56
413.589	73.56
413.812	95.56
414.035	81.56
414.258	84.56
414.482	68.56
414.705	76.56
414.928	79.56
415.151	79.56
415.374	87.56
415.597	84.56
415.821	81.56
416.044	78.56
416.267	78.56
416.49	97.56
416.713	78.56
416.936	93.56
417.159	83.56
417.382	95.56
417.605	81.56
417.828	69.56
418.051	83.56
418.274	99.56
418.497	75.56
418.72	76.56
418.943	78.56
419.166	75.56
419.389	92.56
419.611	88.56
419.834	94.56
420.057	84.56
420.28	85.56
420.503	93.56
420.726	83.56
420.948	89.56
421.171	86.56
421.394	107.56
421.617	109.56
421.839	116.56
422.062	101.56
422.285	150.56
422.507	219.56
422.73	329.56
422.953	299.56
423.175	181.56
423.398	132.56
423.621	111.56
423.843	94.56
424.066	93.56
424.288	86.56
424.511	79.56
424.733	91.56
424.956	91.56
425.178	71.56
425.401	93.56
425.623	95.56
425.846	79.56
426.068	93.56
426.291	79.56
426.513	88.56
426.735	90.56
426.958	83.56
427.18	91.56
427.402	98.56
427.625	90.56
427.847	73.56
428.069	107.56
428.292	121.56
428.514	132.56
428.736	101.56
428.958	123.56
429.181	120.56
429.403	83.56
429.625	85.56
429.847	120.56
430.069	132.56
430.292	153.56
430.514	132.56
430.736	124.56
430.958	129.56
431.18	97.56
431.402	85.56
431.624	92.56
431.846	101.56
432.068	124.56
432.29	87.56
432.512	85.56
432.734	80.56
432.956	92.56
433.178	79.56
433.4	72.56
433.622	81.56
433.844	85.56
434.066	94.56
434.287	70.56
434.509	91.56
434.731	95.56
434.953	90.56
435.175	89.56
435.397	83.56
435.618	92.56
435.84	80.56
436.062	84.56
436.284	93.56
436.505	77.56
436.727	104.56
436.949	90.56
437.17	76.56
437.392	95.56
437.614	101.56
437.835	79.56
438.057	84.56
438.278	79.56
438.5	88.56
438.721	91.56
438.943	91.56
439.165	93.56
439.386	85.56
439.608	87.56
439.829	81.56
440.05	93.56
440.272	91.56
440.493	88.56
440.715	88.56
440.936	83.56
441.158	74.56
441.379	75.56
441.6	91.56
441.822	89.56
442.043	79.56
442.264	93.56
442.486	113.56
442.707	155.56
442.928	123.56
443.149	108.56
443.371	132.56
443.592	173.56
443.813	181.56
444.034	109.56
444.255	80.56
444.476	77.56
444.698	88.56
444.919	83.56
445.14	174.56
445.361	189.56
445.582	222.56
445.803	191.56
446.024	105.56
446.245	87.56
446.466	83.56
446.687	88.56
446.908	81.56
447.129	85.56
447.35	84.56
447.571	82.56
447.792	85.56
448.013	96.56
448.234	92.56
448.455	72.56
448.675	91.56
448.896	62.56
449.117	83.56
449.338	96.56
449.559	79.56
449.779	68.56
450	78.56
450.221	68.56
450.442	91.56
450.662	94.56
450.883	74.56
451.104	74.56
451.324	94.56
451.545	95.56
451.766	85.56
451.986	83.56
452.207	84.56
452.428	84.56
452.648	91.56
452.869	92.56
453.089	85.56
453.31	93.56
453.53	80.56
453.751	81.56
453.971	80.56
454.192	86.56
454.412	69.56
454.633	80.56
454.853	87.56
455.073	74.56
455.294	77.56
455.514	83.56
455.734	87.56
455.955	96.56
456.175	71.56
456.395	87.56
456.616	80.56
456.836	79.56
457.056	78.56
457.276	77.56
457.497	79.56
457.717	76.56
457.937	100.56
458.157	109.56
458.377	117.56
458.598	109.56
458.818	112.56
459.038	88.56
459.258	72.56
459.478	85.56
459.698	88.56
459.918	75.56
460.138	91.56
460.358	89.56
460.578	88.56
460.798	112.56
461.018	110.56
461.238	87.56
461.458	86.56
461.678	95.56
461.898	74.56
462.118	78.56
462.338	80.56
462.558	81.56
462.777	86.56
462.997	74.56
463.217	87.56
463.437	82.56
463.657	88.56
463.876	86.56
464.096	79.56
464.316	73.56
464.536	83.56
464.755	68.56
464.975	55.56
465.195	81.56
465.414	72.56
465.634	87.56
465.854	77.56
466.073	81.56
466.293	79.56
466.512	87.56
466.732	91.56
466.951	80.56
467.171	81.56
467.391	87.56
467.61	87.56
467.829	82.56
468.049	88.56
468.268	85.56
468.488	92.56
468.707	87.56
468.927	65.56
469.146	86.56
469.365	85.56
469.585	83.56
469.804	102.56
470.023	78.56
470.243	77.56
470.462	95.56
470.681	87.56
470.901	73.56
471.12	80.56
471.339	86.56
471.558	87.56
471.777	93.56
471.997	85.56
472.216	87.56
472.435	83.56
472.654	71.56
472.873	87.56
473.092	79.56
473.311	94.56
473.53	90.56
473.749	71.56
473.968	73.56
474.187	83.56
474.406	95.56
474.625	79.56
474.844	92.56
475.063	83.56
475.282	81.56
475.501	73.56
475.72	91.56
475.939	87.56
476.158	92.56
476.377	85.56
476.596	74.56
476.814	74.56
477.033	69.56
477.252	98.56
477.471	88.56
477.69	85.56
477.908	88.56
478.127	73.56
478.346	92.56
478.564	95.56
478.783	70.56
479.002	60.56
479.22	83.56
479.439	91.56
479.658	91.56
479.876	96.56
480.095	86.56
480.313	77.56
480.532	89.56
480.751	92.56
480.969	92.56
481.188	74.56
481.406	76.56
481.624	87.56
481.843	78.56
482.061	77.56
482.28	80.56
482.498	86.56
482.717	64.56
482.935	71.56
483.153	82.56
483.372	91.56
483.59	104.56
483.808	91.56
484.027	86.56
484.245	71.56
484.463	72.56
484.681	87.56
484.9	85.56
485.118	85.56
485.336	78.56
485.554	87.56
485.772	75.56
485.99	72.56
486.209	90.56
486.427	82.56
486.645	77.56
486.863	83.56
487.081	100.56
487.299	105.56
487.517	92.56
487.735	111.56
487.953	153.56
488.171	122.56
488.389	99.56
488.607	89.56
488.825	78.56
489.043	92.56
489.261	82.56
489.479	72.56
489.696	96.56
489.914	77.56
490.132	88.56
490.35	80.56
490.568	91.56
490.786	91.56
491.003	84.56
491.221	74.56
491.439	87.56
491.657	91.56
491.874	72.56
492.092	85.56
492.31	80.56
492.527	89.56
492.745	77.56
492.963	78.56
493.18	80.56
493.398	100.56
493.615	84.56
493.833	84.56
494.05	86.56
494.268	85.56
494.485	84.56
494.703	85.56
494.92	89.56
495.138	88.56
495.355	95.56
495.573	89.56
495.79	73.56
496.008	79.56
496.225	84.56
496.442	98.56
496.66	97.56
496.877	87.56
497.094	84.56
497.312	87.56
497.529	93.56
497.746	91.56
497.963	85.56
498.181	74.56
498.398	85.56
498.615	82.56
498.832	88.56
499.049	86.56
499.267	71.56
499.484	101.56
499.701	103.56
499.918	79.56
500.135	91.56
500.352	75.56
500.569	88.56
500.786	85.56
501.003	67.56
501.22	85.56
501.437	95.56
501.654	79.56
501.871	89.56
502.088	88.56
502.305	88.56
502.522	98.56
502.739	81.56
502.956	88.56
503.172	88.56
503.389	70.56
503.606	87.56
503.823	95.56
504.04	105.56
504.256	125.56
504.473	118.56
504.69	93.56
504.907	93.56
505.123	93.56
505.34	99.56
505.557	80.56
505.773	83.56
505.99	91.56
506.207	85.56
506.423	75.56
506.64	93.56
506.856	99.56
507.073	99.56
507.289	74.56
507.506	83.56
507.722	95.56
507.939	79.56
508.155	86.56
508.372	81.56
508.588	80.56
508.805	96.56
509.021	82.56
509.238	83.56
509.454	88.56
509.67	65.56
509.887	84.56
510.103	87.56
510.319	83.56
510.536	74.56
510.752	102.56
510.968	82.56
511.184	84.56
511.401	77.56
511.617	102.56
511.833	88.56
512.049	86.56
512.265	84.56
512.481	87.56
512.698	70.56
512.914	84.56
513.13	91.56
513.346	99.56
513.562	88.56
513.778	81.56
513.994	73.56
514.21	84.56
514.426	83.56
514.642	99.56
514.858	79.56
515.074	75.56
515.29	81.56
515.506	93.56
515.721	88.56
515.937	98.56
516.153	80.56
516.369	95.56
516.585	75.56
516.801	89.56
517.016	87.56
517.232	80.56
517.448	97.56
517.664	88.56
517.879	92.56
518.095	85.56
518.311	95.56
518.527	94.56
518.742	94.56
518.958	136.56
