Data from 10100_2_HRD10591_00034.txt Node
Date: Mon Jan 19 14:01:41 EST 2026
User: Yrep
Spectrometer: HR+D1059
Trigger mode: 1
Integration Time (sec): 1.000000E-1
Scans to average: 1
Electric dark correction enabled: true
Nonlinearity correction enabled: false
Boxcar width: 0
XAxis mode: Wavelengths
Number of Pixels in Spectrum: 2048
>>>>>Begin Spectral Data<<<<<
223.165	-18.62
223.4	-18.62
223.635	-18.62
223.869	-20.62
224.104	-18.62
224.338	-30.62
224.573	-20.62
224.808	-7.62
225.042	-8.62
225.277	14.38
225.511	4.38
225.746	10.38
225.98	-0.62
226.215	13.38
226.449	20.38
226.683	15.38
226.918	23.38
227.152	24.38
227.387	33.38
227.621	38.38
227.856	46.38
228.09	34.38
228.324	53.38
228.559	45.38
228.793	52.38
229.027	74.38
229.262	57.38
229.496	63.38
229.73	65.38
229.964	65.38
230.199	69.38
230.433	75.38
230.667	84.38
230.901	77.38
231.136	85.38
231.37	86.38
231.604	76.38
231.838	77.38
232.072	76.38
232.306	74.38
232.541	76.38
232.775	71.38
233.009	77.38
233.243	80.38
233.477	80.38
233.711	76.38
233.945	79.38
234.179	80.38
234.413	70.38
234.647	85.38
234.881	64.38
235.115	63.38
235.349	82.38
235.583	73.38
235.817	65.38
236.051	76.38
236.285	62.38
236.519	65.38
236.753	77.38
236.987	82.38
237.221	73.38
237.455	79.38
237.689	80.38
237.922	69.38
238.156	69.38
238.39	77.38
238.624	77.38
238.858	67.38
239.091	71.38
239.325	78.38
239.559	79.38
239.793	84.38
240.027	75.38
240.26	72.38
240.494	77.38
240.728	71.38
240.961	67.38
241.195	74.38
241.429	82.38
241.662	75.38
241.896	69.38
242.13	69.38
242.363	77.38
242.597	74.38
242.83	69.38
243.064	70.38
243.298	80.38
243.531	83.38
243.765	73.38
243.998	74.38
244.232	92.38
244.465	79.38
244.699	67.38
244.932	69.38
245.166	69.38
245.399	73.38
245.633	87.38
245.866	63.38
246.099	77.38
246.333	72.38
246.566	78.38
246.8	71.38
247.033	81.38
247.266	79.38
247.5	68.38
247.733	76.38
247.966	79.38
248.2	77.38
248.433	66.38
248.666	71.38
248.899	71.38
249.133	67.38
249.366	85.38
249.599	96.38
249.832	77.38
250.066	76.38
250.299	73.38
250.532	85.38
250.765	79.38
250.998	74.38
251.231	73.38
251.465	74.38
251.698	91.38
251.931	79.38
252.164	65.38
252.397	77.38
252.63	83.38
252.863	71.38
253.096	82.38
253.329	77.38
253.562	79.38
253.795	74.38
254.028	82.38
254.261	70.38
254.494	80.38
254.727	72.38
254.96	79.38
255.193	68.38
255.426	83.38
255.659	74.38
255.892	81.38
256.124	72.38
256.357	88.38
256.59	65.38
256.823	89.38
257.056	84.38
257.289	64.38
257.521	90.38
257.754	72.38
257.987	69.38
258.22	86.38
258.452	75.38
258.685	67.38
258.918	72.38
259.151	78.38
259.383	82.38
259.616	73.38
259.849	91.38
260.081	65.38
260.314	71.38
260.547	77.38
260.779	71.38
261.012	88.38
261.244	88.38
261.477	83.38
261.71	64.38
261.942	71.38
262.175	65.38
262.407	79.38
262.64	81.38
262.872	85.38
263.105	64.38
263.337	89.38
263.57	75.38
263.802	85.38
264.035	77.38
264.267	68.38
264.499	71.38
264.732	77.38
264.964	79.38
265.197	84.38
265.429	73.38
265.661	78.38
265.894	76.38
266.126	78.38
266.358	84.38
266.591	74.38
266.823	84.38
267.055	73.38
267.287	91.38
267.52	83.38
267.752	86.38
267.984	89.38
268.216	81.38
268.448	80.38
268.681	69.38
268.913	76.38
269.145	83.38
269.377	85.38
269.609	82.38
269.841	69.38
270.073	66.38
270.306	70.38
270.538	71.38
270.77	90.38
271.002	83.38
271.234	73.38
271.466	82.38
271.698	87.38
271.93	88.38
272.162	79.38
272.394	96.38
272.626	79.38
272.858	82.38
273.09	80.38
273.322	86.38
273.553	81.38
273.785	79.38
274.017	87.38
274.249	91.38
274.481	78.38
274.713	71.38
274.945	79.38
275.176	79.38
275.408	81.38
275.64	81.38
275.872	76.38
276.104	79.38
276.335	83.38
276.567	73.38
276.799	62.38
277.031	69.38
277.262	75.38
277.494	93.38
277.726	91.38
277.957	68.38
278.189	55.38
278.421	81.38
278.652	84.38
278.884	71.38
279.115	100.38
279.347	90.38
279.579	70.38
279.81	85.38
280.042	79.38
280.273	88.38
280.505	88.38
280.736	89.38
280.968	70.38
281.199	77.38
281.431	81.38
281.662	75.38
281.894	92.38
282.125	69.38
282.356	96.38
282.588	81.38
282.819	77.38
283.051	76.38
283.282	83.38
283.513	79.38
283.745	78.38
283.976	83.38
284.207	74.38
284.439	86.38
284.67	87.38
284.901	86.38
285.132	84.38
285.364	78.38
285.595	72.38
285.826	82.38
286.057	76.38
286.288	73.38
286.52	80.38
286.751	88.38
286.982	74.38
287.213	83.38
287.444	85.38
287.675	94.38
287.906	84.38
288.138	92.38
288.369	71.38
288.6	76.38
288.831	83.38
289.062	79.38
289.293	85.38
289.524	92.38
289.755	87.38
289.986	84.38
290.217	67.38
290.448	86.38
290.679	85.38
290.91	83.38
291.141	91.38
291.371	74.38
291.602	91.38
291.833	91.38
292.064	65.38
292.295	72.38
292.526	85.38
292.757	86.38
292.987	94.38
293.218	82.38
293.449	80.38
293.68	85.38
293.91	85.38
294.141	84.38
294.372	84.38
294.603	80.38
294.833	76.38
295.064	82.38
295.295	81.38
295.525	81.38
295.756	91.38
295.987	67.38
296.217	87.38
296.448	88.38
296.679	98.38
296.909	91.38
297.14	95.38
297.37	88.38
297.601	77.38
297.831	85.38
298.062	84.38
298.292	80.38
298.523	84.38
298.753	87.38
298.984	81.38
299.214	80.38
299.445	86.38
299.675	103.38
299.905	82.38
300.136	82.38
300.366	80.38
300.597	77.38
300.827	85.38
301.057	83.38
301.288	74.38
301.518	80.38
301.748	86.38
301.979	80.38
302.209	70.38
302.439	79.38
302.669	87.38
302.9	85.38
303.13	83.38
303.36	87.38
303.59	89.38
303.82	79.38
304.051	82.38
304.281	76.38
304.511	93.38
304.741	69.38
304.971	80.38
305.201	79.38
305.431	74.38
305.661	84.38
305.891	74.38
306.121	78.38
306.352	62.38
306.582	83.38
306.812	91.38
307.042	91.38
307.272	81.38
307.502	86.38
307.731	105.38
307.961	81.38
308.191	84.38
308.421	80.38
308.651	84.38
308.881	77.38
309.111	80.38
309.341	79.38
309.571	83.38
309.8	85.38
310.03	76.38
310.26	66.38
310.49	75.38
310.72	71.38
310.949	77.38
311.179	79.38
311.409	94.38
311.639	77.38
311.868	72.38
312.098	72.38
312.328	84.38
312.557	76.38
312.787	86.38
313.017	83.38
313.246	73.38
313.476	86.38
313.706	82.38
313.935	76.38
314.165	98.38
314.394	80.38
314.624	82.38
314.853	91.38
315.083	77.38
315.312	83.38
315.542	89.38
315.771	94.38
316.001	71.38
316.23	81.38
316.46	87.38
316.689	91.38
316.919	91.38
317.148	77.38
317.377	89.38
317.607	87.38
317.836	78.38
318.065	92.38
318.295	85.38
318.524	80.38
318.753	79.38
318.983	80.38
319.212	86.38
319.441	61.38
319.67	89.38
319.9	87.38
320.129	81.38
320.358	90.38
320.587	76.38
320.816	76.38
321.046	96.38
321.275	85.38
321.504	72.38
321.733	84.38
321.962	95.38
322.191	81.38
322.42	72.38
322.649	88.38
322.878	77.38
323.108	83.38
323.337	86.38
323.566	80.38
323.795	83.38
324.024	72.38
324.253	73.38
324.482	92.38
324.71	92.38
324.939	74.38
325.168	86.38
325.397	82.38
325.626	75.38
325.855	83.38
326.084	92.38
326.313	87.38
326.542	91.38
326.77	77.38
326.999	80.38
327.228	72.38
327.457	81.38
327.686	77.38
327.914	97.38
328.143	78.38
328.372	92.38
328.6	79.38
328.829	77.38
329.058	88.38
329.287	69.38
329.515	85.38
329.744	83.38
329.972	92.38
330.201	80.38
330.43	88.38
330.658	76.38
330.887	72.38
331.115	95.38
331.344	70.38
331.572	83.38
331.801	77.38
332.03	77.38
332.258	101.38
332.486	88.38
332.715	85.38
332.943	85.38
333.172	96.38
333.4	87.38
333.629	93.38
333.857	71.38
334.085	84.38
334.314	91.38
334.542	72.38
334.771	73.38
334.999	82.38
335.227	101.38
335.455	99.38
335.684	84.38
335.912	78.38
336.14	79.38
336.369	84.38
336.597	74.38
336.825	83.38
337.053	73.38
337.281	85.38
337.51	86.38
337.738	71.38
337.966	91.38
338.194	84.38
338.422	62.38
338.65	80.38
338.878	68.38
339.106	80.38
339.334	79.38
339.562	90.38
339.79	81.38
340.018	79.38
340.246	76.38
340.474	77.38
340.702	80.38
340.93	86.38
341.158	85.38
341.386	85.38
341.614	77.38
341.842	84.38
342.07	69.38
342.298	97.38
342.526	70.38
342.754	94.38
342.981	89.38
343.209	84.38
343.437	87.38
343.665	74.38
343.893	78.38
344.12	85.38
344.348	85.38
344.576	64.38
344.804	82.38
345.031	68.38
345.259	79.38
345.487	81.38
345.714	84.38
345.942	84.38
346.17	79.38
346.397	87.38
346.625	77.38
346.853	96.38
347.08	72.38
347.308	91.38
347.535	109.38
347.763	81.38
347.99	79.38
348.218	77.38
348.445	77.38
348.673	90.38
348.9	90.38
349.128	86.38
349.355	76.38
349.583	96.38
349.81	78.38
350.037	67.38
350.265	75.38
350.492	86.38
350.72	79.38
350.947	79.38
351.174	95.38
351.402	89.38
351.629	76.38
351.856	96.38
352.083	86.38
352.311	81.38
352.538	73.38
352.765	81.38
352.992	87.38
353.22	69.38
353.447	93.38
353.674	90.38
353.901	87.38
354.128	76.38
354.355	83.38
354.583	93.38
354.81	82.38
355.037	73.38
355.264	90.38
355.491	78.38
355.718	83.38
355.945	71.38
356.172	82.38
356.399	89.38
356.626	69.38
356.853	67.38
357.08	89.38
357.307	92.38
357.534	77.38
357.761	87.38
357.988	83.38
358.215	85.38
358.441	80.38
358.668	80.38
358.895	73.38
359.122	85.38
359.349	85.38
359.576	76.38
359.802	75.38
360.029	91.38
360.256	71.38
360.483	89.38
360.709	85.38
360.936	87.38
361.163	81.38
361.39	77.38
361.616	89.38
361.843	75.38
362.07	109.38
362.296	84.38
362.523	84.38
362.749	77.38
362.976	68.38
363.203	88.38
363.429	78.38
363.656	74.38
363.882	84.38
364.109	86.38
364.335	77.38
364.562	93.38
364.788	92.38
365.015	103.38
365.241	88.38
365.468	81.38
365.694	82.38
365.92	78.38
366.147	83.38
366.373	65.38
366.599	74.38
366.826	93.38
367.052	83.38
367.278	73.38
367.505	72.38
367.731	99.38
367.957	78.38
368.184	99.38
368.41	85.38
368.636	86.38
368.862	81.38
369.089	88.38
369.315	88.38
369.541	80.38
369.767	75.38
369.993	87.38
370.219	64.38
370.445	86.38
370.672	94.38
370.898	70.38
371.124	78.38
371.35	81.38
371.576	92.38
371.802	81.38
372.028	83.38
372.254	89.38
372.48	74.38
372.706	73.38
372.932	88.38
373.158	86.38
373.384	72.38
373.61	72.38
373.835	79.38
374.061	75.38
374.287	67.38
374.513	83.38
374.739	82.38
374.965	81.38
375.191	86.38
375.416	76.38
375.642	88.38
375.868	83.38
376.094	74.38
376.319	87.38
376.545	91.38
376.771	87.38
376.997	77.38
377.222	87.38
377.448	74.38
377.674	71.38
377.899	73.38
378.125	82.38
378.35	92.38
378.576	89.38
378.802	77.38
379.027	82.38
379.253	84.38
379.478	84.38
379.704	72.38
379.929	86.38
380.155	89.38
380.38	77.38
380.606	79.38
380.831	94.38
381.057	84.38
381.282	79.38
381.507	86.38
381.733	84.38
381.958	86.38
382.184	94.38
382.409	94.38
382.634	80.38
382.86	86.38
383.085	72.38
383.31	76.38
383.535	67.38
383.761	95.38
383.986	77.38
384.211	83.38
384.436	78.38
384.662	85.38
384.887	70.38
385.112	89.38
385.337	77.38
385.562	88.38
385.787	72.38
386.013	88.38
386.238	84.38
386.463	92.38
386.688	114.38
386.913	81.38
387.138	78.38
387.363	81.38
387.588	72.38
387.813	97.38
388.038	87.38
388.263	87.38
388.488	87.38
388.713	88.38
388.938	89.38
389.163	76.38
389.387	78.38
389.612	84.38
389.837	101.38
390.062	80.38
390.287	79.38
390.512	77.38
390.736	82.38
390.961	86.38
391.186	70.38
391.411	76.38
391.636	85.38
391.86	78.38
392.085	91.38
392.31	88.38
392.534	77.38
392.759	80.38
392.984	95.38
393.208	127.38
393.433	132.38
393.658	100.38
393.882	91.38
394.107	85.38
394.331	92.38
394.556	87.38
394.78	92.38
395.005	74.38
395.229	77.38
395.454	83.38
395.678	79.38
395.903	100.38
396.127	91.38
396.352	77.38
396.576	102.38
396.801	124.38
397.025	108.38
397.249	93.38
397.474	78.38
397.698	76.38
397.922	77.38
398.147	80.38
398.371	91.38
398.595	63.38
398.82	79.38
399.044	78.38
399.268	76.38
399.492	88.38
399.717	79.38
399.941	69.38
400.165	95.38
400.389	94.38
400.613	89.38
400.837	73.38
401.062	78.38
401.286	89.38
401.51	77.38
401.734	83.38
401.958	64.38
402.182	79.38
402.406	107.38
402.63	79.38
402.854	85.38
403.078	86.38
403.302	88.38
403.526	78.38
403.75	72.38
403.974	79.38
404.198	69.38
404.422	73.38
404.645	79.38
404.869	93.38
405.093	85.38
405.317	86.38
405.541	76.38
405.765	85.38
405.988	77.38
406.212	83.38
406.436	66.38
406.66	85.38
406.883	91.38
407.107	89.38
407.331	75.38
407.555	89.38
407.778	78.38
408.002	78.38
408.226	74.38
408.449	92.38
408.673	75.38
408.896	79.38
409.12	71.38
409.344	76.38
409.567	77.38
409.791	72.38
410.014	94.38
410.238	81.38
410.461	91.38
410.685	84.38
410.908	87.38
411.132	85.38
411.355	79.38
411.578	73.38
411.802	90.38
412.025	76.38
412.249	80.38
412.472	70.38
412.695	67.38
412.919	76.38
413.142	96.38
413.365	84.38
413.589	68.38
413.812	64.38
414.035	78.38
414.258	72.38
414.482	84.38
414.705	81.38
414.928	81.38
415.151	60.38
415.374	73.38
415.597	67.38
415.821	78.38
416.044	97.38
416.267	89.38
416.49	83.38
416.713	78.38
416.936	88.38
417.159	81.38
417.382	77.38
417.605	80.38
417.828	85.38
418.051	83.38
418.274	65.38
418.497	83.38
418.72	73.38
418.943	98.38
419.166	76.38
419.389	70.38
419.611	73.38
419.834	85.38
420.057	84.38
420.28	92.38
420.503	68.38
420.726	87.38
420.948	74.38
421.171	96.38
421.394	88.38
421.617	87.38
421.839	88.38
422.062	92.38
422.285	93.38
422.507	105.38
422.73	161.38
422.953	150.38
423.175	103.38
423.398	97.38
423.621	81.38
423.843	77.38
424.066	74.38
424.288	81.38
424.511	73.38
424.733	77.38
424.956	75.38
425.178	90.38
425.401	73.38
425.623	61.38
425.846	81.38
426.068	61.38
426.291	71.38
426.513	88.38
426.735	76.38
426.958	80.38
427.18	56.38
427.402	70.38
427.625	82.38
427.847	82.38
428.069	84.38
428.292	77.38
428.514	83.38
428.736	82.38
428.958	94.38
429.181	88.38
429.403	89.38
429.625	96.38
429.847	79.38
430.069	88.38
430.292	111.38
430.514	96.38
430.736	99.38
430.958	100.38
431.18	88.38
431.402	70.38
431.624	92.38
431.846	83.38
432.068	94.38
432.29	93.38
432.512	76.38
432.734	81.38
432.956	88.38
433.178	89.38
433.4	77.38
433.622	78.38
433.844	64.38
434.066	80.38
434.287	77.38
434.509	83.38
434.731	83.38
434.953	80.38
435.175	68.38
435.397	77.38
435.618	79.38
435.84	77.38
436.062	78.38
436.284	80.38
436.505	77.38
436.727	68.38
436.949	81.38
437.17	67.38
437.392	91.38
437.614	79.38
437.835	83.38
438.057	67.38
438.278	66.38
438.5	86.38
438.721	88.38
438.943	84.38
439.165	67.38
439.386	73.38
439.608	87.38
439.829	77.38
440.05	65.38
440.272	79.38
440.493	75.38
440.715	76.38
440.936	86.38
441.158	87.38
441.379	74.38
441.6	77.38
441.822	82.38
442.043	74.38
442.264	67.38
442.486	96.38
442.707	79.38
442.928	79.38
443.149	65.38
443.371	104.38
443.592	101.38
443.813	95.38
444.034	80.38
444.255	81.38
444.476	80.38
444.698	85.38
444.919	81.38
445.14	191.38
445.361	107.38
445.582	112.38
445.803	112.38
446.024	92.38
446.245	90.38
446.466	77.38
446.687	73.38
446.908	76.38
447.129	87.38
447.35	72.38
447.571	85.38
447.792	77.38
448.013	63.38
448.234	57.38
448.455	77.38
448.675	72.38
448.896	67.38
449.117	77.38
449.338	74.38
449.559	81.38
449.779	68.38
450	79.38
450.221	87.38
450.442	85.38
450.662	82.38
450.883	79.38
451.104	93.38
451.324	94.38
451.545	86.38
451.766	92.38
451.986	84.38
452.207	78.38
452.428	89.38
452.648	69.38
452.869	80.38
453.089	87.38
453.31	61.38
453.53	84.38
453.751	67.38
453.971	87.38
454.192	75.38
454.412	96.38
454.633	75.38
454.853	77.38
455.073	86.38
455.294	80.38
455.514	72.38
455.734	81.38
455.955	92.38
456.175	92.38
456.395	71.38
456.616	91.38
456.836	85.38
457.056	88.38
457.276	65.38
457.497	77.38
457.717	84.38
457.937	79.38
458.157	78.38
458.377	72.38
458.598	82.38
458.818	72.38
459.038	81.38
459.258	89.38
459.478	63.38
459.698	84.38
459.918	79.38
460.138	90.38
460.358	78.38
460.578	85.38
460.798	95.38
461.018	88.38
461.238	73.38
461.458	73.38
461.678	84.38
461.898	85.38
462.118	86.38
462.338	76.38
462.558	92.38
462.777	81.38
462.997	71.38
463.217	81.38
463.437	83.38
463.657	69.38
463.876	84.38
464.096	80.38
464.316	72.38
464.536	77.38
464.755	87.38
464.975	78.38
465.195	83.38
465.414	63.38
465.634	79.38
465.854	71.38
466.073	68.38
466.293	82.38
466.512	79.38
466.732	74.38
466.951	88.38
467.171	84.38
467.391	96.38
467.61	73.38
467.829	79.38
468.049	79.38
468.268	83.38
468.488	85.38
468.707	81.38
468.927	78.38
469.146	57.38
469.365	79.38
469.585	83.38
469.804	91.38
470.023	65.38
470.243	74.38
470.462	92.38
470.681	74.38
470.901	84.38
471.12	80.38
471.339	83.38
471.558	85.38
471.777	82.38
471.997	85.38
472.216	83.38
472.435	70.38
472.654	74.38
472.873	70.38
473.092	92.38
473.311	79.38
473.53	73.38
473.749	76.38
473.968	64.38
474.187	83.38
474.406	82.38
474.625	86.38
474.844	81.38
475.063	74.38
475.282	85.38
475.501	66.38
475.72	81.38
475.939	73.38
476.158	85.38
476.377	96.38
476.596	88.38
476.814	74.38
477.033	82.38
477.252	98.38
477.471	88.38
477.69	88.38
477.908	85.38
478.127	78.38
478.346	67.38
478.564	87.38
478.783	96.38
479.002	82.38
479.22	73.38
479.439	61.38
479.658	88.38
479.876	87.38
480.095	84.38
480.313	86.38
480.532	85.38
480.751	82.38
480.969	79.38
481.188	75.38
481.406	91.38
481.624	83.38
481.843	87.38
482.061	76.38
482.28	73.38
482.498	76.38
482.717	81.38
482.935	71.38
483.153	88.38
483.372	73.38
483.59	95.38
483.808	67.38
484.027	85.38
484.245	92.38
484.463	83.38
484.681	94.38
484.9	86.38
485.118	91.38
485.336	69.38
485.554	88.38
485.772	95.38
485.99	87.38
486.209	91.38
486.427	91.38
486.645	83.38
486.863	91.38
487.081	69.38
487.299	78.38
487.517	74.38
487.735	87.38
487.953	86.38
488.171	81.38
488.389	91.38
488.607	79.38
488.825	86.38
489.043	95.38
489.261	83.38
489.479	76.38
489.696	64.38
489.914	81.38
490.132	82.38
490.35	79.38
490.568	83.38
490.786	81.38
491.003	86.38
491.221	71.38
491.439	63.38
491.657	86.38
491.874	87.38
492.092	99.38
492.31	87.38
492.527	81.38
492.745	80.38
492.963	87.38
493.18	76.38
493.398	96.38
493.615	88.38
493.833	75.38
494.05	73.38
494.268	87.38
494.485	92.38
494.703	88.38
494.92	79.38
495.138	67.38
495.355	73.38
495.573	84.38
495.79	77.38
496.008	87.38
496.225	83.38
496.442	73.38
496.66	91.38
496.877	79.38
497.094	84.38
497.312	84.38
497.529	76.38
497.746	77.38
497.963	80.38
498.181	77.38
498.398	88.38
498.615	76.38
498.832	74.38
499.049	85.38
499.267	79.38
499.484	83.38
499.701	81.38
499.918	71.38
500.135	72.38
500.352	85.38
500.569	80.38
500.786	86.38
501.003	85.38
501.22	84.38
501.437	84.38
501.654	90.38
501.871	65.38
502.088	71.38
502.305	88.38
502.522	86.38
502.739	81.38
502.956	76.38
503.172	77.38
503.389	74.38
503.606	86.38
503.823	92.38
504.04	84.38
504.256	86.38
504.473	85.38
504.69	80.38
504.907	87.38
505.123	88.38
505.34	83.38
505.557	76.38
505.773	95.38
505.99	84.38
506.207	74.38
506.423	68.38
506.64	83.38
506.856	85.38
507.073	84.38
507.289	92.38
507.506	78.38
507.722	87.38
507.939	69.38
508.155	81.38
508.372	86.38
508.588	94.38
508.805	86.38
509.021	82.38
509.238	92.38
509.454	82.38
509.67	80.38
509.887	77.38
510.103	63.38
510.319	60.38
510.536	78.38
510.752	83.38
510.968	76.38
511.184	91.38
511.401	77.38
511.617	88.38
511.833	84.38
512.049	96.38
512.265	81.38
512.481	89.38
512.698	88.38
512.914	83.38
513.13	72.38
513.346	80.38
513.562	73.38
513.778	73.38
513.994	77.38
514.21	77.38
514.426	81.38
514.642	81.38
514.858	72.38
515.074	83.38
515.29	71.38
515.506	79.38
515.721	77.38
515.937	81.38
516.153	70.38
516.369	88.38
516.585	79.38
516.801	63.38
517.016	73.38
517.232	72.38
517.448	80.38
517.664	80.38
517.879	75.38
518.095	60.38
518.311	79.38
518.527	83.38
518.742	82.38
518.958	91.38
519.173	101.38
519.389	70.38
519.605	74.38
519.82	80.38
