Data from 10100_2_HRD10591_00002.txt Node
Date: Mon Jan 19 14:01:25 EST 2026
User: Yrep
Spectrometer: HR+D1059
Trigger mode: 1
Integration Time (sec): 1.000000E-1
Scans to average: 1
Electric dark correction enabled: true
Nonlinearity correction enabled: false
Boxcar width: 0
XAxis mode: Wavelengths
Number of Pixels in Spectrum: 2048
>>>>>Begin Spectral Data<<<<<
223.165	-15.44
223.4	-15.44
223.635	-15.44
223.869	-22.44
224.104	-33.44
224.338	-29.44
224.573	-10.44
224.808	-11.44
225.042	-6.44
225.277	-9.44
225.511	1.56
225.746	-3.44
225.98	6.56
226.215	19.56
226.449	15.56
226.683	25.56
226.918	24.56
227.152	48.56
227.387	40.56
227.621	33.56
227.856	44.56
228.09	52.56
228.324	41.56
228.559	63.56
228.793	56.56
229.027	62.56
229.262	60.56
229.496	77.56
229.73	72.56
229.964	70.56
230.199	78.56
230.433	72.56
230.667	61.56
230.901	80.56
231.136	70.56
231.37	92.56
231.604	74.56
231.838	88.56
232.072	75.56
232.306	84.56
232.541	89.56
232.775	75.56
233.009	84.56
233.243	94.56
233.477	75.56
233.711	94.56
233.945	68.56
234.179	71.56
234.413	62.56
234.647	74.56
234.881	81.56
235.115	76.56
235.349	74.56
235.583	95.56
235.817	82.56
236.051	70.56
236.285	78.56
236.519	91.56
236.753	79.56
236.987	94.56
237.221	73.56
237.455	75.56
237.689	79.56
237.922	60.56
238.156	65.56
238.39	75.56
238.624	79.56
238.858	93.56
239.091	68.56
239.325	75.56
239.559	84.56
239.793	81.56
240.027	80.56
240.26	74.56
240.494	74.56
240.728	75.56
240.961	61.56
241.195	73.56
241.429	74.56
241.662	75.56
241.896	79.56
242.13	83.56
242.363	70.56
242.597	80.56
242.83	72.56
243.064	66.56
243.298	78.56
243.531	76.56
243.765	81.56
243.998	69.56
244.232	86.56
244.465	72.56
244.699	74.56
244.932	73.56
245.166	73.56
245.399	77.56
245.633	84.56
245.866	88.56
246.099	62.56
246.333	74.56
246.566	74.56
246.8	84.56
247.033	74.56
247.266	84.56
247.5	78.56
247.733	82.56
247.966	80.56
248.2	79.56
248.433	81.56
248.666	57.56
248.899	60.56
249.133	71.56
249.366	78.56
249.599	76.56
249.832	78.56
250.066	97.56
250.299	88.56
250.532	94.56
250.765	80.56
250.998	74.56
251.231	84.56
251.465	89.56
251.698	72.56
251.931	87.56
252.164	71.56
252.397	67.56
252.63	93.56
252.863	74.56
253.096	74.56
253.329	68.56
253.562	80.56
253.795	80.56
254.028	71.56
254.261	78.56
254.494	72.56
254.727	63.56
254.96	91.56
255.193	83.56
255.426	70.56
255.659	81.56
255.892	90.56
256.124	94.56
256.357	81.56
256.59	81.56
256.823	76.56
257.056	72.56
257.289	66.56
257.521	67.56
257.754	64.56
257.987	76.56
258.22	78.56
258.452	93.56
258.685	83.56
258.918	81.56
259.151	74.56
259.383	80.56
259.616	80.56
259.849	86.56
260.081	97.56
260.314	82.56
260.547	68.56
260.779	78.56
261.012	87.56
261.244	85.56
261.477	82.56
261.71	56.56
261.942	57.56
262.175	81.56
262.407	88.56
262.64	85.56
262.872	85.56
263.105	72.56
263.337	96.56
263.57	77.56
263.802	76.56
264.035	79.56
264.267	92.56
264.499	82.56
264.732	77.56
264.964	92.56
265.197	90.56
265.429	80.56
265.661	83.56
265.894	75.56
266.126	98.56
266.358	89.56
266.591	80.56
266.823	95.56
267.055	68.56
267.287	82.56
267.52	79.56
267.752	76.56
267.984	97.56
268.216	101.56
268.448	81.56
268.681	76.56
268.913	96.56
269.145	75.56
269.377	84.56
269.609	83.56
269.841	69.56
270.073	83.56
270.306	78.56
270.538	85.56
270.77	74.56
271.002	82.56
271.234	89.56
271.466	94.56
271.698	96.56
271.93	73.56
272.162	80.56
272.394	68.56
272.626	75.56
272.858	76.56
273.09	81.56
273.322	66.56
273.553	87.56
273.785	88.56
274.017	76.56
274.249	82.56
274.481	84.56
274.713	88.56
274.945	87.56
275.176	75.56
275.408	74.56
275.64	86.56
275.872	93.56
276.104	93.56
276.335	87.56
276.567	82.56
276.799	78.56
277.031	73.56
277.262	72.56
277.494	68.56
277.726	97.56
277.957	86.56
278.189	81.56
278.421	90.56
278.652	81.56
278.884	90.56
279.115	68.56
279.347	83.56
279.579	84.56
279.81	88.56
280.042	82.56
280.273	89.56
280.505	77.56
280.736	88.56
280.968	85.56
281.199	77.56
281.431	72.56
281.662	94.56
281.894	98.56
282.125	80.56
282.356	82.56
282.588	90.56
282.819	82.56
283.051	84.56
283.282	87.56
283.513	84.56
283.745	101.56
283.976	92.56
284.207	88.56
284.439	81.56
284.67	76.56
284.901	86.56
285.132	95.56
285.364	82.56
285.595	93.56
285.826	95.56
286.057	93.56
286.288	70.56
286.52	84.56
286.751	88.56
286.982	78.56
287.213	69.56
287.444	87.56
287.675	87.56
287.906	82.56
288.138	82.56
288.369	93.56
288.6	85.56
288.831	72.56
289.062	78.56
289.293	72.56
289.524	88.56
289.755	81.56
289.986	75.56
290.217	86.56
290.448	75.56
290.679	70.56
290.91	84.56
291.141	78.56
291.371	85.56
291.602	75.56
291.833	77.56
292.064	82.56
292.295	80.56
292.526	86.56
292.757	65.56
292.987	76.56
293.218	79.56
293.449	75.56
293.68	87.56
293.91	81.56
294.141	100.56
294.372	82.56
294.603	91.56
294.833	78.56
295.064	96.56
295.295	86.56
295.525	85.56
295.756	90.56
295.987	94.56
296.217	83.56
296.448	72.56
296.679	84.56
296.909	92.56
297.14	79.56
297.37	87.56
297.601	72.56
297.831	73.56
298.062	80.56
298.292	70.56
298.523	78.56
298.753	91.56
298.984	94.56
299.214	84.56
299.445	101.56
299.675	92.56
299.905	84.56
300.136	84.56
300.366	89.56
300.597	85.56
300.827	79.56
301.057	82.56
301.288	89.56
301.518	84.56
301.748	67.56
301.979	108.56
302.209	83.56
302.439	89.56
302.669	90.56
302.9	98.56
303.13	83.56
303.36	88.56
303.59	86.56
303.82	81.56
304.051	84.56
304.281	76.56
304.511	88.56
304.741	91.56
304.971	97.56
305.201	73.56
305.431	85.56
305.661	92.56
305.891	70.56
306.121	85.56
306.352	87.56
306.582	84.56
306.812	84.56
307.042	77.56
307.272	83.56
307.502	73.56
307.731	93.56
307.961	84.56
308.191	94.56
308.421	94.56
308.651	81.56
308.881	89.56
309.111	86.56
309.341	93.56
309.571	90.56
309.8	84.56
310.03	82.56
310.26	89.56
310.49	84.56
310.72	80.56
310.949	84.56
311.179	92.56
311.409	74.56
311.639	76.56
311.868	78.56
312.098	79.56
312.328	92.56
312.557	77.56
312.787	86.56
313.017	87.56
313.246	91.56
313.476	85.56
313.706	98.56
313.935	77.56
314.165	76.56
314.394	75.56
314.624	84.56
314.853	85.56
315.083	86.56
315.312	90.56
315.542	95.56
315.771	107.56
316.001	85.56
316.23	83.56
316.46	86.56
316.689	79.56
316.919	88.56
317.148	94.56
317.377	92.56
317.607	84.56
317.836	79.56
318.065	68.56
318.295	72.56
318.524	79.56
318.753	92.56
318.983	83.56
319.212	85.56
319.441	87.56
319.67	82.56
319.9	83.56
320.129	82.56
320.358	83.56
320.587	102.56
320.816	80.56
321.046	84.56
321.275	72.56
321.504	74.56
321.733	80.56
321.962	84.56
322.191	80.56
322.42	86.56
322.649	93.56
322.878	78.56
323.108	94.56
323.337	92.56
323.566	85.56
323.795	79.56
324.024	88.56
324.253	97.56
324.482	85.56
324.71	85.56
324.939	85.56
325.168	84.56
325.397	91.56
325.626	85.56
325.855	68.56
326.084	84.56
326.313	105.56
326.542	92.56
326.77	86.56
326.999	88.56
327.228	78.56
327.457	87.56
327.686	84.56
327.914	96.56
328.143	99.56
328.372	89.56
328.6	87.56
328.829	88.56
329.058	78.56
329.287	79.56
329.515	82.56
329.744	79.56
329.972	91.56
330.201	82.56
330.43	96.56
330.658	81.56
330.887	97.56
331.115	80.56
331.344	80.56
331.572	86.56
331.801	85.56
332.03	85.56
332.258	80.56
332.486	86.56
332.715	78.56
332.943	96.56
333.172	74.56
333.4	94.56
333.629	101.56
333.857	80.56
334.085	84.56
334.314	86.56
334.542	103.56
334.771	80.56
334.999	83.56
335.227	88.56
335.455	80.56
335.684	93.56
335.912	92.56
336.14	80.56
336.369	96.56
336.597	88.56
336.825	78.56
337.053	91.56
337.281	104.56
337.51	73.56
337.738	84.56
337.966	77.56
338.194	72.56
338.422	82.56
338.65	67.56
338.878	92.56
339.106	86.56
339.334	95.56
339.562	87.56
339.79	95.56
340.018	83.56
340.246	92.56
340.474	86.56
340.702	80.56
340.93	92.56
341.158	89.56
341.386	66.56
341.614	80.56
341.842	96.56
342.07	87.56
342.298	73.56
342.526	79.56
342.754	67.56
342.981	95.56
343.209	90.56
343.437	101.56
343.665	92.56
343.893	80.56
344.12	92.56
344.348	105.56
344.576	95.56
344.804	90.56
345.031	90.56
345.259	88.56
345.487	87.56
345.714	65.56
345.942	79.56
346.17	82.56
346.397	81.56
346.625	76.56
346.853	80.56
347.08	88.56
347.308	92.56
347.535	89.56
347.763	96.56
347.99	89.56
348.218	88.56
348.445	86.56
348.673	97.56
348.9	93.56
349.128	78.56
349.355	83.56
349.583	85.56
349.81	84.56
350.037	80.56
350.265	80.56
350.492	81.56
350.72	86.56
350.947	77.56
351.174	85.56
351.402	95.56
351.629	92.56
351.856	92.56
352.083	89.56
352.311	87.56
352.538	82.56
352.765	81.56
352.992	96.56
353.22	86.56
353.447	80.56
353.674	85.56
353.901	95.56
354.128	83.56
354.355	96.56
354.583	86.56
354.81	93.56
355.037	88.56
355.264	87.56
355.491	97.56
355.718	92.56
355.945	79.56
356.172	93.56
356.399	83.56
356.626	97.56
356.853	80.56
357.08	89.56
357.307	89.56
357.534	91.56
357.761	90.56
357.988	109.56
358.215	90.56
358.441	92.56
358.668	87.56
358.895	89.56
359.122	81.56
359.349	95.56
359.576	74.56
359.802	80.56
360.029	82.56
360.256	95.56
360.483	78.56
360.709	87.56
360.936	82.56
361.163	95.56
361.39	82.56
361.616	88.56
361.843	94.56
362.07	100.56
362.296	93.56
362.523	97.56
362.749	92.56
362.976	94.56
363.203	122.56
363.429	102.56
363.656	87.56
363.882	95.56
364.109	111.56
364.335	97.56
364.562	120.56
364.788	96.56
365.015	82.56
365.241	96.56
365.468	79.56
365.694	75.56
365.92	85.56
366.147	89.56
366.373	81.56
366.599	89.56
366.826	83.56
367.052	89.56
367.278	80.56
367.505	78.56
367.731	88.56
367.957	82.56
368.184	90.56
368.41	71.56
368.636	87.56
368.862	84.56
369.089	81.56
369.315	88.56
369.541	95.56
369.767	101.56
369.993	71.56
370.219	84.56
370.445	78.56
370.672	86.56
370.898	80.56
371.124	82.56
371.35	82.56
371.576	88.56
371.802	93.56
372.028	101.56
372.254	90.56
372.48	82.56
372.706	93.56
372.932	86.56
373.158	95.56
373.384	94.56
373.61	94.56
373.835	73.56
374.061	94.56
374.287	82.56
374.513	82.56
374.739	96.56
374.965	92.56
375.191	77.56
375.416	87.56
375.642	71.56
375.868	89.56
376.094	86.56
376.319	79.56
376.545	86.56
376.771	74.56
376.997	80.56
377.222	78.56
377.448	77.56
377.674	95.56
377.899	78.56
378.125	88.56
378.35	87.56
378.576	90.56
378.802	84.56
379.027	89.56
379.253	101.56
379.478	97.56
379.704	89.56
379.929	82.56
380.155	100.56
380.38	82.56
380.606	79.56
380.831	78.56
381.057	95.56
381.282	89.56
381.507	95.56
381.733	93.56
381.958	89.56
382.184	99.56
382.409	102.56
382.634	92.56
382.86	85.56
383.085	82.56
383.31	80.56
383.535	90.56
383.761	76.56
383.986	90.56
384.211	88.56
384.436	75.56
384.662	72.56
384.887	87.56
385.112	83.56
385.337	96.56
385.562	97.56
385.787	92.56
386.013	93.56
386.238	98.56
386.463	101.56
386.688	103.56
386.913	81.56
387.138	93.56
387.363	78.56
387.588	102.56
387.813	92.56
388.038	82.56
388.263	100.56
388.488	95.56
388.713	95.56
388.938	82.56
389.163	89.56
389.387	84.56
389.612	98.56
389.837	93.56
390.062	93.56
390.287	95.56
390.512	103.56
390.736	98.56
390.961	88.56
391.186	89.56
391.411	89.56
391.636	80.56
391.86	94.56
392.085	83.56
392.31	90.56
392.534	76.56
392.759	94.56
392.984	130.56
393.208	166.56
393.433	212.56
393.658	176.56
393.882	110.56
394.107	101.56
394.331	92.56
394.556	102.56
394.78	84.56
395.005	105.56
395.229	94.56
395.454	86.56
395.678	84.56
395.903	120.56
396.127	127.56
396.352	133.56
396.576	117.56
396.801	167.56
397.025	172.56
397.249	126.56
397.474	103.56
397.698	89.56
397.922	81.56
398.147	90.56
398.371	73.56
398.595	93.56
398.82	78.56
399.044	82.56
399.268	83.56
399.492	78.56
399.717	89.56
399.941	85.56
400.165	81.56
400.389	90.56
400.613	96.56
400.837	80.56
401.062	96.56
401.286	85.56
401.51	80.56
401.734	94.56
401.958	81.56
402.182	88.56
402.406	68.56
402.63	84.56
402.854	83.56
403.078	83.56
403.302	79.56
403.526	82.56
403.75	81.56
403.974	62.56
404.198	81.56
404.422	86.56
404.645	81.56
404.869	83.56
405.093	91.56
405.317	85.56
405.541	81.56
405.765	78.56
405.988	73.56
406.212	73.56
406.436	85.56
406.66	81.56
406.883	87.56
407.107	77.56
407.331	95.56
407.555	92.56
407.778	77.56
408.002	96.56
408.226	91.56
408.449	94.56
408.673	81.56
408.896	82.56
409.12	89.56
409.344	78.56
409.567	80.56
409.791	89.56
410.014	99.56
410.238	90.56
410.461	80.56
410.685	81.56
410.908	84.56
411.132	86.56
411.355	91.56
411.578	104.56
411.802	80.56
412.025	77.56
412.249	105.56
412.472	100.56
412.695	89.56
412.919	83.56
413.142	94.56
413.365	78.56
413.589	85.56
413.812	81.56
414.035	86.56
414.258	96.56
414.482	89.56
414.705	89.56
414.928	83.56
415.151	84.56
415.374	93.56
415.597	81.56
415.821	104.56
416.044	81.56
416.267	81.56
416.49	88.56
416.713	88.56
416.936	81.56
417.159	87.56
417.382	84.56
417.605	84.56
417.828	80.56
418.051	70.56
418.274	92.56
418.497	86.56
418.72	88.56
418.943	81.56
419.166	93.56
419.389	78.56
419.611	80.56
419.834	90.56
420.057	94.56
420.28	93.56
420.503	86.56
420.726	74.56
420.948	83.56
421.171	92.56
421.394	96.56
421.617	105.56
421.839	113.56
422.062	116.56
422.285	147.56
422.507	248.56
422.73	291.56
422.953	285.56
423.175	181.56
423.398	115.56
423.621	118.56
423.843	110.56
424.066	89.56
424.288	78.56
424.511	95.56
424.733	81.56
424.956	97.56
425.178	79.56
425.401	96.56
425.623	92.56
425.846	97.56
426.068	82.56
426.291	92.56
426.513	95.56
426.735	90.56
426.958	96.56
427.18	88.56
427.402	91.56
427.625	81.56
427.847	73.56
428.069	104.56
428.292	102.56
428.514	127.56
428.736	96.56
428.958	111.56
429.181	114.56
429.403	111.56
429.625	101.56
429.847	115.56
430.069	143.56
430.292	162.56
430.514	138.56
430.736	113.56
430.958	116.56
431.18	92.56
431.402	78.56
431.624	90.56
431.846	107.56
432.068	130.56
432.29	100.56
432.512	98.56
432.734	88.56
432.956	84.56
433.178	95.56
433.4	96.56
433.622	97.56
433.844	84.56
434.066	80.56
434.287	82.56
434.509	72.56
434.731	83.56
434.953	86.56
435.175	75.56
435.397	88.56
435.618	95.56
435.84	97.56
436.062	89.56
436.284	87.56
436.505	72.56
436.727	87.56
436.949	87.56
437.17	96.56
437.392	69.56
437.614	84.56
437.835	82.56
438.057	86.56
438.278	80.56
438.5	98.56
438.721	81.56
438.943	82.56
439.165	89.56
439.386	84.56
439.608	82.56
439.829	74.56
440.05	81.56
440.272	86.56
440.493	90.56
440.715	83.56
440.936	83.56
441.158	93.56
441.379	93.56
441.6	78.56
441.822	72.56
442.043	81.56
442.264	100.56
442.486	100.56
442.707	141.56
442.928	119.56
443.149	100.56
443.371	122.56
443.592	197.56
443.813	153.56
444.034	101.56
444.255	79.56
444.476	95.56
444.698	93.56
444.919	96.56
445.14	196.56
445.361	165.56
445.582	217.56
445.803	194.56
446.024	106.56
446.245	94.56
446.466	83.56
446.687	71.56
446.908	85.56
447.129	90.56
447.35	98.56
447.571	88.56
447.792	82.56
448.013	88.56
448.234	80.56
448.455	82.56
448.675	97.56
448.896	80.56
449.117	81.56
449.338	93.56
449.559	95.56
449.779	89.56
450	79.56
450.221	83.56
450.442	95.56
450.662	90.56
450.883	71.56
451.104	85.56
451.324	93.56
451.545	77.56
451.766	71.56
451.986	82.56
452.207	96.56
452.428	95.56
452.648	86.56
452.869	109.56
453.089	108.56
453.31	86.56
453.53	97.56
453.751	90.56
453.971	80.56
454.192	74.56
454.412	82.56
454.633	92.56
454.853	73.56
455.073	88.56
455.294	83.56
455.514	93.56
455.734	84.56
455.955	76.56
456.175	92.56
456.395	82.56
456.616	95.56
456.836	80.56
457.056	74.56
457.276	89.56
457.497	86.56
457.717	97.56
457.937	110.56
458.157	105.56
458.377	109.56
458.598	110.56
458.818	125.56
459.038	89.56
459.258	82.56
459.478	72.56
459.698	81.56
459.918	100.56
460.138	90.56
460.358	87.56
460.578	102.56
460.798	112.56
461.018	102.56
461.238	92.56
461.458	72.56
461.678	72.56
461.898	81.56
462.118	84.56
462.338	87.56
462.558	93.56
462.777	90.56
462.997	88.56
463.217	91.56
463.437	100.56
463.657	96.56
463.876	91.56
464.096	78.56
464.316	83.56
464.536	80.56
464.755	85.56
464.975	87.56
465.195	78.56
465.414	93.56
465.634	91.56
465.854	80.56
466.073	80.56
466.293	78.56
466.512	70.56
466.732	84.56
466.951	87.56
467.171	87.56
467.391	83.56
467.61	83.56
467.829	94.56
468.049	74.56
468.268	86.56
468.488	85.56
468.707	74.56
468.927	108.56
469.146	87.56
469.365	85.56
469.585	87.56
469.804	89.56
470.023	80.56
470.243	86.56
470.462	81.56
470.681	84.56
470.901	84.56
471.12	90.56
471.339	93.56
471.558	88.56
471.777	96.56
471.997	78.56
472.216	81.56
472.435	83.56
472.654	83.56
472.873	72.56
473.092	93.56
473.311	79.56
473.53	87.56
473.749	95.56
473.968	92.56
474.187	87.56
474.406	87.56
474.625	78.56
474.844	86.56
475.063	81.56
475.282	95.56
475.501	89.56
475.72	89.56
475.939	78.56
476.158	94.56
476.377	79.56
476.596	85.56
476.814	92.56
477.033	97.56
477.252	86.56
477.471	90.56
477.69	72.56
477.908	100.56
478.127	89.56
478.346	76.56
478.564	87.56
478.783	85.56
479.002	88.56
479.22	79.56
479.439	80.56
479.658	95.56
479.876	82.56
480.095	73.56
480.313	85.56
480.532	93.56
480.751	93.56
480.969	89.56
481.188	94.56
481.406	95.56
481.624	83.56
481.843	72.56
482.061	88.56
482.28	84.56
482.498	87.56
482.717	85.56
482.935	90.56
483.153	98.56
483.372	106.56
483.59	94.56
483.808	80.56
484.027	100.56
484.245	96.56
484.463	88.56
484.681	109.56
484.9	90.56
485.118	78.56
485.336	81.56
485.554	90.56
485.772	91.56
485.99	76.56
486.209	86.56
486.427	70.56
486.645	93.56
486.863	98.56
487.081	84.56
487.299	101.56
487.517	97.56
487.735	94.56
487.953	141.56
488.171	120.56
488.389	104.56
488.607	74.56
488.825	75.56
489.043	92.56
489.261	96.56
489.479	90.56
489.696	100.56
489.914	102.56
490.132	82.56
490.35	88.56
490.568	90.56
490.786	96.56
491.003	92.56
491.221	102.56
491.439	87.56
491.657	81.56
491.874	104.56
492.092	98.56
492.31	89.56
492.527	83.56
492.745	84.56
492.963	75.56
493.18	85.56
493.398	90.56
493.615	104.56
493.833	94.56
494.05	95.56
494.268	77.56
494.485	91.56
494.703	101.56
494.92	94.56
495.138	92.56
495.355	77.56
495.573	88.56
495.79	88.56
496.008	92.56
496.225	82.56
496.442	90.56
496.66	96.56
496.877	87.56
497.094	88.56
497.312	95.56
497.529	88.56
497.746	75.56
497.963	81.56
498.181	98.56
498.398	88.56
498.615	96.56
498.832	99.56
499.049	92.56
499.267	104.56
499.484	89.56
499.701	85.56
499.918	92.56
500.135	96.56
500.352	87.56
500.569	99.56
500.786	86.56
501.003	90.56
501.22	97.56
501.437	92.56
501.654	86.56
501.871	90.56
502.088	76.56
502.305	93.56
502.522	84.56
502.739	82.56
502.956	91.56
503.172	104.56
503.389	84.56
503.606	81.56
503.823	94.56
504.04	108.56
504.256	124.56
504.473	119.56
504.69	92.56
504.907	91.56
505.123	84.56
505.34	87.56
505.557	96.56
505.773	70.56
505.99	93.56
506.207	83.56
506.423	86.56
506.64	86.56
506.856	97.56
507.073	88.56
507.289	96.56
507.506	84.56
507.722	79.56
507.939	86.56
508.155	94.56
508.372	90.56
508.588	77.56
508.805	93.56
509.021	91.56
509.238	80.56
509.454	74.56
509.67	66.56
509.887	88.56
510.103	78.56
510.319	82.56
510.536	81.56
510.752	92.56
510.968	88.56
511.184	101.56
511.401	93.56
511.617	107.56
511.833	83.56
512.049	80.56
512.265	79.56
512.481	90.56
512.698	89.56
512.914	97.56
513.13	94.56
513.346	97.56
513.562	73.56
513.778	82.56
513.994	71.56
514.21	76.56
514.426	73.56
514.642	88.56
514.858	97.56
515.074	84.56
515.29	96.56
515.506	90.56
515.721	92.56
515.937	99.56
516.153	99.56
516.369	98.56
516.585	90.56
516.801	86.56
517.016	99.56
517.232	112.56
517.448	91.56
517.664	102.56
517.879	102.56
518.095	77.56
518.311	85.56
518.527	89.56
