Data from 10100_2_HRD10591_00050.txt Node
Date: Mon Jan 19 14:01:49 EST 2026
User: Yrep
Spectrometer: HR+D1059
Trigger mode: 1
Integration Time (sec): 1.000000E-1
Scans to average: 1
Electric dark correction enabled: true
Nonlinearity correction enabled: false
Boxcar width: 0
XAxis mode: Wavelengths
Number of Pixels in Spectrum: 2048
>>>>>Begin Spectral Data<<<<<
223.165	-20.94
223.4	-20.94
223.635	-20.94
223.869	-11.94
224.104	-24.94
224.338	-12.94
224.573	-11.94
224.808	-12.94
225.042	-9.94
225.277	0.06
225.511	-17.94
225.746	-0.94
225.98	0.06
226.215	9.06
226.449	15.06
226.683	23.06
226.918	41.06
227.152	36.06
227.387	32.06
227.621	40.06
227.856	48.06
228.09	39.06
228.324	57.06
228.559	55.06
228.793	61.06
229.027	69.06
229.262	61.06
229.496	60.06
229.73	67.06
229.964	63.06
230.199	61.06
230.433	55.06
230.667	71.06
230.901	88.06
231.136	78.06
231.37	74.06
231.604	84.06
231.838	84.06
232.072	84.06
232.306	70.06
232.541	88.06
232.775	71.06
233.009	80.06
233.243	81.06
233.477	86.06
233.711	89.06
233.945	67.06
234.179	65.06
234.413	70.06
234.647	77.06
234.881	65.06
235.115	64.06
235.349	87.06
235.583	88.06
235.817	74.06
236.051	77.06
236.285	79.06
236.519	57.06
236.753	77.06
236.987	79.06
237.221	77.06
237.455	57.06
237.689	75.06
237.922	77.06
238.156	71.06
238.39	71.06
238.624	85.06
238.858	89.06
239.091	85.06
239.325	70.06
239.559	86.06
239.793	74.06
240.027	78.06
240.26	66.06
240.494	70.06
240.728	82.06
240.961	70.06
241.195	86.06
241.429	80.06
241.662	78.06
241.896	70.06
242.13	73.06
242.363	71.06
242.597	88.06
242.83	72.06
243.064	61.06
243.298	61.06
243.531	78.06
243.765	79.06
243.998	79.06
244.232	73.06
244.465	73.06
244.699	69.06
244.932	76.06
245.166	73.06
245.399	67.06
245.633	79.06
245.866	96.06
246.099	79.06
246.333	85.06
246.566	72.06
246.8	83.06
247.033	70.06
247.266	83.06
247.5	82.06
247.733	80.06
247.966	65.06
248.2	82.06
248.433	79.06
248.666	81.06
248.899	82.06
249.133	87.06
249.366	72.06
249.599	87.06
249.832	80.06
250.066	83.06
250.299	75.06
250.532	77.06
250.765	69.06
250.998	72.06
251.231	61.06
251.465	63.06
251.698	67.06
251.931	64.06
252.164	88.06
252.397	87.06
252.63	69.06
252.863	80.06
253.096	83.06
253.329	70.06
253.562	87.06
253.795	79.06
254.028	86.06
254.261	76.06
254.494	87.06
254.727	71.06
254.96	68.06
255.193	68.06
255.426	72.06
255.659	72.06
255.892	77.06
256.124	63.06
256.357	77.06
256.59	75.06
256.823	70.06
257.056	81.06
257.289	75.06
257.521	72.06
257.754	79.06
257.987	80.06
258.22	77.06
258.452	69.06
258.685	77.06
258.918	86.06
259.151	67.06
259.383	92.06
259.616	77.06
259.849	75.06
260.081	76.06
260.314	75.06
260.547	78.06
260.779	93.06
261.012	81.06
261.244	70.06
261.477	73.06
261.71	80.06
261.942	73.06
262.175	91.06
262.407	92.06
262.64	77.06
262.872	91.06
263.105	79.06
263.337	79.06
263.57	81.06
263.802	83.06
264.035	97.06
264.267	81.06
264.499	75.06
264.732	82.06
264.964	73.06
265.197	63.06
265.429	72.06
265.661	83.06
265.894	72.06
266.126	73.06
266.358	78.06
266.591	86.06
266.823	79.06
267.055	80.06
267.287	83.06
267.52	85.06
267.752	72.06
267.984	91.06
268.216	66.06
268.448	72.06
268.681	92.06
268.913	77.06
269.145	80.06
269.377	84.06
269.609	84.06
269.841	80.06
270.073	70.06
270.306	76.06
270.538	69.06
270.77	95.06
271.002	83.06
271.234	72.06
271.466	81.06
271.698	88.06
271.93	85.06
272.162	88.06
272.394	79.06
272.626	83.06
272.858	86.06
273.09	95.06
273.322	82.06
273.553	64.06
273.785	98.06
274.017	71.06
274.249	83.06
274.481	100.06
274.713	86.06
274.945	87.06
275.176	84.06
275.408	77.06
275.64	85.06
275.872	75.06
276.104	75.06
276.335	58.06
276.567	79.06
276.799	67.06
277.031	87.06
277.262	72.06
277.494	68.06
277.726	85.06
277.957	77.06
278.189	89.06
278.421	73.06
278.652	77.06
278.884	79.06
279.115	79.06
279.347	79.06
279.579	83.06
279.81	74.06
280.042	78.06
280.273	87.06
280.505	100.06
280.736	78.06
280.968	81.06
281.199	83.06
281.431	87.06
281.662	81.06
281.894	80.06
282.125	62.06
282.356	77.06
282.588	88.06
282.819	74.06
283.051	68.06
283.282	65.06
283.513	98.06
283.745	75.06
283.976	87.06
284.207	100.06
284.439	70.06
284.67	74.06
284.901	69.06
285.132	81.06
285.364	88.06
285.595	79.06
285.826	84.06
286.057	92.06
286.288	80.06
286.52	74.06
286.751	89.06
286.982	79.06
287.213	81.06
287.444	84.06
287.675	98.06
287.906	80.06
288.138	86.06
288.369	96.06
288.6	82.06
288.831	75.06
289.062	88.06
289.293	77.06
289.524	85.06
289.755	86.06
289.986	83.06
290.217	73.06
290.448	71.06
290.679	80.06
290.91	83.06
291.141	83.06
291.371	86.06
291.602	79.06
291.833	74.06
292.064	89.06
292.295	88.06
292.526	80.06
292.757	79.06
292.987	85.06
293.218	87.06
293.449	82.06
293.68	78.06
293.91	76.06
294.141	87.06
294.372	82.06
294.603	87.06
294.833	74.06
295.064	81.06
295.295	87.06
295.525	81.06
295.756	73.06
295.987	77.06
296.217	89.06
296.448	86.06
296.679	103.06
296.909	66.06
297.14	77.06
297.37	85.06
297.601	108.06
297.831	77.06
298.062	84.06
298.292	90.06
298.523	94.06
298.753	74.06
298.984	75.06
299.214	98.06
299.445	87.06
299.675	88.06
299.905	84.06
300.136	88.06
300.366	83.06
300.597	86.06
300.827	93.06
301.057	83.06
301.288	93.06
301.518	89.06
301.748	80.06
301.979	104.06
302.209	85.06
302.439	83.06
302.669	84.06
302.9	76.06
303.13	89.06
303.36	87.06
303.59	82.06
303.82	74.06
304.051	84.06
304.281	74.06
304.511	71.06
304.741	76.06
304.971	79.06
305.201	83.06
305.431	89.06
305.661	95.06
305.891	81.06
306.121	98.06
306.352	77.06
306.582	89.06
306.812	83.06
307.042	100.06
307.272	72.06
307.502	87.06
307.731	91.06
307.961	92.06
308.191	97.06
308.421	83.06
308.651	96.06
308.881	78.06
309.111	88.06
309.341	81.06
309.571	93.06
309.8	76.06
310.03	78.06
310.26	72.06
310.49	84.06
310.72	87.06
310.949	77.06
311.179	98.06
311.409	89.06
311.639	66.06
311.868	96.06
312.098	81.06
312.328	83.06
312.557	81.06
312.787	85.06
313.017	79.06
313.246	84.06
313.476	77.06
313.706	80.06
313.935	78.06
314.165	80.06
314.394	82.06
314.624	73.06
314.853	69.06
315.083	97.06
315.312	81.06
315.542	97.06
315.771	95.06
316.001	84.06
316.23	63.06
316.46	79.06
316.689	81.06
316.919	87.06
317.148	90.06
317.377	93.06
317.607	83.06
317.836	82.06
318.065	91.06
318.295	82.06
318.524	91.06
318.753	86.06
318.983	94.06
319.212	85.06
319.441	90.06
319.67	79.06
319.9	97.06
320.129	88.06
320.358	92.06
320.587	68.06
320.816	73.06
321.046	74.06
321.275	87.06
321.504	85.06
321.733	88.06
321.962	89.06
322.191	86.06
322.42	73.06
322.649	88.06
322.878	87.06
323.108	82.06
323.337	97.06
323.566	86.06
323.795	86.06
324.024	81.06
324.253	107.06
324.482	73.06
324.71	77.06
324.939	74.06
325.168	71.06
325.397	91.06
325.626	82.06
325.855	72.06
326.084	91.06
326.313	86.06
326.542	82.06
326.77	88.06
326.999	87.06
327.228	95.06
327.457	96.06
327.686	92.06
327.914	80.06
328.143	87.06
328.372	97.06
328.6	78.06
328.829	76.06
329.058	88.06
329.287	88.06
329.515	90.06
329.744	77.06
329.972	72.06
330.201	80.06
330.43	84.06
330.658	85.06
330.887	78.06
331.115	75.06
331.344	79.06
331.572	80.06
331.801	92.06
332.03	84.06
332.258	82.06
332.486	83.06
332.715	77.06
332.943	85.06
333.172	84.06
333.4	77.06
333.629	76.06
333.857	89.06
334.085	92.06
334.314	97.06
334.542	95.06
334.771	78.06
334.999	101.06
335.227	96.06
335.455	74.06
335.684	85.06
335.912	99.06
336.14	88.06
336.369	90.06
336.597	75.06
336.825	57.06
337.053	80.06
337.281	83.06
337.51	79.06
337.738	91.06
337.966	80.06
338.194	82.06
338.422	74.06
338.65	87.06
338.878	88.06
339.106	85.06
339.334	87.06
339.562	78.06
339.79	71.06
340.018	77.06
340.246	79.06
340.474	81.06
340.702	80.06
340.93	75.06
341.158	71.06
341.386	63.06
341.614	86.06
341.842	75.06
342.07	77.06
342.298	91.06
342.526	86.06
342.754	77.06
342.981	79.06
343.209	91.06
343.437	92.06
343.665	100.06
343.893	98.06
344.12	91.06
344.348	79.06
344.576	83.06
344.804	77.06
345.031	86.06
345.259	82.06
345.487	80.06
345.714	88.06
345.942	76.06
346.17	93.06
346.397	79.06
346.625	77.06
346.853	91.06
347.08	92.06
347.308	74.06
347.535	78.06
347.763	86.06
347.99	84.06
348.218	91.06
348.445	79.06
348.673	95.06
348.9	79.06
349.128	94.06
349.355	81.06
349.583	97.06
349.81	92.06
350.037	97.06
350.265	84.06
350.492	87.06
350.72	83.06
350.947	81.06
351.174	82.06
351.402	87.06
351.629	67.06
351.856	78.06
352.083	80.06
352.311	83.06
352.538	80.06
352.765	81.06
352.992	87.06
353.22	90.06
353.447	87.06
353.674	77.06
353.901	74.06
354.128	87.06
354.355	84.06
354.583	90.06
354.81	93.06
355.037	88.06
355.264	77.06
355.491	77.06
355.718	78.06
355.945	75.06
356.172	93.06
356.399	81.06
356.626	102.06
356.853	73.06
357.08	82.06
357.307	87.06
357.534	76.06
357.761	74.06
357.988	92.06
358.215	102.06
358.441	85.06
358.668	97.06
358.895	91.06
359.122	99.06
359.349	87.06
359.576	73.06
359.802	77.06
360.029	78.06
360.256	74.06
360.483	87.06
360.709	78.06
360.936	105.06
361.163	83.06
361.39	87.06
361.616	84.06
361.843	84.06
362.07	99.06
362.296	105.06
362.523	86.06
362.749	89.06
362.976	90.06
363.203	98.06
363.429	83.06
363.656	72.06
363.882	85.06
364.109	93.06
364.335	87.06
364.562	110.06
364.788	92.06
365.015	85.06
365.241	83.06
365.468	76.06
365.694	83.06
365.92	73.06
366.147	78.06
366.373	87.06
366.599	75.06
366.826	92.06
367.052	97.06
367.278	87.06
367.505	96.06
367.731	94.06
367.957	76.06
368.184	86.06
368.41	77.06
368.636	85.06
368.862	86.06
369.089	89.06
369.315	79.06
369.541	75.06
369.767	83.06
369.993	79.06
370.219	68.06
370.445	72.06
370.672	90.06
370.898	81.06
371.124	96.06
371.35	90.06
371.576	85.06
371.802	87.06
372.028	97.06
372.254	83.06
372.48	72.06
372.706	79.06
372.932	87.06
373.158	87.06
373.384	91.06
373.61	116.06
373.835	96.06
374.061	81.06
374.287	90.06
374.513	100.06
374.739	105.06
374.965	85.06
375.191	82.06
375.416	75.06
375.642	102.06
375.868	80.06
376.094	89.06
376.319	85.06
376.545	80.06
376.771	83.06
376.997	88.06
377.222	72.06
377.448	80.06
377.674	85.06
377.899	91.06
378.125	66.06
378.35	91.06
378.576	67.06
378.802	72.06
379.027	79.06
379.253	83.06
379.478	81.06
379.704	91.06
379.929	87.06
380.155	86.06
380.38	85.06
380.606	85.06
380.831	84.06
381.057	93.06
381.282	85.06
381.507	86.06
381.733	85.06
381.958	79.06
382.184	80.06
382.409	94.06
382.634	83.06
382.86	96.06
383.085	83.06
383.31	92.06
383.535	100.06
383.761	84.06
383.986	92.06
384.211	85.06
384.436	79.06
384.662	81.06
384.887	80.06
385.112	86.06
385.337	81.06
385.562	88.06
385.787	81.06
386.013	100.06
386.238	88.06
386.463	78.06
386.688	87.06
386.913	77.06
387.138	71.06
387.363	95.06
387.588	77.06
387.813	97.06
388.038	82.06
388.263	77.06
388.488	98.06
388.713	89.06
388.938	88.06
389.163	88.06
389.387	79.06
389.612	88.06
389.837	83.06
390.062	89.06
390.287	89.06
390.512	89.06
390.736	76.06
390.961	77.06
391.186	77.06
391.411	85.06
391.636	88.06
391.86	81.06
392.085	83.06
392.31	85.06
392.534	87.06
392.759	111.06
392.984	110.06
393.208	191.06
393.433	241.06
393.658	206.06
393.882	126.06
394.107	101.06
394.331	109.06
394.556	100.06
394.78	85.06
395.005	92.06
395.229	91.06
395.454	91.06
395.678	111.06
395.903	87.06
396.127	112.06
396.352	107.06
396.576	103.06
396.801	173.06
397.025	208.06
397.249	137.06
397.474	102.06
397.698	95.06
397.922	92.06
398.147	84.06
398.371	86.06
398.595	85.06
398.82	75.06
399.044	74.06
399.268	93.06
399.492	79.06
399.717	80.06
399.941	79.06
400.165	86.06
400.389	83.06
400.613	83.06
400.837	87.06
401.062	93.06
401.286	90.06
401.51	71.06
401.734	70.06
401.958	75.06
402.182	71.06
402.406	86.06
402.63	86.06
402.854	78.06
403.078	75.06
403.302	79.06
403.526	83.06
403.75	82.06
403.974	83.06
404.198	79.06
404.422	86.06
404.645	76.06
404.869	99.06
405.093	75.06
405.317	86.06
405.541	71.06
405.765	77.06
405.988	83.06
406.212	79.06
406.436	85.06
406.66	79.06
406.883	75.06
407.107	80.06
407.331	79.06
407.555	80.06
407.778	95.06
408.002	92.06
408.226	89.06
408.449	83.06
408.673	88.06
408.896	82.06
409.12	70.06
409.344	88.06
409.567	70.06
409.791	93.06
410.014	95.06
410.238	81.06
410.461	89.06
410.685	78.06
410.908	72.06
411.132	91.06
411.355	73.06
411.578	86.06
411.802	77.06
412.025	82.06
412.249	74.06
412.472	94.06
412.695	77.06
412.919	90.06
413.142	88.06
413.365	78.06
413.589	77.06
413.812	90.06
414.035	90.06
414.258	84.06
414.482	81.06
414.705	79.06
414.928	77.06
415.151	89.06
415.374	92.06
415.597	93.06
415.821	73.06
416.044	90.06
416.267	81.06
416.49	93.06
416.713	81.06
416.936	67.06
417.159	83.06
417.382	84.06
417.605	89.06
417.828	88.06
418.051	91.06
418.274	95.06
418.497	88.06
418.72	86.06
418.943	70.06
419.166	80.06
419.389	75.06
419.611	71.06
419.834	77.06
420.057	74.06
420.28	80.06
420.503	75.06
420.726	92.06
420.948	79.06
421.171	96.06
421.394	79.06
421.617	94.06
421.839	107.06
422.062	105.06
422.285	115.06
422.507	166.06
422.73	229.06
422.953	231.06
423.175	121.06
423.398	96.06
423.621	90.06
423.843	95.06
424.066	89.06
424.288	87.06
424.511	81.06
424.733	81.06
424.956	71.06
425.178	83.06
425.401	73.06
425.623	89.06
425.846	79.06
426.068	81.06
426.291	92.06
426.513	79.06
426.735	79.06
426.958	91.06
427.18	96.06
427.402	89.06
427.625	91.06
427.847	88.06
428.069	88.06
428.292	104.06
428.514	116.06
428.736	100.06
428.958	101.06
429.181	104.06
429.403	79.06
429.625	90.06
429.847	93.06
430.069	112.06
430.292	115.06
430.514	122.06
430.736	97.06
430.958	114.06
431.18	86.06
431.402	78.06
431.624	98.06
431.846	87.06
432.068	98.06
432.29	92.06
432.512	88.06
432.734	94.06
432.956	90.06
433.178	81.06
433.4	75.06
433.622	68.06
433.844	80.06
434.066	85.06
434.287	84.06
434.509	74.06
434.731	88.06
434.953	79.06
435.175	77.06
435.397	76.06
435.618	99.06
435.84	84.06
436.062	90.06
436.284	84.06
436.505	82.06
436.727	83.06
436.949	72.06
437.17	62.06
437.392	85.06
437.614	71.06
437.835	72.06
438.057	82.06
438.278	76.06
438.5	87.06
438.721	84.06
438.943	79.06
439.165	92.06
439.386	65.06
439.608	91.06
439.829	93.06
440.05	84.06
440.272	77.06
440.493	75.06
440.715	86.06
440.936	81.06
441.158	86.06
441.379	85.06
441.6	90.06
441.822	87.06
442.043	84.06
442.264	76.06
442.486	99.06
442.707	111.06
442.928	92.06
443.149	84.06
443.371	116.06
443.592	159.06
443.813	132.06
444.034	86.06
444.255	81.06
444.476	82.06
444.698	102.06
444.919	83.06
445.14	178.06
445.361	163.06
445.582	191.06
445.803	164.06
446.024	89.06
446.245	73.06
446.466	80.06
446.687	72.06
446.908	96.06
447.129	84.06
447.35	82.06
447.571	56.06
447.792	80.06
448.013	85.06
448.234	77.06
448.455	81.06
448.675	82.06
448.896	76.06
449.117	76.06
449.338	83.06
449.559	93.06
449.779	83.06
450	72.06
450.221	64.06
450.442	84.06
450.662	85.06
450.883	95.06
451.104	83.06
451.324	82.06
451.545	79.06
451.766	82.06
451.986	87.06
452.207	77.06
452.428	91.06
452.648	99.06
452.869	95.06
453.089	81.06
453.31	84.06
453.53	91.06
453.751	78.06
453.971	83.06
454.192	86.06
454.412	80.06
454.633	73.06
454.853	95.06
455.073	85.06
455.294	83.06
455.514	91.06
455.734	81.06
455.955	93.06
456.175	74.06
456.395	80.06
456.616	84.06
456.836	92.06
457.056	70.06
457.276	86.06
457.497	94.06
457.717	81.06
457.937	81.06
458.157	80.06
458.377	98.06
458.598	91.06
458.818	102.06
459.038	80.06
459.258	84.06
459.478	82.06
459.698	81.06
459.918	83.06
460.138	83.06
460.358	88.06
460.578	90.06
460.798	80.06
461.018	101.06
461.238	80.06
461.458	73.06
461.678	75.06
461.898	73.06
462.118	87.06
462.338	94.06
462.558	96.06
462.777	73.06
462.997	64.06
463.217	84.06
463.437	65.06
463.657	79.06
463.876	71.06
464.096	93.06
464.316	80.06
464.536	77.06
464.755	78.06
464.975	83.06
465.195	77.06
465.414	66.06
465.634	83.06
465.854	76.06
466.073	96.06
466.293	83.06
466.512	83.06
466.732	73.06
466.951	88.06
467.171	90.06
467.391	81.06
467.61	72.06
467.829	84.06
468.049	80.06
468.268	74.06
468.488	71.06
468.707	61.06
468.927	78.06
469.146	95.06
469.365	92.06
469.585	92.06
469.804	88.06
470.023	68.06
470.243	65.06
470.462	88.06
470.681	65.06
470.901	87.06
471.12	84.06
471.339	73.06
471.558	79.06
471.777	87.06
471.997	69.06
472.216	69.06
472.435	73.06
472.654	89.06
472.873	77.06
473.092	85.06
473.311	79.06
473.53	77.06
473.749	76.06
473.968	80.06
474.187	82.06
474.406	72.06
474.625	91.06
474.844	89.06
475.063	99.06
475.282	91.06
475.501	92.06
475.72	88.06
475.939	81.06
476.158	77.06
476.377	77.06
476.596	91.06
476.814	79.06
477.033	93.06
477.252	87.06
477.471	88.06
477.69	86.06
477.908	86.06
478.127	88.06
478.346	74.06
478.564	86.06
478.783	69.06
479.002	71.06
479.22	93.06
479.439	83.06
479.658	96.06
479.876	81.06
480.095	96.06
480.313	85.06
480.532	83.06
480.751	85.06
480.969	75.06
481.188	90.06
481.406	76.06
481.624	93.06
481.843	65.06
482.061	73.06
482.28	64.06
482.498	95.06
482.717	77.06
482.935	80.06
483.153	87.06
483.372	85.06
483.59	67.06
483.808	92.06
484.027	91.06
484.245	94.06
484.463	86.06
484.681	86.06
484.9	91.06
485.118	83.06
485.336	81.06
485.554	85.06
485.772	94.06
485.99	83.06
486.209	85.06
486.427	84.06
486.645	76.06
486.863	79.06
487.081	79.06
487.299	87.06
487.517	90.06
487.735	106.06
487.953	118.06
488.171	116.06
488.389	89.06
488.607	87.06
488.825	80.06
489.043	87.06
489.261	84.06
489.479	94.06
489.696	90.06
489.914	85.06
490.132	82.06
490.35	92.06
490.568	91.06
490.786	82.06
491.003	79.06
491.221	100.06
491.439	74.06
491.657	88.06
491.874	91.06
492.092	92.06
492.31	91.06
492.527	86.06
492.745	86.06
492.963	94.06
493.18	87.06
493.398	81.06
493.615	60.06
493.833	74.06
494.05	71.06
494.268	83.06
494.485	80.06
494.703	69.06
494.92	75.06
495.138	80.06
495.355	85.06
495.573	91.06
495.79	89.06
496.008	89.06
496.225	71.06
496.442	68.06
496.66	89.06
496.877	79.06
497.094	96.06
497.312	81.06
497.529	89.06
497.746	77.06
497.963	73.06
498.181	91.06
498.398	99.06
498.615	83.06
498.832	88.06
499.049	80.06
499.267	92.06
499.484	95.06
499.701	87.06
499.918	82.06
500.135	79.06
500.352	75.06
500.569	83.06
500.786	84.06
501.003	92.06
501.22	71.06
501.437	72.06
501.654	82.06
501.871	87.06
502.088	96.06
502.305	98.06
502.522	77.06
502.739	82.06
502.956	95.06
503.172	95.06
503.389	88.06
503.606	84.06
503.823	76.06
504.04	94.06
504.256	125.06
504.473	115.06
504.69	85.06
504.907	89.06
505.123	83.06
505.34	87.06
505.557	78.06
505.773	81.06
505.99	90.06
506.207	67.06
506.423	87.06
506.64	86.06
506.856	79.06
507.073	89.06
507.289	87.06
507.506	80.06
507.722	74.06
507.939	80.06
508.155	94.06
508.372	86.06
508.588	94.06
508.805	84.06
509.021	85.06
509.238	86.06
509.454	75.06
509.67	77.06
509.887	89.06
510.103	84.06
510.319	88.06
510.536	93.06
510.752	77.06
510.968	69.06
511.184	88.06
511.401	90.06
511.617	77.06
511.833	86.06
512.049	83.06
512.265	85.06
512.481	88.06
512.698	85.06
512.914	90.06
513.13	89.06
513.346	80.06
513.562	89.06
513.778	87.06
513.994	85.06
514.21	83.06
514.426	61.06
514.642	90.06
514.858	63.06
515.074	88.06
515.29	81.06
515.506	86.06
515.721	84.06
515.937	85.06
516.153	86.06
516.369	96.06
516.585	93.06
516.801	65.06
517.016	86.06
517.232	95.06
517.448	82.06
517.664	84.06
517.879	83.06
518.095	83.06
518.311	68.06
518.527	98.06
518.742	88.06
518.958	93.06
519.173	120.06
