Data from 10100_2_HRD10591_00032.txt Node
Date: Mon Jan 19 14:01:40 EST 2026
User: Yrep
Spectrometer: HR+D1059
Trigger mode: 1
Integration Time (sec): 1.000000E-1
Scans to average: 1
Electric dark correction enabled: true
Nonlinearity correction enabled: false
Boxcar width: 0
XAxis mode: Wavelengths
Number of Pixels in Spectrum: 2048
>>>>>Begin Spectral Data<<<<<
223.165	-12.5
223.4	-12.5
223.635	-12.5
223.869	-18.5
224.104	-26.5
224.338	-16.5
224.573	-24.5
224.808	-15.5
225.042	-6.5
225.277	-1.5
225.511	-1.5
225.746	9.5
225.98	6.5
226.215	15.5
226.449	15.5
226.683	14.5
226.918	30.5
227.152	31.5
227.387	25.5
227.621	31.5
227.856	43.5
228.09	45.5
228.324	54.5
228.559	53.5
228.793	61.5
229.027	63.5
229.262	71.5
229.496	68.5
229.73	74.5
229.964	61.5
230.199	62.5
230.433	64.5
230.667	71.5
230.901	73.5
231.136	80.5
231.37	80.5
231.604	76.5
231.838	76.5
232.072	72.5
232.306	96.5
232.541	53.5
232.775	79.5
233.009	76.5
233.243	85.5
233.477	81.5
233.711	96.5
233.945	77.5
234.179	86.5
234.413	83.5
234.647	79.5
234.881	71.5
235.115	73.5
235.349	72.5
235.583	78.5
235.817	77.5
236.051	66.5
236.285	68.5
236.519	87.5
236.753	71.5
236.987	72.5
237.221	67.5
237.455	76.5
237.689	81.5
237.922	72.5
238.156	74.5
238.39	77.5
238.624	67.5
238.858	72.5
239.091	77.5
239.325	77.5
239.559	74.5
239.793	69.5
240.027	77.5
240.26	76.5
240.494	83.5
240.728	85.5
240.961	74.5
241.195	78.5
241.429	78.5
241.662	68.5
241.896	61.5
242.13	79.5
242.363	79.5
242.597	87.5
242.83	70.5
243.064	89.5
243.298	86.5
243.531	71.5
243.765	86.5
243.998	73.5
244.232	83.5
244.465	85.5
244.699	74.5
244.932	79.5
245.166	88.5
245.399	70.5
245.633	81.5
245.866	82.5
246.099	68.5
246.333	76.5
246.566	65.5
246.8	67.5
247.033	93.5
247.266	68.5
247.5	76.5
247.733	85.5
247.966	77.5
248.2	88.5
248.433	83.5
248.666	79.5
248.899	77.5
249.133	84.5
249.366	95.5
249.599	67.5
249.832	69.5
250.066	73.5
250.299	79.5
250.532	79.5
250.765	67.5
250.998	79.5
251.231	67.5
251.465	69.5
251.698	80.5
251.931	87.5
252.164	82.5
252.397	70.5
252.63	75.5
252.863	80.5
253.096	77.5
253.329	78.5
253.562	74.5
253.795	84.5
254.028	76.5
254.261	82.5
254.494	83.5
254.727	73.5
254.96	80.5
255.193	84.5
255.426	82.5
255.659	83.5
255.892	95.5
256.124	66.5
256.357	79.5
256.59	87.5
256.823	82.5
257.056	81.5
257.289	95.5
257.521	73.5
257.754	91.5
257.987	78.5
258.22	81.5
258.452	86.5
258.685	81.5
258.918	73.5
259.151	73.5
259.383	99.5
259.616	82.5
259.849	76.5
260.081	79.5
260.314	93.5
260.547	81.5
260.779	84.5
261.012	100.5
261.244	68.5
261.477	74.5
261.71	75.5
261.942	76.5
262.175	71.5
262.407	83.5
262.64	63.5
262.872	78.5
263.105	84.5
263.337	79.5
263.57	74.5
263.802	95.5
264.035	89.5
264.267	68.5
264.499	71.5
264.732	72.5
264.964	88.5
265.197	105.5
265.429	63.5
265.661	77.5
265.894	72.5
266.126	72.5
266.358	84.5
266.591	69.5
266.823	88.5
267.055	91.5
267.287	79.5
267.52	68.5
267.752	73.5
267.984	72.5
268.216	77.5
268.448	81.5
268.681	82.5
268.913	70.5
269.145	81.5
269.377	81.5
269.609	71.5
269.841	81.5
270.073	81.5
270.306	72.5
270.538	87.5
270.77	81.5
271.002	81.5
271.234	77.5
271.466	80.5
271.698	67.5
271.93	84.5
272.162	69.5
272.394	81.5
272.626	71.5
272.858	78.5
273.09	78.5
273.322	78.5
273.553	82.5
273.785	69.5
274.017	69.5
274.249	94.5
274.481	80.5
274.713	78.5
274.945	86.5
275.176	81.5
275.408	93.5
275.64	83.5
275.872	70.5
276.104	85.5
276.335	78.5
276.567	80.5
276.799	79.5
277.031	84.5
277.262	67.5
277.494	89.5
277.726	87.5
277.957	91.5
278.189	67.5
278.421	70.5
278.652	77.5
278.884	70.5
279.115	89.5
279.347	79.5
279.579	90.5
279.81	68.5
280.042	79.5
280.273	75.5
280.505	74.5
280.736	80.5
280.968	72.5
281.199	90.5
281.431	76.5
281.662	81.5
281.894	89.5
282.125	91.5
282.356	77.5
282.588	73.5
282.819	74.5
283.051	94.5
283.282	80.5
283.513	87.5
283.745	81.5
283.976	60.5
284.207	79.5
284.439	89.5
284.67	67.5
284.901	77.5
285.132	81.5
285.364	92.5
285.595	96.5
285.826	74.5
286.057	86.5
286.288	79.5
286.52	75.5
286.751	68.5
286.982	73.5
287.213	75.5
287.444	69.5
287.675	79.5
287.906	101.5
288.138	77.5
288.369	96.5
288.6	97.5
288.831	100.5
289.062	73.5
289.293	81.5
289.524	79.5
289.755	87.5
289.986	94.5
290.217	92.5
290.448	96.5
290.679	89.5
290.91	88.5
291.141	83.5
291.371	89.5
291.602	79.5
291.833	69.5
292.064	75.5
292.295	84.5
292.526	81.5
292.757	86.5
292.987	75.5
293.218	95.5
293.449	85.5
293.68	79.5
293.91	94.5
294.141	82.5
294.372	69.5
294.603	76.5
294.833	74.5
295.064	74.5
295.295	79.5
295.525	63.5
295.756	81.5
295.987	84.5
296.217	77.5
296.448	72.5
296.679	89.5
296.909	97.5
297.14	97.5
297.37	76.5
297.601	93.5
297.831	72.5
298.062	91.5
298.292	73.5
298.523	82.5
298.753	83.5
298.984	88.5
299.214	77.5
299.445	85.5
299.675	77.5
299.905	80.5
300.136	78.5
300.366	77.5
300.597	79.5
300.827	87.5
301.057	95.5
301.288	71.5
301.518	92.5
301.748	93.5
301.979	83.5
302.209	83.5
302.439	69.5
302.669	95.5
302.9	92.5
303.13	83.5
303.36	73.5
303.59	86.5
303.82	88.5
304.051	72.5
304.281	82.5
304.511	82.5
304.741	70.5
304.971	83.5
305.201	88.5
305.431	87.5
305.661	80.5
305.891	77.5
306.121	89.5
306.352	86.5
306.582	81.5
306.812	76.5
307.042	71.5
307.272	73.5
307.502	84.5
307.731	78.5
307.961	85.5
308.191	81.5
308.421	79.5
308.651	81.5
308.881	85.5
309.111	74.5
309.341	95.5
309.571	74.5
309.8	71.5
310.03	78.5
310.26	69.5
310.49	69.5
310.72	87.5
310.949	89.5
311.179	88.5
311.409	72.5
311.639	92.5
311.868	83.5
312.098	87.5
312.328	92.5
312.557	84.5
312.787	67.5
313.017	71.5
313.246	81.5
313.476	80.5
313.706	85.5
313.935	97.5
314.165	83.5
314.394	79.5
314.624	80.5
314.853	75.5
315.083	70.5
315.312	81.5
315.542	87.5
315.771	89.5
316.001	87.5
316.23	102.5
316.46	73.5
316.689	96.5
316.919	73.5
317.148	89.5
317.377	92.5
317.607	85.5
317.836	89.5
318.065	87.5
318.295	77.5
318.524	88.5
318.753	83.5
318.983	78.5
319.212	97.5
319.441	89.5
319.67	87.5
319.9	78.5
320.129	83.5
320.358	92.5
320.587	84.5
320.816	74.5
321.046	86.5
321.275	93.5
321.504	79.5
321.733	75.5
321.962	87.5
322.191	89.5
322.42	91.5
322.649	94.5
322.878	96.5
323.108	86.5
323.337	100.5
323.566	101.5
323.795	76.5
324.024	80.5
324.253	79.5
324.482	87.5
324.71	82.5
324.939	87.5
325.168	73.5
325.397	85.5
325.626	73.5
325.855	70.5
326.084	72.5
326.313	80.5
326.542	83.5
326.77	75.5
326.999	96.5
327.228	95.5
327.457	82.5
327.686	81.5
327.914	79.5
328.143	88.5
328.372	92.5
328.6	75.5
328.829	80.5
329.058	81.5
329.287	87.5
329.515	89.5
329.744	85.5
329.972	88.5
330.201	88.5
330.43	94.5
330.658	84.5
330.887	80.5
331.115	79.5
331.344	83.5
331.572	85.5
331.801	83.5
332.03	78.5
332.258	73.5
332.486	72.5
332.715	82.5
332.943	87.5
333.172	74.5
333.4	75.5
333.629	91.5
333.857	76.5
334.085	83.5
334.314	87.5
334.542	85.5
334.771	93.5
334.999	92.5
335.227	107.5
335.455	93.5
335.684	94.5
335.912	91.5
336.14	88.5
336.369	76.5
336.597	91.5
336.825	83.5
337.053	94.5
337.281	87.5
337.51	97.5
337.738	92.5
337.966	88.5
338.194	98.5
338.422	89.5
338.65	81.5
338.878	95.5
339.106	64.5
339.334	76.5
339.562	79.5
339.79	71.5
340.018	79.5
340.246	79.5
340.474	81.5
340.702	95.5
340.93	83.5
341.158	56.5
341.386	81.5
341.614	73.5
341.842	75.5
342.07	82.5
342.298	96.5
342.526	77.5
342.754	85.5
342.981	91.5
343.209	91.5
343.437	92.5
343.665	78.5
343.893	81.5
344.12	89.5
344.348	87.5
344.576	92.5
344.804	87.5
345.031	78.5
345.259	88.5
345.487	70.5
345.714	94.5
345.942	83.5
346.17	82.5
346.397	72.5
346.625	88.5
346.853	85.5
347.08	91.5
347.308	79.5
347.535	91.5
347.763	92.5
347.99	93.5
348.218	82.5
348.445	85.5
348.673	81.5
348.9	89.5
349.128	81.5
349.355	83.5
349.583	87.5
349.81	96.5
350.037	81.5
350.265	89.5
350.492	84.5
350.72	88.5
350.947	88.5
351.174	88.5
351.402	78.5
351.629	89.5
351.856	84.5
352.083	78.5
352.311	89.5
352.538	79.5
352.765	77.5
352.992	87.5
353.22	95.5
353.447	92.5
353.674	92.5
353.901	111.5
354.128	87.5
354.355	85.5
354.583	72.5
354.81	87.5
355.037	93.5
355.264	90.5
355.491	93.5
355.718	67.5
355.945	90.5
356.172	93.5
356.399	79.5
356.626	92.5
356.853	89.5
357.08	85.5
357.307	71.5
357.534	71.5
357.761	81.5
357.988	80.5
358.215	84.5
358.441	77.5
358.668	71.5
358.895	85.5
359.122	74.5
359.349	84.5
359.576	75.5
359.802	91.5
360.029	80.5
360.256	74.5
360.483	63.5
360.709	68.5
360.936	88.5
361.163	80.5
361.39	75.5
361.616	84.5
361.843	81.5
362.07	86.5
362.296	90.5
362.523	87.5
362.749	70.5
362.976	69.5
363.203	76.5
363.429	95.5
363.656	82.5
363.882	67.5
364.109	93.5
364.335	81.5
364.562	91.5
364.788	80.5
365.015	91.5
365.241	80.5
365.468	79.5
365.694	84.5
365.92	78.5
366.147	82.5
366.373	79.5
366.599	73.5
366.826	79.5
367.052	78.5
367.278	92.5
367.505	91.5
367.731	85.5
367.957	79.5
368.184	82.5
368.41	87.5
368.636	65.5
368.862	79.5
369.089	80.5
369.315	76.5
369.541	80.5
369.767	99.5
369.993	80.5
370.219	83.5
370.445	87.5
370.672	87.5
370.898	76.5
371.124	77.5
371.35	79.5
371.576	69.5
371.802	67.5
372.028	71.5
372.254	95.5
372.48	95.5
372.706	81.5
372.932	76.5
373.158	88.5
373.384	81.5
373.61	93.5
373.835	82.5
374.061	74.5
374.287	88.5
374.513	87.5
374.739	85.5
374.965	87.5
375.191	82.5
375.416	76.5
375.642	77.5
375.868	92.5
376.094	88.5
376.319	80.5
376.545	81.5
376.771	63.5
376.997	66.5
377.222	84.5
377.448	95.5
377.674	78.5
377.899	71.5
378.125	91.5
378.35	79.5
378.576	73.5
378.802	89.5
379.027	99.5
379.253	76.5
379.478	73.5
379.704	82.5
379.929	98.5
380.155	83.5
380.38	84.5
380.606	83.5
380.831	87.5
381.057	81.5
381.282	79.5
381.507	62.5
381.733	83.5
381.958	80.5
382.184	85.5
382.409	73.5
382.634	93.5
382.86	71.5
383.085	87.5
383.31	85.5
383.535	73.5
383.761	91.5
383.986	75.5
384.211	87.5
384.436	71.5
384.662	64.5
384.887	73.5
385.112	84.5
385.337	77.5
385.562	71.5
385.787	82.5
386.013	96.5
386.238	86.5
386.463	91.5
386.688	97.5
386.913	74.5
387.138	79.5
387.363	85.5
387.588	91.5
387.813	95.5
388.038	92.5
388.263	85.5
388.488	78.5
388.713	73.5
388.938	91.5
389.163	65.5
389.387	75.5
389.612	82.5
389.837	75.5
390.062	70.5
390.287	83.5
390.512	80.5
390.736	79.5
390.961	89.5
391.186	80.5
391.411	95.5
391.636	84.5
391.86	91.5
392.085	75.5
392.31	73.5
392.534	72.5
392.759	79.5
392.984	87.5
393.208	128.5
393.433	142.5
393.658	141.5
393.882	96.5
394.107	76.5
394.331	88.5
394.556	79.5
394.78	83.5
395.005	84.5
395.229	71.5
395.454	85.5
395.678	89.5
395.903	81.5
396.127	79.5
396.352	82.5
396.576	99.5
396.801	133.5
397.025	124.5
397.249	106.5
397.474	92.5
397.698	72.5
397.922	84.5
398.147	72.5
398.371	87.5
398.595	76.5
398.82	76.5
399.044	79.5
399.268	71.5
399.492	86.5
399.717	83.5
399.941	88.5
400.165	78.5
400.389	69.5
400.613	75.5
400.837	67.5
401.062	82.5
401.286	81.5
401.51	77.5
401.734	68.5
401.958	80.5
402.182	88.5
402.406	66.5
402.63	71.5
402.854	71.5
403.078	87.5
403.302	76.5
403.526	93.5
403.75	84.5
403.974	91.5
404.198	71.5
404.422	86.5
404.645	86.5
404.869	89.5
405.093	80.5
405.317	72.5
405.541	80.5
405.765	71.5
405.988	74.5
406.212	81.5
406.436	73.5
406.66	77.5
406.883	79.5
407.107	79.5
407.331	83.5
407.555	90.5
407.778	85.5
408.002	89.5
408.226	75.5
408.449	73.5
408.673	87.5
408.896	70.5
409.12	78.5
409.344	80.5
409.567	89.5
409.791	100.5
410.014	85.5
410.238	80.5
410.461	90.5
410.685	86.5
410.908	77.5
411.132	90.5
411.355	87.5
411.578	84.5
411.802	82.5
412.025	70.5
412.249	65.5
412.472	86.5
412.695	80.5
412.919	83.5
413.142	85.5
413.365	75.5
413.589	78.5
413.812	73.5
414.035	89.5
414.258	80.5
414.482	88.5
414.705	81.5
414.928	81.5
415.151	84.5
415.374	63.5
415.597	79.5
415.821	76.5
416.044	81.5
416.267	81.5
416.49	77.5
416.713	84.5
416.936	70.5
417.159	86.5
417.382	87.5
417.605	84.5
417.828	84.5
418.051	82.5
418.274	85.5
418.497	96.5
418.72	84.5
418.943	71.5
419.166	86.5
419.389	77.5
419.611	81.5
419.834	75.5
420.057	73.5
420.28	72.5
420.503	78.5
420.726	78.5
420.948	83.5
421.171	101.5
421.394	80.5
421.617	80.5
421.839	92.5
422.062	73.5
422.285	91.5
422.507	113.5
422.73	150.5
422.953	142.5
423.175	100.5
423.398	85.5
423.621	87.5
423.843	71.5
424.066	81.5
424.288	90.5
424.511	78.5
424.733	63.5
424.956	77.5
425.178	87.5
425.401	101.5
425.623	71.5
425.846	73.5
426.068	83.5
426.291	80.5
426.513	77.5
426.735	73.5
426.958	77.5
427.18	73.5
427.402	83.5
427.625	83.5
427.847	87.5
428.069	78.5
428.292	74.5
428.514	80.5
428.736	79.5
428.958	89.5
429.181	98.5
429.403	79.5
429.625	85.5
429.847	81.5
430.069	96.5
430.292	111.5
430.514	97.5
430.736	89.5
430.958	107.5
431.18	77.5
431.402	82.5
431.624	94.5
431.846	74.5
432.068	97.5
432.29	79.5
432.512	83.5
432.734	79.5
432.956	86.5
433.178	80.5
433.4	85.5
433.622	65.5
433.844	75.5
434.066	81.5
434.287	79.5
434.509	84.5
434.731	83.5
434.953	73.5
435.175	77.5
435.397	78.5
435.618	87.5
435.84	78.5
436.062	76.5
436.284	83.5
436.505	73.5
436.727	89.5
436.949	79.5
437.17	71.5
437.392	76.5
437.614	81.5
437.835	77.5
438.057	60.5
438.278	72.5
438.5	89.5
438.721	74.5
438.943	89.5
439.165	75.5
439.386	88.5
439.608	87.5
439.829	80.5
440.05	85.5
440.272	101.5
440.493	87.5
440.715	76.5
440.936	74.5
441.158	85.5
441.379	87.5
441.6	79.5
441.822	73.5
442.043	87.5
442.264	89.5
442.486	85.5
442.707	94.5
442.928	88.5
443.149	80.5
443.371	99.5
443.592	92.5
443.813	100.5
444.034	86.5
444.255	88.5
444.476	70.5
444.698	79.5
444.919	79.5
445.14	165.5
445.361	125.5
445.582	124.5
445.803	96.5
446.024	94.5
446.245	83.5
446.466	87.5
446.687	76.5
446.908	71.5
447.129	87.5
447.35	87.5
447.571	79.5
447.792	76.5
448.013	75.5
448.234	73.5
448.455	75.5
448.675	77.5
448.896	97.5
449.117	93.5
449.338	76.5
449.559	92.5
449.779	76.5
450	78.5
450.221	67.5
450.442	77.5
450.662	78.5
450.883	89.5
451.104	81.5
451.324	76.5
451.545	82.5
451.766	71.5
451.986	85.5
452.207	100.5
452.428	75.5
452.648	84.5
452.869	77.5
453.089	73.5
453.31	87.5
453.53	93.5
453.751	85.5
453.971	79.5
454.192	81.5
454.412	71.5
454.633	85.5
454.853	80.5
455.073	81.5
455.294	81.5
455.514	96.5
455.734	79.5
455.955	73.5
456.175	80.5
456.395	85.5
456.616	89.5
456.836	91.5
457.056	93.5
457.276	91.5
457.497	89.5
457.717	70.5
457.937	82.5
458.157	86.5
458.377	83.5
458.598	87.5
458.818	82.5
459.038	71.5
459.258	72.5
459.478	80.5
459.698	81.5
459.918	81.5
460.138	82.5
460.358	81.5
460.578	109.5
460.798	88.5
461.018	77.5
461.238	80.5
461.458	70.5
461.678	82.5
461.898	74.5
462.118	80.5
462.338	85.5
462.558	75.5
462.777	79.5
462.997	70.5
463.217	75.5
463.437	74.5
463.657	86.5
463.876	88.5
464.096	86.5
464.316	77.5
464.536	92.5
464.755	85.5
464.975	87.5
465.195	76.5
465.414	83.5
465.634	65.5
465.854	65.5
466.073	71.5
466.293	73.5
466.512	80.5
466.732	68.5
466.951	75.5
467.171	67.5
467.391	69.5
467.61	71.5
467.829	72.5
468.049	74.5
468.268	85.5
468.488	83.5
468.707	82.5
468.927	89.5
469.146	91.5
469.365	85.5
469.585	87.5
469.804	80.5
470.023	74.5
470.243	72.5
470.462	101.5
470.681	90.5
470.901	85.5
471.12	92.5
471.339	67.5
471.558	79.5
471.777	91.5
471.997	78.5
472.216	76.5
472.435	74.5
472.654	65.5
472.873	93.5
473.092	81.5
473.311	79.5
473.53	91.5
473.749	89.5
473.968	88.5
474.187	72.5
474.406	89.5
474.625	79.5
474.844	89.5
475.063	73.5
475.282	77.5
475.501	81.5
475.72	91.5
475.939	77.5
476.158	71.5
476.377	67.5
476.596	76.5
476.814	65.5
477.033	91.5
477.252	86.5
477.471	76.5
477.69	85.5
477.908	77.5
478.127	87.5
478.346	76.5
478.564	76.5
478.783	72.5
479.002	71.5
479.22	88.5
479.439	66.5
479.658	84.5
479.876	75.5
480.095	63.5
480.313	73.5
480.532	83.5
480.751	83.5
480.969	87.5
481.188	76.5
481.406	89.5
481.624	79.5
481.843	70.5
482.061	71.5
482.28	67.5
482.498	76.5
482.717	81.5
482.935	79.5
483.153	90.5
483.372	68.5
483.59	87.5
483.808	69.5
484.027	66.5
484.245	72.5
484.463	75.5
484.681	85.5
484.9	77.5
485.118	83.5
485.336	84.5
485.554	94.5
485.772	86.5
485.99	76.5
486.209	83.5
486.427	80.5
486.645	77.5
486.863	77.5
487.081	68.5
487.299	86.5
487.517	87.5
487.735	75.5
487.953	74.5
488.171	95.5
488.389	88.5
488.607	80.5
488.825	89.5
489.043	76.5
489.261	76.5
489.479	91.5
489.696	97.5
489.914	93.5
490.132	86.5
490.35	83.5
490.568	93.5
490.786	83.5
491.003	65.5
491.221	82.5
491.439	81.5
491.657	59.5
491.874	85.5
492.092	77.5
492.31	74.5
492.527	91.5
492.745	84.5
492.963	89.5
493.18	96.5
493.398	99.5
493.615	83.5
493.833	71.5
494.05	65.5
494.268	77.5
494.485	86.5
494.703	75.5
494.92	82.5
495.138	89.5
495.355	83.5
495.573	87.5
495.79	73.5
496.008	77.5
496.225	98.5
496.442	93.5
496.66	99.5
496.877	76.5
497.094	83.5
497.312	78.5
497.529	83.5
497.746	96.5
497.963	75.5
498.181	77.5
498.398	72.5
498.615	77.5
498.832	80.5
499.049	91.5
499.267	83.5
499.484	97.5
499.701	98.5
499.918	91.5
500.135	94.5
500.352	83.5
500.569	86.5
500.786	72.5
501.003	77.5
501.22	89.5
501.437	96.5
501.654	78.5
501.871	91.5
502.088	88.5
502.305	91.5
502.522	81.5
502.739	79.5
502.956	87.5
503.172	73.5
503.389	91.5
503.606	81.5
503.823	87.5
504.04	75.5
504.256	91.5
504.473	82.5
504.69	80.5
504.907	98.5
505.123	76.5
505.34	75.5
505.557	65.5
505.773	95.5
505.99	85.5
506.207	82.5
506.423	79.5
506.64	78.5
506.856	77.5
507.073	67.5
507.289	67.5
507.506	82.5
507.722	87.5
507.939	89.5
508.155	78.5
508.372	95.5
508.588	79.5
508.805	80.5
509.021	68.5
509.238	83.5
509.454	72.5
509.67	74.5
509.887	84.5
510.103	87.5
510.319	77.5
510.536	101.5
510.752	82.5
510.968	82.5
511.184	69.5
511.401	95.5
511.617	88.5
511.833	86.5
512.049	86.5
512.265	78.5
512.481	79.5
512.698	84.5
512.914	89.5
513.13	81.5
513.346	77.5
513.562	79.5
513.778	90.5
513.994	85.5
514.21	91.5
514.426	78.5
514.642	85.5
514.858	72.5
515.074	71.5
515.29	87.5
515.506	88.5
515.721	81.5
515.937	93.5
516.153	88.5
516.369	67.5
516.585	74.5
516.801	83.5
517.016	95.5
517.232	96.5
517.448	71.5
517.664	63.5
517.879	90.5
518.095	80.5
518.311	85.5
518.527	79.5
518.742	95.5
518.958	87.5
519.173	102.5
519.389	88.5
519.605	79.5
519.82	78.5
520.036	71.5
520.251	85.5
520.467	85.5
520.682	91.5
520.898	89.5
521.113	92.5
521.329	85.5
521.544	69.5
521.76	93.5
521.975	72.5
522.19	81.5
522.406	90.5
522.621	82.5
522.836	70.5
523.052	66.5
523.267	65.5
523.482	89.5
523.698	77.5
523.913	86.5
524.128	71.5
524.343	81.5
524.559	101.5
524.774	87.5
524.989	81.5
525.204	71.5
525.419	87.5
525.634	81.5
525.849	90.5
526.064	78.5
526.28	101.5
526.495	121.5
526.71	127.5
526.925	121.5
527.14	111.5
527.355	100.5
527.57	88.5
527.785	71.5
527.999	87.5
528.214	84.5
528.429	85.5
528.644	81.5
528.859	79.5
529.074	79.5
529.289	85.5
529.503	82.5
529.718	94.5
529.933	80.5
530.148	94.5
530.363	89.5
530.577	75.5
530.792	85.5
531.007	87.5
531.221	85.5
531.436	92.5
531.651	82.5
531.865	76.5
532.08	87.5
532.295	79.5
532.509	88.5
532.724	90.5
532.938	88.5
533.153	78.5
533.367	83.5
533.582	83.5
533.796	94.5
534.011	93.5
534.225	89.5
534.44	87.5
534.654	95.5
534.868	88.5
535.083	93.5
535.297	85.5
535.511	82.5
535.726	77.5
535.94	89.5
536.154	68.5
536.369	86.5
536.583	85.5
536.797	82.5
537.011	95.5
537.225	85.5
537.44	69.5
537.654	91.5
537.868	81.5
538.082	86.5
538.296	77.5
538.51	74.5
538.724	76.5
538.938	102.5
539.153	78.5
539.367	89.5
539.581	80.5
539.795	69.5
540.009	77.5
