Data from 10100_2_HRD10591_00024.txt Node
Date: Mon Jan 19 14:01:36 EST 2026
User: Yrep
Spectrometer: HR+D1059
Trigger mode: 1
Integration Time (sec): 1.000000E-1
Scans to average: 1
Electric dark correction enabled: true
Nonlinearity correction enabled: false
Boxcar width: 0
XAxis mode: Wavelengths
Number of Pixels in Spectrum: 2048
>>>>>Begin Spectral Data<<<<<
223.165	-13.62
223.4	-13.62
223.635	-13.62
223.869	-17.62
224.104	-19.62
224.338	-13.62
224.573	-10.62
224.808	-22.62
225.042	-7.62
225.277	-1.62
225.511	3.38
225.746	7.38
225.98	9.38
226.215	20.38
226.449	0.38
226.683	13.38
226.918	23.38
227.152	29.38
227.387	36.38
227.621	50.38
227.856	52.38
228.09	51.38
228.324	49.38
228.559	54.38
228.793	57.38
229.027	49.38
229.262	49.38
229.496	70.38
229.73	69.38
229.964	70.38
230.199	58.38
230.433	75.38
230.667	67.38
230.901	63.38
231.136	77.38
231.37	82.38
231.604	84.38
231.838	78.38
232.072	79.38
232.306	79.38
232.541	66.38
232.775	76.38
233.009	85.38
233.243	78.38
233.477	71.38
233.711	82.38
233.945	87.38
234.179	75.38
234.413	75.38
234.647	88.38
234.881	83.38
235.115	78.38
235.349	67.38
235.583	67.38
235.817	72.38
236.051	78.38
236.285	77.38
236.519	83.38
236.753	70.38
236.987	71.38
237.221	82.38
237.455	70.38
237.689	64.38
237.922	77.38
238.156	85.38
238.39	70.38
238.624	64.38
238.858	70.38
239.091	77.38
239.325	79.38
239.559	65.38
239.793	65.38
240.027	67.38
240.26	67.38
240.494	64.38
240.728	70.38
240.961	65.38
241.195	72.38
241.429	67.38
241.662	70.38
241.896	63.38
242.13	75.38
242.363	83.38
242.597	74.38
242.83	63.38
243.064	41.38
243.298	67.38
243.531	77.38
243.765	78.38
243.998	70.38
244.232	86.38
244.465	73.38
244.699	67.38
244.932	89.38
245.166	72.38
245.399	65.38
245.633	73.38
245.866	62.38
246.099	63.38
246.333	81.38
246.566	61.38
246.8	78.38
247.033	70.38
247.266	83.38
247.5	85.38
247.733	82.38
247.966	89.38
248.2	65.38
248.433	75.38
248.666	76.38
248.899	63.38
249.133	68.38
249.366	76.38
249.599	77.38
249.832	76.38
250.066	71.38
250.299	78.38
250.532	77.38
250.765	79.38
250.998	78.38
251.231	73.38
251.465	71.38
251.698	83.38
251.931	75.38
252.164	72.38
252.397	76.38
252.63	85.38
252.863	75.38
253.096	65.38
253.329	87.38
253.562	70.38
253.795	77.38
254.028	77.38
254.261	83.38
254.494	82.38
254.727	90.38
254.96	76.38
255.193	61.38
255.426	77.38
255.659	74.38
255.892	88.38
256.124	81.38
256.357	84.38
256.59	71.38
256.823	80.38
257.056	81.38
257.289	79.38
257.521	87.38
257.754	86.38
257.987	89.38
258.22	71.38
258.452	77.38
258.685	70.38
258.918	85.38
259.151	75.38
259.383	73.38
259.616	70.38
259.849	86.38
260.081	83.38
260.314	71.38
260.547	72.38
260.779	83.38
261.012	71.38
261.244	67.38
261.477	82.38
261.71	102.38
261.942	75.38
262.175	83.38
262.407	74.38
262.64	75.38
262.872	100.38
263.105	81.38
263.337	100.38
263.57	89.38
263.802	78.38
264.035	75.38
264.267	88.38
264.499	70.38
264.732	75.38
264.964	70.38
265.197	69.38
265.429	77.38
265.661	77.38
265.894	91.38
266.126	79.38
266.358	99.38
266.591	82.38
266.823	79.38
267.055	84.38
267.287	82.38
267.52	88.38
267.752	82.38
267.984	83.38
268.216	80.38
268.448	83.38
268.681	68.38
268.913	73.38
269.145	82.38
269.377	69.38
269.609	79.38
269.841	85.38
270.073	72.38
270.306	88.38
270.538	72.38
270.77	70.38
271.002	63.38
271.234	72.38
271.466	59.38
271.698	71.38
271.93	78.38
272.162	90.38
272.394	82.38
272.626	75.38
272.858	79.38
273.09	76.38
273.322	86.38
273.553	77.38
273.785	77.38
274.017	83.38
274.249	72.38
274.481	85.38
274.713	70.38
274.945	75.38
275.176	92.38
275.408	83.38
275.64	71.38
275.872	80.38
276.104	65.38
276.335	82.38
276.567	75.38
276.799	74.38
277.031	81.38
277.262	74.38
277.494	89.38
277.726	89.38
277.957	75.38
278.189	94.38
278.421	79.38
278.652	81.38
278.884	86.38
279.115	78.38
279.347	79.38
279.579	71.38
279.81	68.38
280.042	85.38
280.273	77.38
280.505	75.38
280.736	85.38
280.968	75.38
281.199	69.38
281.431	76.38
281.662	87.38
281.894	68.38
282.125	77.38
282.356	76.38
282.588	60.38
282.819	84.38
283.051	86.38
283.282	73.38
283.513	88.38
283.745	87.38
283.976	79.38
284.207	81.38
284.439	76.38
284.67	65.38
284.901	75.38
285.132	88.38
285.364	87.38
285.595	93.38
285.826	77.38
286.057	68.38
286.288	75.38
286.52	86.38
286.751	75.38
286.982	82.38
287.213	79.38
287.444	74.38
287.675	75.38
287.906	80.38
288.138	71.38
288.369	93.38
288.6	74.38
288.831	78.38
289.062	79.38
289.293	83.38
289.524	77.38
289.755	90.38
289.986	78.38
290.217	92.38
290.448	92.38
290.679	72.38
290.91	81.38
291.141	85.38
291.371	71.38
291.602	78.38
291.833	90.38
292.064	84.38
292.295	69.38
292.526	70.38
292.757	61.38
292.987	77.38
293.218	74.38
293.449	77.38
293.68	88.38
293.91	71.38
294.141	77.38
294.372	81.38
294.603	84.38
294.833	63.38
295.064	73.38
295.295	84.38
295.525	81.38
295.756	83.38
295.987	79.38
296.217	79.38
296.448	65.38
296.679	81.38
296.909	69.38
297.14	83.38
297.37	78.38
297.601	78.38
297.831	70.38
298.062	86.38
298.292	84.38
298.523	79.38
298.753	101.38
298.984	83.38
299.214	76.38
299.445	79.38
299.675	78.38
299.905	79.38
300.136	91.38
300.366	85.38
300.597	76.38
300.827	89.38
301.057	88.38
301.288	79.38
301.518	86.38
301.748	67.38
301.979	83.38
302.209	89.38
302.439	86.38
302.669	81.38
302.9	86.38
303.13	79.38
303.36	80.38
303.59	80.38
303.82	94.38
304.051	73.38
304.281	87.38
304.511	85.38
304.741	90.38
304.971	77.38
305.201	68.38
305.431	94.38
305.661	85.38
305.891	74.38
306.121	88.38
306.352	90.38
306.582	69.38
306.812	74.38
307.042	68.38
307.272	70.38
307.502	77.38
307.731	86.38
307.961	75.38
308.191	78.38
308.421	86.38
308.651	82.38
308.881	87.38
309.111	85.38
309.341	72.38
309.571	82.38
309.8	93.38
310.03	78.38
310.26	87.38
310.49	68.38
310.72	85.38
310.949	80.38
311.179	68.38
311.409	67.38
311.639	78.38
311.868	84.38
312.098	75.38
312.328	90.38
312.557	78.38
312.787	85.38
313.017	89.38
313.246	85.38
313.476	69.38
313.706	61.38
313.935	87.38
314.165	87.38
314.394	89.38
314.624	84.38
314.853	86.38
315.083	91.38
315.312	85.38
315.542	67.38
315.771	71.38
316.001	86.38
316.23	66.38
316.46	82.38
316.689	74.38
316.919	65.38
317.148	86.38
317.377	66.38
317.607	82.38
317.836	87.38
318.065	86.38
318.295	82.38
318.524	84.38
318.753	72.38
318.983	77.38
319.212	86.38
319.441	83.38
319.67	85.38
319.9	70.38
320.129	91.38
320.358	88.38
320.587	84.38
320.816	79.38
321.046	73.38
321.275	74.38
321.504	81.38
321.733	100.38
321.962	88.38
322.191	85.38
322.42	65.38
322.649	83.38
322.878	78.38
323.108	74.38
323.337	90.38
323.566	87.38
323.795	76.38
324.024	74.38
324.253	67.38
324.482	72.38
324.71	82.38
324.939	86.38
325.168	98.38
325.397	74.38
325.626	77.38
325.855	72.38
326.084	85.38
326.313	85.38
326.542	74.38
326.77	80.38
326.999	89.38
327.228	75.38
327.457	93.38
327.686	78.38
327.914	82.38
328.143	83.38
328.372	86.38
328.6	81.38
328.829	69.38
329.058	72.38
329.287	77.38
329.515	86.38
329.744	79.38
329.972	78.38
330.201	86.38
330.43	77.38
330.658	90.38
330.887	77.38
331.115	89.38
331.344	87.38
331.572	87.38
331.801	77.38
332.03	71.38
332.258	86.38
332.486	75.38
332.715	85.38
332.943	88.38
333.172	90.38
333.4	78.38
333.629	76.38
333.857	77.38
334.085	78.38
334.314	84.38
334.542	84.38
334.771	82.38
334.999	88.38
335.227	79.38
335.455	78.38
335.684	99.38
335.912	105.38
336.14	96.38
336.369	92.38
336.597	81.38
336.825	87.38
337.053	77.38
337.281	76.38
337.51	74.38
337.738	83.38
337.966	85.38
338.194	83.38
338.422	85.38
338.65	86.38
338.878	90.38
339.106	74.38
339.334	88.38
339.562	78.38
339.79	76.38
340.018	79.38
340.246	82.38
340.474	92.38
340.702	75.38
340.93	75.38
341.158	73.38
341.386	77.38
341.614	71.38
341.842	74.38
342.07	82.38
342.298	74.38
342.526	83.38
342.754	78.38
342.981	80.38
343.209	81.38
343.437	95.38
343.665	91.38
343.893	88.38
344.12	86.38
344.348	78.38
344.576	91.38
344.804	77.38
345.031	72.38
345.259	80.38
345.487	75.38
345.714	68.38
345.942	79.38
346.17	86.38
346.397	69.38
346.625	68.38
346.853	66.38
347.08	74.38
347.308	76.38
347.535	91.38
347.763	87.38
347.99	83.38
348.218	74.38
348.445	79.38
348.673	86.38
348.9	86.38
349.128	91.38
349.355	91.38
349.583	85.38
349.81	86.38
350.037	89.38
350.265	89.38
350.492	71.38
350.72	84.38
350.947	70.38
351.174	90.38
351.402	85.38
351.629	66.38
351.856	80.38
352.083	87.38
352.311	98.38
352.538	82.38
352.765	89.38
352.992	89.38
353.22	78.38
353.447	74.38
353.674	76.38
353.901	66.38
354.128	78.38
354.355	83.38
354.583	86.38
354.81	75.38
355.037	80.38
355.264	84.38
355.491	85.38
355.718	77.38
355.945	83.38
356.172	76.38
356.399	84.38
356.626	95.38
356.853	98.38
357.08	75.38
357.307	75.38
357.534	90.38
357.761	83.38
357.988	89.38
358.215	89.38
358.441	85.38
358.668	80.38
358.895	80.38
359.122	83.38
359.349	69.38
359.576	76.38
359.802	83.38
360.029	92.38
360.256	90.38
360.483	65.38
360.709	96.38
360.936	83.38
361.163	97.38
361.39	85.38
361.616	91.38
361.843	92.38
362.07	88.38
362.296	92.38
362.523	82.38
362.749	83.38
362.976	80.38
363.203	94.38
363.429	85.38
363.656	79.38
363.882	81.38
364.109	93.38
364.335	97.38
364.562	118.38
364.788	95.38
365.015	84.38
365.241	78.38
365.468	84.38
365.694	84.38
365.92	84.38
366.147	72.38
366.373	82.38
366.599	80.38
366.826	77.38
367.052	91.38
367.278	80.38
367.505	66.38
367.731	80.38
367.957	85.38
368.184	75.38
368.41	81.38
368.636	79.38
368.862	76.38
369.089	79.38
369.315	70.38
369.541	91.38
369.767	85.38
369.993	70.38
370.219	79.38
370.445	77.38
370.672	84.38
370.898	89.38
371.124	77.38
371.35	71.38
371.576	80.38
371.802	89.38
372.028	102.38
372.254	97.38
372.48	89.38
372.706	87.38
372.932	97.38
373.158	79.38
373.384	87.38
373.61	107.38
373.835	90.38
374.061	82.38
374.287	94.38
374.513	81.38
374.739	108.38
374.965	95.38
375.191	92.38
375.416	85.38
375.642	98.38
375.868	97.38
376.094	93.38
376.319	93.38
376.545	76.38
376.771	85.38
376.997	79.38
377.222	66.38
377.448	81.38
377.674	80.38
377.899	81.38
378.125	76.38
378.35	82.38
378.576	73.38
378.802	71.38
379.027	79.38
379.253	90.38
379.478	85.38
379.704	69.38
379.929	68.38
380.155	88.38
380.38	77.38
380.606	69.38
380.831	83.38
381.057	84.38
381.282	81.38
381.507	87.38
381.733	100.38
381.958	70.38
382.184	90.38
382.409	96.38
382.634	80.38
382.86	98.38
383.085	96.38
383.31	79.38
383.535	93.38
383.761	95.38
383.986	91.38
384.211	70.38
384.436	68.38
384.662	87.38
384.887	85.38
385.112	84.38
385.337	89.38
385.562	72.38
385.787	95.38
386.013	75.38
386.238	96.38
386.463	83.38
386.688	102.38
386.913	72.38
387.138	87.38
387.363	91.38
387.588	85.38
387.813	74.38
388.038	77.38
388.263	91.38
388.488	83.38
388.713	78.38
388.938	77.38
389.163	74.38
389.387	69.38
389.612	85.38
389.837	86.38
390.062	95.38
390.287	88.38
390.512	68.38
390.736	82.38
390.961	79.38
391.186	84.38
391.411	86.38
391.636	78.38
391.86	85.38
392.085	97.38
392.31	80.38
392.534	92.38
392.759	91.38
392.984	114.38
393.208	173.38
393.433	260.38
393.658	194.38
393.882	105.38
394.107	98.38
394.331	93.38
394.556	98.38
394.78	82.38
395.005	85.38
395.229	82.38
395.454	67.38
395.678	95.38
395.903	103.38
396.127	102.38
396.352	97.38
396.576	130.38
396.801	185.38
397.025	209.38
397.249	130.38
397.474	93.38
397.698	83.38
397.922	86.38
398.147	75.38
398.371	86.38
398.595	69.38
398.82	98.38
399.044	83.38
399.268	83.38
399.492	83.38
399.717	84.38
399.941	83.38
400.165	85.38
400.389	82.38
400.613	89.38
400.837	63.38
401.062	90.38
401.286	88.38
401.51	89.38
401.734	99.38
401.958	80.38
402.182	77.38
402.406	75.38
402.63	76.38
402.854	78.38
403.078	85.38
403.302	66.38
403.526	83.38
403.75	65.38
403.974	78.38
404.198	97.38
404.422	78.38
404.645	92.38
404.869	83.38
405.093	79.38
405.317	89.38
405.541	69.38
405.765	89.38
405.988	79.38
406.212	97.38
406.436	76.38
406.66	72.38
406.883	77.38
407.107	78.38
407.331	83.38
407.555	89.38
407.778	85.38
408.002	105.38
408.226	75.38
408.449	81.38
408.673	82.38
408.896	90.38
409.12	83.38
409.344	83.38
409.567	89.38
409.791	91.38
410.014	97.38
410.238	92.38
410.461	85.38
410.685	71.38
410.908	83.38
411.132	89.38
411.355	67.38
411.578	79.38
411.802	90.38
412.025	68.38
412.249	75.38
412.472	83.38
412.695	79.38
412.919	79.38
413.142	79.38
413.365	94.38
413.589	89.38
413.812	90.38
414.035	85.38
414.258	85.38
414.482	75.38
414.705	82.38
414.928	86.38
415.151	91.38
415.374	78.38
415.597	73.38
415.821	89.38
416.044	85.38
416.267	77.38
416.49	79.38
416.713	80.38
416.936	83.38
417.159	81.38
417.382	84.38
417.605	69.38
417.828	88.38
418.051	75.38
418.274	79.38
418.497	82.38
418.72	79.38
418.943	87.38
419.166	82.38
419.389	76.38
419.611	78.38
419.834	79.38
420.057	88.38
420.28	76.38
420.503	89.38
420.726	75.38
420.948	87.38
421.171	85.38
421.394	89.38
421.617	114.38
421.839	110.38
422.062	118.38
422.285	138.38
422.507	212.38
422.73	291.38
422.953	283.38
423.175	157.38
423.398	122.38
423.621	86.38
423.843	80.38
424.066	86.38
424.288	71.38
424.511	79.38
424.733	83.38
424.956	81.38
425.178	90.38
425.401	65.38
425.623	76.38
425.846	75.38
426.068	87.38
426.291	71.38
426.513	68.38
426.735	83.38
426.958	80.38
427.18	93.38
427.402	88.38
427.625	90.38
427.847	85.38
428.069	84.38
428.292	116.38
428.514	112.38
428.736	80.38
428.958	98.38
429.181	99.38
429.403	100.38
429.625	95.38
429.847	97.38
430.069	108.38
430.292	132.38
430.514	135.38
430.736	128.38
430.958	130.38
431.18	85.38
431.402	82.38
431.624	92.38
431.846	109.38
432.068	111.38
432.29	91.38
432.512	92.38
432.734	80.38
432.956	75.38
433.178	76.38
433.4	72.38
433.622	97.38
433.844	84.38
434.066	84.38
434.287	76.38
434.509	70.38
434.731	73.38
434.953	75.38
435.175	85.38
435.397	86.38
435.618	88.38
435.84	83.38
436.062	80.38
436.284	80.38
436.505	89.38
436.727	80.38
436.949	85.38
437.17	81.38
437.392	89.38
437.614	87.38
437.835	74.38
438.057	87.38
438.278	93.38
438.5	82.38
438.721	83.38
438.943	76.38
439.165	78.38
439.386	74.38
439.608	95.38
439.829	81.38
440.05	77.38
440.272	76.38
440.493	74.38
440.715	69.38
440.936	81.38
441.158	94.38
441.379	95.38
441.6	85.38
441.822	81.38
442.043	83.38
442.264	98.38
442.486	118.38
442.707	131.38
442.928	109.38
443.149	90.38
443.371	121.38
443.592	177.38
443.813	150.38
444.034	97.38
444.255	95.38
444.476	83.38
444.698	82.38
444.919	90.38
445.14	170.38
445.361	147.38
445.582	213.38
445.803	170.38
446.024	100.38
446.245	83.38
446.466	82.38
446.687	78.38
446.908	91.38
447.129	86.38
447.35	69.38
447.571	65.38
447.792	84.38
448.013	89.38
448.234	84.38
448.455	67.38
448.675	84.38
448.896	83.38
449.117	71.38
449.338	94.38
449.559	76.38
449.779	86.38
450	70.38
450.221	81.38
450.442	83.38
450.662	78.38
450.883	82.38
451.104	89.38
451.324	75.38
451.545	86.38
451.766	75.38
451.986	71.38
452.207	92.38
452.428	75.38
452.648	81.38
452.869	93.38
453.089	83.38
453.31	88.38
453.53	86.38
453.751	97.38
453.971	82.38
454.192	68.38
454.412	81.38
454.633	85.38
454.853	92.38
455.073	66.38
455.294	93.38
455.514	93.38
455.734	80.38
455.955	78.38
456.175	75.38
456.395	74.38
456.616	83.38
456.836	77.38
457.056	68.38
457.276	94.38
457.497	86.38
457.717	80.38
457.937	94.38
458.157	111.38
458.377	100.38
458.598	95.38
458.818	102.38
459.038	83.38
459.258	81.38
459.478	84.38
459.698	74.38
459.918	75.38
460.138	84.38
460.358	91.38
460.578	90.38
460.798	107.38
461.018	100.38
461.238	74.38
461.458	79.38
461.678	83.38
461.898	76.38
462.118	78.38
462.338	97.38
462.558	89.38
462.777	80.38
462.997	90.38
463.217	75.38
463.437	85.38
463.657	86.38
463.876	79.38
464.096	75.38
464.316	77.38
464.536	90.38
464.755	79.38
464.975	85.38
465.195	92.38
465.414	89.38
465.634	68.38
465.854	87.38
466.073	89.38
466.293	75.38
466.512	88.38
466.732	69.38
466.951	90.38
467.171	78.38
467.391	92.38
467.61	83.38
467.829	81.38
468.049	85.38
468.268	82.38
468.488	80.38
468.707	94.38
468.927	85.38
469.146	85.38
469.365	58.38
469.585	80.38
469.804	89.38
470.023	75.38
470.243	80.38
470.462	81.38
470.681	75.38
470.901	64.38
471.12	76.38
471.339	71.38
471.558	88.38
471.777	93.38
471.997	95.38
472.216	92.38
472.435	77.38
472.654	77.38
472.873	73.38
473.092	76.38
473.311	75.38
473.53	80.38
473.749	76.38
473.968	78.38
474.187	85.38
474.406	83.38
474.625	81.38
474.844	79.38
475.063	82.38
475.282	94.38
475.501	85.38
475.72	69.38
475.939	95.38
476.158	83.38
476.377	75.38
476.596	78.38
476.814	94.38
477.033	79.38
477.252	78.38
477.471	83.38
477.69	90.38
477.908	94.38
478.127	101.38
478.346	93.38
478.564	77.38
478.783	86.38
479.002	91.38
479.22	70.38
479.439	80.38
479.658	89.38
479.876	88.38
480.095	90.38
480.313	84.38
480.532	84.38
480.751	84.38
480.969	82.38
481.188	68.38
481.406	97.38
481.624	86.38
481.843	83.38
482.061	86.38
482.28	80.38
482.498	82.38
482.717	80.38
482.935	80.38
483.153	81.38
483.372	100.38
483.59	79.38
483.808	92.38
484.027	78.38
484.245	70.38
484.463	81.38
484.681	76.38
484.9	87.38
485.118	84.38
485.336	88.38
485.554	85.38
485.772	84.38
485.99	82.38
486.209	91.38
486.427	75.38
486.645	81.38
486.863	81.38
487.081	75.38
487.299	84.38
487.517	97.38
487.735	99.38
487.953	141.38
488.171	118.38
488.389	108.38
488.607	79.38
488.825	87.38
489.043	90.38
489.261	86.38
489.479	89.38
489.696	78.38
489.914	87.38
490.132	81.38
490.35	76.38
490.568	83.38
490.786	79.38
491.003	87.38
491.221	74.38
491.439	94.38
491.657	88.38
491.874	97.38
492.092	101.38
492.31	90.38
492.527	91.38
492.745	85.38
492.963	72.38
493.18	75.38
493.398	95.38
493.615	81.38
493.833	88.38
494.05	76.38
494.268	82.38
494.485	85.38
494.703	76.38
494.92	77.38
495.138	72.38
495.355	87.38
495.573	84.38
495.79	85.38
496.008	79.38
496.225	91.38
496.442	87.38
496.66	85.38
496.877	70.38
497.094	87.38
497.312	85.38
497.529	76.38
497.746	105.38
497.963	85.38
498.181	83.38
498.398	90.38
498.615	89.38
498.832	92.38
499.049	75.38
499.267	100.38
499.484	79.38
499.701	101.38
499.918	95.38
500.135	99.38
500.352	92.38
500.569	106.38
500.786	92.38
501.003	81.38
501.22	90.38
501.437	77.38
501.654	97.38
501.871	93.38
502.088	82.38
502.305	78.38
502.522	89.38
502.739	88.38
502.956	86.38
503.172	83.38
503.389	89.38
503.606	100.38
503.823	89.38
504.04	97.38
504.256	122.38
504.473	108.38
504.69	90.38
504.907	90.38
505.123	84.38
505.34	92.38
505.557	90.38
505.773	84.38
505.99	77.38
506.207	75.38
506.423	90.38
506.64	85.38
506.856	82.38
507.073	92.38
507.289	72.38
507.506	87.38
507.722	88.38
507.939	88.38
508.155	105.38
508.372	90.38
508.588	69.38
508.805	77.38
509.021	81.38
509.238	92.38
509.454	76.38
509.67	86.38
509.887	95.38
510.103	75.38
510.319	77.38
510.536	75.38
510.752	94.38
510.968	74.38
511.184	79.38
511.401	86.38
511.617	97.38
511.833	78.38
512.049	75.38
512.265	81.38
512.481	79.38
512.698	92.38
512.914	95.38
513.13	98.38
513.346	89.38
513.562	86.38
513.778	92.38
513.994	90.38
514.21	91.38
514.426	85.38
514.642	83.38
514.858	86.38
515.074	91.38
515.29	81.38
515.506	78.38
515.721	83.38
515.937	83.38
516.153	81.38
516.369	94.38
516.585	100.38
516.801	90.38
517.016	82.38
517.232	87.38
517.448	89.38
517.664	75.38
517.879	93.38
518.095	77.38
518.311	80.38
518.527	94.38
518.742	90.38
518.958	129.38
519.173	135.38
