Data from 10100_2_HRD10591_00047.txt Node
Date: Mon Jan 19 14:01:47 EST 2026
User: Yrep
Spectrometer: HR+D1059
Trigger mode: 1
Integration Time (sec): 1.000000E-1
Scans to average: 1
Electric dark correction enabled: true
Nonlinearity correction enabled: false
Boxcar width: 0
XAxis mode: Wavelengths
Number of Pixels in Spectrum: 2048
>>>>>Begin Spectral Data<<<<<
223.165	-8.75
223.4	-8.75
223.635	-8.75
223.869	-11.75
224.104	-19.75
224.338	-17.75
224.573	-22.75
224.808	-19.75
225.042	0.25
225.277	3.25
225.511	-8.75
225.746	7.25
225.98	-2.75
226.215	11.25
226.449	23.25
226.683	4.25
226.918	31.25
227.152	31.25
227.387	40.25
227.621	34.25
227.856	48.25
228.09	36.25
228.324	43.25
228.559	58.25
228.793	69.25
229.027	56.25
229.262	60.25
229.496	62.25
229.73	66.25
229.964	65.25
230.199	62.25
230.433	70.25
230.667	70.25
230.901	69.25
231.136	63.25
231.37	84.25
231.604	70.25
231.838	76.25
232.072	85.25
232.306	79.25
232.541	85.25
232.775	81.25
233.009	92.25
233.243	82.25
233.477	80.25
233.711	72.25
233.945	75.25
234.179	76.25
234.413	79.25
234.647	73.25
234.881	61.25
235.115	78.25
235.349	60.25
235.583	79.25
235.817	75.25
236.051	64.25
236.285	66.25
236.519	88.25
236.753	76.25
236.987	71.25
237.221	82.25
237.455	84.25
237.689	68.25
237.922	47.25
238.156	68.25
238.39	84.25
238.624	78.25
238.858	65.25
239.091	54.25
239.325	76.25
239.559	69.25
239.793	68.25
240.027	91.25
240.26	70.25
240.494	77.25
240.728	76.25
240.961	74.25
241.195	81.25
241.429	77.25
241.662	70.25
241.896	64.25
242.13	74.25
242.363	73.25
242.597	86.25
242.83	70.25
243.064	63.25
243.298	70.25
243.531	78.25
243.765	65.25
243.998	72.25
244.232	81.25
244.465	72.25
244.699	68.25
244.932	82.25
245.166	78.25
245.399	73.25
245.633	62.25
245.866	74.25
246.099	82.25
246.333	82.25
246.566	70.25
246.8	84.25
247.033	75.25
247.266	76.25
247.5	68.25
247.733	86.25
247.966	70.25
248.2	74.25
248.433	71.25
248.666	88.25
248.899	78.25
249.133	67.25
249.366	80.25
249.599	78.25
249.832	78.25
250.066	82.25
250.299	74.25
250.532	69.25
250.765	68.25
250.998	77.25
251.231	72.25
251.465	77.25
251.698	74.25
251.931	65.25
252.164	72.25
252.397	68.25
252.63	87.25
252.863	71.25
253.096	81.25
253.329	71.25
253.562	87.25
253.795	74.25
254.028	72.25
254.261	68.25
254.494	78.25
254.727	73.25
254.96	75.25
255.193	67.25
255.426	79.25
255.659	73.25
255.892	68.25
256.124	62.25
256.357	74.25
256.59	72.25
256.823	78.25
257.056	85.25
257.289	67.25
257.521	76.25
257.754	72.25
257.987	66.25
258.22	65.25
258.452	81.25
258.685	81.25
258.918	72.25
259.151	82.25
259.383	76.25
259.616	86.25
259.849	74.25
260.081	86.25
260.314	65.25
260.547	65.25
260.779	86.25
261.012	78.25
261.244	67.25
261.477	84.25
261.71	80.25
261.942	98.25
262.175	85.25
262.407	74.25
262.64	79.25
262.872	84.25
263.105	79.25
263.337	83.25
263.57	65.25
263.802	74.25
264.035	70.25
264.267	79.25
264.499	54.25
264.732	90.25
264.964	72.25
265.197	90.25
265.429	69.25
265.661	73.25
265.894	78.25
266.126	67.25
266.358	76.25
266.591	73.25
266.823	83.25
267.055	72.25
267.287	88.25
267.52	79.25
267.752	82.25
267.984	68.25
268.216	75.25
268.448	89.25
268.681	86.25
268.913	85.25
269.145	67.25
269.377	82.25
269.609	83.25
269.841	90.25
270.073	78.25
270.306	85.25
270.538	79.25
270.77	91.25
271.002	67.25
271.234	75.25
271.466	78.25
271.698	78.25
271.93	86.25
272.162	69.25
272.394	86.25
272.626	75.25
272.858	77.25
273.09	78.25
273.322	89.25
273.553	67.25
273.785	78.25
274.017	73.25
274.249	85.25
274.481	78.25
274.713	67.25
274.945	65.25
275.176	80.25
275.408	83.25
275.64	75.25
275.872	75.25
276.104	71.25
276.335	77.25
276.567	70.25
276.799	66.25
277.031	72.25
277.262	84.25
277.494	80.25
277.726	75.25
277.957	77.25
278.189	72.25
278.421	70.25
278.652	77.25
278.884	75.25
279.115	71.25
279.347	67.25
279.579	71.25
279.81	76.25
280.042	81.25
280.273	66.25
280.505	83.25
280.736	78.25
280.968	77.25
281.199	65.25
281.431	85.25
281.662	83.25
281.894	90.25
282.125	81.25
282.356	86.25
282.588	85.25
282.819	69.25
283.051	80.25
283.282	76.25
283.513	90.25
283.745	83.25
283.976	70.25
284.207	92.25
284.439	79.25
284.67	83.25
284.901	83.25
285.132	83.25
285.364	65.25
285.595	83.25
285.826	68.25
286.057	89.25
286.288	76.25
286.52	78.25
286.751	79.25
286.982	89.25
287.213	71.25
287.444	74.25
287.675	79.25
287.906	75.25
288.138	69.25
288.369	89.25
288.6	83.25
288.831	80.25
289.062	90.25
289.293	76.25
289.524	75.25
289.755	88.25
289.986	81.25
290.217	80.25
290.448	67.25
290.679	75.25
290.91	66.25
291.141	92.25
291.371	92.25
291.602	77.25
291.833	90.25
292.064	90.25
292.295	92.25
292.526	78.25
292.757	74.25
292.987	73.25
293.218	54.25
293.449	80.25
293.68	74.25
293.91	72.25
294.141	66.25
294.372	86.25
294.603	85.25
294.833	86.25
295.064	80.25
295.295	82.25
295.525	86.25
295.756	79.25
295.987	84.25
296.217	75.25
296.448	82.25
296.679	88.25
296.909	86.25
297.14	94.25
297.37	88.25
297.601	76.25
297.831	79.25
298.062	92.25
298.292	84.25
298.523	83.25
298.753	88.25
298.984	81.25
299.214	74.25
299.445	89.25
299.675	84.25
299.905	94.25
300.136	76.25
300.366	74.25
300.597	76.25
300.827	85.25
301.057	80.25
301.288	84.25
301.518	89.25
301.748	80.25
301.979	92.25
302.209	80.25
302.439	79.25
302.669	72.25
302.9	83.25
303.13	96.25
303.36	90.25
303.59	86.25
303.82	80.25
304.051	86.25
304.281	81.25
304.511	90.25
304.741	66.25
304.971	84.25
305.201	72.25
305.431	90.25
305.661	84.25
305.891	86.25
306.121	77.25
306.352	81.25
306.582	90.25
306.812	79.25
307.042	93.25
307.272	82.25
307.502	74.25
307.731	73.25
307.961	82.25
308.191	87.25
308.421	90.25
308.651	71.25
308.881	81.25
309.111	74.25
309.341	78.25
309.571	85.25
309.8	90.25
310.03	87.25
310.26	73.25
310.49	100.25
310.72	85.25
310.949	77.25
311.179	79.25
311.409	76.25
311.639	85.25
311.868	84.25
312.098	85.25
312.328	76.25
312.557	94.25
312.787	88.25
313.017	86.25
313.246	73.25
313.476	78.25
313.706	79.25
313.935	83.25
314.165	88.25
314.394	74.25
314.624	86.25
314.853	75.25
315.083	78.25
315.312	88.25
315.542	84.25
315.771	93.25
316.001	86.25
316.23	77.25
316.46	73.25
316.689	82.25
316.919	84.25
317.148	68.25
317.377	92.25
317.607	93.25
317.836	74.25
318.065	81.25
318.295	67.25
318.524	76.25
318.753	84.25
318.983	71.25
319.212	83.25
319.441	88.25
319.67	88.25
319.9	75.25
320.129	100.25
320.358	77.25
320.587	80.25
320.816	78.25
321.046	84.25
321.275	78.25
321.504	83.25
321.733	76.25
321.962	81.25
322.191	83.25
322.42	76.25
322.649	82.25
322.878	85.25
323.108	88.25
323.337	90.25
323.566	85.25
323.795	82.25
324.024	91.25
324.253	83.25
324.482	98.25
324.71	79.25
324.939	85.25
325.168	78.25
325.397	74.25
325.626	82.25
325.855	86.25
326.084	87.25
326.313	69.25
326.542	75.25
326.77	88.25
326.999	80.25
327.228	79.25
327.457	88.25
327.686	72.25
327.914	93.25
328.143	86.25
328.372	71.25
328.6	83.25
328.829	77.25
329.058	56.25
329.287	87.25
329.515	88.25
329.744	78.25
329.972	77.25
330.201	86.25
330.43	71.25
330.658	84.25
330.887	86.25
331.115	75.25
331.344	76.25
331.572	79.25
331.801	78.25
332.03	80.25
332.258	80.25
332.486	77.25
332.715	80.25
332.943	67.25
333.172	86.25
333.4	88.25
333.629	67.25
333.857	76.25
334.085	76.25
334.314	79.25
334.542	84.25
334.771	72.25
334.999	89.25
335.227	85.25
335.455	85.25
335.684	90.25
335.912	65.25
336.14	77.25
336.369	86.25
336.597	82.25
336.825	84.25
337.053	74.25
337.281	69.25
337.51	85.25
337.738	78.25
337.966	95.25
338.194	72.25
338.422	78.25
338.65	67.25
338.878	82.25
339.106	74.25
339.334	77.25
339.562	75.25
339.79	78.25
340.018	67.25
340.246	77.25
340.474	85.25
340.702	79.25
340.93	87.25
341.158	80.25
341.386	79.25
341.614	67.25
341.842	86.25
342.07	78.25
342.298	77.25
342.526	60.25
342.754	74.25
342.981	85.25
343.209	75.25
343.437	88.25
343.665	71.25
343.893	71.25
344.12	75.25
344.348	98.25
344.576	76.25
344.804	76.25
345.031	80.25
345.259	75.25
345.487	71.25
345.714	89.25
345.942	79.25
346.17	80.25
346.397	69.25
346.625	68.25
346.853	74.25
347.08	92.25
347.308	91.25
347.535	81.25
347.763	63.25
347.99	90.25
348.218	79.25
348.445	74.25
348.673	76.25
348.9	86.25
349.128	78.25
349.355	80.25
349.583	85.25
349.81	81.25
350.037	87.25
350.265	77.25
350.492	83.25
350.72	90.25
350.947	79.25
351.174	78.25
351.402	83.25
351.629	73.25
351.856	75.25
352.083	94.25
352.311	83.25
352.538	68.25
352.765	79.25
352.992	78.25
353.22	97.25
353.447	70.25
353.674	86.25
353.901	78.25
354.128	79.25
354.355	95.25
354.583	78.25
354.81	76.25
355.037	71.25
355.264	80.25
355.491	73.25
355.718	84.25
355.945	76.25
356.172	80.25
356.399	71.25
356.626	82.25
356.853	74.25
357.08	89.25
357.307	87.25
357.534	79.25
357.761	81.25
357.988	82.25
358.215	86.25
358.441	82.25
358.668	82.25
358.895	75.25
359.122	80.25
359.349	77.25
359.576	83.25
359.802	80.25
360.029	87.25
360.256	76.25
360.483	74.25
360.709	66.25
360.936	73.25
361.163	82.25
361.39	78.25
361.616	82.25
361.843	80.25
362.07	78.25
362.296	86.25
362.523	72.25
362.749	100.25
362.976	90.25
363.203	87.25
363.429	79.25
363.656	77.25
363.882	92.25
364.109	82.25
364.335	92.25
364.562	82.25
364.788	80.25
365.015	75.25
365.241	77.25
365.468	76.25
365.694	71.25
365.92	86.25
366.147	72.25
366.373	76.25
366.599	82.25
366.826	81.25
367.052	63.25
367.278	90.25
367.505	73.25
367.731	80.25
367.957	82.25
368.184	72.25
368.41	73.25
368.636	71.25
368.862	73.25
369.089	66.25
369.315	75.25
369.541	78.25
369.767	92.25
369.993	71.25
370.219	93.25
370.445	82.25
370.672	72.25
370.898	83.25
371.124	79.25
371.35	65.25
371.576	72.25
371.802	94.25
372.028	77.25
372.254	75.25
372.48	69.25
372.706	75.25
372.932	94.25
373.158	76.25
373.384	83.25
373.61	85.25
373.835	75.25
374.061	77.25
374.287	93.25
374.513	72.25
374.739	93.25
374.965	85.25
375.191	85.25
375.416	71.25
375.642	70.25
375.868	86.25
376.094	86.25
376.319	81.25
376.545	82.25
376.771	93.25
376.997	85.25
377.222	87.25
377.448	80.25
377.674	87.25
377.899	78.25
378.125	84.25
378.35	101.25
378.576	78.25
378.802	88.25
379.027	85.25
379.253	73.25
379.478	85.25
379.704	73.25
379.929	79.25
380.155	74.25
380.38	78.25
380.606	73.25
380.831	79.25
381.057	78.25
381.282	84.25
381.507	77.25
381.733	74.25
381.958	70.25
382.184	78.25
382.409	88.25
382.634	86.25
382.86	66.25
383.085	64.25
383.31	72.25
383.535	73.25
383.761	74.25
383.986	91.25
384.211	81.25
384.436	87.25
384.662	83.25
384.887	84.25
385.112	70.25
385.337	80.25
385.562	84.25
385.787	68.25
386.013	65.25
386.238	87.25
386.463	84.25
386.688	109.25
386.913	83.25
387.138	87.25
387.363	83.25
387.588	79.25
387.813	77.25
388.038	75.25
388.263	80.25
388.488	76.25
388.713	77.25
388.938	67.25
389.163	75.25
389.387	85.25
389.612	84.25
389.837	78.25
390.062	68.25
390.287	65.25
390.512	66.25
390.736	85.25
390.961	82.25
391.186	79.25
391.411	72.25
391.636	75.25
391.86	67.25
392.085	86.25
392.31	82.25
392.534	89.25
392.759	82.25
392.984	87.25
393.208	86.25
393.433	112.25
393.658	98.25
393.882	76.25
394.107	85.25
394.331	78.25
394.556	82.25
394.78	67.25
395.005	94.25
395.229	80.25
395.454	85.25
395.678	85.25
395.903	79.25
396.127	84.25
396.352	82.25
396.576	77.25
396.801	90.25
397.025	95.25
397.249	83.25
397.474	86.25
397.698	88.25
397.922	76.25
398.147	75.25
398.371	83.25
398.595	73.25
398.82	60.25
399.044	69.25
399.268	78.25
399.492	77.25
399.717	81.25
399.941	90.25
400.165	70.25
400.389	76.25
400.613	82.25
400.837	68.25
401.062	76.25
401.286	71.25
401.51	86.25
401.734	68.25
401.958	78.25
402.182	84.25
402.406	70.25
402.63	75.25
402.854	90.25
403.078	82.25
403.302	89.25
403.526	69.25
403.75	78.25
403.974	85.25
404.198	77.25
404.422	87.25
404.645	72.25
404.869	71.25
405.093	82.25
405.317	63.25
405.541	74.25
405.765	78.25
405.988	75.25
406.212	80.25
406.436	81.25
406.66	81.25
406.883	76.25
407.107	78.25
407.331	77.25
407.555	83.25
407.778	82.25
408.002	82.25
408.226	94.25
408.449	83.25
408.673	87.25
408.896	82.25
409.12	77.25
409.344	100.25
409.567	80.25
409.791	74.25
410.014	75.25
410.238	91.25
410.461	85.25
410.685	78.25
410.908	75.25
411.132	87.25
411.355	86.25
411.578	85.25
411.802	85.25
412.025	86.25
412.249	77.25
412.472	86.25
412.695	79.25
412.919	71.25
413.142	78.25
413.365	78.25
413.589	78.25
413.812	80.25
414.035	83.25
414.258	85.25
414.482	75.25
414.705	74.25
414.928	78.25
415.151	93.25
415.374	68.25
415.597	86.25
415.821	68.25
416.044	91.25
416.267	79.25
416.49	79.25
416.713	68.25
416.936	81.25
417.159	79.25
417.382	77.25
417.605	83.25
417.828	85.25
418.051	72.25
418.274	68.25
418.497	69.25
418.72	92.25
418.943	72.25
419.166	83.25
419.389	77.25
419.611	76.25
419.834	79.25
420.057	79.25
420.28	82.25
420.503	90.25
420.726	68.25
420.948	85.25
421.171	92.25
421.394	78.25
421.617	79.25
421.839	83.25
422.062	91.25
422.285	83.25
422.507	103.25
422.73	116.25
422.953	124.25
423.175	90.25
423.398	85.25
423.621	78.25
423.843	69.25
424.066	95.25
424.288	82.25
424.511	81.25
424.733	76.25
424.956	68.25
425.178	74.25
425.401	72.25
425.623	84.25
425.846	68.25
426.068	83.25
426.291	84.25
426.513	77.25
426.735	58.25
426.958	78.25
427.18	86.25
427.402	90.25
427.625	72.25
427.847	72.25
428.069	84.25
428.292	76.25
428.514	108.25
428.736	69.25
428.958	95.25
429.181	93.25
429.403	84.25
429.625	90.25
429.847	90.25
430.069	91.25
430.292	86.25
430.514	82.25
430.736	80.25
430.958	85.25
431.18	82.25
431.402	91.25
431.624	84.25
431.846	91.25
432.068	93.25
432.29	94.25
432.512	71.25
432.734	76.25
432.956	78.25
433.178	85.25
433.4	74.25
433.622	77.25
433.844	69.25
434.066	90.25
434.287	95.25
434.509	66.25
434.731	76.25
434.953	96.25
435.175	69.25
435.397	84.25
435.618	69.25
435.84	84.25
436.062	67.25
436.284	87.25
436.505	68.25
436.727	72.25
436.949	79.25
437.17	72.25
437.392	76.25
437.614	85.25
437.835	70.25
438.057	84.25
438.278	86.25
438.5	62.25
438.721	73.25
438.943	73.25
439.165	71.25
439.386	69.25
439.608	92.25
439.829	82.25
440.05	80.25
440.272	76.25
440.493	54.25
440.715	73.25
440.936	88.25
441.158	79.25
441.379	81.25
441.6	80.25
441.822	76.25
442.043	75.25
442.264	87.25
442.486	90.25
442.707	90.25
442.928	83.25
443.149	69.25
443.371	84.25
443.592	96.25
443.813	92.25
444.034	71.25
444.255	72.25
444.476	81.25
444.698	58.25
444.919	72.25
445.14	155.25
445.361	134.25
445.582	108.25
445.803	88.25
446.024	91.25
446.245	69.25
446.466	82.25
446.687	93.25
446.908	79.25
447.129	73.25
447.35	93.25
447.571	83.25
447.792	84.25
448.013	62.25
448.234	70.25
448.455	75.25
448.675	87.25
448.896	83.25
449.117	87.25
449.338	78.25
449.559	82.25
449.779	69.25
450	75.25
450.221	82.25
450.442	60.25
450.662	90.25
450.883	59.25
451.104	78.25
451.324	86.25
451.545	78.25
451.766	78.25
451.986	77.25
452.207	79.25
452.428	71.25
452.648	59.25
452.869	78.25
453.089	90.25
453.31	92.25
453.53	84.25
453.751	80.25
453.971	86.25
454.192	85.25
454.412	75.25
454.633	76.25
454.853	69.25
455.073	75.25
455.294	71.25
455.514	86.25
455.734	80.25
455.955	87.25
456.175	71.25
456.395	71.25
456.616	88.25
456.836	82.25
457.056	85.25
457.276	76.25
457.497	82.25
457.717	83.25
457.937	77.25
458.157	87.25
458.377	82.25
458.598	69.25
458.818	80.25
459.038	89.25
459.258	72.25
459.478	83.25
459.698	74.25
459.918	87.25
460.138	77.25
460.358	76.25
460.578	69.25
460.798	71.25
461.018	83.25
461.238	84.25
461.458	74.25
461.678	82.25
461.898	68.25
462.118	65.25
462.338	64.25
462.558	70.25
462.777	88.25
462.997	82.25
463.217	82.25
463.437	70.25
463.657	79.25
463.876	82.25
464.096	87.25
464.316	77.25
464.536	67.25
464.755	76.25
464.975	81.25
465.195	71.25
465.414	69.25
465.634	87.25
465.854	98.25
466.073	78.25
466.293	68.25
466.512	74.25
466.732	73.25
466.951	76.25
467.171	75.25
467.391	71.25
467.61	67.25
467.829	82.25
468.049	84.25
468.268	73.25
468.488	72.25
468.707	85.25
468.927	81.25
469.146	84.25
469.365	79.25
469.585	83.25
469.804	92.25
470.023	87.25
470.243	79.25
470.462	79.25
470.681	81.25
470.901	74.25
471.12	78.25
471.339	81.25
471.558	76.25
471.777	86.25
471.997	79.25
472.216	91.25
472.435	92.25
472.654	86.25
472.873	73.25
473.092	82.25
473.311	79.25
473.53	79.25
473.749	69.25
473.968	80.25
474.187	66.25
474.406	87.25
474.625	74.25
474.844	79.25
475.063	78.25
475.282	78.25
475.501	74.25
475.72	94.25
475.939	79.25
476.158	79.25
476.377	81.25
476.596	86.25
476.814	80.25
477.033	72.25
477.252	78.25
477.471	76.25
477.69	95.25
477.908	77.25
478.127	97.25
478.346	79.25
478.564	76.25
478.783	69.25
479.002	59.25
479.22	78.25
479.439	82.25
479.658	71.25
479.876	68.25
480.095	75.25
480.313	70.25
480.532	83.25
480.751	81.25
480.969	89.25
481.188	80.25
481.406	94.25
481.624	84.25
481.843	82.25
482.061	83.25
482.28	81.25
482.498	74.25
482.717	78.25
482.935	88.25
483.153	79.25
483.372	76.25
483.59	76.25
483.808	75.25
484.027	93.25
484.245	68.25
484.463	74.25
484.681	76.25
484.9	67.25
485.118	86.25
485.336	77.25
485.554	73.25
485.772	80.25
485.99	84.25
486.209	74.25
486.427	89.25
486.645	80.25
486.863	85.25
487.081	88.25
487.299	86.25
487.517	88.25
487.735	87.25
487.953	79.25
488.171	79.25
488.389	78.25
488.607	80.25
488.825	63.25
489.043	66.25
489.261	78.25
489.479	88.25
489.696	93.25
489.914	74.25
490.132	94.25
490.35	81.25
490.568	83.25
490.786	69.25
491.003	70.25
491.221	82.25
491.439	73.25
491.657	72.25
491.874	82.25
492.092	83.25
492.31	85.25
492.527	72.25
492.745	70.25
492.963	81.25
493.18	89.25
493.398	79.25
493.615	70.25
493.833	72.25
494.05	85.25
494.268	83.25
494.485	84.25
494.703	84.25
494.92	76.25
495.138	81.25
495.355	75.25
495.573	87.25
495.79	78.25
496.008	77.25
496.225	73.25
496.442	83.25
496.66	87.25
496.877	101.25
497.094	79.25
497.312	79.25
497.529	93.25
497.746	79.25
497.963	93.25
498.181	69.25
498.398	79.25
498.615	76.25
498.832	82.25
499.049	81.25
499.267	78.25
499.484	80.25
499.701	90.25
499.918	91.25
500.135	78.25
500.352	86.25
500.569	75.25
500.786	84.25
501.003	88.25
501.22	92.25
501.437	82.25
501.654	87.25
501.871	79.25
502.088	62.25
502.305	87.25
502.522	74.25
502.739	72.25
502.956	89.25
503.172	74.25
503.389	76.25
503.606	86.25
503.823	66.25
504.04	82.25
504.256	89.25
504.473	82.25
504.69	84.25
504.907	94.25
505.123	91.25
505.34	76.25
505.557	83.25
505.773	71.25
505.99	93.25
506.207	84.25
506.423	62.25
506.64	84.25
506.856	78.25
507.073	79.25
507.289	88.25
507.506	91.25
507.722	84.25
507.939	95.25
508.155	86.25
508.372	84.25
508.588	73.25
508.805	78.25
509.021	79.25
509.238	58.25
509.454	76.25
509.67	77.25
509.887	79.25
510.103	76.25
510.319	80.25
510.536	98.25
510.752	79.25
510.968	72.25
511.184	83.25
511.401	69.25
511.617	79.25
511.833	78.25
512.049	94.25
512.265	79.25
512.481	88.25
512.698	90.25
512.914	90.25
513.13	97.25
513.346	74.25
513.562	87.25
513.778	83.25
513.994	76.25
514.21	73.25
514.426	86.25
514.642	79.25
514.858	70.25
515.074	80.25
515.29	90.25
515.506	71.25
515.721	87.25
515.937	80.25
516.153	82.25
516.369	83.25
516.585	83.25
516.801	77.25
517.016	79.25
517.232	79.25
517.448	80.25
517.664	87.25
517.879	63.25
518.095	75.25
518.311	81.25
518.527	81.25
518.742	83.25
518.958	87.25
519.173	90.25
519.389	92.25
519.605	82.25
519.82	82.25
520.036	76.25
520.251	82.25
