Data from 10100_2_HRD10591_00026.txt Node
Date: Mon Jan 19 14:01:37 EST 2026
User: Yrep
Spectrometer: HR+D1059
Trigger mode: 1
Integration Time (sec): 1.000000E-1
Scans to average: 1
Electric dark correction enabled: true
Nonlinearity correction enabled: false
Boxcar width: 0
XAxis mode: Wavelengths
Number of Pixels in Spectrum: 2048
>>>>>Begin Spectral Data<<<<<
223.165	-17.31
223.4	-17.31
223.635	-17.31
223.869	-35.31
224.104	-13.31
224.338	-18.31
224.573	-8.31
224.808	-3.31
225.042	-20.31
225.277	-2.31
225.511	-2.31
225.746	-2.31
225.98	15.69
226.215	22.69
226.449	7.69
226.683	11.69
226.918	35.69
227.152	29.69
227.387	31.69
227.621	56.69
227.856	54.69
228.09	45.69
228.324	52.69
228.559	58.69
228.793	53.69
229.027	55.69
229.262	61.69
229.496	75.69
229.73	59.69
229.964	71.69
230.199	70.69
230.433	62.69
230.667	63.69
230.901	61.69
231.136	65.69
231.37	70.69
231.604	81.69
231.838	67.69
232.072	83.69
232.306	84.69
232.541	75.69
232.775	79.69
233.009	75.69
233.243	91.69
233.477	78.69
233.711	86.69
233.945	81.69
234.179	78.69
234.413	71.69
234.647	72.69
234.881	76.69
235.115	82.69
235.349	62.69
235.583	72.69
235.817	71.69
236.051	76.69
236.285	80.69
236.519	82.69
236.753	67.69
236.987	87.69
237.221	77.69
237.455	82.69
237.689	82.69
237.922	91.69
238.156	67.69
238.39	68.69
238.624	70.69
238.858	69.69
239.091	72.69
239.325	63.69
239.559	81.69
239.793	78.69
240.027	86.69
240.26	59.69
240.494	78.69
240.728	75.69
240.961	80.69
241.195	95.69
241.429	76.69
241.662	73.69
241.896	68.69
242.13	68.69
242.363	51.69
242.597	76.69
242.83	79.69
243.064	73.69
243.298	56.69
243.531	80.69
243.765	77.69
243.998	75.69
244.232	74.69
244.465	80.69
244.699	75.69
244.932	73.69
245.166	68.69
245.399	70.69
245.633	84.69
245.866	60.69
246.099	64.69
246.333	76.69
246.566	74.69
246.8	75.69
247.033	72.69
247.266	86.69
247.5	57.69
247.733	84.69
247.966	81.69
248.2	73.69
248.433	78.69
248.666	80.69
248.899	86.69
249.133	76.69
249.366	85.69
249.599	74.69
249.832	76.69
250.066	87.69
250.299	82.69
250.532	76.69
250.765	78.69
250.998	70.69
251.231	70.69
251.465	83.69
251.698	76.69
251.931	89.69
252.164	82.69
252.397	75.69
252.63	93.69
252.863	85.69
253.096	80.69
253.329	83.69
253.562	78.69
253.795	86.69
254.028	68.69
254.261	68.69
254.494	70.69
254.727	83.69
254.96	73.69
255.193	96.69
255.426	74.69
255.659	75.69
255.892	81.69
256.124	68.69
256.357	72.69
256.59	73.69
256.823	76.69
257.056	59.69
257.289	74.69
257.521	66.69
257.754	80.69
257.987	70.69
258.22	84.69
258.452	78.69
258.685	93.69
258.918	84.69
259.151	94.69
259.383	82.69
259.616	65.69
259.849	71.69
260.081	83.69
260.314	85.69
260.547	75.69
260.779	74.69
261.012	71.69
261.244	81.69
261.477	80.69
261.71	79.69
261.942	73.69
262.175	71.69
262.407	86.69
262.64	77.69
262.872	97.69
263.105	73.69
263.337	81.69
263.57	82.69
263.802	86.69
264.035	81.69
264.267	87.69
264.499	76.69
264.732	84.69
264.964	78.69
265.197	99.69
265.429	74.69
265.661	78.69
265.894	71.69
266.126	80.69
266.358	80.69
266.591	85.69
266.823	79.69
267.055	70.69
267.287	63.69
267.52	81.69
267.752	90.69
267.984	62.69
268.216	72.69
268.448	72.69
268.681	92.69
268.913	86.69
269.145	80.69
269.377	76.69
269.609	84.69
269.841	96.69
270.073	90.69
270.306	71.69
270.538	81.69
270.77	78.69
271.002	94.69
271.234	72.69
271.466	90.69
271.698	69.69
271.93	78.69
272.162	80.69
272.394	86.69
272.626	84.69
272.858	74.69
273.09	74.69
273.322	86.69
273.553	90.69
273.785	82.69
274.017	86.69
274.249	82.69
274.481	77.69
274.713	76.69
274.945	88.69
275.176	66.69
275.408	84.69
275.64	73.69
275.872	77.69
276.104	79.69
276.335	80.69
276.567	82.69
276.799	75.69
277.031	84.69
277.262	70.69
277.494	80.69
277.726	90.69
277.957	77.69
278.189	77.69
278.421	80.69
278.652	74.69
278.884	76.69
279.115	86.69
279.347	81.69
279.579	59.69
279.81	78.69
280.042	86.69
280.273	89.69
280.505	81.69
280.736	91.69
280.968	101.69
281.199	72.69
281.431	95.69
281.662	86.69
281.894	74.69
282.125	72.69
282.356	80.69
282.588	78.69
282.819	100.69
283.051	78.69
283.282	78.69
283.513	86.69
283.745	78.69
283.976	82.69
284.207	64.69
284.439	75.69
284.67	88.69
284.901	86.69
285.132	92.69
285.364	90.69
285.595	92.69
285.826	92.69
286.057	79.69
286.288	87.69
286.52	90.69
286.751	74.69
286.982	78.69
287.213	74.69
287.444	72.69
287.675	85.69
287.906	71.69
288.138	84.69
288.369	78.69
288.6	90.69
288.831	74.69
289.062	81.69
289.293	83.69
289.524	76.69
289.755	83.69
289.986	89.69
290.217	83.69
290.448	95.69
290.679	78.69
290.91	74.69
291.141	81.69
291.371	66.69
291.602	76.69
291.833	74.69
292.064	79.69
292.295	80.69
292.526	81.69
292.757	85.69
292.987	71.69
293.218	86.69
293.449	71.69
293.68	80.69
293.91	92.69
294.141	84.69
294.372	94.69
294.603	86.69
294.833	77.69
295.064	78.69
295.295	79.69
295.525	80.69
295.756	74.69
295.987	71.69
296.217	82.69
296.448	85.69
296.679	87.69
296.909	95.69
297.14	78.69
297.37	77.69
297.601	88.69
297.831	81.69
298.062	72.69
298.292	83.69
298.523	82.69
298.753	65.69
298.984	70.69
299.214	79.69
299.445	87.69
299.675	82.69
299.905	76.69
300.136	76.69
300.366	87.69
300.597	89.69
300.827	87.69
301.057	99.69
301.288	96.69
301.518	83.69
301.748	67.69
301.979	106.69
302.209	94.69
302.439	92.69
302.669	93.69
302.9	70.69
303.13	71.69
303.36	82.69
303.59	61.69
303.82	88.69
304.051	90.69
304.281	91.69
304.511	95.69
304.741	96.69
304.971	78.69
305.201	81.69
305.431	74.69
305.661	79.69
305.891	78.69
306.121	84.69
306.352	93.69
306.582	88.69
306.812	89.69
307.042	90.69
307.272	79.69
307.502	80.69
307.731	76.69
307.961	76.69
308.191	78.69
308.421	81.69
308.651	99.69
308.881	80.69
309.111	76.69
309.341	91.69
309.571	71.69
309.8	86.69
310.03	90.69
310.26	93.69
310.49	88.69
310.72	82.69
310.949	72.69
311.179	79.69
311.409	86.69
311.639	81.69
311.868	98.69
312.098	78.69
312.328	78.69
312.557	90.69
312.787	85.69
313.017	83.69
313.246	92.69
313.476	81.69
313.706	78.69
313.935	78.69
314.165	71.69
314.394	71.69
314.624	72.69
314.853	69.69
315.083	77.69
315.312	78.69
315.542	73.69
315.771	70.69
316.001	90.69
316.23	79.69
316.46	78.69
316.689	72.69
316.919	83.69
317.148	86.69
317.377	86.69
317.607	86.69
317.836	82.69
318.065	90.69
318.295	75.69
318.524	86.69
318.753	84.69
318.983	94.69
319.212	84.69
319.441	89.69
319.67	74.69
319.9	69.69
320.129	83.69
320.358	87.69
320.587	71.69
320.816	98.69
321.046	88.69
321.275	95.69
321.504	84.69
321.733	90.69
321.962	73.69
322.191	62.69
322.42	75.69
322.649	91.69
322.878	82.69
323.108	77.69
323.337	83.69
323.566	78.69
323.795	80.69
324.024	72.69
324.253	75.69
324.482	84.69
324.71	85.69
324.939	80.69
325.168	89.69
325.397	83.69
325.626	78.69
325.855	73.69
326.084	91.69
326.313	70.69
326.542	76.69
326.77	82.69
326.999	72.69
327.228	71.69
327.457	85.69
327.686	92.69
327.914	112.69
328.143	72.69
328.372	85.69
328.6	74.69
328.829	83.69
329.058	80.69
329.287	84.69
329.515	83.69
329.744	83.69
329.972	87.69
330.201	81.69
330.43	88.69
330.658	70.69
330.887	78.69
331.115	95.69
331.344	79.69
331.572	79.69
331.801	73.69
332.03	66.69
332.258	78.69
332.486	78.69
332.715	87.69
332.943	93.69
333.172	80.69
333.4	83.69
333.629	86.69
333.857	92.69
334.085	70.69
334.314	88.69
334.542	74.69
334.771	66.69
334.999	82.69
335.227	81.69
335.455	79.69
335.684	94.69
335.912	91.69
336.14	85.69
336.369	92.69
336.597	83.69
336.825	65.69
337.053	84.69
337.281	82.69
337.51	91.69
337.738	84.69
337.966	84.69
338.194	72.69
338.422	75.69
338.65	76.69
338.878	82.69
339.106	91.69
339.334	91.69
339.562	70.69
339.79	92.69
340.018	89.69
340.246	88.69
340.474	82.69
340.702	79.69
340.93	74.69
341.158	82.69
341.386	88.69
341.614	85.69
341.842	83.69
342.07	77.69
342.298	77.69
342.526	79.69
342.754	90.69
342.981	86.69
343.209	79.69
343.437	90.69
343.665	72.69
343.893	86.69
344.12	98.69
344.348	87.69
344.576	90.69
344.804	83.69
345.031	78.69
345.259	94.69
345.487	88.69
345.714	80.69
345.942	83.69
346.17	79.69
346.397	83.69
346.625	101.69
346.853	87.69
347.08	87.69
347.308	84.69
347.535	72.69
347.763	85.69
347.99	91.69
348.218	82.69
348.445	78.69
348.673	79.69
348.9	90.69
349.128	66.69
349.355	75.69
349.583	86.69
349.81	90.69
350.037	85.69
350.265	84.69
350.492	86.69
350.72	68.69
350.947	78.69
351.174	84.69
351.402	73.69
351.629	69.69
351.856	87.69
352.083	82.69
352.311	78.69
352.538	84.69
352.765	93.69
352.992	82.69
353.22	67.69
353.447	73.69
353.674	79.69
353.901	78.69
354.128	82.69
354.355	76.69
354.583	86.69
354.81	90.69
355.037	73.69
355.264	90.69
355.491	84.69
355.718	84.69
355.945	77.69
356.172	66.69
356.399	80.69
356.626	88.69
356.853	78.69
357.08	86.69
357.307	79.69
357.534	76.69
357.761	96.69
357.988	83.69
358.215	80.69
358.441	87.69
358.668	90.69
358.895	95.69
359.122	83.69
359.349	89.69
359.576	82.69
359.802	78.69
360.029	77.69
360.256	80.69
360.483	70.69
360.709	87.69
360.936	101.69
361.163	87.69
361.39	82.69
361.616	75.69
361.843	68.69
362.07	89.69
362.296	86.69
362.523	79.69
362.749	86.69
362.976	97.69
363.203	107.69
363.429	90.69
363.656	72.69
363.882	71.69
364.109	76.69
364.335	81.69
364.562	109.69
364.788	89.69
365.015	81.69
365.241	72.69
365.468	108.69
365.694	84.69
365.92	72.69
366.147	78.69
366.373	72.69
366.599	82.69
366.826	88.69
367.052	79.69
367.278	82.69
367.505	99.69
367.731	86.69
367.957	59.69
368.184	83.69
368.41	93.69
368.636	78.69
368.862	79.69
369.089	88.69
369.315	79.69
369.541	78.69
369.767	87.69
369.993	78.69
370.219	78.69
370.445	90.69
370.672	83.69
370.898	89.69
371.124	94.69
371.35	82.69
371.576	76.69
371.802	82.69
372.028	82.69
372.254	78.69
372.48	77.69
372.706	95.69
372.932	73.69
373.158	88.69
373.384	88.69
373.61	87.69
373.835	86.69
374.061	79.69
374.287	83.69
374.513	84.69
374.739	83.69
374.965	74.69
375.191	81.69
375.416	88.69
375.642	80.69
375.868	88.69
376.094	69.69
376.319	78.69
376.545	82.69
376.771	83.69
376.997	81.69
377.222	80.69
377.448	80.69
377.674	88.69
377.899	69.69
378.125	72.69
378.35	77.69
378.576	82.69
378.802	76.69
379.027	78.69
379.253	69.69
379.478	84.69
379.704	80.69
379.929	73.69
380.155	93.69
380.38	91.69
380.606	84.69
380.831	90.69
381.057	93.69
381.282	85.69
381.507	92.69
381.733	90.69
381.958	79.69
382.184	94.69
382.409	80.69
382.634	77.69
382.86	72.69
383.085	98.69
383.31	93.69
383.535	82.69
383.761	70.69
383.986	86.69
384.211	72.69
384.436	82.69
384.662	75.69
384.887	77.69
385.112	83.69
385.337	85.69
385.562	84.69
385.787	82.69
386.013	75.69
386.238	104.69
386.463	82.69
386.688	88.69
386.913	83.69
387.138	74.69
387.363	83.69
387.588	91.69
387.813	78.69
388.038	86.69
388.263	78.69
388.488	86.69
388.713	85.69
388.938	81.69
389.163	92.69
389.387	87.69
389.612	79.69
389.837	79.69
390.062	75.69
390.287	95.69
390.512	72.69
390.736	77.69
390.961	86.69
391.186	78.69
391.411	86.69
391.636	86.69
391.86	85.69
392.085	87.69
392.31	76.69
392.534	78.69
392.759	84.69
392.984	103.69
393.208	128.69
393.433	149.69
393.658	144.69
393.882	93.69
394.107	77.69
394.331	79.69
394.556	75.69
394.78	76.69
395.005	80.69
395.229	75.69
395.454	95.69
395.678	87.69
395.903	75.69
396.127	85.69
396.352	83.69
396.576	95.69
396.801	127.69
397.025	144.69
397.249	112.69
397.474	91.69
397.698	84.69
397.922	74.69
398.147	84.69
398.371	80.69
398.595	95.69
398.82	70.69
399.044	84.69
399.268	86.69
399.492	69.69
399.717	84.69
399.941	70.69
400.165	84.69
400.389	74.69
400.613	82.69
400.837	69.69
401.062	94.69
401.286	79.69
401.51	79.69
401.734	77.69
401.958	86.69
402.182	83.69
402.406	87.69
402.63	66.69
402.854	82.69
403.078	99.69
403.302	75.69
403.526	68.69
403.75	82.69
403.974	76.69
404.198	90.69
404.422	92.69
404.645	85.69
404.869	88.69
405.093	84.69
405.317	68.69
405.541	81.69
405.765	79.69
405.988	81.69
406.212	68.69
406.436	79.69
406.66	91.69
406.883	81.69
407.107	77.69
407.331	71.69
407.555	79.69
407.778	86.69
408.002	89.69
408.226	70.69
408.449	75.69
408.673	79.69
408.896	83.69
409.12	79.69
409.344	68.69
409.567	79.69
409.791	82.69
410.014	95.69
410.238	93.69
410.461	91.69
410.685	82.69
410.908	75.69
411.132	84.69
411.355	70.69
411.578	78.69
411.802	78.69
412.025	75.69
412.249	76.69
412.472	92.69
412.695	72.69
412.919	71.69
413.142	74.69
413.365	90.69
413.589	72.69
413.812	80.69
414.035	88.69
414.258	89.69
414.482	72.69
414.705	78.69
414.928	83.69
415.151	83.69
415.374	72.69
415.597	73.69
415.821	74.69
416.044	80.69
416.267	87.69
416.49	94.69
416.713	89.69
416.936	78.69
417.159	75.69
417.382	77.69
417.605	78.69
417.828	67.69
418.051	92.69
418.274	67.69
418.497	106.69
418.72	81.69
418.943	59.69
419.166	88.69
419.389	72.69
419.611	82.69
419.834	83.69
420.057	87.69
420.28	82.69
420.503	85.69
420.726	73.69
420.948	78.69
421.171	86.69
421.394	76.69
421.617	86.69
421.839	82.69
422.062	89.69
422.285	126.69
422.507	162.69
422.73	223.69
422.953	212.69
423.175	112.69
423.398	90.69
423.621	88.69
423.843	83.69
424.066	74.69
424.288	70.69
424.511	91.69
424.733	80.69
424.956	84.69
425.178	80.69
425.401	70.69
425.623	68.69
425.846	83.69
426.068	84.69
426.291	105.69
426.513	78.69
426.735	65.69
426.958	80.69
427.18	86.69
427.402	92.69
427.625	76.69
427.847	78.69
428.069	85.69
428.292	85.69
428.514	110.69
428.736	84.69
428.958	92.69
429.181	93.69
429.403	88.69
429.625	90.69
429.847	101.69
430.069	90.69
430.292	104.69
430.514	110.69
430.736	85.69
430.958	108.69
431.18	83.69
431.402	73.69
431.624	91.69
431.846	93.69
432.068	117.69
432.29	78.69
432.512	72.69
432.734	66.69
432.956	68.69
433.178	84.69
433.4	68.69
433.622	87.69
433.844	75.69
434.066	93.69
434.287	78.69
434.509	69.69
434.731	76.69
434.953	84.69
435.175	71.69
435.397	63.69
435.618	84.69
435.84	82.69
436.062	86.69
436.284	83.69
436.505	90.69
436.727	72.69
436.949	66.69
437.17	76.69
437.392	70.69
437.614	71.69
437.835	79.69
438.057	78.69
438.278	83.69
438.5	88.69
438.721	81.69
438.943	88.69
439.165	81.69
439.386	87.69
439.608	92.69
439.829	79.69
440.05	77.69
440.272	70.69
440.493	67.69
440.715	90.69
440.936	79.69
441.158	81.69
441.379	87.69
441.6	75.69
441.822	84.69
442.043	87.69
442.264	87.69
442.486	106.69
442.707	105.69
442.928	106.69
443.149	93.69
443.371	105.69
443.592	126.69
443.813	115.69
444.034	92.69
444.255	88.69
444.476	75.69
444.698	78.69
444.919	74.69
445.14	171.69
445.361	147.69
445.582	154.69
445.803	136.69
446.024	89.69
446.245	88.69
446.466	88.69
446.687	70.69
446.908	76.69
447.129	68.69
447.35	71.69
447.571	83.69
447.792	74.69
448.013	75.69
448.234	73.69
448.455	71.69
448.675	78.69
448.896	70.69
449.117	79.69
449.338	58.69
449.559	93.69
449.779	91.69
450	88.69
450.221	83.69
450.442	76.69
450.662	80.69
450.883	68.69
451.104	82.69
451.324	76.69
451.545	75.69
451.766	77.69
451.986	76.69
452.207	86.69
452.428	80.69
452.648	95.69
452.869	96.69
453.089	78.69
453.31	87.69
453.53	74.69
453.751	72.69
453.971	77.69
454.192	83.69
454.412	78.69
454.633	85.69
454.853	85.69
455.073	83.69
455.294	96.69
455.514	97.69
455.734	77.69
455.955	85.69
456.175	83.69
456.395	84.69
456.616	89.69
456.836	71.69
457.056	76.69
457.276	77.69
457.497	70.69
457.717	69.69
457.937	100.69
458.157	99.69
458.377	103.69
458.598	93.69
458.818	84.69
459.038	93.69
459.258	76.69
459.478	79.69
459.698	82.69
459.918	71.69
460.138	69.69
460.358	78.69
460.578	87.69
460.798	95.69
461.018	92.69
461.238	84.69
461.458	79.69
461.678	74.69
461.898	77.69
462.118	87.69
462.338	82.69
462.558	82.69
462.777	87.69
462.997	78.69
463.217	98.69
463.437	78.69
463.657	68.69
463.876	90.69
464.096	70.69
464.316	82.69
464.536	75.69
464.755	83.69
464.975	72.69
465.195	78.69
465.414	94.69
465.634	86.69
465.854	89.69
466.073	86.69
466.293	68.69
466.512	85.69
466.732	89.69
466.951	66.69
467.171	73.69
467.391	86.69
467.61	68.69
467.829	84.69
468.049	82.69
468.268	84.69
468.488	87.69
468.707	72.69
468.927	71.69
469.146	75.69
469.365	77.69
469.585	83.69
469.804	82.69
470.023	76.69
470.243	97.69
470.462	76.69
470.681	84.69
470.901	87.69
471.12	88.69
471.339	83.69
471.558	80.69
471.777	84.69
471.997	85.69
472.216	60.69
472.435	73.69
472.654	80.69
472.873	92.69
473.092	80.69
473.311	89.69
473.53	80.69
473.749	90.69
473.968	88.69
474.187	90.69
474.406	87.69
474.625	76.69
474.844	77.69
475.063	78.69
475.282	80.69
475.501	66.69
475.72	88.69
475.939	78.69
476.158	83.69
476.377	82.69
476.596	72.69
476.814	72.69
477.033	84.69
477.252	92.69
477.471	74.69
477.69	87.69
477.908	84.69
478.127	93.69
478.346	72.69
478.564	83.69
478.783	81.69
479.002	78.69
479.22	73.69
479.439	80.69
479.658	72.69
479.876	80.69
480.095	69.69
480.313	72.69
480.532	99.69
480.751	80.69
480.969	69.69
481.188	76.69
481.406	84.69
481.624	81.69
481.843	87.69
482.061	71.69
482.28	85.69
482.498	76.69
482.717	65.69
482.935	76.69
483.153	75.69
483.372	85.69
483.59	79.69
483.808	90.69
484.027	86.69
484.245	74.69
484.463	82.69
484.681	67.69
484.9	77.69
485.118	95.69
485.336	82.69
485.554	82.69
485.772	96.69
485.99	91.69
486.209	88.69
486.427	82.69
486.645	94.69
486.863	91.69
487.081	78.69
487.299	72.69
487.517	76.69
487.735	83.69
487.953	105.69
488.171	97.69
488.389	82.69
488.607	73.69
488.825	88.69
489.043	84.69
489.261	78.69
489.479	80.69
489.696	90.69
489.914	82.69
490.132	85.69
490.35	85.69
490.568	93.69
490.786	82.69
491.003	70.69
491.221	87.69
491.439	88.69
491.657	71.69
491.874	84.69
492.092	88.69
492.31	85.69
492.527	90.69
492.745	82.69
492.963	82.69
493.18	81.69
493.398	97.69
493.615	82.69
493.833	73.69
494.05	82.69
494.268	81.69
494.485	80.69
494.703	91.69
494.92	82.69
495.138	80.69
495.355	107.69
495.573	82.69
495.79	78.69
496.008	93.69
496.225	82.69
496.442	91.69
496.66	99.69
496.877	84.69
497.094	70.69
497.312	86.69
497.529	76.69
497.746	79.69
497.963	68.69
498.181	76.69
498.398	76.69
498.615	77.69
498.832	90.69
499.049	93.69
499.267	82.69
499.484	73.69
499.701	95.69
499.918	83.69
500.135	79.69
500.352	92.69
500.569	67.69
500.786	84.69
501.003	77.69
501.22	88.69
501.437	76.69
501.654	85.69
501.871	94.69
502.088	74.69
502.305	88.69
502.522	92.69
502.739	84.69
502.956	78.69
503.172	86.69
503.389	74.69
503.606	79.69
503.823	93.69
504.04	76.69
504.256	115.69
504.473	101.69
504.69	83.69
504.907	89.69
505.123	83.69
505.34	78.69
505.557	82.69
505.773	90.69
505.99	89.69
506.207	91.69
506.423	92.69
506.64	79.69
506.856	99.69
507.073	84.69
507.289	84.69
507.506	87.69
507.722	91.69
507.939	80.69
508.155	87.69
508.372	96.69
508.588	82.69
508.805	87.69
509.021	86.69
509.238	82.69
509.454	75.69
509.67	79.69
509.887	82.69
510.103	93.69
510.319	83.69
510.536	77.69
510.752	91.69
510.968	73.69
511.184	83.69
511.401	80.69
511.617	74.69
511.833	82.69
512.049	75.69
512.265	76.69
512.481	78.69
512.698	85.69
512.914	78.69
513.13	80.69
513.346	80.69
513.562	81.69
513.778	93.69
513.994	85.69
514.21	82.69
514.426	78.69
514.642	85.69
514.858	74.69
515.074	69.69
515.29	80.69
515.506	76.69
515.721	76.69
515.937	73.69
516.153	78.69
516.369	91.69
516.585	101.69
516.801	70.69
517.016	80.69
517.232	79.69
517.448	88.69
517.664	84.69
517.879	75.69
518.095	80.69
518.311	69.69
518.527	72.69
518.742	83.69
518.958	104.69
519.173	107.69
519.389	96.69
519.605	73.69
