Data from 10100_2_HRD10591_00009.txt Node
Date: Mon Jan 19 14:01:28 EST 2026
User: Yrep
Spectrometer: HR+D1059
Trigger mode: 1
Integration Time (sec): 1.000000E-1
Scans to average: 1
Electric dark correction enabled: true
Nonlinearity correction enabled: false
Boxcar width: 0
XAxis mode: Wavelengths
Number of Pixels in Spectrum: 2048
>>>>>Begin Spectral Data<<<<<
223.165	-15.56
223.4	-15.56
223.635	-15.56
223.869	-20.56
224.104	-16.56
224.338	-8.56
224.573	-8.56
224.808	-30.56
225.042	13.44
225.277	-2.56
225.511	-13.56
225.746	7.44
225.98	11.44
226.215	4.44
226.449	20.44
226.683	24.44
226.918	7.44
227.152	27.44
227.387	29.44
227.621	29.44
227.856	34.44
228.09	44.44
228.324	46.44
228.559	51.44
228.793	51.44
229.027	62.44
229.262	45.44
229.496	59.44
229.73	80.44
229.964	75.44
230.199	56.44
230.433	77.44
230.667	80.44
230.901	72.44
231.136	73.44
231.37	80.44
231.604	72.44
231.838	84.44
232.072	83.44
232.306	83.44
232.541	80.44
232.775	67.44
233.009	79.44
233.243	73.44
233.477	84.44
233.711	80.44
233.945	74.44
234.179	70.44
234.413	85.44
234.647	65.44
234.881	74.44
235.115	62.44
235.349	70.44
235.583	90.44
235.817	85.44
236.051	75.44
236.285	71.44
236.519	71.44
236.753	73.44
236.987	68.44
237.221	87.44
237.455	73.44
237.689	85.44
237.922	77.44
238.156	67.44
238.39	71.44
238.624	75.44
238.858	61.44
239.091	71.44
239.325	73.44
239.559	72.44
239.793	80.44
240.027	69.44
240.26	70.44
240.494	70.44
240.728	61.44
240.961	75.44
241.195	76.44
241.429	71.44
241.662	80.44
241.896	71.44
242.13	69.44
242.363	60.44
242.597	87.44
242.83	77.44
243.064	74.44
243.298	70.44
243.531	95.44
243.765	95.44
243.998	87.44
244.232	76.44
244.465	86.44
244.699	61.44
244.932	83.44
245.166	68.44
245.399	69.44
245.633	81.44
245.866	71.44
246.099	77.44
246.333	71.44
246.566	80.44
246.8	85.44
247.033	73.44
247.266	68.44
247.5	75.44
247.733	65.44
247.966	66.44
248.2	70.44
248.433	83.44
248.666	80.44
248.899	64.44
249.133	68.44
249.366	86.44
249.599	79.44
249.832	77.44
250.066	79.44
250.299	79.44
250.532	71.44
250.765	73.44
250.998	74.44
251.231	81.44
251.465	79.44
251.698	70.44
251.931	83.44
252.164	86.44
252.397	72.44
252.63	76.44
252.863	79.44
253.096	71.44
253.329	66.44
253.562	81.44
253.795	77.44
254.028	81.44
254.261	82.44
254.494	93.44
254.727	101.44
254.96	77.44
255.193	70.44
255.426	76.44
255.659	73.44
255.892	95.44
256.124	87.44
256.357	93.44
256.59	78.44
256.823	71.44
257.056	86.44
257.289	64.44
257.521	64.44
257.754	85.44
257.987	71.44
258.22	79.44
258.452	71.44
258.685	71.44
258.918	80.44
259.151	74.44
259.383	73.44
259.616	82.44
259.849	93.44
260.081	72.44
260.314	99.44
260.547	88.44
260.779	80.44
261.012	67.44
261.244	86.44
261.477	93.44
261.71	83.44
261.942	79.44
262.175	81.44
262.407	98.44
262.64	79.44
262.872	80.44
263.105	79.44
263.337	91.44
263.57	97.44
263.802	76.44
264.035	92.44
264.267	90.44
264.499	80.44
264.732	98.44
264.964	71.44
265.197	86.44
265.429	88.44
265.661	79.44
265.894	77.44
266.126	81.44
266.358	79.44
266.591	68.44
266.823	88.44
267.055	72.44
267.287	81.44
267.52	81.44
267.752	77.44
267.984	68.44
268.216	87.44
268.448	81.44
268.681	76.44
268.913	80.44
269.145	86.44
269.377	91.44
269.609	73.44
269.841	78.44
270.073	85.44
270.306	89.44
270.538	67.44
270.77	83.44
271.002	89.44
271.234	95.44
271.466	69.44
271.698	72.44
271.93	108.44
272.162	83.44
272.394	74.44
272.626	89.44
272.858	78.44
273.09	73.44
273.322	77.44
273.553	88.44
273.785	80.44
274.017	74.44
274.249	77.44
274.481	84.44
274.713	85.44
274.945	76.44
275.176	79.44
275.408	83.44
275.64	83.44
275.872	80.44
276.104	80.44
276.335	72.44
276.567	74.44
276.799	89.44
277.031	87.44
277.262	63.44
277.494	69.44
277.726	88.44
277.957	76.44
278.189	73.44
278.421	65.44
278.652	79.44
278.884	77.44
279.115	77.44
279.347	86.44
279.579	74.44
279.81	75.44
280.042	91.44
280.273	85.44
280.505	85.44
280.736	84.44
280.968	81.44
281.199	91.44
281.431	80.44
281.662	86.44
281.894	92.44
282.125	90.44
282.356	72.44
282.588	66.44
282.819	97.44
283.051	96.44
283.282	67.44
283.513	86.44
283.745	80.44
283.976	85.44
284.207	95.44
284.439	85.44
284.67	80.44
284.901	94.44
285.132	90.44
285.364	95.44
285.595	92.44
285.826	74.44
286.057	86.44
286.288	83.44
286.52	90.44
286.751	83.44
286.982	93.44
287.213	94.44
287.444	87.44
287.675	97.44
287.906	81.44
288.138	86.44
288.369	89.44
288.6	84.44
288.831	86.44
289.062	79.44
289.293	84.44
289.524	91.44
289.755	90.44
289.986	81.44
290.217	84.44
290.448	79.44
290.679	88.44
290.91	88.44
291.141	93.44
291.371	73.44
291.602	90.44
291.833	86.44
292.064	90.44
292.295	87.44
292.526	85.44
292.757	96.44
292.987	81.44
293.218	99.44
293.449	91.44
293.68	74.44
293.91	83.44
294.141	81.44
294.372	95.44
294.603	89.44
294.833	84.44
295.064	79.44
295.295	85.44
295.525	82.44
295.756	84.44
295.987	81.44
296.217	84.44
296.448	81.44
296.679	84.44
296.909	63.44
297.14	87.44
297.37	97.44
297.601	97.44
297.831	90.44
298.062	92.44
298.292	84.44
298.523	99.44
298.753	93.44
298.984	80.44
299.214	101.44
299.445	85.44
299.675	99.44
299.905	103.44
300.136	70.44
300.366	92.44
300.597	103.44
300.827	98.44
301.057	89.44
301.288	89.44
301.518	84.44
301.748	75.44
301.979	106.44
302.209	102.44
302.439	79.44
302.669	96.44
302.9	85.44
303.13	76.44
303.36	84.44
303.59	95.44
303.82	92.44
304.051	91.44
304.281	84.44
304.511	71.44
304.741	81.44
304.971	81.44
305.201	91.44
305.431	100.44
305.661	72.44
305.891	74.44
306.121	85.44
306.352	72.44
306.582	71.44
306.812	95.44
307.042	91.44
307.272	88.44
307.502	93.44
307.731	96.44
307.961	81.44
308.191	93.44
308.421	102.44
308.651	81.44
308.881	90.44
309.111	91.44
309.341	111.44
309.571	101.44
309.8	90.44
310.03	84.44
310.26	95.44
310.49	83.44
310.72	89.44
310.949	89.44
311.179	79.44
311.409	92.44
311.639	90.44
311.868	89.44
312.098	90.44
312.328	93.44
312.557	84.44
312.787	81.44
313.017	80.44
313.246	107.44
313.476	87.44
313.706	90.44
313.935	83.44
314.165	80.44
314.394	95.44
314.624	85.44
314.853	96.44
315.083	81.44
315.312	98.44
315.542	85.44
315.771	100.44
316.001	107.44
316.23	95.44
316.46	88.44
316.689	77.44
316.919	103.44
317.148	89.44
317.377	102.44
317.607	83.44
317.836	101.44
318.065	94.44
318.295	92.44
318.524	85.44
318.753	81.44
318.983	78.44
319.212	91.44
319.441	90.44
319.67	85.44
319.9	95.44
320.129	87.44
320.358	93.44
320.587	90.44
320.816	87.44
321.046	85.44
321.275	95.44
321.504	87.44
321.733	101.44
321.962	98.44
322.191	88.44
322.42	101.44
322.649	95.44
322.878	85.44
323.108	100.44
323.337	89.44
323.566	85.44
323.795	89.44
324.024	101.44
324.253	91.44
324.482	95.44
324.71	89.44
324.939	84.44
325.168	87.44
325.397	86.44
325.626	87.44
325.855	82.44
326.084	79.44
326.313	97.44
326.542	91.44
326.77	100.44
326.999	86.44
327.228	89.44
327.457	99.44
327.686	91.44
327.914	101.44
328.143	90.44
328.372	78.44
328.6	94.44
328.829	91.44
329.058	85.44
329.287	84.44
329.515	87.44
329.744	101.44
329.972	87.44
330.201	77.44
330.43	71.44
330.658	85.44
330.887	87.44
331.115	103.44
331.344	89.44
331.572	98.44
331.801	85.44
332.03	84.44
332.258	96.44
332.486	86.44
332.715	77.44
332.943	88.44
333.172	79.44
333.4	86.44
333.629	91.44
333.857	111.44
334.085	89.44
334.314	95.44
334.542	93.44
334.771	111.44
334.999	112.44
335.227	100.44
335.455	103.44
335.684	97.44
335.912	100.44
336.14	113.44
336.369	115.44
336.597	95.44
336.825	83.44
337.053	86.44
337.281	89.44
337.51	82.44
337.738	79.44
337.966	95.44
338.194	86.44
338.422	91.44
338.65	81.44
338.878	87.44
339.106	84.44
339.334	83.44
339.562	82.44
339.79	83.44
340.018	78.44
340.246	101.44
340.474	75.44
340.702	90.44
340.93	90.44
341.158	91.44
341.386	82.44
341.614	91.44
341.842	96.44
342.07	78.44
342.298	93.44
342.526	84.44
342.754	86.44
342.981	82.44
343.209	94.44
343.437	102.44
343.665	89.44
343.893	93.44
344.12	90.44
344.348	85.44
344.576	82.44
344.804	79.44
345.031	80.44
345.259	85.44
345.487	73.44
345.714	71.44
345.942	79.44
346.17	85.44
346.397	92.44
346.625	90.44
346.853	100.44
347.08	73.44
347.308	99.44
347.535	88.44
347.763	98.44
347.99	91.44
348.218	96.44
348.445	96.44
348.673	100.44
348.9	94.44
349.128	79.44
349.355	87.44
349.583	81.44
349.81	99.44
350.037	84.44
350.265	92.44
350.492	76.44
350.72	89.44
350.947	82.44
351.174	81.44
351.402	91.44
351.629	98.44
351.856	86.44
352.083	81.44
352.311	88.44
352.538	92.44
352.765	101.44
352.992	98.44
353.22	85.44
353.447	94.44
353.674	88.44
353.901	91.44
354.128	93.44
354.355	80.44
354.583	81.44
354.81	96.44
355.037	103.44
355.264	100.44
355.491	95.44
355.718	88.44
355.945	95.44
356.172	87.44
356.399	96.44
356.626	95.44
356.853	84.44
357.08	109.44
357.307	84.44
357.534	88.44
357.761	101.44
357.988	85.44
358.215	102.44
358.441	92.44
358.668	87.44
358.895	109.44
359.122	86.44
359.349	98.44
359.576	94.44
359.802	87.44
360.029	81.44
360.256	88.44
360.483	77.44
360.709	101.44
360.936	114.44
361.163	88.44
361.39	112.44
361.616	85.44
361.843	83.44
362.07	103.44
362.296	119.44
362.523	109.44
362.749	134.44
362.976	132.44
363.203	167.44
363.429	139.44
363.656	95.44
363.882	111.44
364.109	129.44
364.335	168.44
364.562	180.44
364.788	131.44
365.015	100.44
365.241	101.44
365.468	92.44
365.694	83.44
365.92	79.44
366.147	90.44
366.373	85.44
366.599	91.44
366.826	98.44
367.052	87.44
367.278	92.44
367.505	80.44
367.731	89.44
367.957	95.44
368.184	88.44
368.41	99.44
368.636	95.44
368.862	87.44
369.089	91.44
369.315	98.44
369.541	93.44
369.767	87.44
369.993	96.44
370.219	97.44
370.445	90.44
370.672	101.44
370.898	89.44
371.124	91.44
371.35	90.44
371.576	79.44
371.802	80.44
372.028	96.44
372.254	81.44
372.48	88.44
372.706	103.44
372.932	112.44
373.158	104.44
373.384	127.44
373.61	125.44
373.835	119.44
374.061	101.44
374.287	101.44
374.513	97.44
374.739	118.44
374.965	107.44
375.191	113.44
375.416	101.44
375.642	99.44
375.868	96.44
376.094	99.44
376.319	100.44
376.545	96.44
376.771	91.44
376.997	94.44
377.222	89.44
377.448	91.44
377.674	91.44
377.899	93.44
378.125	103.44
378.35	97.44
378.576	86.44
378.802	99.44
379.027	96.44
379.253	90.44
379.478	104.44
379.704	93.44
379.929	91.44
380.155	82.44
380.38	90.44
380.606	85.44
380.831	79.44
381.057	91.44
381.282	92.44
381.507	107.44
381.733	105.44
381.958	90.44
382.184	104.44
382.409	104.44
382.634	111.44
382.86	113.44
383.085	116.44
383.31	109.44
383.535	111.44
383.761	119.44
383.986	122.44
384.211	107.44
384.436	104.44
384.662	108.44
384.887	97.44
385.112	88.44
385.337	93.44
385.562	97.44
385.787	95.44
386.013	109.44
386.238	111.44
386.463	95.44
386.688	100.44
386.913	92.44
387.138	102.44
387.363	105.44
387.588	103.44
387.813	119.44
388.038	105.44
388.263	109.44
388.488	99.44
388.713	93.44
388.938	99.44
389.163	88.44
389.387	104.44
389.612	100.44
389.837	97.44
390.062	87.44
390.287	103.44
390.512	94.44
390.736	107.44
390.961	109.44
391.186	84.44
391.411	93.44
391.636	93.44
391.86	79.44
392.085	96.44
392.31	111.44
392.534	106.44
392.759	133.44
392.984	195.44
393.208	296.44
393.433	445.44
393.658	360.44
393.882	166.44
394.107	127.44
394.331	132.44
394.556	132.44
394.78	113.44
395.005	111.44
395.229	95.44
395.454	115.44
395.678	127.44
395.903	148.44
396.127	159.44
396.352	163.44
396.576	198.44
396.801	319.44
397.025	365.44
397.249	208.44
397.474	160.44
397.698	121.44
397.922	89.44
398.147	116.44
398.371	102.44
398.595	96.44
398.82	112.44
399.044	95.44
399.268	87.44
399.492	91.44
399.717	95.44
399.941	81.44
400.165	104.44
400.389	94.44
400.613	90.44
400.837	98.44
401.062	86.44
401.286	96.44
401.51	76.44
401.734	97.44
401.958	89.44
402.182	92.44
402.406	81.44
402.63	91.44
402.854	107.44
403.078	87.44
403.302	102.44
403.526	98.44
403.75	79.44
403.974	79.44
404.198	91.44
404.422	93.44
404.645	106.44
404.869	111.44
405.093	87.44
405.317	87.44
405.541	84.44
405.765	73.44
405.988	83.44
406.212	92.44
406.436	87.44
406.66	81.44
406.883	86.44
407.107	89.44
407.331	96.44
407.555	101.44
407.778	104.44
408.002	127.44
408.226	86.44
408.449	79.44
408.673	79.44
408.896	96.44
409.12	100.44
409.344	93.44
409.567	107.44
409.791	127.44
410.014	138.44
410.238	101.44
410.461	78.44
410.685	92.44
410.908	99.44
411.132	92.44
411.355	81.44
411.578	104.44
411.802	87.44
412.025	91.44
412.249	79.44
412.472	89.44
412.695	80.44
412.919	81.44
413.142	89.44
413.365	77.44
413.589	96.44
413.812	76.44
414.035	86.44
414.258	88.44
414.482	81.44
414.705	95.44
414.928	103.44
415.151	89.44
415.374	97.44
415.597	93.44
415.821	87.44
416.044	74.44
416.267	100.44
416.49	104.44
416.713	84.44
416.936	88.44
417.159	64.44
417.382	96.44
417.605	86.44
417.828	85.44
418.051	73.44
418.274	93.44
418.497	86.44
418.72	94.44
418.943	97.44
419.166	86.44
419.389	89.44
419.611	84.44
419.834	88.44
420.057	88.44
420.28	104.44
420.503	96.44
420.726	85.44
420.948	103.44
421.171	121.44
421.394	128.44
421.617	148.44
421.839	154.44
422.062	170.44
422.285	228.44
422.507	371.44
422.73	471.44
422.953	448.44
423.175	307.44
423.398	207.44
423.621	148.44
423.843	134.44
424.066	116.44
424.288	120.44
424.511	103.44
424.733	93.44
424.956	102.44
425.178	112.44
425.401	98.44
425.623	98.44
425.846	93.44
426.068	85.44
426.291	108.44
426.513	95.44
426.735	96.44
426.958	104.44
427.18	93.44
427.402	85.44
427.625	90.44
427.847	95.44
428.069	111.44
428.292	150.44
428.514	162.44
428.736	128.44
428.958	157.44
429.181	152.44
429.403	113.44
429.625	111.44
429.847	137.44
430.069	194.44
430.292	243.44
430.514	220.44
430.736	168.44
430.958	180.44
431.18	123.44
431.402	92.44
431.624	116.44
431.846	144.44
432.068	171.44
432.29	111.44
432.512	95.44
432.734	82.44
432.956	99.44
433.178	105.44
433.4	84.44
433.622	83.44
433.844	82.44
434.066	83.44
434.287	74.44
434.509	85.44
434.731	87.44
434.953	81.44
435.175	86.44
435.397	108.44
435.618	95.44
435.84	109.44
436.062	102.44
436.284	93.44
436.505	89.44
436.727	79.44
436.949	98.44
437.17	82.44
437.392	98.44
437.614	87.44
437.835	80.44
438.057	99.44
438.278	84.44
438.5	102.44
438.721	100.44
438.943	97.44
439.165	95.44
439.386	91.44
439.608	73.44
439.829	87.44
440.05	87.44
440.272	74.44
440.493	94.44
440.715	100.44
440.936	87.44
441.158	96.44
441.379	103.44
441.6	97.44
441.822	107.44
442.043	96.44
442.264	118.44
442.486	162.44
442.707	241.44
442.928	161.44
443.149	127.44
443.371	198.44
443.592	341.44
443.813	306.44
444.034	134.44
444.255	104.44
444.476	95.44
444.698	98.44
444.919	104.44
445.14	213.44
445.361	262.44
445.582	378.44
445.803	348.44
446.024	150.44
446.245	96.44
446.466	87.44
446.687	77.44
446.908	87.44
447.129	93.44
447.35	94.44
447.571	79.44
447.792	85.44
448.013	87.44
448.234	94.44
448.455	91.44
448.675	88.44
448.896	80.44
449.117	83.44
449.338	93.44
449.559	77.44
449.779	81.44
450	96.44
450.221	76.44
450.442	77.44
450.662	84.44
450.883	73.44
451.104	97.44
451.324	80.44
451.545	89.44
451.766	100.44
451.986	83.44
452.207	90.44
452.428	86.44
452.648	103.44
452.869	121.44
453.089	123.44
453.31	102.44
453.53	111.44
453.751	111.44
453.971	89.44
454.192	85.44
454.412	87.44
454.633	81.44
454.853	79.44
455.073	81.44
455.294	92.44
455.514	113.44
455.734	95.44
455.955	107.44
456.175	86.44
456.395	64.44
456.616	98.44
456.836	83.44
457.056	94.44
457.276	85.44
457.497	95.44
457.717	93.44
457.937	149.44
458.157	157.44
458.377	164.44
458.598	176.44
458.818	186.44
459.038	118.44
459.258	100.44
459.478	83.44
459.698	73.44
459.918	89.44
460.138	75.44
460.358	77.44
460.578	87.44
460.798	150.44
461.018	121.44
461.238	95.44
461.458	85.44
461.678	83.44
461.898	82.44
462.118	85.44
462.338	91.44
462.558	91.44
462.777	89.44
462.997	77.44
463.217	70.44
463.437	74.44
463.657	87.44
463.876	79.44
464.096	73.44
464.316	83.44
464.536	77.44
464.755	93.44
464.975	84.44
465.195	90.44
465.414	98.44
465.634	79.44
465.854	74.44
466.073	65.44
466.293	86.44
466.512	81.44
466.732	87.44
466.951	78.44
467.171	101.44
467.391	103.44
467.61	87.44
467.829	86.44
468.049	76.44
468.268	102.44
468.488	103.44
468.707	94.44
468.927	104.44
469.146	95.44
469.365	99.44
469.585	84.44
469.804	78.44
470.023	79.44
470.243	100.44
470.462	82.44
470.681	77.44
470.901	91.44
471.12	86.44
471.339	91.44
471.558	96.44
471.777	97.44
471.997	79.44
472.216	102.44
472.435	89.44
472.654	81.44
472.873	97.44
473.092	81.44
473.311	91.44
473.53	84.44
473.749	86.44
473.968	88.44
474.187	87.44
474.406	84.44
474.625	85.44
474.844	107.44
475.063	83.44
475.282	77.44
475.501	85.44
475.72	80.44
475.939	83.44
476.158	78.44
476.377	86.44
476.596	88.44
476.814	100.44
477.033	95.44
477.252	79.44
477.471	84.44
477.69	95.44
477.908	95.44
478.127	86.44
478.346	88.44
478.564	81.44
478.783	96.44
479.002	89.44
479.22	99.44
479.439	99.44
479.658	93.44
479.876	96.44
480.095	72.44
480.313	88.44
480.532	94.44
480.751	93.44
480.969	83.44
481.188	92.44
481.406	96.44
481.624	89.44
481.843	91.44
482.061	96.44
482.28	111.44
482.498	87.44
482.717	73.44
482.935	91.44
483.153	105.44
483.372	112.44
483.59	81.44
483.808	77.44
484.027	77.44
484.245	100.44
484.463	86.44
484.681	103.44
484.9	80.44
485.118	95.44
485.336	89.44
485.554	68.44
485.772	96.44
485.99	111.44
486.209	95.44
486.427	83.44
486.645	93.44
486.863	90.44
487.081	94.44
487.299	101.44
487.517	117.44
487.735	156.44
487.953	266.44
488.171	208.44
488.389	108.44
488.607	91.44
488.825	95.44
489.043	94.44
489.261	88.44
489.479	102.44
489.696	77.44
489.914	85.44
490.132	91.44
490.35	100.44
490.568	94.44
490.786	95.44
491.003	81.44
491.221	99.44
491.439	78.44
491.657	105.44
491.874	91.44
492.092	85.44
492.31	96.44
492.527	93.44
492.745	93.44
492.963	98.44
493.18	104.44
493.398	99.44
493.615	117.44
493.833	101.44
494.05	85.44
494.268	100.44
494.485	91.44
494.703	94.44
494.92	108.44
495.138	104.44
495.355	91.44
495.573	104.44
495.79	93.44
496.008	100.44
496.225	102.44
496.442	101.44
496.66	87.44
496.877	99.44
497.094	103.44
497.312	78.44
497.529	93.44
497.746	91.44
497.963	96.44
498.181	120.44
498.398	121.44
498.615	106.44
498.832	103.44
499.049	87.44
499.267	99.44
499.484	100.44
499.701	102.44
499.918	100.44
500.135	112.44
500.352	98.44
500.569	101.44
500.786	101.44
501.003	103.44
501.22	97.44
501.437	109.44
501.654	116.44
501.871	89.44
502.088	100.44
502.305	102.44
502.522	103.44
502.739	88.44
502.956	85.44
503.172	88.44
503.389	97.44
503.606	108.44
503.823	107.44
504.04	128.44
504.256	184.44
504.473	201.44
504.69	124.44
504.907	100.44
505.123	83.44
505.34	85.44
505.557	86.44
505.773	104.44
505.99	92.44
506.207	83.44
506.423	78.44
506.64	94.44
506.856	90.44
507.073	97.44
507.289	90.44
507.506	83.44
507.722	74.44
507.939	93.44
508.155	96.44
508.372	96.44
508.588	89.44
508.805	96.44
509.021	86.44
509.238	88.44
509.454	100.44
509.67	80.44
509.887	86.44
510.103	97.44
510.319	112.44
510.536	93.44
510.752	94.44
510.968	98.44
511.184	91.44
511.401	85.44
511.617	83.44
511.833	73.44
512.049	91.44
512.265	78.44
512.481	100.44
512.698	95.44
512.914	99.44
513.13	111.44
513.346	101.44
513.562	86.44
513.778	89.44
513.994	81.44
514.21	77.44
514.426	95.44
514.642	87.44
514.858	101.44
515.074	93.44
515.29	93.44
515.506	98.44
515.721	84.44
515.937	86.44
