Data from 10100_2_HRD10591_00027.txt Node
Date: Mon Jan 19 14:01:37 EST 2026
User: Yrep
Spectrometer: HR+D1059
Trigger mode: 1
Integration Time (sec): 1.000000E-1
Scans to average: 1
Electric dark correction enabled: true
Nonlinearity correction enabled: false
Boxcar width: 0
XAxis mode: Wavelengths
Number of Pixels in Spectrum: 2048
>>>>>Begin Spectral Data<<<<<
223.165	-23.44
223.4	-23.44
223.635	-23.44
223.869	-25.44
224.104	-13.44
224.338	-20.44
224.573	-6.44
224.808	-17.44
225.042	0.56
225.277	-9.44
225.511	-5.44
225.746	2.56
225.98	12.56
226.215	10.56
226.449	17.56
226.683	14.56
226.918	28.56
227.152	34.56
227.387	31.56
227.621	41.56
227.856	52.56
228.09	44.56
228.324	66.56
228.559	68.56
228.793	57.56
229.027	77.56
229.262	57.56
229.496	56.56
229.73	62.56
229.964	66.56
230.199	74.56
230.433	78.56
230.667	81.56
230.901	70.56
231.136	76.56
231.37	72.56
231.604	92.56
231.838	81.56
232.072	84.56
232.306	84.56
232.541	87.56
232.775	82.56
233.009	70.56
233.243	83.56
233.477	78.56
233.711	73.56
233.945	73.56
234.179	73.56
234.413	69.56
234.647	73.56
234.881	75.56
235.115	78.56
235.349	70.56
235.583	71.56
235.817	71.56
236.051	79.56
236.285	66.56
236.519	70.56
236.753	74.56
236.987	72.56
237.221	80.56
237.455	74.56
237.689	70.56
237.922	84.56
238.156	81.56
238.39	78.56
238.624	71.56
238.858	88.56
239.091	73.56
239.325	72.56
239.559	81.56
239.793	78.56
240.027	68.56
240.26	64.56
240.494	86.56
240.728	80.56
240.961	69.56
241.195	64.56
241.429	80.56
241.662	82.56
241.896	80.56
242.13	86.56
242.363	64.56
242.597	80.56
242.83	74.56
243.064	72.56
243.298	61.56
243.531	64.56
243.765	79.56
243.998	70.56
244.232	78.56
244.465	73.56
244.699	65.56
244.932	72.56
245.166	89.56
245.399	72.56
245.633	74.56
245.866	69.56
246.099	76.56
246.333	84.56
246.566	75.56
246.8	78.56
247.033	85.56
247.266	85.56
247.5	74.56
247.733	86.56
247.966	91.56
248.2	86.56
248.433	85.56
248.666	90.56
248.899	68.56
249.133	80.56
249.366	84.56
249.599	70.56
249.832	72.56
250.066	72.56
250.299	69.56
250.532	68.56
250.765	78.56
250.998	89.56
251.231	85.56
251.465	98.56
251.698	78.56
251.931	85.56
252.164	92.56
252.397	60.56
252.63	71.56
252.863	66.56
253.096	80.56
253.329	89.56
253.562	85.56
253.795	83.56
254.028	71.56
254.261	79.56
254.494	68.56
254.727	76.56
254.96	82.56
255.193	84.56
255.426	75.56
255.659	94.56
255.892	87.56
256.124	80.56
256.357	96.56
256.59	64.56
256.823	84.56
257.056	82.56
257.289	78.56
257.521	84.56
257.754	88.56
257.987	80.56
258.22	95.56
258.452	71.56
258.685	98.56
258.918	85.56
259.151	89.56
259.383	84.56
259.616	75.56
259.849	86.56
260.081	76.56
260.314	75.56
260.547	80.56
260.779	79.56
261.012	75.56
261.244	82.56
261.477	93.56
261.71	86.56
261.942	82.56
262.175	86.56
262.407	84.56
262.64	79.56
262.872	92.56
263.105	82.56
263.337	64.56
263.57	87.56
263.802	86.56
264.035	95.56
264.267	83.56
264.499	73.56
264.732	84.56
264.964	66.56
265.197	94.56
265.429	76.56
265.661	75.56
265.894	65.56
266.126	93.56
266.358	82.56
266.591	71.56
266.823	74.56
267.055	87.56
267.287	90.56
267.52	66.56
267.752	93.56
267.984	86.56
268.216	70.56
268.448	84.56
268.681	84.56
268.913	89.56
269.145	85.56
269.377	84.56
269.609	88.56
269.841	75.56
270.073	87.56
270.306	89.56
270.538	97.56
270.77	88.56
271.002	80.56
271.234	82.56
271.466	80.56
271.698	71.56
271.93	80.56
272.162	86.56
272.394	80.56
272.626	79.56
272.858	89.56
273.09	101.56
273.322	88.56
273.553	81.56
273.785	86.56
274.017	84.56
274.249	94.56
274.481	78.56
274.713	89.56
274.945	78.56
275.176	85.56
275.408	86.56
275.64	74.56
275.872	74.56
276.104	80.56
276.335	80.56
276.567	73.56
276.799	78.56
277.031	86.56
277.262	80.56
277.494	79.56
277.726	85.56
277.957	74.56
278.189	66.56
278.421	80.56
278.652	80.56
278.884	86.56
279.115	81.56
279.347	87.56
279.579	90.56
279.81	94.56
280.042	96.56
280.273	74.56
280.505	75.56
280.736	80.56
280.968	80.56
281.199	88.56
281.431	86.56
281.662	76.56
281.894	79.56
282.125	73.56
282.356	85.56
282.588	79.56
282.819	73.56
283.051	89.56
283.282	86.56
283.513	70.56
283.745	83.56
283.976	91.56
284.207	84.56
284.439	95.56
284.67	78.56
284.901	66.56
285.132	93.56
285.364	72.56
285.595	85.56
285.826	79.56
286.057	87.56
286.288	85.56
286.52	83.56
286.751	75.56
286.982	86.56
287.213	94.56
287.444	73.56
287.675	94.56
287.906	106.56
288.138	93.56
288.369	81.56
288.6	84.56
288.831	84.56
289.062	76.56
289.293	95.56
289.524	84.56
289.755	60.56
289.986	88.56
290.217	74.56
290.448	80.56
290.679	87.56
290.91	98.56
291.141	79.56
291.371	88.56
291.602	80.56
291.833	78.56
292.064	91.56
292.295	82.56
292.526	87.56
292.757	90.56
292.987	93.56
293.218	89.56
293.449	82.56
293.68	76.56
293.91	84.56
294.141	91.56
294.372	75.56
294.603	81.56
294.833	93.56
295.064	80.56
295.295	74.56
295.525	75.56
295.756	90.56
295.987	86.56
296.217	86.56
296.448	88.56
296.679	78.56
296.909	95.56
297.14	90.56
297.37	86.56
297.601	73.56
297.831	72.56
298.062	73.56
298.292	79.56
298.523	86.56
298.753	71.56
298.984	75.56
299.214	85.56
299.445	68.56
299.675	82.56
299.905	86.56
300.136	85.56
300.366	90.56
300.597	93.56
300.827	96.56
301.057	84.56
301.288	82.56
301.518	80.56
301.748	82.56
301.979	89.56
302.209	64.56
302.439	90.56
302.669	85.56
302.9	85.56
303.13	94.56
303.36	80.56
303.59	78.56
303.82	80.56
304.051	81.56
304.281	89.56
304.511	82.56
304.741	86.56
304.971	74.56
305.201	89.56
305.431	96.56
305.661	88.56
305.891	103.56
306.121	75.56
306.352	69.56
306.582	86.56
306.812	75.56
307.042	87.56
307.272	95.56
307.502	99.56
307.731	76.56
307.961	89.56
308.191	82.56
308.421	71.56
308.651	87.56
308.881	81.56
309.111	84.56
309.341	92.56
309.571	66.56
309.8	88.56
310.03	84.56
310.26	81.56
310.49	84.56
310.72	95.56
310.949	78.56
311.179	81.56
311.409	78.56
311.639	90.56
311.868	97.56
312.098	86.56
312.328	80.56
312.557	86.56
312.787	83.56
313.017	74.56
313.246	80.56
313.476	75.56
313.706	66.56
313.935	76.56
314.165	87.56
314.394	78.56
314.624	81.56
314.853	96.56
315.083	83.56
315.312	85.56
315.542	98.56
315.771	86.56
316.001	84.56
316.23	81.56
316.46	70.56
316.689	94.56
316.919	88.56
317.148	86.56
317.377	93.56
317.607	100.56
317.836	84.56
318.065	77.56
318.295	82.56
318.524	65.56
318.753	81.56
318.983	81.56
319.212	101.56
319.441	81.56
319.67	76.56
319.9	78.56
320.129	85.56
320.358	81.56
320.587	85.56
320.816	86.56
321.046	93.56
321.275	80.56
321.504	84.56
321.733	92.56
321.962	93.56
322.191	70.56
322.42	85.56
322.649	86.56
322.878	72.56
323.108	79.56
323.337	87.56
323.566	83.56
323.795	84.56
324.024	88.56
324.253	71.56
324.482	78.56
324.71	73.56
324.939	76.56
325.168	94.56
325.397	99.56
325.626	78.56
325.855	92.56
326.084	80.56
326.313	86.56
326.542	71.56
326.77	88.56
326.999	74.56
327.228	97.56
327.457	82.56
327.686	82.56
327.914	99.56
328.143	72.56
328.372	99.56
328.6	103.56
328.829	83.56
329.058	83.56
329.287	69.56
329.515	85.56
329.744	89.56
329.972	93.56
330.201	76.56
330.43	93.56
330.658	96.56
330.887	83.56
331.115	88.56
331.344	76.56
331.572	85.56
331.801	88.56
332.03	73.56
332.258	78.56
332.486	80.56
332.715	80.56
332.943	88.56
333.172	87.56
333.4	89.56
333.629	85.56
333.857	92.56
334.085	99.56
334.314	72.56
334.542	92.56
334.771	91.56
334.999	82.56
335.227	89.56
335.455	100.56
335.684	86.56
335.912	94.56
336.14	92.56
336.369	76.56
336.597	76.56
336.825	85.56
337.053	83.56
337.281	92.56
337.51	91.56
337.738	73.56
337.966	94.56
338.194	88.56
338.422	89.56
338.65	95.56
338.878	89.56
339.106	87.56
339.334	80.56
339.562	82.56
339.79	87.56
340.018	88.56
340.246	85.56
340.474	81.56
340.702	79.56
340.93	84.56
341.158	82.56
341.386	94.56
341.614	81.56
341.842	95.56
342.07	99.56
342.298	97.56
342.526	96.56
342.754	76.56
342.981	83.56
343.209	69.56
343.437	92.56
343.665	76.56
343.893	81.56
344.12	92.56
344.348	80.56
344.576	88.56
344.804	87.56
345.031	96.56
345.259	83.56
345.487	88.56
345.714	76.56
345.942	85.56
346.17	93.56
346.397	78.56
346.625	86.56
346.853	80.56
347.08	96.56
347.308	92.56
347.535	69.56
347.763	70.56
347.99	85.56
348.218	85.56
348.445	90.56
348.673	74.56
348.9	78.56
349.128	87.56
349.355	80.56
349.583	73.56
349.81	88.56
350.037	80.56
350.265	95.56
350.492	85.56
350.72	85.56
350.947	85.56
351.174	80.56
351.402	74.56
351.629	78.56
351.856	75.56
352.083	86.56
352.311	79.56
352.538	84.56
352.765	91.56
352.992	99.56
353.22	81.56
353.447	90.56
353.674	90.56
353.901	86.56
354.128	88.56
354.355	88.56
354.583	85.56
354.81	87.56
355.037	85.56
355.264	86.56
355.491	92.56
355.718	77.56
355.945	61.56
356.172	68.56
356.399	82.56
356.626	94.56
356.853	94.56
357.08	96.56
357.307	83.56
357.534	78.56
357.761	95.56
357.988	88.56
358.215	97.56
358.441	76.56
358.668	82.56
358.895	89.56
359.122	86.56
359.349	88.56
359.576	83.56
359.802	69.56
360.029	86.56
360.256	90.56
360.483	92.56
360.709	82.56
360.936	87.56
361.163	78.56
361.39	83.56
361.616	81.56
361.843	97.56
362.07	88.56
362.296	94.56
362.523	100.56
362.749	79.56
362.976	80.56
363.203	91.56
363.429	81.56
363.656	78.56
363.882	88.56
364.109	82.56
364.335	100.56
364.562	85.56
364.788	87.56
365.015	72.56
365.241	80.56
365.468	78.56
365.694	74.56
365.92	78.56
366.147	88.56
366.373	92.56
366.599	90.56
366.826	76.56
367.052	88.56
367.278	86.56
367.505	87.56
367.731	81.56
367.957	86.56
368.184	84.56
368.41	86.56
368.636	97.56
368.862	108.56
369.089	85.56
369.315	83.56
369.541	81.56
369.767	105.56
369.993	85.56
370.219	86.56
370.445	82.56
370.672	82.56
370.898	89.56
371.124	95.56
371.35	81.56
371.576	81.56
371.802	89.56
372.028	82.56
372.254	84.56
372.48	85.56
372.706	73.56
372.932	84.56
373.158	86.56
373.384	86.56
373.61	89.56
373.835	85.56
374.061	86.56
374.287	71.56
374.513	98.56
374.739	86.56
374.965	75.56
375.191	75.56
375.416	92.56
375.642	78.56
375.868	90.56
376.094	84.56
376.319	77.56
376.545	78.56
376.771	68.56
376.997	65.56
377.222	83.56
377.448	82.56
377.674	92.56
377.899	88.56
378.125	92.56
378.35	80.56
378.576	89.56
378.802	69.56
379.027	84.56
379.253	86.56
379.478	91.56
379.704	86.56
379.929	86.56
380.155	82.56
380.38	82.56
380.606	90.56
380.831	79.56
381.057	99.56
381.282	80.56
381.507	70.56
381.733	74.56
381.958	89.56
382.184	73.56
382.409	79.56
382.634	89.56
382.86	94.56
383.085	88.56
383.31	88.56
383.535	80.56
383.761	98.56
383.986	89.56
384.211	68.56
384.436	87.56
384.662	86.56
384.887	76.56
385.112	86.56
385.337	83.56
385.562	82.56
385.787	73.56
386.013	72.56
386.238	66.56
386.463	86.56
386.688	78.56
386.913	71.56
387.138	76.56
387.363	83.56
387.588	87.56
387.813	72.56
388.038	78.56
388.263	66.56
388.488	77.56
388.713	86.56
388.938	75.56
389.163	76.56
389.387	76.56
389.612	93.56
389.837	78.56
390.062	72.56
390.287	76.56
390.512	96.56
390.736	86.56
390.961	72.56
391.186	72.56
391.411	80.56
391.636	85.56
391.86	80.56
392.085	89.56
392.31	74.56
392.534	73.56
392.759	104.56
392.984	96.56
393.208	114.56
393.433	144.56
393.658	124.56
393.882	93.56
394.107	84.56
394.331	84.56
394.556	89.56
394.78	75.56
395.005	78.56
395.229	80.56
395.454	93.56
395.678	80.56
395.903	94.56
396.127	83.56
396.352	97.56
396.576	89.56
396.801	110.56
397.025	116.56
397.249	89.56
397.474	88.56
397.698	93.56
397.922	81.56
398.147	78.56
398.371	82.56
398.595	79.56
398.82	78.56
399.044	88.56
399.268	80.56
399.492	81.56
399.717	82.56
399.941	82.56
400.165	84.56
400.389	71.56
400.613	85.56
400.837	99.56
401.062	89.56
401.286	80.56
401.51	80.56
401.734	81.56
401.958	81.56
402.182	91.56
402.406	81.56
402.63	95.56
402.854	80.56
403.078	81.56
403.302	86.56
403.526	69.56
403.75	77.56
403.974	79.56
404.198	88.56
404.422	73.56
404.645	66.56
404.869	93.56
405.093	87.56
405.317	88.56
405.541	73.56
405.765	92.56
405.988	81.56
406.212	84.56
406.436	76.56
406.66	85.56
406.883	83.56
407.107	80.56
407.331	86.56
407.555	105.56
407.778	82.56
408.002	80.56
408.226	86.56
408.449	75.56
408.673	81.56
408.896	90.56
409.12	84.56
409.344	66.56
409.567	70.56
409.791	69.56
410.014	101.56
410.238	89.56
410.461	82.56
410.685	78.56
410.908	86.56
411.132	84.56
411.355	85.56
411.578	80.56
411.802	88.56
412.025	70.56
412.249	70.56
412.472	74.56
412.695	87.56
412.919	72.56
413.142	86.56
413.365	74.56
413.589	78.56
413.812	82.56
414.035	78.56
414.258	80.56
414.482	77.56
414.705	77.56
414.928	85.56
415.151	88.56
415.374	92.56
415.597	96.56
415.821	89.56
416.044	85.56
416.267	76.56
416.49	82.56
416.713	89.56
416.936	72.56
417.159	72.56
417.382	87.56
417.605	68.56
417.828	85.56
418.051	81.56
418.274	84.56
418.497	81.56
418.72	76.56
418.943	77.56
419.166	72.56
419.389	95.56
419.611	68.56
419.834	83.56
420.057	78.56
420.28	75.56
420.503	79.56
420.726	90.56
420.948	92.56
421.171	83.56
421.394	76.56
421.617	79.56
421.839	68.56
422.062	83.56
422.285	68.56
422.507	96.56
422.73	121.56
422.953	127.56
423.175	97.56
423.398	92.56
423.621	92.56
423.843	87.56
424.066	89.56
424.288	80.56
424.511	78.56
424.733	76.56
424.956	80.56
425.178	84.56
425.401	61.56
425.623	58.56
425.846	89.56
426.068	78.56
426.291	80.56
426.513	99.56
426.735	83.56
426.958	83.56
427.18	72.56
427.402	94.56
427.625	87.56
427.847	80.56
428.069	88.56
428.292	87.56
428.514	93.56
428.736	92.56
428.958	91.56
429.181	102.56
429.403	85.56
429.625	83.56
429.847	74.56
430.069	84.56
430.292	104.56
430.514	93.56
430.736	87.56
430.958	80.56
431.18	78.56
431.402	90.56
431.624	80.56
431.846	91.56
432.068	80.56
432.29	81.56
432.512	91.56
432.734	91.56
432.956	58.56
433.178	89.56
433.4	86.56
433.622	87.56
433.844	88.56
434.066	80.56
434.287	72.56
434.509	79.56
434.731	98.56
434.953	78.56
435.175	88.56
435.397	71.56
435.618	84.56
435.84	83.56
436.062	90.56
436.284	79.56
436.505	87.56
436.727	82.56
436.949	86.56
437.17	84.56
437.392	83.56
437.614	85.56
437.835	74.56
438.057	80.56
438.278	77.56
438.5	95.56
438.721	80.56
438.943	78.56
439.165	87.56
439.386	86.56
439.608	82.56
439.829	83.56
440.05	70.56
440.272	92.56
440.493	87.56
440.715	90.56
440.936	81.56
441.158	85.56
441.379	89.56
441.6	86.56
441.822	80.56
442.043	86.56
442.264	77.56
442.486	88.56
442.707	99.56
442.928	83.56
443.149	92.56
443.371	96.56
443.592	93.56
443.813	105.56
444.034	86.56
444.255	86.56
444.476	87.56
444.698	87.56
444.919	78.56
445.14	143.56
445.361	137.56
445.582	105.56
445.803	98.56
446.024	72.56
446.245	81.56
446.466	76.56
446.687	84.56
446.908	65.56
447.129	83.56
447.35	98.56
447.571	84.56
447.792	94.56
448.013	89.56
448.234	90.56
448.455	84.56
448.675	86.56
448.896	79.56
449.117	68.56
449.338	96.56
449.559	87.56
449.779	72.56
450	79.56
450.221	88.56
450.442	77.56
450.662	73.56
450.883	88.56
451.104	78.56
451.324	88.56
451.545	90.56
451.766	85.56
451.986	84.56
452.207	89.56
452.428	85.56
452.648	77.56
452.869	86.56
453.089	95.56
453.31	90.56
453.53	80.56
453.751	82.56
453.971	92.56
454.192	82.56
454.412	78.56
454.633	71.56
454.853	82.56
455.073	88.56
455.294	80.56
455.514	86.56
455.734	84.56
455.955	74.56
456.175	97.56
456.395	85.56
456.616	74.56
456.836	84.56
457.056	92.56
457.276	72.56
457.497	71.56
457.717	77.56
457.937	88.56
458.157	81.56
458.377	98.56
458.598	72.56
458.818	86.56
459.038	79.56
459.258	78.56
459.478	76.56
459.698	92.56
459.918	74.56
460.138	79.56
460.358	76.56
460.578	82.56
460.798	88.56
461.018	88.56
461.238	74.56
461.458	93.56
461.678	64.56
461.898	82.56
462.118	87.56
462.338	88.56
462.558	72.56
462.777	80.56
462.997	70.56
463.217	80.56
463.437	80.56
463.657	81.56
463.876	68.56
464.096	76.56
464.316	84.56
464.536	75.56
464.755	94.56
464.975	79.56
465.195	68.56
465.414	73.56
465.634	87.56
465.854	68.56
466.073	74.56
466.293	94.56
466.512	80.56
466.732	91.56
466.951	88.56
467.171	78.56
467.391	74.56
467.61	82.56
467.829	85.56
468.049	85.56
468.268	86.56
468.488	74.56
468.707	84.56
468.927	75.56
469.146	79.56
469.365	88.56
469.585	88.56
469.804	87.56
470.023	75.56
470.243	78.56
470.462	81.56
470.681	94.56
470.901	74.56
471.12	82.56
471.339	89.56
471.558	78.56
471.777	85.56
471.997	83.56
472.216	90.56
472.435	85.56
472.654	79.56
472.873	82.56
473.092	71.56
473.311	82.56
473.53	66.56
473.749	79.56
473.968	78.56
474.187	84.56
474.406	60.56
474.625	88.56
474.844	86.56
475.063	89.56
475.282	87.56
475.501	90.56
475.72	77.56
475.939	70.56
476.158	80.56
476.377	66.56
476.596	77.56
476.814	99.56
477.033	96.56
477.252	78.56
477.471	72.56
477.69	74.56
477.908	85.56
478.127	82.56
478.346	84.56
478.564	81.56
478.783	88.56
479.002	71.56
479.22	78.56
479.439	83.56
479.658	77.56
479.876	97.56
480.095	79.56
480.313	85.56
480.532	80.56
480.751	97.56
480.969	80.56
481.188	89.56
481.406	94.56
481.624	93.56
481.843	87.56
482.061	76.56
482.28	97.56
482.498	87.56
482.717	82.56
482.935	80.56
483.153	84.56
483.372	68.56
483.59	84.56
483.808	72.56
484.027	74.56
484.245	73.56
484.463	96.56
484.681	86.56
484.9	68.56
485.118	90.56
485.336	65.56
485.554	81.56
485.772	82.56
485.99	79.56
486.209	73.56
486.427	86.56
486.645	82.56
486.863	84.56
487.081	89.56
487.299	90.56
487.517	82.56
487.735	77.56
487.953	85.56
488.171	86.56
488.389	85.56
488.607	78.56
488.825	90.56
489.043	81.56
489.261	82.56
489.479	86.56
489.696	97.56
489.914	74.56
490.132	82.56
490.35	74.56
490.568	72.56
490.786	84.56
491.003	82.56
491.221	92.56
491.439	81.56
491.657	82.56
491.874	99.56
492.092	80.56
492.31	82.56
492.527	76.56
492.745	77.56
492.963	93.56
493.18	86.56
493.398	80.56
493.615	76.56
493.833	71.56
494.05	88.56
494.268	78.56
494.485	96.56
494.703	84.56
494.92	86.56
495.138	85.56
495.355	94.56
495.573	85.56
495.79	83.56
496.008	98.56
496.225	78.56
496.442	86.56
496.66	79.56
496.877	80.56
497.094	67.56
497.312	96.56
497.529	88.56
497.746	86.56
497.963	84.56
498.181	87.56
498.398	73.56
498.615	82.56
498.832	85.56
499.049	83.56
499.267	89.56
499.484	86.56
499.701	82.56
499.918	86.56
500.135	84.56
500.352	82.56
500.569	84.56
500.786	80.56
501.003	85.56
501.22	75.56
501.437	88.56
501.654	92.56
501.871	72.56
502.088	66.56
502.305	78.56
502.522	75.56
502.739	78.56
502.956	77.56
503.172	76.56
503.389	80.56
503.606	73.56
503.823	92.56
504.04	89.56
504.256	90.56
504.473	89.56
504.69	80.56
504.907	95.56
505.123	105.56
505.34	78.56
505.557	79.56
505.773	85.56
505.99	75.56
506.207	77.56
506.423	66.56
506.64	88.56
506.856	94.56
507.073	75.56
507.289	66.56
507.506	80.56
507.722	83.56
507.939	74.56
508.155	82.56
508.372	82.56
508.588	83.56
508.805	72.56
509.021	80.56
509.238	77.56
509.454	88.56
509.67	98.56
509.887	96.56
510.103	84.56
510.319	101.56
510.536	82.56
510.752	72.56
510.968	86.56
511.184	94.56
511.401	81.56
511.617	89.56
511.833	94.56
512.049	78.56
512.265	81.56
512.481	91.56
512.698	86.56
512.914	98.56
513.13	73.56
513.346	83.56
513.562	74.56
513.778	82.56
513.994	81.56
514.21	76.56
514.426	82.56
514.642	90.56
514.858	88.56
515.074	84.56
515.29	94.56
515.506	92.56
515.721	87.56
515.937	93.56
516.153	78.56
516.369	84.56
516.585	88.56
516.801	96.56
517.016	92.56
517.232	98.56
517.448	87.56
517.664	84.56
517.879	82.56
518.095	92.56
518.311	94.56
518.527	104.56
518.742	88.56
518.958	103.56
519.173	82.56
519.389	81.56
519.605	83.56
519.82	88.56
