Data from 10100_2_HRD10591_00045.txt Node
Date: Mon Jan 19 14:01:46 EST 2026
User: Yrep
Spectrometer: HR+D1059
Trigger mode: 1
Integration Time (sec): 1.000000E-1
Scans to average: 1
Electric dark correction enabled: true
Nonlinearity correction enabled: false
Boxcar width: 0
XAxis mode: Wavelengths
Number of Pixels in Spectrum: 2048
>>>>>Begin Spectral Data<<<<<
223.165	-7.94
223.4	-7.94
223.635	-7.94
223.869	-23.94
224.104	-1.94
224.338	-13.94
224.573	-8.94
224.808	-1.94
225.042	-9.94
225.277	-12.94
225.511	-3.94
225.746	0.06
225.98	8.06
226.215	9.06
226.449	21.06
226.683	15.06
226.918	31.06
227.152	1.06
227.387	24.06
227.621	33.06
227.856	40.06
228.09	47.06
228.324	57.06
228.559	46.06
228.793	67.06
229.027	65.06
229.262	66.06
229.496	62.06
229.73	62.06
229.964	61.06
230.199	74.06
230.433	86.06
230.667	77.06
230.901	78.06
231.136	72.06
231.37	84.06
231.604	74.06
231.838	85.06
232.072	79.06
232.306	76.06
232.541	81.06
232.775	82.06
233.009	87.06
233.243	85.06
233.477	86.06
233.711	73.06
233.945	84.06
234.179	56.06
234.413	74.06
234.647	83.06
234.881	82.06
235.115	74.06
235.349	68.06
235.583	62.06
235.817	70.06
236.051	82.06
236.285	76.06
236.519	62.06
236.753	73.06
236.987	70.06
237.221	79.06
237.455	66.06
237.689	86.06
237.922	81.06
238.156	65.06
238.39	67.06
238.624	74.06
238.858	81.06
239.091	72.06
239.325	61.06
239.559	71.06
239.793	60.06
240.027	64.06
240.26	70.06
240.494	62.06
240.728	79.06
240.961	82.06
241.195	82.06
241.429	80.06
241.662	65.06
241.896	69.06
242.13	74.06
242.363	75.06
242.597	81.06
242.83	76.06
243.064	72.06
243.298	81.06
243.531	80.06
243.765	68.06
243.998	71.06
244.232	92.06
244.465	72.06
244.699	65.06
244.932	73.06
245.166	89.06
245.399	70.06
245.633	73.06
245.866	73.06
246.099	69.06
246.333	68.06
246.566	69.06
246.8	69.06
247.033	74.06
247.266	74.06
247.5	83.06
247.733	93.06
247.966	79.06
248.2	60.06
248.433	69.06
248.666	70.06
248.899	73.06
249.133	97.06
249.366	89.06
249.599	78.06
249.832	80.06
250.066	74.06
250.299	86.06
250.532	84.06
250.765	74.06
250.998	76.06
251.231	84.06
251.465	85.06
251.698	72.06
251.931	79.06
252.164	83.06
252.397	70.06
252.63	78.06
252.863	64.06
253.096	75.06
253.329	84.06
253.562	70.06
253.795	73.06
254.028	80.06
254.261	86.06
254.494	72.06
254.727	78.06
254.96	82.06
255.193	82.06
255.426	72.06
255.659	69.06
255.892	82.06
256.124	76.06
256.357	71.06
256.59	86.06
256.823	73.06
257.056	68.06
257.289	76.06
257.521	92.06
257.754	64.06
257.987	80.06
258.22	82.06
258.452	83.06
258.685	81.06
258.918	84.06
259.151	78.06
259.383	92.06
259.616	74.06
259.849	91.06
260.081	89.06
260.314	74.06
260.547	72.06
260.779	77.06
261.012	62.06
261.244	82.06
261.477	88.06
261.71	89.06
261.942	75.06
262.175	87.06
262.407	80.06
262.64	80.06
262.872	78.06
263.105	69.06
263.337	82.06
263.57	88.06
263.802	85.06
264.035	81.06
264.267	96.06
264.499	70.06
264.732	84.06
264.964	83.06
265.197	80.06
265.429	73.06
265.661	72.06
265.894	90.06
266.126	80.06
266.358	83.06
266.591	61.06
266.823	80.06
267.055	87.06
267.287	84.06
267.52	78.06
267.752	89.06
267.984	82.06
268.216	81.06
268.448	81.06
268.681	96.06
268.913	75.06
269.145	80.06
269.377	78.06
269.609	72.06
269.841	88.06
270.073	92.06
270.306	83.06
270.538	84.06
270.77	81.06
271.002	80.06
271.234	89.06
271.466	80.06
271.698	81.06
271.93	83.06
272.162	74.06
272.394	84.06
272.626	88.06
272.858	86.06
273.09	71.06
273.322	75.06
273.553	76.06
273.785	80.06
274.017	79.06
274.249	83.06
274.481	81.06
274.713	76.06
274.945	78.06
275.176	73.06
275.408	70.06
275.64	72.06
275.872	61.06
276.104	85.06
276.335	71.06
276.567	82.06
276.799	72.06
277.031	82.06
277.262	94.06
277.494	80.06
277.726	87.06
277.957	66.06
278.189	81.06
278.421	73.06
278.652	82.06
278.884	84.06
279.115	74.06
279.347	85.06
279.579	84.06
279.81	64.06
280.042	98.06
280.273	86.06
280.505	74.06
280.736	80.06
280.968	92.06
281.199	76.06
281.431	87.06
281.662	74.06
281.894	81.06
282.125	83.06
282.356	89.06
282.588	87.06
282.819	81.06
283.051	78.06
283.282	83.06
283.513	81.06
283.745	82.06
283.976	82.06
284.207	84.06
284.439	66.06
284.67	78.06
284.901	85.06
285.132	104.06
285.364	84.06
285.595	81.06
285.826	88.06
286.057	92.06
286.288	88.06
286.52	83.06
286.751	67.06
286.982	72.06
287.213	79.06
287.444	90.06
287.675	75.06
287.906	104.06
288.138	76.06
288.369	76.06
288.6	75.06
288.831	70.06
289.062	98.06
289.293	79.06
289.524	94.06
289.755	75.06
289.986	74.06
290.217	84.06
290.448	92.06
290.679	99.06
290.91	85.06
291.141	79.06
291.371	81.06
291.602	87.06
291.833	77.06
292.064	86.06
292.295	91.06
292.526	86.06
292.757	78.06
292.987	83.06
293.218	72.06
293.449	81.06
293.68	84.06
293.91	79.06
294.141	89.06
294.372	78.06
294.603	82.06
294.833	70.06
295.064	80.06
295.295	89.06
295.525	80.06
295.756	81.06
295.987	80.06
296.217	84.06
296.448	68.06
296.679	84.06
296.909	84.06
297.14	79.06
297.37	81.06
297.601	88.06
297.831	91.06
298.062	86.06
298.292	81.06
298.523	78.06
298.753	90.06
298.984	68.06
299.214	80.06
299.445	73.06
299.675	78.06
299.905	75.06
300.136	78.06
300.366	81.06
300.597	84.06
300.827	73.06
301.057	78.06
301.288	76.06
301.518	100.06
301.748	84.06
301.979	75.06
302.209	78.06
302.439	73.06
302.669	84.06
302.9	74.06
303.13	91.06
303.36	76.06
303.59	72.06
303.82	72.06
304.051	88.06
304.281	81.06
304.511	81.06
304.741	84.06
304.971	84.06
305.201	80.06
305.431	75.06
305.661	77.06
305.891	70.06
306.121	80.06
306.352	69.06
306.582	78.06
306.812	65.06
307.042	84.06
307.272	82.06
307.502	87.06
307.731	93.06
307.961	80.06
308.191	88.06
308.421	74.06
308.651	82.06
308.881	88.06
309.111	90.06
309.341	93.06
309.571	86.06
309.8	80.06
310.03	80.06
310.26	79.06
310.49	81.06
310.72	85.06
310.949	92.06
311.179	81.06
311.409	76.06
311.639	86.06
311.868	80.06
312.098	68.06
312.328	92.06
312.557	96.06
312.787	98.06
313.017	91.06
313.246	80.06
313.476	92.06
313.706	94.06
313.935	84.06
314.165	64.06
314.394	83.06
314.624	92.06
314.853	90.06
315.083	90.06
315.312	77.06
315.542	89.06
315.771	82.06
316.001	78.06
316.23	61.06
316.46	81.06
316.689	90.06
316.919	73.06
317.148	88.06
317.377	74.06
317.607	93.06
317.836	90.06
318.065	80.06
318.295	71.06
318.524	84.06
318.753	80.06
318.983	86.06
319.212	97.06
319.441	91.06
319.67	95.06
319.9	61.06
320.129	88.06
320.358	80.06
320.587	79.06
320.816	87.06
321.046	91.06
321.275	88.06
321.504	89.06
321.733	82.06
321.962	82.06
322.191	83.06
322.42	88.06
322.649	94.06
322.878	92.06
323.108	83.06
323.337	95.06
323.566	79.06
323.795	72.06
324.024	93.06
324.253	90.06
324.482	82.06
324.71	94.06
324.939	78.06
325.168	85.06
325.397	89.06
325.626	81.06
325.855	97.06
326.084	78.06
326.313	86.06
326.542	77.06
326.77	70.06
326.999	82.06
327.228	81.06
327.457	73.06
327.686	68.06
327.914	80.06
328.143	92.06
328.372	74.06
328.6	81.06
328.829	89.06
329.058	85.06
329.287	84.06
329.515	82.06
329.744	80.06
329.972	85.06
330.201	87.06
330.43	87.06
330.658	70.06
330.887	75.06
331.115	83.06
331.344	100.06
331.572	73.06
331.801	78.06
332.03	80.06
332.258	71.06
332.486	74.06
332.715	79.06
332.943	82.06
333.172	88.06
333.4	78.06
333.629	85.06
333.857	84.06
334.085	74.06
334.314	75.06
334.542	82.06
334.771	82.06
334.999	87.06
335.227	80.06
335.455	65.06
335.684	77.06
335.912	88.06
336.14	97.06
336.369	80.06
336.597	99.06
336.825	82.06
337.053	69.06
337.281	77.06
337.51	81.06
337.738	75.06
337.966	73.06
338.194	86.06
338.422	92.06
338.65	93.06
338.878	85.06
339.106	81.06
339.334	82.06
339.562	75.06
339.79	93.06
340.018	75.06
340.246	71.06
340.474	77.06
340.702	80.06
340.93	76.06
341.158	98.06
341.386	82.06
341.614	89.06
341.842	95.06
342.07	85.06
342.298	77.06
342.526	81.06
342.754	94.06
342.981	72.06
343.209	78.06
343.437	88.06
343.665	95.06
343.893	93.06
344.12	66.06
344.348	82.06
344.576	87.06
344.804	90.06
345.031	80.06
345.259	102.06
345.487	75.06
345.714	69.06
345.942	81.06
346.17	78.06
346.397	63.06
346.625	82.06
346.853	80.06
347.08	67.06
347.308	78.06
347.535	80.06
347.763	73.06
347.99	82.06
348.218	88.06
348.445	88.06
348.673	82.06
348.9	85.06
349.128	80.06
349.355	96.06
349.583	82.06
349.81	87.06
350.037	76.06
350.265	92.06
350.492	85.06
350.72	88.06
350.947	86.06
351.174	88.06
351.402	80.06
351.629	80.06
351.856	96.06
352.083	79.06
352.311	79.06
352.538	75.06
352.765	86.06
352.992	85.06
353.22	78.06
353.447	85.06
353.674	86.06
353.901	73.06
354.128	89.06
354.355	93.06
354.583	79.06
354.81	74.06
355.037	75.06
355.264	84.06
355.491	87.06
355.718	83.06
355.945	67.06
356.172	74.06
356.399	85.06
356.626	88.06
356.853	81.06
357.08	78.06
357.307	85.06
357.534	87.06
357.761	94.06
357.988	93.06
358.215	94.06
358.441	85.06
358.668	88.06
358.895	82.06
359.122	76.06
359.349	109.06
359.576	80.06
359.802	84.06
360.029	69.06
360.256	78.06
360.483	78.06
360.709	71.06
360.936	89.06
361.163	78.06
361.39	70.06
361.616	78.06
361.843	88.06
362.07	77.06
362.296	72.06
362.523	92.06
362.749	88.06
362.976	87.06
363.203	81.06
363.429	83.06
363.656	80.06
363.882	72.06
364.109	81.06
364.335	99.06
364.562	87.06
364.788	76.06
365.015	96.06
365.241	88.06
365.468	90.06
365.694	82.06
365.92	78.06
366.147	88.06
366.373	86.06
366.599	79.06
366.826	82.06
367.052	88.06
367.278	89.06
367.505	82.06
367.731	94.06
367.957	95.06
368.184	69.06
368.41	83.06
368.636	82.06
368.862	86.06
369.089	96.06
369.315	64.06
369.541	85.06
369.767	96.06
369.993	90.06
370.219	84.06
370.445	99.06
370.672	81.06
370.898	94.06
371.124	89.06
371.35	81.06
371.576	90.06
371.802	84.06
372.028	84.06
372.254	81.06
372.48	64.06
372.706	79.06
372.932	89.06
373.158	89.06
373.384	88.06
373.61	82.06
373.835	84.06
374.061	80.06
374.287	75.06
374.513	90.06
374.739	87.06
374.965	101.06
375.191	85.06
375.416	87.06
375.642	81.06
375.868	78.06
376.094	82.06
376.319	85.06
376.545	76.06
376.771	82.06
376.997	93.06
377.222	82.06
377.448	75.06
377.674	84.06
377.899	94.06
378.125	71.06
378.35	78.06
378.576	92.06
378.802	92.06
379.027	85.06
379.253	72.06
379.478	61.06
379.704	83.06
379.929	74.06
380.155	93.06
380.38	97.06
380.606	74.06
380.831	75.06
381.057	96.06
381.282	69.06
381.507	86.06
381.733	83.06
381.958	76.06
382.184	62.06
382.409	78.06
382.634	84.06
382.86	72.06
383.085	90.06
383.31	85.06
383.535	81.06
383.761	86.06
383.986	74.06
384.211	76.06
384.436	89.06
384.662	88.06
384.887	75.06
385.112	99.06
385.337	91.06
385.562	88.06
385.787	64.06
386.013	77.06
386.238	68.06
386.463	80.06
386.688	90.06
386.913	81.06
387.138	66.06
387.363	80.06
387.588	86.06
387.813	84.06
388.038	76.06
388.263	81.06
388.488	70.06
388.713	80.06
388.938	87.06
389.163	82.06
389.387	86.06
389.612	84.06
389.837	83.06
390.062	80.06
390.287	88.06
390.512	74.06
390.736	70.06
390.961	86.06
391.186	80.06
391.411	76.06
391.636	95.06
391.86	90.06
392.085	76.06
392.31	90.06
392.534	89.06
392.759	98.06
392.984	83.06
393.208	100.06
393.433	129.06
393.658	117.06
393.882	96.06
394.107	75.06
394.331	100.06
394.556	90.06
394.78	81.06
395.005	101.06
395.229	105.06
395.454	83.06
395.678	73.06
395.903	72.06
396.127	91.06
396.352	101.06
396.576	97.06
396.801	114.06
397.025	104.06
397.249	88.06
397.474	93.06
397.698	74.06
397.922	80.06
398.147	75.06
398.371	89.06
398.595	81.06
398.82	90.06
399.044	84.06
399.268	90.06
399.492	77.06
399.717	75.06
399.941	92.06
400.165	77.06
400.389	86.06
400.613	83.06
400.837	80.06
401.062	79.06
401.286	76.06
401.51	87.06
401.734	85.06
401.958	84.06
402.182	75.06
402.406	87.06
402.63	93.06
402.854	77.06
403.078	73.06
403.302	79.06
403.526	79.06
403.75	83.06
403.974	84.06
404.198	62.06
404.422	86.06
404.645	81.06
404.869	78.06
405.093	90.06
405.317	90.06
405.541	77.06
405.765	91.06
405.988	95.06
406.212	84.06
406.436	77.06
406.66	81.06
406.883	78.06
407.107	78.06
407.331	72.06
407.555	81.06
407.778	84.06
408.002	69.06
408.226	78.06
408.449	79.06
408.673	84.06
408.896	72.06
409.12	83.06
409.344	87.06
409.567	85.06
409.791	78.06
410.014	69.06
410.238	86.06
410.461	79.06
410.685	82.06
410.908	84.06
411.132	75.06
411.355	82.06
411.578	74.06
411.802	92.06
412.025	82.06
412.249	102.06
412.472	84.06
412.695	72.06
412.919	84.06
413.142	86.06
413.365	84.06
413.589	91.06
413.812	94.06
414.035	88.06
414.258	82.06
414.482	81.06
414.705	76.06
414.928	79.06
415.151	78.06
415.374	88.06
415.597	90.06
415.821	84.06
416.044	92.06
416.267	87.06
416.49	87.06
416.713	93.06
416.936	80.06
417.159	80.06
417.382	87.06
417.605	72.06
417.828	79.06
418.051	96.06
418.274	79.06
418.497	80.06
418.72	78.06
418.943	74.06
419.166	97.06
419.389	86.06
419.611	79.06
419.834	74.06
420.057	87.06
420.28	78.06
420.503	107.06
420.726	68.06
420.948	86.06
421.171	85.06
421.394	76.06
421.617	78.06
421.839	87.06
422.062	87.06
422.285	88.06
422.507	94.06
422.73	110.06
422.953	96.06
423.175	96.06
423.398	78.06
423.621	93.06
423.843	83.06
424.066	81.06
424.288	79.06
424.511	88.06
424.733	79.06
424.956	77.06
425.178	84.06
425.401	73.06
425.623	83.06
425.846	71.06
426.068	92.06
426.291	74.06
426.513	100.06
426.735	86.06
426.958	93.06
427.18	80.06
427.402	87.06
427.625	76.06
427.847	94.06
428.069	81.06
428.292	83.06
428.514	82.06
428.736	79.06
428.958	72.06
429.181	80.06
429.403	76.06
429.625	78.06
429.847	94.06
430.069	82.06
430.292	80.06
430.514	93.06
430.736	82.06
430.958	88.06
431.18	90.06
431.402	70.06
431.624	83.06
431.846	82.06
432.068	91.06
432.29	98.06
432.512	87.06
432.734	76.06
432.956	83.06
433.178	83.06
433.4	77.06
433.622	92.06
433.844	85.06
434.066	63.06
434.287	83.06
434.509	90.06
434.731	83.06
434.953	74.06
435.175	80.06
435.397	89.06
435.618	68.06
435.84	57.06
436.062	78.06
436.284	88.06
436.505	88.06
436.727	87.06
436.949	90.06
437.17	83.06
437.392	92.06
437.614	82.06
437.835	94.06
438.057	86.06
438.278	75.06
438.5	78.06
438.721	84.06
438.943	89.06
439.165	80.06
439.386	78.06
439.608	85.06
439.829	65.06
440.05	82.06
440.272	83.06
440.493	75.06
440.715	72.06
440.936	72.06
441.158	73.06
441.379	88.06
441.6	97.06
441.822	64.06
442.043	73.06
442.264	83.06
442.486	80.06
442.707	84.06
442.928	82.06
443.149	79.06
443.371	74.06
443.592	87.06
443.813	77.06
444.034	94.06
444.255	103.06
444.476	94.06
444.698	72.06
444.919	80.06
445.14	178.06
445.361	131.06
445.582	97.06
445.803	82.06
446.024	76.06
446.245	81.06
446.466	88.06
446.687	75.06
446.908	80.06
447.129	85.06
447.35	62.06
447.571	86.06
447.792	81.06
448.013	68.06
448.234	86.06
448.455	90.06
448.675	99.06
448.896	75.06
449.117	79.06
449.338	72.06
449.559	74.06
449.779	84.06
450	78.06
450.221	96.06
450.442	72.06
450.662	83.06
450.883	76.06
451.104	85.06
451.324	85.06
451.545	78.06
451.766	83.06
451.986	90.06
452.207	88.06
452.428	74.06
452.648	73.06
452.869	63.06
453.089	75.06
453.31	86.06
453.53	71.06
453.751	74.06
453.971	80.06
454.192	99.06
454.412	72.06
454.633	89.06
454.853	94.06
455.073	93.06
455.294	77.06
455.514	93.06
455.734	84.06
455.955	74.06
456.175	83.06
456.395	94.06
456.616	60.06
456.836	95.06
457.056	84.06
457.276	76.06
457.497	73.06
457.717	73.06
457.937	82.06
458.157	74.06
458.377	60.06
458.598	75.06
458.818	90.06
459.038	92.06
459.258	83.06
459.478	68.06
459.698	76.06
459.918	90.06
460.138	86.06
460.358	79.06
460.578	86.06
460.798	82.06
461.018	93.06
461.238	70.06
461.458	79.06
461.678	90.06
461.898	66.06
462.118	78.06
462.338	78.06
462.558	101.06
462.777	87.06
462.997	89.06
463.217	74.06
463.437	92.06
463.657	89.06
463.876	78.06
464.096	73.06
464.316	82.06
464.536	92.06
464.755	69.06
464.975	74.06
465.195	66.06
465.414	73.06
465.634	82.06
465.854	82.06
466.073	87.06
466.293	88.06
466.512	84.06
466.732	79.06
466.951	83.06
467.171	84.06
467.391	69.06
467.61	78.06
467.829	83.06
468.049	88.06
468.268	83.06
468.488	81.06
468.707	92.06
468.927	76.06
469.146	76.06
469.365	83.06
469.585	82.06
469.804	98.06
470.023	74.06
470.243	67.06
470.462	88.06
470.681	83.06
470.901	84.06
471.12	69.06
471.339	92.06
471.558	72.06
471.777	71.06
471.997	81.06
472.216	76.06
472.435	86.06
472.654	90.06
472.873	99.06
473.092	79.06
473.311	66.06
473.53	71.06
473.749	75.06
473.968	84.06
474.187	80.06
474.406	74.06
474.625	86.06
474.844	97.06
475.063	87.06
475.282	85.06
475.501	74.06
475.72	86.06
475.939	84.06
476.158	78.06
476.377	81.06
476.596	92.06
476.814	99.06
477.033	78.06
477.252	70.06
477.471	71.06
477.69	79.06
477.908	84.06
478.127	74.06
478.346	80.06
478.564	93.06
478.783	88.06
479.002	80.06
479.22	75.06
479.439	68.06
479.658	78.06
479.876	84.06
480.095	70.06
480.313	70.06
480.532	75.06
480.751	81.06
480.969	85.06
481.188	80.06
481.406	77.06
481.624	74.06
481.843	78.06
482.061	73.06
482.28	86.06
482.498	84.06
482.717	75.06
482.935	86.06
483.153	87.06
483.372	74.06
483.59	77.06
483.808	98.06
484.027	89.06
484.245	75.06
484.463	90.06
484.681	105.06
484.9	85.06
485.118	80.06
485.336	59.06
485.554	94.06
485.772	80.06
485.99	75.06
486.209	92.06
486.427	84.06
486.645	94.06
486.863	90.06
487.081	74.06
487.299	82.06
487.517	86.06
487.735	80.06
487.953	88.06
488.171	81.06
488.389	78.06
488.607	76.06
488.825	83.06
489.043	86.06
489.261	84.06
489.479	87.06
489.696	92.06
489.914	78.06
490.132	79.06
490.35	82.06
490.568	80.06
490.786	78.06
491.003	72.06
491.221	73.06
491.439	93.06
491.657	89.06
491.874	90.06
492.092	95.06
492.31	88.06
492.527	68.06
492.745	81.06
492.963	75.06
493.18	81.06
493.398	82.06
493.615	82.06
493.833	96.06
494.05	76.06
494.268	94.06
494.485	86.06
494.703	76.06
494.92	81.06
495.138	70.06
495.355	87.06
495.573	92.06
495.79	72.06
496.008	80.06
496.225	75.06
496.442	87.06
496.66	77.06
496.877	70.06
497.094	88.06
497.312	74.06
497.529	89.06
497.746	81.06
497.963	82.06
498.181	98.06
498.398	80.06
498.615	88.06
498.832	84.06
499.049	90.06
499.267	81.06
499.484	81.06
499.701	75.06
499.918	74.06
500.135	94.06
500.352	93.06
500.569	93.06
500.786	80.06
501.003	73.06
501.22	82.06
501.437	82.06
501.654	86.06
501.871	92.06
502.088	89.06
502.305	80.06
502.522	89.06
502.739	93.06
502.956	97.06
503.172	74.06
503.389	79.06
503.606	102.06
503.823	88.06
504.04	84.06
504.256	92.06
504.473	80.06
504.69	85.06
504.907	83.06
505.123	63.06
505.34	77.06
505.557	78.06
505.773	84.06
505.99	81.06
506.207	90.06
506.423	95.06
506.64	90.06
506.856	80.06
507.073	86.06
507.289	64.06
507.506	79.06
507.722	79.06
507.939	86.06
508.155	82.06
508.372	87.06
508.588	68.06
508.805	83.06
509.021	79.06
509.238	79.06
509.454	81.06
509.67	81.06
509.887	83.06
510.103	77.06
510.319	92.06
510.536	79.06
510.752	85.06
510.968	67.06
511.184	70.06
511.401	79.06
511.617	72.06
511.833	96.06
512.049	83.06
512.265	80.06
512.481	78.06
512.698	83.06
512.914	85.06
513.13	75.06
513.346	79.06
513.562	87.06
513.778	92.06
513.994	84.06
514.21	82.06
514.426	74.06
514.642	86.06
514.858	90.06
515.074	82.06
515.29	91.06
515.506	77.06
515.721	81.06
515.937	82.06
516.153	72.06
516.369	82.06
516.585	78.06
516.801	84.06
517.016	90.06
517.232	100.06
517.448	90.06
517.664	88.06
517.879	81.06
518.095	82.06
518.311	82.06
518.527	83.06
518.742	85.06
518.958	72.06
519.173	92.06
519.389	70.06
519.605	78.06
519.82	100.06
520.036	95.06
