Data from 10100_2_HRD10591_00039.txt Node
Date: Mon Jan 19 14:01:43 EST 2026
User: Yrep
Spectrometer: HR+D1059
Trigger mode: 1
Integration Time (sec): 1.000000E-1
Scans to average: 1
Electric dark correction enabled: true
Nonlinearity correction enabled: false
Boxcar width: 0
XAxis mode: Wavelengths
Number of Pixels in Spectrum: 2048
>>>>>Begin Spectral Data<<<<<
223.165	-19.31
223.4	-19.31
223.635	-19.31
223.869	-13.31
224.104	-16.31
224.338	-4.31
224.573	-8.31
224.808	-5.31
225.042	0.69
225.277	-2.31
225.511	-3.31
225.746	-5.31
225.98	12.69
226.215	6.69
226.449	13.69
226.683	5.69
226.918	3.69
227.152	34.69
227.387	42.69
227.621	34.69
227.856	41.69
228.09	49.69
228.324	47.69
228.559	59.69
228.793	59.69
229.027	55.69
229.262	58.69
229.496	58.69
229.73	70.69
229.964	73.69
230.199	79.69
230.433	58.69
230.667	72.69
230.901	71.69
231.136	75.69
231.37	79.69
231.604	69.69
231.838	74.69
232.072	80.69
232.306	75.69
232.541	77.69
232.775	75.69
233.009	72.69
233.243	65.69
233.477	82.69
233.711	79.69
233.945	69.69
234.179	81.69
234.413	65.69
234.647	72.69
234.881	73.69
235.115	70.69
235.349	80.69
235.583	82.69
235.817	77.69
236.051	59.69
236.285	76.69
236.519	79.69
236.753	99.69
236.987	67.69
237.221	71.69
237.455	83.69
237.689	73.69
237.922	92.69
238.156	67.69
238.39	57.69
238.624	79.69
238.858	60.69
239.091	75.69
239.325	73.69
239.559	74.69
239.793	88.69
240.027	71.69
240.26	71.69
240.494	66.69
240.728	88.69
240.961	75.69
241.195	78.69
241.429	63.69
241.662	55.69
241.896	80.69
242.13	70.69
242.363	72.69
242.597	76.69
242.83	69.69
243.064	85.69
243.298	73.69
243.531	70.69
243.765	67.69
243.998	74.69
244.232	75.69
244.465	67.69
244.699	81.69
244.932	68.69
245.166	69.69
245.399	74.69
245.633	73.69
245.866	75.69
246.099	67.69
246.333	82.69
246.566	72.69
246.8	72.69
247.033	82.69
247.266	82.69
247.5	87.69
247.733	74.69
247.966	76.69
248.2	66.69
248.433	76.69
248.666	65.69
248.899	69.69
249.133	73.69
249.366	85.69
249.599	65.69
249.832	77.69
250.066	95.69
250.299	63.69
250.532	68.69
250.765	91.69
250.998	82.69
251.231	57.69
251.465	77.69
251.698	77.69
251.931	80.69
252.164	86.69
252.397	78.69
252.63	72.69
252.863	77.69
253.096	75.69
253.329	72.69
253.562	68.69
253.795	62.69
254.028	80.69
254.261	74.69
254.494	85.69
254.727	107.69
254.96	77.69
255.193	83.69
255.426	85.69
255.659	68.69
255.892	77.69
256.124	69.69
256.357	79.69
256.59	70.69
256.823	75.69
257.056	82.69
257.289	77.69
257.521	77.69
257.754	90.69
257.987	57.69
258.22	73.69
258.452	67.69
258.685	69.69
258.918	80.69
259.151	85.69
259.383	73.69
259.616	82.69
259.849	80.69
260.081	64.69
260.314	68.69
260.547	74.69
260.779	70.69
261.012	66.69
261.244	75.69
261.477	78.69
261.71	80.69
261.942	84.69
262.175	91.69
262.407	71.69
262.64	85.69
262.872	80.69
263.105	66.69
263.337	82.69
263.57	79.69
263.802	62.69
264.035	74.69
264.267	65.69
264.499	97.69
264.732	89.69
264.964	60.69
265.197	69.69
265.429	72.69
265.661	77.69
265.894	79.69
266.126	96.69
266.358	89.69
266.591	81.69
266.823	92.69
267.055	75.69
267.287	83.69
267.52	81.69
267.752	73.69
267.984	78.69
268.216	82.69
268.448	71.69
268.681	84.69
268.913	84.69
269.145	65.69
269.377	69.69
269.609	78.69
269.841	66.69
270.073	85.69
270.306	79.69
270.538	82.69
270.77	67.69
271.002	77.69
271.234	84.69
271.466	86.69
271.698	71.69
271.93	77.69
272.162	77.69
272.394	82.69
272.626	65.69
272.858	79.69
273.09	88.69
273.322	79.69
273.553	71.69
273.785	81.69
274.017	71.69
274.249	92.69
274.481	79.69
274.713	77.69
274.945	90.69
275.176	67.69
275.408	75.69
275.64	72.69
275.872	77.69
276.104	77.69
276.335	70.69
276.567	81.69
276.799	90.69
277.031	75.69
277.262	77.69
277.494	70.69
277.726	83.69
277.957	82.69
278.189	87.69
278.421	93.69
278.652	79.69
278.884	90.69
279.115	85.69
279.347	77.69
279.579	76.69
279.81	93.69
280.042	75.69
280.273	81.69
280.505	71.69
280.736	89.69
280.968	81.69
281.199	66.69
281.431	77.69
281.662	61.69
281.894	68.69
282.125	70.69
282.356	87.69
282.588	82.69
282.819	86.69
283.051	72.69
283.282	67.69
283.513	77.69
283.745	76.69
283.976	77.69
284.207	65.69
284.439	67.69
284.67	86.69
284.901	96.69
285.132	72.69
285.364	77.69
285.595	87.69
285.826	81.69
286.057	72.69
286.288	64.69
286.52	78.69
286.751	77.69
286.982	90.69
287.213	63.69
287.444	71.69
287.675	81.69
287.906	76.69
288.138	79.69
288.369	79.69
288.6	83.69
288.831	76.69
289.062	79.69
289.293	91.69
289.524	77.69
289.755	76.69
289.986	78.69
290.217	75.69
290.448	77.69
290.679	93.69
290.91	79.69
291.141	78.69
291.371	70.69
291.602	88.69
291.833	85.69
292.064	85.69
292.295	90.69
292.526	73.69
292.757	77.69
292.987	87.69
293.218	75.69
293.449	72.69
293.68	75.69
293.91	82.69
294.141	74.69
294.372	96.69
294.603	88.69
294.833	85.69
295.064	71.69
295.295	82.69
295.525	79.69
295.756	82.69
295.987	76.69
296.217	89.69
296.448	85.69
296.679	71.69
296.909	68.69
297.14	74.69
297.37	80.69
297.601	79.69
297.831	98.69
298.062	82.69
298.292	76.69
298.523	89.69
298.753	73.69
298.984	75.69
299.214	96.69
299.445	89.69
299.675	69.69
299.905	78.69
300.136	73.69
300.366	86.69
300.597	85.69
300.827	71.69
301.057	92.69
301.288	85.69
301.518	93.69
301.748	73.69
301.979	81.69
302.209	94.69
302.439	77.69
302.669	81.69
302.9	79.69
303.13	63.69
303.36	87.69
303.59	89.69
303.82	86.69
304.051	83.69
304.281	79.69
304.511	95.69
304.741	77.69
304.971	80.69
305.201	89.69
305.431	82.69
305.661	73.69
305.891	77.69
306.121	73.69
306.352	85.69
306.582	69.69
306.812	77.69
307.042	78.69
307.272	76.69
307.502	77.69
307.731	76.69
307.961	79.69
308.191	61.69
308.421	88.69
308.651	70.69
308.881	90.69
309.111	88.69
309.341	71.69
309.571	85.69
309.8	83.69
310.03	80.69
310.26	76.69
310.49	83.69
310.72	85.69
310.949	80.69
311.179	87.69
311.409	77.69
311.639	90.69
311.868	81.69
312.098	85.69
312.328	79.69
312.557	80.69
312.787	75.69
313.017	86.69
313.246	78.69
313.476	82.69
313.706	75.69
313.935	73.69
314.165	74.69
314.394	80.69
314.624	73.69
314.853	75.69
315.083	78.69
315.312	81.69
315.542	85.69
315.771	79.69
316.001	99.69
316.23	78.69
316.46	62.69
316.689	74.69
316.919	73.69
317.148	81.69
317.377	69.69
317.607	90.69
317.836	69.69
318.065	81.69
318.295	70.69
318.524	95.69
318.753	80.69
318.983	87.69
319.212	87.69
319.441	68.69
319.67	71.69
319.9	83.69
320.129	75.69
320.358	81.69
320.587	81.69
320.816	86.69
321.046	77.69
321.275	89.69
321.504	69.69
321.733	71.69
321.962	93.69
322.191	67.69
322.42	86.69
322.649	100.69
322.878	89.69
323.108	94.69
323.337	82.69
323.566	79.69
323.795	79.69
324.024	86.69
324.253	70.69
324.482	89.69
324.71	86.69
324.939	85.69
325.168	85.69
325.397	76.69
325.626	88.69
325.855	71.69
326.084	91.69
326.313	83.69
326.542	78.69
326.77	85.69
326.999	88.69
327.228	81.69
327.457	83.69
327.686	83.69
327.914	79.69
328.143	91.69
328.372	80.69
328.6	78.69
328.829	81.69
329.058	85.69
329.287	75.69
329.515	74.69
329.744	72.69
329.972	87.69
330.201	86.69
330.43	72.69
330.658	81.69
330.887	78.69
331.115	83.69
331.344	84.69
331.572	92.69
331.801	72.69
332.03	82.69
332.258	87.69
332.486	85.69
332.715	71.69
332.943	86.69
333.172	88.69
333.4	87.69
333.629	74.69
333.857	65.69
334.085	91.69
334.314	80.69
334.542	76.69
334.771	92.69
334.999	69.69
335.227	74.69
335.455	89.69
335.684	85.69
335.912	89.69
336.14	91.69
336.369	78.69
336.597	83.69
336.825	73.69
337.053	70.69
337.281	79.69
337.51	69.69
337.738	75.69
337.966	83.69
338.194	82.69
338.422	72.69
338.65	81.69
338.878	98.69
339.106	72.69
339.334	77.69
339.562	83.69
339.79	76.69
340.018	94.69
340.246	80.69
340.474	79.69
340.702	82.69
340.93	89.69
341.158	92.69
341.386	80.69
341.614	81.69
341.842	70.69
342.07	72.69
342.298	78.69
342.526	65.69
342.754	77.69
342.981	85.69
343.209	95.69
343.437	87.69
343.665	83.69
343.893	78.69
344.12	105.69
344.348	81.69
344.576	67.69
344.804	61.69
345.031	73.69
345.259	77.69
345.487	81.69
345.714	92.69
345.942	86.69
346.17	69.69
346.397	83.69
346.625	87.69
346.853	81.69
347.08	80.69
347.308	69.69
347.535	80.69
347.763	81.69
347.99	77.69
348.218	79.69
348.445	83.69
348.673	65.69
348.9	83.69
349.128	76.69
349.355	74.69
349.583	58.69
349.81	67.69
350.037	71.69
350.265	74.69
350.492	79.69
350.72	83.69
350.947	75.69
351.174	86.69
351.402	79.69
351.629	85.69
351.856	79.69
352.083	64.69
352.311	75.69
352.538	77.69
352.765	69.69
352.992	89.69
353.22	75.69
353.447	69.69
353.674	78.69
353.901	85.69
354.128	77.69
354.355	90.69
354.583	82.69
354.81	83.69
355.037	77.69
355.264	87.69
355.491	81.69
355.718	84.69
355.945	72.69
356.172	56.69
356.399	84.69
356.626	94.69
356.853	102.69
357.08	71.69
357.307	70.69
357.534	74.69
357.761	72.69
357.988	83.69
358.215	66.69
358.441	73.69
358.668	79.69
358.895	67.69
359.122	91.69
359.349	87.69
359.576	74.69
359.802	70.69
360.029	66.69
360.256	87.69
360.483	90.69
360.709	92.69
360.936	86.69
361.163	83.69
361.39	82.69
361.616	79.69
361.843	79.69
362.07	66.69
362.296	71.69
362.523	70.69
362.749	75.69
362.976	81.69
363.203	83.69
363.429	64.69
363.656	88.69
363.882	75.69
364.109	78.69
364.335	69.69
364.562	87.69
364.788	69.69
365.015	65.69
365.241	93.69
365.468	69.69
365.694	79.69
365.92	87.69
366.147	83.69
366.373	74.69
366.599	94.69
366.826	76.69
367.052	76.69
367.278	92.69
367.505	85.69
367.731	89.69
367.957	79.69
368.184	82.69
368.41	84.69
368.636	69.69
368.862	77.69
369.089	85.69
369.315	63.69
369.541	77.69
369.767	77.69
369.993	79.69
370.219	79.69
370.445	78.69
370.672	84.69
370.898	91.69
371.124	81.69
371.35	75.69
371.576	68.69
371.802	72.69
372.028	81.69
372.254	86.69
372.48	79.69
372.706	72.69
372.932	68.69
373.158	85.69
373.384	90.69
373.61	90.69
373.835	78.69
374.061	87.69
374.287	79.69
374.513	84.69
374.739	71.69
374.965	78.69
375.191	83.69
375.416	75.69
375.642	75.69
375.868	75.69
376.094	79.69
376.319	78.69
376.545	82.69
376.771	83.69
376.997	71.69
377.222	96.69
377.448	69.69
377.674	75.69
377.899	93.69
378.125	77.69
378.35	77.69
378.576	78.69
378.802	75.69
379.027	87.69
379.253	87.69
379.478	85.69
379.704	71.69
379.929	81.69
380.155	75.69
380.38	82.69
380.606	94.69
380.831	68.69
381.057	77.69
381.282	72.69
381.507	93.69
381.733	76.69
381.958	83.69
382.184	69.69
382.409	70.69
382.634	70.69
382.86	68.69
383.085	79.69
383.31	73.69
383.535	82.69
383.761	64.69
383.986	86.69
384.211	67.69
384.436	89.69
384.662	81.69
384.887	68.69
385.112	74.69
385.337	71.69
385.562	77.69
385.787	71.69
386.013	60.69
386.238	86.69
386.463	79.69
386.688	94.69
386.913	76.69
387.138	78.69
387.363	68.69
387.588	84.69
387.813	90.69
388.038	86.69
388.263	75.69
388.488	73.69
388.713	77.69
388.938	87.69
389.163	74.69
389.387	80.69
389.612	82.69
389.837	70.69
390.062	95.69
390.287	98.69
390.512	79.69
390.736	76.69
390.961	70.69
391.186	64.69
391.411	81.69
391.636	82.69
391.86	77.69
392.085	80.69
392.31	83.69
392.534	78.69
392.759	76.69
392.984	77.69
393.208	79.69
393.433	100.69
393.658	101.69
393.882	87.69
394.107	74.69
394.331	71.69
394.556	81.69
394.78	89.69
395.005	89.69
395.229	78.69
395.454	81.69
395.678	62.69
395.903	80.69
396.127	81.69
396.352	95.69
396.576	88.69
396.801	84.69
397.025	87.69
397.249	70.69
397.474	83.69
397.698	89.69
397.922	89.69
398.147	69.69
398.371	75.69
398.595	73.69
398.82	67.69
399.044	77.69
399.268	75.69
399.492	74.69
399.717	83.69
399.941	82.69
400.165	66.69
400.389	81.69
400.613	51.69
400.837	75.69
401.062	75.69
401.286	76.69
401.51	66.69
401.734	82.69
401.958	81.69
402.182	76.69
402.406	78.69
402.63	80.69
402.854	71.69
403.078	73.69
403.302	68.69
403.526	72.69
403.75	77.69
403.974	71.69
404.198	86.69
404.422	85.69
404.645	81.69
404.869	81.69
405.093	82.69
405.317	79.69
405.541	89.69
405.765	77.69
405.988	70.69
406.212	66.69
406.436	75.69
406.66	79.69
406.883	84.69
407.107	83.69
407.331	69.69
407.555	75.69
407.778	66.69
408.002	84.69
408.226	78.69
408.449	80.69
408.673	61.69
408.896	92.69
409.12	69.69
409.344	61.69
409.567	86.69
409.791	76.69
410.014	72.69
410.238	69.69
410.461	70.69
410.685	69.69
410.908	74.69
411.132	77.69
411.355	80.69
411.578	84.69
411.802	86.69
412.025	77.69
412.249	74.69
412.472	70.69
412.695	70.69
412.919	76.69
413.142	80.69
413.365	73.69
413.589	73.69
413.812	72.69
414.035	75.69
414.258	77.69
414.482	72.69
414.705	77.69
414.928	77.69
415.151	82.69
415.374	74.69
415.597	66.69
415.821	82.69
416.044	75.69
416.267	75.69
416.49	79.69
416.713	86.69
416.936	86.69
417.159	77.69
417.382	72.69
417.605	82.69
417.828	92.69
418.051	67.69
418.274	77.69
418.497	69.69
418.72	70.69
418.943	86.69
419.166	72.69
419.389	69.69
419.611	75.69
419.834	79.69
420.057	86.69
420.28	65.69
420.503	95.69
420.726	87.69
420.948	73.69
421.171	79.69
421.394	81.69
421.617	87.69
421.839	84.69
422.062	88.69
422.285	95.69
422.507	84.69
422.73	108.69
422.953	90.69
423.175	87.69
423.398	96.69
423.621	84.69
423.843	78.69
424.066	75.69
424.288	71.69
424.511	71.69
424.733	70.69
424.956	82.69
425.178	95.69
425.401	76.69
425.623	75.69
425.846	87.69
426.068	69.69
426.291	75.69
426.513	63.69
426.735	72.69
426.958	79.69
427.18	61.69
427.402	92.69
427.625	78.69
427.847	84.69
428.069	84.69
428.292	92.69
428.514	73.69
428.736	98.69
428.958	87.69
429.181	79.69
429.403	82.69
429.625	70.69
429.847	80.69
430.069	79.69
430.292	89.69
430.514	82.69
430.736	84.69
430.958	81.69
431.18	76.69
431.402	73.69
431.624	74.69
431.846	86.69
432.068	101.69
432.29	92.69
432.512	83.69
432.734	73.69
432.956	87.69
433.178	93.69
433.4	78.69
433.622	85.69
433.844	83.69
434.066	85.69
434.287	75.69
434.509	79.69
434.731	75.69
434.953	93.69
435.175	91.69
435.397	85.69
435.618	76.69
435.84	86.69
436.062	65.69
436.284	77.69
436.505	87.69
436.727	74.69
436.949	82.69
437.17	77.69
437.392	71.69
437.614	78.69
437.835	81.69
438.057	87.69
438.278	79.69
438.5	76.69
438.721	81.69
438.943	83.69
439.165	81.69
439.386	74.69
439.608	78.69
439.829	82.69
440.05	77.69
440.272	86.69
440.493	78.69
440.715	81.69
440.936	69.69
441.158	70.69
441.379	71.69
441.6	82.69
441.822	73.69
442.043	89.69
442.264	69.69
442.486	71.69
442.707	83.69
442.928	70.69
443.149	84.69
443.371	87.69
443.592	81.69
443.813	74.69
444.034	85.69
444.255	99.69
444.476	74.69
444.698	80.69
444.919	90.69
445.14	171.69
445.361	121.69
445.582	93.69
445.803	87.69
446.024	78.69
446.245	84.69
446.466	82.69
446.687	81.69
446.908	61.69
447.129	81.69
447.35	86.69
447.571	86.69
447.792	70.69
448.013	77.69
448.234	83.69
448.455	84.69
448.675	77.69
448.896	67.69
449.117	72.69
449.338	65.69
449.559	79.69
449.779	86.69
450	81.69
450.221	88.69
450.442	84.69
450.662	76.69
450.883	78.69
451.104	87.69
451.324	74.69
451.545	83.69
451.766	80.69
451.986	91.69
452.207	79.69
452.428	84.69
452.648	77.69
452.869	69.69
453.089	82.69
453.31	62.69
453.53	77.69
453.751	87.69
453.971	80.69
454.192	77.69
454.412	75.69
454.633	96.69
454.853	79.69
455.073	82.69
455.294	64.69
455.514	78.69
455.734	86.69
455.955	74.69
456.175	81.69
456.395	82.69
456.616	74.69
456.836	73.69
457.056	80.69
457.276	73.69
457.497	90.69
457.717	81.69
457.937	93.69
458.157	83.69
458.377	82.69
458.598	74.69
458.818	89.69
459.038	89.69
459.258	80.69
459.478	86.69
459.698	76.69
459.918	79.69
460.138	83.69
460.358	79.69
460.578	79.69
460.798	87.69
461.018	78.69
461.238	75.69
461.458	85.69
461.678	71.69
461.898	76.69
462.118	98.69
462.338	77.69
462.558	77.69
462.777	97.69
462.997	91.69
463.217	79.69
463.437	84.69
463.657	72.69
463.876	85.69
464.096	79.69
464.316	85.69
464.536	86.69
464.755	90.69
464.975	76.69
465.195	94.69
465.414	67.69
465.634	64.69
465.854	69.69
466.073	66.69
466.293	73.69
466.512	78.69
466.732	69.69
466.951	85.69
467.171	85.69
467.391	81.69
467.61	87.69
467.829	72.69
468.049	75.69
468.268	73.69
468.488	70.69
468.707	77.69
468.927	85.69
469.146	87.69
469.365	74.69
469.585	79.69
469.804	74.69
470.023	75.69
470.243	91.69
470.462	81.69
470.681	88.69
470.901	67.69
471.12	76.69
471.339	79.69
471.558	63.69
471.777	84.69
471.997	86.69
472.216	68.69
472.435	71.69
472.654	95.69
472.873	84.69
473.092	69.69
473.311	76.69
473.53	69.69
473.749	62.69
473.968	77.69
474.187	77.69
474.406	85.69
474.625	90.69
474.844	87.69
475.063	86.69
475.282	77.69
475.501	86.69
475.72	74.69
475.939	68.69
476.158	79.69
476.377	81.69
476.596	61.69
476.814	83.69
477.033	87.69
477.252	101.69
477.471	74.69
477.69	82.69
477.908	77.69
478.127	88.69
478.346	85.69
478.564	75.69
478.783	84.69
479.002	65.69
479.22	69.69
479.439	81.69
479.658	85.69
479.876	92.69
480.095	85.69
480.313	80.69
480.532	83.69
480.751	81.69
480.969	94.69
481.188	84.69
481.406	63.69
481.624	77.69
481.843	70.69
482.061	68.69
482.28	83.69
482.498	66.69
482.717	92.69
482.935	81.69
483.153	85.69
483.372	83.69
483.59	81.69
483.808	81.69
484.027	78.69
484.245	84.69
484.463	74.69
484.681	91.69
484.9	81.69
485.118	70.69
485.336	71.69
485.554	83.69
485.772	89.69
485.99	75.69
486.209	81.69
486.427	82.69
486.645	78.69
486.863	79.69
487.081	74.69
487.299	82.69
487.517	79.69
487.735	79.69
487.953	91.69
488.171	89.69
488.389	87.69
488.607	86.69
488.825	91.69
489.043	78.69
489.261	83.69
489.479	77.69
489.696	81.69
489.914	86.69
490.132	78.69
490.35	84.69
490.568	78.69
490.786	65.69
491.003	83.69
491.221	85.69
491.439	79.69
491.657	84.69
491.874	93.69
492.092	74.69
492.31	93.69
492.527	85.69
492.745	77.69
492.963	75.69
493.18	83.69
493.398	78.69
493.615	71.69
493.833	89.69
494.05	85.69
494.268	79.69
494.485	93.69
494.703	75.69
494.92	80.69
495.138	77.69
495.355	82.69
495.573	88.69
495.79	85.69
496.008	83.69
496.225	80.69
496.442	87.69
496.66	90.69
496.877	90.69
497.094	88.69
497.312	74.69
497.529	85.69
497.746	81.69
497.963	71.69
498.181	76.69
498.398	87.69
498.615	83.69
498.832	86.69
499.049	78.69
499.267	92.69
499.484	78.69
499.701	78.69
499.918	89.69
500.135	91.69
500.352	74.69
500.569	70.69
500.786	92.69
501.003	76.69
501.22	70.69
501.437	71.69
501.654	90.69
501.871	76.69
502.088	78.69
502.305	86.69
502.522	74.69
502.739	80.69
502.956	81.69
503.172	80.69
503.389	79.69
503.606	81.69
503.823	78.69
504.04	93.69
504.256	89.69
504.473	87.69
504.69	73.69
504.907	91.69
505.123	69.69
505.34	80.69
505.557	72.69
505.773	81.69
505.99	76.69
506.207	81.69
506.423	62.69
506.64	87.69
506.856	83.69
507.073	67.69
507.289	82.69
507.506	78.69
507.722	86.69
507.939	80.69
508.155	99.69
508.372	80.69
508.588	85.69
508.805	92.69
509.021	77.69
509.238	95.69
509.454	89.69
509.67	82.69
509.887	75.69
510.103	67.69
510.319	74.69
510.536	70.69
510.752	78.69
510.968	83.69
511.184	89.69
511.401	74.69
511.617	87.69
511.833	90.69
512.049	84.69
512.265	92.69
512.481	84.69
512.698	84.69
512.914	78.69
513.13	85.69
513.346	81.69
513.562	90.69
513.778	86.69
513.994	76.69
514.21	82.69
514.426	99.69
514.642	83.69
514.858	80.69
515.074	87.69
515.29	74.69
515.506	90.69
515.721	88.69
515.937	76.69
516.153	77.69
516.369	70.69
516.585	72.69
516.801	90.69
517.016	81.69
517.232	94.69
517.448	92.69
517.664	85.69
517.879	81.69
518.095	83.69
518.311	106.69
518.527	82.69
518.742	82.69
518.958	97.69
519.173	84.69
519.389	85.69
519.605	88.69
519.82	70.69
520.036	79.69
520.251	97.69
