Data from 10100_2_HRD10591_00008.txt Node
Date: Mon Jan 19 14:01:28 EST 2026
User: Yrep
Spectrometer: HR+D1059
Trigger mode: 1
Integration Time (sec): 1.000000E-1
Scans to average: 1
Electric dark correction enabled: true
Nonlinearity correction enabled: false
Boxcar width: 0
XAxis mode: Wavelengths
Number of Pixels in Spectrum: 2048
>>>>>Begin Spectral Data<<<<<
223.165	-35.56
223.4	-35.56
223.635	-35.56
223.869	-23.56
224.104	-13.56
224.338	-9.56
224.573	-23.56
224.808	-12.56
225.042	-9.56
225.277	-2.56
225.511	-13.56
225.746	7.44
225.98	18.44
226.215	10.44
226.449	14.44
226.683	31.44
226.918	32.44
227.152	29.44
227.387	44.44
227.621	48.44
227.856	47.44
228.09	51.44
228.324	39.44
228.559	60.44
228.793	56.44
229.027	70.44
229.262	65.44
229.496	76.44
229.73	67.44
229.964	78.44
230.199	76.44
230.433	71.44
230.667	86.44
230.901	75.44
231.136	77.44
231.37	77.44
231.604	66.44
231.838	78.44
232.072	81.44
232.306	88.44
232.541	86.44
232.775	82.44
233.009	90.44
233.243	64.44
233.477	72.44
233.711	72.44
233.945	74.44
234.179	79.44
234.413	71.44
234.647	72.44
234.881	79.44
235.115	82.44
235.349	87.44
235.583	76.44
235.817	81.44
236.051	76.44
236.285	85.44
236.519	76.44
236.753	94.44
236.987	76.44
237.221	84.44
237.455	73.44
237.689	71.44
237.922	68.44
238.156	81.44
238.39	73.44
238.624	69.44
238.858	83.44
239.091	66.44
239.325	58.44
239.559	72.44
239.793	66.44
240.027	73.44
240.26	75.44
240.494	63.44
240.728	71.44
240.961	95.44
241.195	75.44
241.429	84.44
241.662	76.44
241.896	74.44
242.13	80.44
242.363	74.44
242.597	62.44
242.83	64.44
243.064	88.44
243.298	66.44
243.531	66.44
243.765	69.44
243.998	70.44
244.232	69.44
244.465	77.44
244.699	78.44
244.932	75.44
245.166	82.44
245.399	67.44
245.633	83.44
245.866	74.44
246.099	71.44
246.333	70.44
246.566	82.44
246.8	82.44
247.033	76.44
247.266	87.44
247.5	78.44
247.733	74.44
247.966	86.44
248.2	73.44
248.433	84.44
248.666	83.44
248.899	77.44
249.133	89.44
249.366	76.44
249.599	69.44
249.832	70.44
250.066	75.44
250.299	82.44
250.532	74.44
250.765	77.44
250.998	73.44
251.231	91.44
251.465	84.44
251.698	86.44
251.931	86.44
252.164	75.44
252.397	80.44
252.63	70.44
252.863	68.44
253.096	80.44
253.329	75.44
253.562	69.44
253.795	71.44
254.028	71.44
254.261	77.44
254.494	88.44
254.727	93.44
254.96	68.44
255.193	77.44
255.426	69.44
255.659	78.44
255.892	83.44
256.124	92.44
256.357	81.44
256.59	78.44
256.823	83.44
257.056	78.44
257.289	80.44
257.521	87.44
257.754	84.44
257.987	74.44
258.22	79.44
258.452	87.44
258.685	78.44
258.918	71.44
259.151	70.44
259.383	82.44
259.616	82.44
259.849	77.44
260.081	83.44
260.314	82.44
260.547	79.44
260.779	74.44
261.012	80.44
261.244	89.44
261.477	90.44
261.71	84.44
261.942	76.44
262.175	67.44
262.407	76.44
262.64	67.44
262.872	85.44
263.105	91.44
263.337	87.44
263.57	77.44
263.802	68.44
264.035	82.44
264.267	78.44
264.499	86.44
264.732	84.44
264.964	94.44
265.197	83.44
265.429	71.44
265.661	85.44
265.894	86.44
266.126	90.44
266.358	74.44
266.591	96.44
266.823	95.44
267.055	89.44
267.287	83.44
267.52	69.44
267.752	83.44
267.984	89.44
268.216	74.44
268.448	90.44
268.681	87.44
268.913	79.44
269.145	79.44
269.377	91.44
269.609	87.44
269.841	84.44
270.073	84.44
270.306	78.44
270.538	91.44
270.77	89.44
271.002	65.44
271.234	105.44
271.466	81.44
271.698	70.44
271.93	73.44
272.162	86.44
272.394	82.44
272.626	75.44
272.858	90.44
273.09	75.44
273.322	88.44
273.553	86.44
273.785	85.44
274.017	82.44
274.249	87.44
274.481	90.44
274.713	80.44
274.945	86.44
275.176	68.44
275.408	74.44
275.64	84.44
275.872	87.44
276.104	89.44
276.335	76.44
276.567	86.44
276.799	71.44
277.031	86.44
277.262	72.44
277.494	80.44
277.726	76.44
277.957	73.44
278.189	80.44
278.421	87.44
278.652	87.44
278.884	84.44
279.115	78.44
279.347	82.44
279.579	75.44
279.81	66.44
280.042	83.44
280.273	81.44
280.505	82.44
280.736	80.44
280.968	97.44
281.199	83.44
281.431	100.44
281.662	82.44
281.894	91.44
282.125	92.44
282.356	84.44
282.588	92.44
282.819	82.44
283.051	92.44
283.282	89.44
283.513	82.44
283.745	87.44
283.976	85.44
284.207	79.44
284.439	79.44
284.67	78.44
284.901	68.44
285.132	98.44
285.364	93.44
285.595	86.44
285.826	85.44
286.057	74.44
286.288	76.44
286.52	82.44
286.751	94.44
286.982	88.44
287.213	94.44
287.444	87.44
287.675	89.44
287.906	90.44
288.138	83.44
288.369	72.44
288.6	95.44
288.831	77.44
289.062	91.44
289.293	83.44
289.524	91.44
289.755	101.44
289.986	80.44
290.217	76.44
290.448	89.44
290.679	77.44
290.91	86.44
291.141	99.44
291.371	89.44
291.602	95.44
291.833	86.44
292.064	90.44
292.295	73.44
292.526	78.44
292.757	76.44
292.987	82.44
293.218	68.44
293.449	86.44
293.68	82.44
293.91	81.44
294.141	86.44
294.372	82.44
294.603	89.44
294.833	90.44
295.064	88.44
295.295	73.44
295.525	79.44
295.756	89.44
295.987	83.44
296.217	93.44
296.448	78.44
296.679	84.44
296.909	80.44
297.14	84.44
297.37	86.44
297.601	88.44
297.831	79.44
298.062	76.44
298.292	87.44
298.523	86.44
298.753	89.44
298.984	83.44
299.214	99.44
299.445	89.44
299.675	85.44
299.905	86.44
300.136	96.44
300.366	82.44
300.597	84.44
300.827	87.44
301.057	90.44
301.288	72.44
301.518	69.44
301.748	90.44
301.979	91.44
302.209	89.44
302.439	95.44
302.669	85.44
302.9	95.44
303.13	79.44
303.36	86.44
303.59	66.44
303.82	75.44
304.051	71.44
304.281	79.44
304.511	94.44
304.741	77.44
304.971	71.44
305.201	71.44
305.431	84.44
305.661	86.44
305.891	80.44
306.121	72.44
306.352	80.44
306.582	101.44
306.812	98.44
307.042	100.44
307.272	85.44
307.502	70.44
307.731	64.44
307.961	68.44
308.191	82.44
308.421	84.44
308.651	94.44
308.881	79.44
309.111	84.44
309.341	89.44
309.571	85.44
309.8	86.44
310.03	100.44
310.26	81.44
310.49	74.44
310.72	84.44
310.949	86.44
311.179	85.44
311.409	86.44
311.639	80.44
311.868	92.44
312.098	97.44
312.328	87.44
312.557	84.44
312.787	91.44
313.017	77.44
313.246	82.44
313.476	88.44
313.706	83.44
313.935	82.44
314.165	79.44
314.394	94.44
314.624	97.44
314.853	89.44
315.083	88.44
315.312	86.44
315.542	88.44
315.771	67.44
316.001	83.44
316.23	93.44
316.46	89.44
316.689	87.44
316.919	83.44
317.148	97.44
317.377	75.44
317.607	70.44
317.836	91.44
318.065	82.44
318.295	104.44
318.524	85.44
318.753	91.44
318.983	84.44
319.212	91.44
319.441	88.44
319.67	89.44
319.9	84.44
320.129	88.44
320.358	67.44
320.587	87.44
320.816	104.44
321.046	76.44
321.275	107.44
321.504	105.44
321.733	86.44
321.962	85.44
322.191	92.44
322.42	87.44
322.649	89.44
322.878	84.44
323.108	94.44
323.337	85.44
323.566	81.44
323.795	94.44
324.024	96.44
324.253	85.44
324.482	86.44
324.71	101.44
324.939	94.44
325.168	84.44
325.397	82.44
325.626	79.44
325.855	81.44
326.084	90.44
326.313	70.44
326.542	72.44
326.77	91.44
326.999	89.44
327.228	71.44
327.457	95.44
327.686	83.44
327.914	102.44
328.143	90.44
328.372	98.44
328.6	93.44
328.829	86.44
329.058	88.44
329.287	88.44
329.515	70.44
329.744	81.44
329.972	74.44
330.201	88.44
330.43	82.44
330.658	82.44
330.887	91.44
331.115	92.44
331.344	84.44
331.572	108.44
331.801	80.44
332.03	89.44
332.258	86.44
332.486	78.44
332.715	88.44
332.943	72.44
333.172	91.44
333.4	82.44
333.629	77.44
333.857	101.44
334.085	101.44
334.314	93.44
334.542	88.44
334.771	82.44
334.999	85.44
335.227	95.44
335.455	97.44
335.684	87.44
335.912	89.44
336.14	94.44
336.369	81.44
336.597	85.44
336.825	87.44
337.053	79.44
337.281	90.44
337.51	89.44
337.738	90.44
337.966	85.44
338.194	76.44
338.422	90.44
338.65	90.44
338.878	82.44
339.106	85.44
339.334	89.44
339.562	79.44
339.79	86.44
340.018	92.44
340.246	83.44
340.474	89.44
340.702	89.44
340.93	88.44
341.158	89.44
341.386	73.44
341.614	83.44
341.842	83.44
342.07	95.44
342.298	90.44
342.526	97.44
342.754	102.44
342.981	77.44
343.209	98.44
343.437	92.44
343.665	84.44
343.893	87.44
344.12	91.44
344.348	83.44
344.576	88.44
344.804	72.44
345.031	82.44
345.259	85.44
345.487	87.44
345.714	90.44
345.942	76.44
346.17	101.44
346.397	90.44
346.625	74.44
346.853	90.44
347.08	68.44
347.308	82.44
347.535	90.44
347.763	99.44
347.99	98.44
348.218	93.44
348.445	91.44
348.673	80.44
348.9	71.44
349.128	86.44
349.355	72.44
349.583	87.44
349.81	105.44
350.037	104.44
350.265	96.44
350.492	86.44
350.72	74.44
350.947	86.44
351.174	75.44
351.402	98.44
351.629	73.44
351.856	89.44
352.083	81.44
352.311	95.44
352.538	95.44
352.765	90.44
352.992	82.44
353.22	97.44
353.447	85.44
353.674	97.44
353.901	80.44
354.128	76.44
354.355	70.44
354.583	84.44
354.81	88.44
355.037	82.44
355.264	81.44
355.491	91.44
355.718	94.44
355.945	84.44
356.172	85.44
356.399	85.44
356.626	84.44
356.853	92.44
357.08	91.44
357.307	89.44
357.534	74.44
357.761	90.44
357.988	96.44
358.215	102.44
358.441	105.44
358.668	102.44
358.895	92.44
359.122	91.44
359.349	71.44
359.576	90.44
359.802	76.44
360.029	84.44
360.256	79.44
360.483	82.44
360.709	90.44
360.936	83.44
361.163	100.44
361.39	103.44
361.616	84.44
361.843	82.44
362.07	99.44
362.296	96.44
362.523	112.44
362.749	99.44
362.976	101.44
363.203	105.44
363.429	96.44
363.656	93.44
363.882	92.44
364.109	108.44
364.335	108.44
364.562	113.44
364.788	110.44
365.015	117.44
365.241	90.44
365.468	84.44
365.694	90.44
365.92	89.44
366.147	89.44
366.373	85.44
366.599	87.44
366.826	84.44
367.052	90.44
367.278	92.44
367.505	97.44
367.731	87.44
367.957	83.44
368.184	91.44
368.41	91.44
368.636	103.44
368.862	89.44
369.089	85.44
369.315	81.44
369.541	89.44
369.767	100.44
369.993	88.44
370.219	83.44
370.445	85.44
370.672	102.44
370.898	94.44
371.124	90.44
371.35	76.44
371.576	68.44
371.802	99.44
372.028	91.44
372.254	92.44
372.48	82.44
372.706	87.44
372.932	83.44
373.158	94.44
373.384	101.44
373.61	99.44
373.835	94.44
374.061	85.44
374.287	99.44
374.513	91.44
374.739	122.44
374.965	99.44
375.191	100.44
375.416	88.44
375.642	76.44
375.868	92.44
376.094	88.44
376.319	95.44
376.545	95.44
376.771	83.44
376.997	71.44
377.222	99.44
377.448	101.44
377.674	92.44
377.899	89.44
378.125	78.44
378.35	84.44
378.576	90.44
378.802	91.44
379.027	79.44
379.253	89.44
379.478	97.44
379.704	90.44
379.929	79.44
380.155	101.44
380.38	85.44
380.606	86.44
380.831	86.44
381.057	101.44
381.282	90.44
381.507	102.44
381.733	100.44
381.958	97.44
382.184	95.44
382.409	94.44
382.634	79.44
382.86	73.44
383.085	96.44
383.31	98.44
383.535	95.44
383.761	102.44
383.986	92.44
384.211	95.44
384.436	98.44
384.662	93.44
384.887	79.44
385.112	76.44
385.337	88.44
385.562	98.44
385.787	84.44
386.013	101.44
386.238	80.44
386.463	96.44
386.688	104.44
386.913	90.44
387.138	93.44
387.363	95.44
387.588	92.44
387.813	103.44
388.038	101.44
388.263	98.44
388.488	91.44
388.713	112.44
388.938	102.44
389.163	103.44
389.387	102.44
389.612	79.44
389.837	94.44
390.062	83.44
390.287	79.44
390.512	93.44
390.736	85.44
390.961	85.44
391.186	91.44
391.411	81.44
391.636	87.44
391.86	86.44
392.085	93.44
392.31	88.44
392.534	92.44
392.759	111.44
392.984	143.44
393.208	236.44
393.433	313.44
393.658	228.44
393.882	126.44
394.107	96.44
394.331	103.44
394.556	103.44
394.78	112.44
395.005	104.44
395.229	92.44
395.454	95.44
395.678	96.44
395.903	114.44
396.127	126.44
396.352	124.44
396.576	143.44
396.801	210.44
397.025	250.44
397.249	153.44
397.474	111.44
397.698	95.44
397.922	91.44
398.147	96.44
398.371	104.44
398.595	106.44
398.82	88.44
399.044	86.44
399.268	90.44
399.492	78.44
399.717	86.44
399.941	90.44
400.165	82.44
400.389	79.44
400.613	78.44
400.837	69.44
401.062	88.44
401.286	91.44
401.51	75.44
401.734	92.44
401.958	85.44
402.182	90.44
402.406	86.44
402.63	84.44
402.854	94.44
403.078	99.44
403.302	94.44
403.526	94.44
403.75	79.44
403.974	102.44
404.198	90.44
404.422	90.44
404.645	95.44
404.869	89.44
405.093	92.44
405.317	80.44
405.541	91.44
405.765	94.44
405.988	82.44
406.212	66.44
406.436	82.44
406.66	97.44
406.883	82.44
407.107	76.44
407.331	87.44
407.555	93.44
407.778	99.44
408.002	112.44
408.226	90.44
408.449	93.44
408.673	100.44
408.896	101.44
409.12	80.44
409.344	92.44
409.567	96.44
409.791	114.44
410.014	97.44
410.238	95.44
410.461	88.44
410.685	92.44
410.908	91.44
411.132	66.44
411.355	88.44
411.578	79.44
411.802	75.44
412.025	89.44
412.249	82.44
412.472	79.44
412.695	106.44
412.919	103.44
413.142	92.44
413.365	90.44
413.589	91.44
413.812	90.44
414.035	104.44
414.258	104.44
414.482	84.44
414.705	87.44
414.928	83.44
415.151	89.44
415.374	91.44
415.597	93.44
415.821	96.44
416.044	97.44
416.267	91.44
416.49	85.44
416.713	78.44
416.936	80.44
417.159	79.44
417.382	81.44
417.605	83.44
417.828	97.44
418.051	94.44
418.274	87.44
418.497	84.44
418.72	97.44
418.943	79.44
419.166	74.44
419.389	89.44
419.611	103.44
419.834	82.44
420.057	101.44
420.28	90.44
420.503	101.44
420.726	86.44
420.948	91.44
421.171	82.44
421.394	117.44
421.617	114.44
421.839	118.44
422.062	118.44
422.285	154.44
422.507	238.44
422.73	316.44
422.953	314.44
423.175	190.44
423.398	134.44
423.621	100.44
423.843	106.44
424.066	96.44
424.288	97.44
424.511	90.44
424.733	94.44
424.956	78.44
425.178	91.44
425.401	86.44
425.623	90.44
425.846	88.44
426.068	91.44
426.291	81.44
426.513	75.44
426.735	84.44
426.958	88.44
427.18	99.44
427.402	96.44
427.625	91.44
427.847	89.44
428.069	102.44
428.292	127.44
428.514	126.44
428.736	106.44
428.958	110.44
429.181	118.44
429.403	103.44
429.625	100.44
429.847	109.44
430.069	149.44
430.292	157.44
430.514	159.44
430.736	129.44
430.958	132.44
431.18	87.44
431.402	101.44
431.624	103.44
431.846	117.44
432.068	136.44
432.29	82.44
432.512	83.44
432.734	96.44
432.956	88.44
433.178	74.44
433.4	95.44
433.622	94.44
433.844	83.44
434.066	99.44
434.287	66.44
434.509	80.44
434.731	87.44
434.953	86.44
435.175	89.44
435.397	86.44
435.618	98.44
435.84	98.44
436.062	89.44
436.284	78.44
436.505	92.44
436.727	86.44
436.949	81.44
437.17	88.44
437.392	85.44
437.614	98.44
437.835	86.44
438.057	87.44
438.278	87.44
438.5	80.44
438.721	103.44
438.943	90.44
439.165	90.44
439.386	100.44
439.608	97.44
439.829	91.44
440.05	81.44
440.272	82.44
440.493	86.44
440.715	92.44
440.936	85.44
441.158	89.44
441.379	81.44
441.6	83.44
441.822	99.44
442.043	75.44
442.264	101.44
442.486	119.44
442.707	142.44
442.928	119.44
443.149	92.44
443.371	133.44
443.592	212.44
443.813	186.44
444.034	101.44
444.255	96.44
444.476	82.44
444.698	74.44
444.919	103.44
445.14	208.44
445.361	180.44
445.582	268.44
445.803	216.44
446.024	106.44
446.245	103.44
446.466	85.44
446.687	76.44
446.908	91.44
447.129	85.44
447.35	91.44
447.571	76.44
447.792	90.44
448.013	91.44
448.234	88.44
448.455	97.44
448.675	98.44
448.896	84.44
449.117	96.44
449.338	79.44
449.559	87.44
449.779	95.44
450	85.44
450.221	76.44
450.442	82.44
450.662	98.44
450.883	80.44
451.104	94.44
451.324	81.44
451.545	88.44
451.766	82.44
451.986	95.44
452.207	89.44
452.428	96.44
452.648	90.44
452.869	97.44
453.089	91.44
453.31	83.44
453.53	94.44
453.751	85.44
453.971	90.44
454.192	74.44
454.412	85.44
454.633	86.44
454.853	103.44
455.073	87.44
455.294	69.44
455.514	94.44
455.734	93.44
455.955	95.44
456.175	89.44
456.395	78.44
456.616	67.44
456.836	80.44
457.056	93.44
457.276	83.44
457.497	95.44
457.717	88.44
457.937	108.44
458.157	128.44
458.377	135.44
458.598	127.44
458.818	131.44
459.038	97.44
459.258	76.44
459.478	83.44
459.698	70.44
459.918	84.44
460.138	86.44
460.358	92.44
460.578	82.44
460.798	107.44
461.018	107.44
461.238	81.44
461.458	81.44
461.678	74.44
461.898	90.44
462.118	72.44
462.338	84.44
462.558	94.44
462.777	86.44
462.997	106.44
463.217	102.44
463.437	104.44
463.657	77.44
463.876	75.44
464.096	86.44
464.316	86.44
464.536	87.44
464.755	91.44
464.975	73.44
465.195	97.44
465.414	88.44
465.634	78.44
465.854	85.44
466.073	94.44
466.293	72.44
466.512	95.44
466.732	76.44
466.951	82.44
467.171	95.44
467.391	92.44
467.61	77.44
467.829	76.44
468.049	92.44
468.268	84.44
468.488	88.44
468.707	93.44
468.927	98.44
469.146	76.44
469.365	93.44
469.585	91.44
469.804	70.44
470.023	99.44
470.243	94.44
470.462	87.44
470.681	91.44
470.901	80.44
471.12	88.44
471.339	83.44
471.558	86.44
471.777	80.44
471.997	86.44
472.216	80.44
472.435	89.44
472.654	88.44
472.873	85.44
473.092	101.44
473.311	84.44
473.53	87.44
473.749	78.44
473.968	93.44
474.187	92.44
474.406	92.44
474.625	99.44
474.844	93.44
475.063	79.44
475.282	86.44
475.501	66.44
475.72	94.44
475.939	84.44
476.158	83.44
476.377	90.44
476.596	82.44
476.814	95.44
477.033	99.44
477.252	100.44
477.471	79.44
477.69	83.44
477.908	82.44
478.127	103.44
478.346	88.44
478.564	85.44
478.783	76.44
479.002	95.44
479.22	77.44
479.439	92.44
479.658	88.44
479.876	106.44
480.095	88.44
480.313	77.44
480.532	92.44
480.751	80.44
480.969	81.44
481.188	74.44
481.406	92.44
481.624	76.44
481.843	96.44
482.061	79.44
482.28	98.44
482.498	89.44
482.717	98.44
482.935	97.44
483.153	104.44
483.372	90.44
483.59	86.44
483.808	98.44
484.027	97.44
484.245	95.44
484.463	101.44
484.681	115.44
484.9	97.44
485.118	84.44
485.336	73.44
485.554	88.44
485.772	87.44
485.99	90.44
486.209	93.44
486.427	83.44
486.645	100.44
486.863	95.44
487.081	88.44
487.299	93.44
487.517	103.44
487.735	135.44
487.953	164.44
488.171	153.44
488.389	96.44
488.607	94.44
488.825	98.44
489.043	89.44
489.261	87.44
489.479	83.44
489.696	84.44
489.914	78.44
490.132	84.44
490.35	108.44
490.568	79.44
490.786	84.44
491.003	90.44
491.221	91.44
491.439	97.44
491.657	90.44
491.874	99.44
492.092	107.44
492.31	98.44
492.527	100.44
492.745	80.44
492.963	97.44
493.18	82.44
493.398	93.44
493.615	112.44
493.833	104.44
494.05	92.44
494.268	90.44
494.485	92.44
494.703	88.44
494.92	98.44
495.138	90.44
495.355	86.44
495.573	87.44
495.79	90.44
496.008	111.44
496.225	83.44
496.442	82.44
496.66	86.44
496.877	86.44
497.094	79.44
497.312	81.44
497.529	92.44
497.746	90.44
497.963	85.44
498.181	94.44
498.398	99.44
498.615	96.44
498.832	88.44
499.049	97.44
499.267	110.44
499.484	86.44
499.701	104.44
499.918	85.44
500.135	87.44
500.352	99.44
500.569	91.44
500.786	104.44
501.003	103.44
501.22	98.44
501.437	95.44
501.654	95.44
501.871	92.44
502.088	82.44
502.305	98.44
502.522	95.44
502.739	83.44
502.956	91.44
503.172	95.44
503.389	97.44
503.606	92.44
503.823	105.44
504.04	114.44
504.256	132.44
504.473	132.44
504.69	100.44
504.907	93.44
505.123	91.44
505.34	95.44
505.557	86.44
505.773	91.44
505.99	96.44
506.207	82.44
506.423	97.44
506.64	101.44
506.856	101.44
507.073	95.44
507.289	89.44
507.506	93.44
507.722	93.44
507.939	89.44
508.155	102.44
508.372	99.44
508.588	101.44
508.805	86.44
509.021	93.44
509.238	98.44
509.454	104.44
509.67	91.44
509.887	81.44
510.103	96.44
510.319	96.44
510.536	98.44
510.752	98.44
510.968	92.44
511.184	95.44
511.401	80.44
511.617	93.44
511.833	92.44
512.049	87.44
512.265	90.44
512.481	99.44
512.698	87.44
512.914	94.44
513.13	83.44
513.346	76.44
513.562	84.44
513.778	92.44
513.994	95.44
514.21	103.44
514.426	81.44
514.642	96.44
514.858	88.44
515.074	80.44
515.29	88.44
515.506	80.44
515.721	92.44
515.937	94.44
516.153	79.44
516.369	82.44
516.585	89.44
516.801	119.44
517.016	97.44
517.232	105.44
517.448	103.44
517.664	98.44
