Data from 10100_2_HRD10591_00025.txt Node
Date: Mon Jan 19 14:01:36 EST 2026
User: Yrep
Spectrometer: HR+D1059
Trigger mode: 1
Integration Time (sec): 1.000000E-1
Scans to average: 1
Electric dark correction enabled: true
Nonlinearity correction enabled: false
Boxcar width: 0
XAxis mode: Wavelengths
Number of Pixels in Spectrum: 2048
>>>>>Begin Spectral Data<<<<<
223.165	-22.69
223.4	-22.69
223.635	-22.69
223.869	-11.69
224.104	-22.69
224.338	-12.69
224.573	-7.69
224.808	-18.69
225.042	-7.69
225.277	-3.69
225.511	-0.69
225.746	5.31
225.98	13.31
226.215	9.31
226.449	9.31
226.683	24.31
226.918	23.31
227.152	23.31
227.387	27.31
227.621	44.31
227.856	42.31
228.09	48.31
228.324	49.31
228.559	72.31
228.793	56.31
229.027	69.31
229.262	56.31
229.496	67.31
229.73	65.31
229.964	61.31
230.199	73.31
230.433	66.31
230.667	89.31
230.901	62.31
231.136	62.31
231.37	79.31
231.604	76.31
231.838	77.31
232.072	85.31
232.306	84.31
232.541	82.31
232.775	83.31
233.009	78.31
233.243	82.31
233.477	99.31
233.711	72.31
233.945	86.31
234.179	90.31
234.413	75.31
234.647	85.31
234.881	93.31
235.115	73.31
235.349	88.31
235.583	73.31
235.817	81.31
236.051	69.31
236.285	80.31
236.519	79.31
236.753	60.31
236.987	68.31
237.221	80.31
237.455	72.31
237.689	73.31
237.922	74.31
238.156	70.31
238.39	81.31
238.624	83.31
238.858	70.31
239.091	73.31
239.325	73.31
239.559	82.31
239.793	68.31
240.027	60.31
240.26	66.31
240.494	67.31
240.728	74.31
240.961	73.31
241.195	72.31
241.429	68.31
241.662	70.31
241.896	70.31
242.13	76.31
242.363	69.31
242.597	80.31
242.83	72.31
243.064	77.31
243.298	73.31
243.531	59.31
243.765	90.31
243.998	78.31
244.232	86.31
244.465	73.31
244.699	55.31
244.932	80.31
245.166	65.31
245.399	68.31
245.633	80.31
245.866	77.31
246.099	76.31
246.333	69.31
246.566	82.31
246.8	90.31
247.033	87.31
247.266	74.31
247.5	73.31
247.733	90.31
247.966	67.31
248.2	79.31
248.433	78.31
248.666	77.31
248.899	73.31
249.133	82.31
249.366	97.31
249.599	82.31
249.832	89.31
250.066	77.31
250.299	69.31
250.532	66.31
250.765	67.31
250.998	84.31
251.231	88.31
251.465	80.31
251.698	72.31
251.931	74.31
252.164	75.31
252.397	80.31
252.63	72.31
252.863	64.31
253.096	93.31
253.329	78.31
253.562	64.31
253.795	80.31
254.028	82.31
254.261	89.31
254.494	82.31
254.727	85.31
254.96	85.31
255.193	70.31
255.426	68.31
255.659	63.31
255.892	71.31
256.124	73.31
256.357	72.31
256.59	73.31
256.823	81.31
257.056	66.31
257.289	81.31
257.521	96.31
257.754	81.31
257.987	76.31
258.22	72.31
258.452	70.31
258.685	94.31
258.918	85.31
259.151	84.31
259.383	80.31
259.616	80.31
259.849	79.31
260.081	74.31
260.314	84.31
260.547	86.31
260.779	94.31
261.012	83.31
261.244	78.31
261.477	78.31
261.71	78.31
261.942	86.31
262.175	101.31
262.407	72.31
262.64	78.31
262.872	74.31
263.105	89.31
263.337	74.31
263.57	79.31
263.802	82.31
264.035	59.31
264.267	88.31
264.499	90.31
264.732	91.31
264.964	79.31
265.197	75.31
265.429	79.31
265.661	96.31
265.894	97.31
266.126	87.31
266.358	91.31
266.591	77.31
266.823	69.31
267.055	86.31
267.287	83.31
267.52	72.31
267.752	69.31
267.984	96.31
268.216	79.31
268.448	72.31
268.681	82.31
268.913	74.31
269.145	91.31
269.377	79.31
269.609	81.31
269.841	88.31
270.073	83.31
270.306	84.31
270.538	65.31
270.77	84.31
271.002	69.31
271.234	88.31
271.466	83.31
271.698	89.31
271.93	76.31
272.162	73.31
272.394	90.31
272.626	86.31
272.858	78.31
273.09	93.31
273.322	105.31
273.553	75.31
273.785	95.31
274.017	78.31
274.249	79.31
274.481	70.31
274.713	86.31
274.945	88.31
275.176	78.31
275.408	85.31
275.64	83.31
275.872	82.31
276.104	83.31
276.335	76.31
276.567	80.31
276.799	73.31
277.031	60.31
277.262	82.31
277.494	80.31
277.726	74.31
277.957	77.31
278.189	66.31
278.421	74.31
278.652	76.31
278.884	61.31
279.115	83.31
279.347	80.31
279.579	88.31
279.81	91.31
280.042	93.31
280.273	80.31
280.505	87.31
280.736	72.31
280.968	72.31
281.199	86.31
281.431	76.31
281.662	79.31
281.894	78.31
282.125	82.31
282.356	89.31
282.588	89.31
282.819	82.31
283.051	78.31
283.282	65.31
283.513	82.31
283.745	84.31
283.976	82.31
284.207	80.31
284.439	73.31
284.67	86.31
284.901	80.31
285.132	96.31
285.364	89.31
285.595	77.31
285.826	87.31
286.057	92.31
286.288	86.31
286.52	85.31
286.751	96.31
286.982	96.31
287.213	78.31
287.444	81.31
287.675	78.31
287.906	93.31
288.138	72.31
288.369	104.31
288.6	92.31
288.831	82.31
289.062	83.31
289.293	74.31
289.524	90.31
289.755	88.31
289.986	77.31
290.217	84.31
290.448	86.31
290.679	81.31
290.91	95.31
291.141	95.31
291.371	88.31
291.602	81.31
291.833	84.31
292.064	82.31
292.295	72.31
292.526	78.31
292.757	95.31
292.987	54.31
293.218	74.31
293.449	88.31
293.68	95.31
293.91	73.31
294.141	74.31
294.372	79.31
294.603	85.31
294.833	83.31
295.064	87.31
295.295	95.31
295.525	82.31
295.756	95.31
295.987	96.31
296.217	84.31
296.448	79.31
296.679	94.31
296.909	80.31
297.14	66.31
297.37	92.31
297.601	82.31
297.831	88.31
298.062	94.31
298.292	76.31
298.523	75.31
298.753	81.31
298.984	85.31
299.214	97.31
299.445	90.31
299.675	93.31
299.905	92.31
300.136	92.31
300.366	67.31
300.597	86.31
300.827	92.31
301.057	94.31
301.288	87.31
301.518	81.31
301.748	75.31
301.979	117.31
302.209	80.31
302.439	86.31
302.669	86.31
302.9	91.31
303.13	87.31
303.36	90.31
303.59	88.31
303.82	75.31
304.051	88.31
304.281	88.31
304.511	91.31
304.741	84.31
304.971	78.31
305.201	87.31
305.431	76.31
305.661	88.31
305.891	78.31
306.121	76.31
306.352	80.31
306.582	88.31
306.812	88.31
307.042	73.31
307.272	64.31
307.502	83.31
307.731	85.31
307.961	69.31
308.191	89.31
308.421	92.31
308.651	78.31
308.881	82.31
309.111	87.31
309.341	78.31
309.571	80.31
309.8	85.31
310.03	95.31
310.26	94.31
310.49	98.31
310.72	78.31
310.949	80.31
311.179	82.31
311.409	83.31
311.639	84.31
311.868	94.31
312.098	83.31
312.328	84.31
312.557	71.31
312.787	81.31
313.017	94.31
313.246	93.31
313.476	83.31
313.706	79.31
313.935	85.31
314.165	64.31
314.394	91.31
314.624	86.31
314.853	73.31
315.083	80.31
315.312	87.31
315.542	83.31
315.771	78.31
316.001	80.31
316.23	93.31
316.46	82.31
316.689	93.31
316.919	89.31
317.148	86.31
317.377	97.31
317.607	80.31
317.836	73.31
318.065	79.31
318.295	84.31
318.524	83.31
318.753	87.31
318.983	93.31
319.212	86.31
319.441	86.31
319.67	84.31
319.9	79.31
320.129	82.31
320.358	73.31
320.587	80.31
320.816	73.31
321.046	80.31
321.275	80.31
321.504	81.31
321.733	78.31
321.962	96.31
322.191	75.31
322.42	99.31
322.649	95.31
322.878	81.31
323.108	80.31
323.337	73.31
323.566	79.31
323.795	73.31
324.024	83.31
324.253	78.31
324.482	90.31
324.71	82.31
324.939	94.31
325.168	77.31
325.397	83.31
325.626	77.31
325.855	91.31
326.084	96.31
326.313	78.31
326.542	89.31
326.77	81.31
326.999	87.31
327.228	97.31
327.457	77.31
327.686	88.31
327.914	93.31
328.143	85.31
328.372	90.31
328.6	79.31
328.829	92.31
329.058	85.31
329.287	90.31
329.515	92.31
329.744	81.31
329.972	76.31
330.201	84.31
330.43	85.31
330.658	83.31
330.887	80.31
331.115	89.31
331.344	90.31
331.572	73.31
331.801	90.31
332.03	92.31
332.258	84.31
332.486	71.31
332.715	80.31
332.943	95.31
333.172	88.31
333.4	90.31
333.629	103.31
333.857	82.31
334.085	92.31
334.314	95.31
334.542	89.31
334.771	88.31
334.999	74.31
335.227	89.31
335.455	97.31
335.684	83.31
335.912	90.31
336.14	90.31
336.369	90.31
336.597	86.31
336.825	76.31
337.053	82.31
337.281	94.31
337.51	81.31
337.738	90.31
337.966	89.31
338.194	82.31
338.422	85.31
338.65	77.31
338.878	96.31
339.106	86.31
339.334	88.31
339.562	92.31
339.79	94.31
340.018	92.31
340.246	75.31
340.474	82.31
340.702	68.31
340.93	74.31
341.158	84.31
341.386	84.31
341.614	75.31
341.842	99.31
342.07	85.31
342.298	94.31
342.526	92.31
342.754	82.31
342.981	88.31
343.209	75.31
343.437	96.31
343.665	78.31
343.893	97.31
344.12	102.31
344.348	84.31
344.576	88.31
344.804	78.31
345.031	81.31
345.259	81.31
345.487	86.31
345.714	89.31
345.942	76.31
346.17	80.31
346.397	75.31
346.625	92.31
346.853	90.31
347.08	80.31
347.308	72.31
347.535	83.31
347.763	88.31
347.99	86.31
348.218	78.31
348.445	78.31
348.673	97.31
348.9	86.31
349.128	77.31
349.355	80.31
349.583	74.31
349.81	82.31
350.037	84.31
350.265	81.31
350.492	84.31
350.72	87.31
350.947	78.31
351.174	75.31
351.402	86.31
351.629	82.31
351.856	81.31
352.083	76.31
352.311	87.31
352.538	76.31
352.765	85.31
352.992	83.31
353.22	82.31
353.447	84.31
353.674	76.31
353.901	90.31
354.128	95.31
354.355	70.31
354.583	85.31
354.81	87.31
355.037	72.31
355.264	89.31
355.491	88.31
355.718	72.31
355.945	78.31
356.172	92.31
356.399	78.31
356.626	81.31
356.853	91.31
357.08	93.31
357.307	91.31
357.534	92.31
357.761	89.31
357.988	80.31
358.215	88.31
358.441	89.31
358.668	82.31
358.895	93.31
359.122	83.31
359.349	73.31
359.576	83.31
359.802	92.31
360.029	87.31
360.256	92.31
360.483	86.31
360.709	75.31
360.936	93.31
361.163	95.31
361.39	83.31
361.616	80.31
361.843	88.31
362.07	91.31
362.296	79.31
362.523	80.31
362.749	71.31
362.976	84.31
363.203	88.31
363.429	83.31
363.656	90.31
363.882	87.31
364.109	87.31
364.335	90.31
364.562	83.31
364.788	88.31
365.015	86.31
365.241	77.31
365.468	93.31
365.694	80.31
365.92	77.31
366.147	86.31
366.373	69.31
366.599	85.31
366.826	74.31
367.052	89.31
367.278	98.31
367.505	85.31
367.731	80.31
367.957	78.31
368.184	74.31
368.41	79.31
368.636	76.31
368.862	74.31
369.089	72.31
369.315	82.31
369.541	87.31
369.767	65.31
369.993	80.31
370.219	72.31
370.445	87.31
370.672	85.31
370.898	89.31
371.124	101.31
371.35	76.31
371.576	76.31
371.802	82.31
372.028	77.31
372.254	70.31
372.48	100.31
372.706	73.31
372.932	80.31
373.158	83.31
373.384	89.31
373.61	92.31
373.835	97.31
374.061	75.31
374.287	84.31
374.513	86.31
374.739	85.31
374.965	98.31
375.191	80.31
375.416	78.31
375.642	84.31
375.868	86.31
376.094	83.31
376.319	86.31
376.545	85.31
376.771	71.31
376.997	86.31
377.222	87.31
377.448	75.31
377.674	79.31
377.899	84.31
378.125	72.31
378.35	75.31
378.576	78.31
378.802	74.31
379.027	100.31
379.253	93.31
379.478	93.31
379.704	84.31
379.929	90.31
380.155	90.31
380.38	83.31
380.606	74.31
380.831	74.31
381.057	82.31
381.282	84.31
381.507	79.31
381.733	93.31
381.958	83.31
382.184	80.31
382.409	88.31
382.634	104.31
382.86	76.31
383.085	75.31
383.31	72.31
383.535	91.31
383.761	98.31
383.986	81.31
384.211	78.31
384.436	92.31
384.662	85.31
384.887	69.31
385.112	89.31
385.337	80.31
385.562	88.31
385.787	83.31
386.013	88.31
386.238	81.31
386.463	91.31
386.688	85.31
386.913	84.31
387.138	90.31
387.363	78.31
387.588	96.31
387.813	82.31
388.038	94.31
388.263	86.31
388.488	95.31
388.713	90.31
388.938	90.31
389.163	92.31
389.387	82.31
389.612	76.31
389.837	92.31
390.062	98.31
390.287	80.31
390.512	99.31
390.736	70.31
390.961	90.31
391.186	79.31
391.411	78.31
391.636	90.31
391.86	85.31
392.085	90.31
392.31	71.31
392.534	82.31
392.759	97.31
392.984	95.31
393.208	119.31
393.433	148.31
393.658	121.31
393.882	109.31
394.107	89.31
394.331	83.31
394.556	82.31
394.78	80.31
395.005	82.31
395.229	82.31
395.454	79.31
395.678	81.31
395.903	91.31
396.127	95.31
396.352	92.31
396.576	98.31
396.801	124.31
397.025	133.31
397.249	100.31
397.474	95.31
397.698	81.31
397.922	91.31
398.147	88.31
398.371	91.31
398.595	86.31
398.82	70.31
399.044	92.31
399.268	68.31
399.492	92.31
399.717	70.31
399.941	89.31
400.165	72.31
400.389	80.31
400.613	82.31
400.837	97.31
401.062	85.31
401.286	70.31
401.51	76.31
401.734	96.31
401.958	97.31
402.182	94.31
402.406	96.31
402.63	88.31
402.854	85.31
403.078	86.31
403.302	70.31
403.526	78.31
403.75	64.31
403.974	83.31
404.198	78.31
404.422	88.31
404.645	80.31
404.869	91.31
405.093	82.31
405.317	81.31
405.541	72.31
405.765	82.31
405.988	78.31
406.212	80.31
406.436	87.31
406.66	82.31
406.883	77.31
407.107	84.31
407.331	60.31
407.555	81.31
407.778	84.31
408.002	96.31
408.226	90.31
408.449	78.31
408.673	84.31
408.896	70.31
409.12	74.31
409.344	88.31
409.567	84.31
409.791	89.31
410.014	84.31
410.238	70.31
410.461	95.31
410.685	69.31
410.908	84.31
411.132	80.31
411.355	72.31
411.578	88.31
411.802	79.31
412.025	75.31
412.249	90.31
412.472	82.31
412.695	100.31
412.919	89.31
413.142	78.31
413.365	76.31
413.589	69.31
413.812	84.31
414.035	77.31
414.258	82.31
414.482	81.31
414.705	81.31
414.928	88.31
415.151	76.31
415.374	90.31
415.597	84.31
415.821	82.31
416.044	85.31
416.267	78.31
416.49	88.31
416.713	75.31
416.936	71.31
417.159	88.31
417.382	95.31
417.605	78.31
417.828	87.31
418.051	84.31
418.274	81.31
418.497	92.31
418.72	83.31
418.943	78.31
419.166	80.31
419.389	74.31
419.611	79.31
419.834	82.31
420.057	94.31
420.28	76.31
420.503	98.31
420.726	87.31
420.948	84.31
421.171	79.31
421.394	88.31
421.617	95.31
421.839	83.31
422.062	100.31
422.285	104.31
422.507	122.31
422.73	159.31
422.953	152.31
423.175	101.31
423.398	94.31
423.621	84.31
423.843	93.31
424.066	98.31
424.288	100.31
424.511	78.31
424.733	81.31
424.956	60.31
425.178	78.31
425.401	82.31
425.623	74.31
425.846	84.31
426.068	80.31
426.291	88.31
426.513	93.31
426.735	82.31
426.958	83.31
427.18	89.31
427.402	95.31
427.625	85.31
427.847	84.31
428.069	84.31
428.292	99.31
428.514	81.31
428.736	79.31
428.958	80.31
429.181	93.31
429.403	84.31
429.625	84.31
429.847	83.31
430.069	105.31
430.292	118.31
430.514	108.31
430.736	89.31
430.958	102.31
431.18	68.31
431.402	82.31
431.624	85.31
431.846	81.31
432.068	88.31
432.29	78.31
432.512	86.31
432.734	80.31
432.956	64.31
433.178	81.31
433.4	81.31
433.622	86.31
433.844	87.31
434.066	83.31
434.287	66.31
434.509	81.31
434.731	75.31
434.953	90.31
435.175	67.31
435.397	96.31
435.618	85.31
435.84	90.31
436.062	85.31
436.284	80.31
436.505	85.31
436.727	80.31
436.949	85.31
437.17	84.31
437.392	73.31
437.614	73.31
437.835	73.31
438.057	80.31
438.278	73.31
438.5	88.31
438.721	69.31
438.943	72.31
439.165	88.31
439.386	82.31
439.608	83.31
439.829	92.31
440.05	75.31
440.272	59.31
440.493	80.31
440.715	82.31
440.936	91.31
441.158	86.31
441.379	77.31
441.6	81.31
441.822	78.31
442.043	82.31
442.264	69.31
442.486	74.31
442.707	89.31
442.928	88.31
443.149	89.31
443.371	100.31
443.592	108.31
443.813	91.31
444.034	82.31
444.255	96.31
444.476	68.31
444.698	81.31
444.919	72.31
445.14	155.31
445.361	147.31
445.582	134.31
445.803	108.31
446.024	92.31
446.245	86.31
446.466	90.31
446.687	76.31
446.908	102.31
447.129	70.31
447.35	77.31
447.571	90.31
447.792	82.31
448.013	67.31
448.234	85.31
448.455	81.31
448.675	89.31
448.896	89.31
449.117	90.31
449.338	87.31
449.559	76.31
449.779	87.31
450	86.31
450.221	81.31
450.442	80.31
450.662	69.31
450.883	92.31
451.104	81.31
451.324	70.31
451.545	72.31
451.766	80.31
451.986	75.31
452.207	79.31
452.428	82.31
452.648	82.31
452.869	88.31
453.089	86.31
453.31	72.31
453.53	68.31
453.751	73.31
453.971	69.31
454.192	75.31
454.412	82.31
454.633	75.31
454.853	80.31
455.073	85.31
455.294	81.31
455.514	90.31
455.734	91.31
455.955	78.31
456.175	81.31
456.395	82.31
456.616	84.31
456.836	74.31
457.056	82.31
457.276	71.31
457.497	82.31
457.717	88.31
457.937	88.31
458.157	95.31
458.377	86.31
458.598	104.31
458.818	97.31
459.038	87.31
459.258	77.31
459.478	92.31
459.698	83.31
459.918	68.31
460.138	78.31
460.358	72.31
460.578	110.31
460.798	96.31
461.018	78.31
461.238	88.31
461.458	85.31
461.678	72.31
461.898	89.31
462.118	81.31
462.338	80.31
462.558	71.31
462.777	85.31
462.997	74.31
463.217	70.31
463.437	81.31
463.657	74.31
463.876	71.31
464.096	80.31
464.316	83.31
464.536	91.31
464.755	99.31
464.975	86.31
465.195	66.31
465.414	84.31
465.634	66.31
465.854	81.31
466.073	91.31
466.293	78.31
466.512	75.31
466.732	78.31
466.951	85.31
467.171	80.31
467.391	80.31
467.61	79.31
467.829	81.31
468.049	78.31
468.268	89.31
468.488	81.31
468.707	74.31
468.927	96.31
469.146	84.31
469.365	85.31
469.585	90.31
469.804	84.31
470.023	82.31
470.243	73.31
470.462	80.31
470.681	84.31
470.901	90.31
471.12	84.31
471.339	80.31
471.558	80.31
471.777	89.31
471.997	91.31
472.216	82.31
472.435	81.31
472.654	94.31
472.873	72.31
473.092	85.31
473.311	79.31
473.53	66.31
473.749	85.31
473.968	108.31
474.187	74.31
474.406	68.31
474.625	78.31
474.844	88.31
475.063	90.31
475.282	85.31
475.501	79.31
475.72	81.31
475.939	80.31
476.158	89.31
476.377	73.31
476.596	74.31
476.814	74.31
477.033	73.31
477.252	77.31
477.471	74.31
477.69	89.31
477.908	72.31
478.127	72.31
478.346	80.31
478.564	70.31
478.783	71.31
479.002	83.31
479.22	76.31
479.439	101.31
479.658	82.31
479.876	88.31
480.095	74.31
480.313	93.31
480.532	92.31
480.751	82.31
480.969	98.31
481.188	85.31
481.406	83.31
481.624	74.31
481.843	78.31
482.061	79.31
482.28	77.31
482.498	84.31
482.717	75.31
482.935	86.31
483.153	93.31
483.372	75.31
483.59	85.31
483.808	82.31
484.027	103.31
484.245	94.31
484.463	87.31
484.681	86.31
484.9	85.31
485.118	101.31
485.336	69.31
485.554	93.31
485.772	71.31
485.99	85.31
486.209	95.31
486.427	71.31
486.645	89.31
486.863	90.31
487.081	77.31
487.299	68.31
487.517	78.31
487.735	95.31
487.953	101.31
488.171	89.31
488.389	92.31
488.607	89.31
488.825	69.31
489.043	74.31
489.261	95.31
489.479	73.31
489.696	65.31
489.914	85.31
490.132	71.31
490.35	78.31
490.568	86.31
490.786	88.31
491.003	78.31
491.221	77.31
491.439	84.31
491.657	92.31
491.874	86.31
492.092	81.31
492.31	104.31
492.527	80.31
492.745	88.31
492.963	93.31
493.18	87.31
493.398	74.31
493.615	78.31
493.833	81.31
494.05	69.31
494.268	84.31
494.485	65.31
494.703	80.31
494.92	89.31
495.138	86.31
495.355	79.31
495.573	88.31
495.79	87.31
496.008	88.31
496.225	82.31
496.442	89.31
496.66	95.31
496.877	75.31
497.094	88.31
497.312	88.31
497.529	87.31
497.746	84.31
497.963	87.31
498.181	80.31
498.398	98.31
498.615	98.31
498.832	82.31
499.049	92.31
499.267	87.31
499.484	86.31
499.701	90.31
499.918	79.31
500.135	78.31
500.352	87.31
500.569	78.31
500.786	81.31
501.003	82.31
501.22	85.31
501.437	78.31
501.654	78.31
501.871	80.31
502.088	84.31
502.305	101.31
502.522	81.31
502.739	70.31
502.956	82.31
503.172	89.31
503.389	89.31
503.606	87.31
503.823	86.31
504.04	82.31
504.256	96.31
504.473	103.31
504.69	96.31
504.907	93.31
505.123	91.31
505.34	72.31
505.557	86.31
505.773	86.31
505.99	85.31
506.207	97.31
506.423	88.31
506.64	88.31
506.856	86.31
507.073	88.31
507.289	77.31
507.506	82.31
507.722	79.31
507.939	81.31
508.155	84.31
508.372	88.31
508.588	81.31
508.805	104.31
509.021	72.31
509.238	89.31
509.454	89.31
509.67	89.31
509.887	65.31
510.103	90.31
510.319	84.31
510.536	86.31
510.752	84.31
510.968	71.31
511.184	92.31
511.401	92.31
511.617	89.31
511.833	76.31
512.049	81.31
512.265	84.31
512.481	84.31
512.698	89.31
512.914	94.31
513.13	86.31
513.346	94.31
513.562	85.31
513.778	87.31
513.994	83.31
514.21	82.31
514.426	79.31
514.642	89.31
514.858	100.31
515.074	76.31
515.29	89.31
515.506	84.31
515.721	98.31
515.937	94.31
516.153	98.31
516.369	100.31
516.585	79.31
516.801	94.31
517.016	82.31
517.232	83.31
517.448	94.31
517.664	100.31
517.879	78.31
518.095	99.31
518.311	86.31
518.527	88.31
518.742	82.31
518.958	103.31
519.173	96.31
519.389	89.31
519.605	89.31
