Data from 10100_2_HRD10591_00033.txt Node
Date: Mon Jan 19 14:01:40 EST 2026
User: Yrep
Spectrometer: HR+D1059
Trigger mode: 1
Integration Time (sec): 1.000000E-1
Scans to average: 1
Electric dark correction enabled: true
Nonlinearity correction enabled: false
Boxcar width: 0
XAxis mode: Wavelengths
Number of Pixels in Spectrum: 2048
>>>>>Begin Spectral Data<<<<<
223.165	-24.94
223.4	-24.94
223.635	-24.94
223.869	-16.94
224.104	2.06
224.338	-19.94
224.573	-19.94
224.808	-8.94
225.042	-16.94
225.277	-7.94
225.511	0.06
225.746	15.06
225.98	9.06
226.215	11.06
226.449	25.06
226.683	15.06
226.918	16.06
227.152	22.06
227.387	48.06
227.621	44.06
227.856	47.06
228.09	47.06
228.324	44.06
228.559	49.06
228.793	62.06
229.027	72.06
229.262	71.06
229.496	70.06
229.73	72.06
229.964	53.06
230.199	70.06
230.433	72.06
230.667	64.06
230.901	88.06
231.136	80.06
231.37	70.06
231.604	74.06
231.838	77.06
232.072	78.06
232.306	76.06
232.541	74.06
232.775	91.06
233.009	76.06
233.243	73.06
233.477	78.06
233.711	69.06
233.945	73.06
234.179	79.06
234.413	90.06
234.647	89.06
234.881	70.06
235.115	76.06
235.349	75.06
235.583	89.06
235.817	87.06
236.051	77.06
236.285	73.06
236.519	70.06
236.753	66.06
236.987	69.06
237.221	66.06
237.455	70.06
237.689	67.06
237.922	81.06
238.156	74.06
238.39	79.06
238.624	74.06
238.858	74.06
239.091	73.06
239.325	73.06
239.559	85.06
239.793	68.06
240.027	81.06
240.26	67.06
240.494	68.06
240.728	86.06
240.961	78.06
241.195	79.06
241.429	72.06
241.662	81.06
241.896	68.06
242.13	82.06
242.363	83.06
242.597	87.06
242.83	75.06
243.064	73.06
243.298	71.06
243.531	60.06
243.765	82.06
243.998	72.06
244.232	82.06
244.465	78.06
244.699	71.06
244.932	78.06
245.166	80.06
245.399	77.06
245.633	80.06
245.866	80.06
246.099	94.06
246.333	74.06
246.566	76.06
246.8	73.06
247.033	70.06
247.266	91.06
247.5	83.06
247.733	78.06
247.966	85.06
248.2	89.06
248.433	72.06
248.666	76.06
248.899	78.06
249.133	76.06
249.366	82.06
249.599	86.06
249.832	67.06
250.066	84.06
250.299	79.06
250.532	76.06
250.765	86.06
250.998	86.06
251.231	71.06
251.465	75.06
251.698	70.06
251.931	82.06
252.164	80.06
252.397	85.06
252.63	81.06
252.863	95.06
253.096	61.06
253.329	68.06
253.562	87.06
253.795	92.06
254.028	90.06
254.261	88.06
254.494	82.06
254.727	86.06
254.96	73.06
255.193	90.06
255.426	85.06
255.659	64.06
255.892	78.06
256.124	88.06
256.357	87.06
256.59	78.06
256.823	84.06
257.056	73.06
257.289	73.06
257.521	75.06
257.754	83.06
257.987	69.06
258.22	73.06
258.452	72.06
258.685	79.06
258.918	74.06
259.151	82.06
259.383	89.06
259.616	86.06
259.849	73.06
260.081	89.06
260.314	95.06
260.547	81.06
260.779	86.06
261.012	82.06
261.244	84.06
261.477	77.06
261.71	82.06
261.942	86.06
262.175	77.06
262.407	76.06
262.64	74.06
262.872	73.06
263.105	89.06
263.337	80.06
263.57	84.06
263.802	87.06
264.035	80.06
264.267	70.06
264.499	89.06
264.732	81.06
264.964	92.06
265.197	75.06
265.429	81.06
265.661	80.06
265.894	84.06
266.126	88.06
266.358	79.06
266.591	95.06
266.823	89.06
267.055	80.06
267.287	82.06
267.52	74.06
267.752	77.06
267.984	79.06
268.216	89.06
268.448	78.06
268.681	94.06
268.913	81.06
269.145	78.06
269.377	74.06
269.609	67.06
269.841	93.06
270.073	88.06
270.306	82.06
270.538	76.06
270.77	87.06
271.002	80.06
271.234	96.06
271.466	71.06
271.698	79.06
271.93	82.06
272.162	87.06
272.394	88.06
272.626	93.06
272.858	88.06
273.09	84.06
273.322	102.06
273.553	80.06
273.785	82.06
274.017	78.06
274.249	86.06
274.481	89.06
274.713	69.06
274.945	90.06
275.176	72.06
275.408	78.06
275.64	86.06
275.872	68.06
276.104	80.06
276.335	82.06
276.567	76.06
276.799	88.06
277.031	68.06
277.262	89.06
277.494	80.06
277.726	64.06
277.957	75.06
278.189	78.06
278.421	88.06
278.652	76.06
278.884	76.06
279.115	88.06
279.347	84.06
279.579	91.06
279.81	82.06
280.042	82.06
280.273	74.06
280.505	74.06
280.736	77.06
280.968	98.06
281.199	105.06
281.431	100.06
281.662	82.06
281.894	76.06
282.125	82.06
282.356	80.06
282.588	88.06
282.819	94.06
283.051	82.06
283.282	89.06
283.513	79.06
283.745	93.06
283.976	84.06
284.207	96.06
284.439	95.06
284.67	81.06
284.901	80.06
285.132	79.06
285.364	85.06
285.595	93.06
285.826	78.06
286.057	73.06
286.288	74.06
286.52	76.06
286.751	72.06
286.982	97.06
287.213	85.06
287.444	66.06
287.675	71.06
287.906	96.06
288.138	91.06
288.369	80.06
288.6	70.06
288.831	66.06
289.062	91.06
289.293	70.06
289.524	80.06
289.755	84.06
289.986	84.06
290.217	82.06
290.448	86.06
290.679	84.06
290.91	70.06
291.141	88.06
291.371	77.06
291.602	80.06
291.833	84.06
292.064	73.06
292.295	84.06
292.526	72.06
292.757	73.06
292.987	78.06
293.218	82.06
293.449	74.06
293.68	73.06
293.91	84.06
294.141	82.06
294.372	66.06
294.603	83.06
294.833	86.06
295.064	65.06
295.295	80.06
295.525	81.06
295.756	93.06
295.987	74.06
296.217	80.06
296.448	82.06
296.679	92.06
296.909	81.06
297.14	96.06
297.37	78.06
297.601	96.06
297.831	83.06
298.062	90.06
298.292	91.06
298.523	90.06
298.753	82.06
298.984	77.06
299.214	68.06
299.445	80.06
299.675	78.06
299.905	80.06
300.136	81.06
300.366	81.06
300.597	89.06
300.827	80.06
301.057	84.06
301.288	70.06
301.518	69.06
301.748	82.06
301.979	88.06
302.209	77.06
302.439	88.06
302.669	65.06
302.9	90.06
303.13	92.06
303.36	75.06
303.59	82.06
303.82	91.06
304.051	80.06
304.281	89.06
304.511	89.06
304.741	90.06
304.971	85.06
305.201	79.06
305.431	71.06
305.661	76.06
305.891	77.06
306.121	87.06
306.352	86.06
306.582	84.06
306.812	83.06
307.042	98.06
307.272	84.06
307.502	62.06
307.731	94.06
307.961	89.06
308.191	93.06
308.421	89.06
308.651	93.06
308.881	81.06
309.111	87.06
309.341	83.06
309.571	69.06
309.8	84.06
310.03	65.06
310.26	68.06
310.49	89.06
310.72	66.06
310.949	84.06
311.179	80.06
311.409	86.06
311.639	84.06
311.868	87.06
312.098	78.06
312.328	87.06
312.557	74.06
312.787	92.06
313.017	80.06
313.246	92.06
313.476	82.06
313.706	90.06
313.935	85.06
314.165	73.06
314.394	75.06
314.624	88.06
314.853	80.06
315.083	88.06
315.312	80.06
315.542	93.06
315.771	96.06
316.001	86.06
316.23	86.06
316.46	81.06
316.689	102.06
316.919	82.06
317.148	93.06
317.377	90.06
317.607	91.06
317.836	82.06
318.065	85.06
318.295	98.06
318.524	83.06
318.753	79.06
318.983	79.06
319.212	64.06
319.441	82.06
319.67	74.06
319.9	81.06
320.129	69.06
320.358	88.06
320.587	84.06
320.816	91.06
321.046	83.06
321.275	92.06
321.504	76.06
321.733	79.06
321.962	91.06
322.191	84.06
322.42	76.06
322.649	87.06
322.878	87.06
323.108	78.06
323.337	73.06
323.566	85.06
323.795	84.06
324.024	97.06
324.253	89.06
324.482	71.06
324.71	73.06
324.939	87.06
325.168	86.06
325.397	86.06
325.626	84.06
325.855	78.06
326.084	96.06
326.313	84.06
326.542	75.06
326.77	88.06
326.999	93.06
327.228	75.06
327.457	83.06
327.686	91.06
327.914	81.06
328.143	89.06
328.372	73.06
328.6	82.06
328.829	84.06
329.058	92.06
329.287	65.06
329.515	73.06
329.744	95.06
329.972	84.06
330.201	85.06
330.43	97.06
330.658	75.06
330.887	93.06
331.115	78.06
331.344	74.06
331.572	75.06
331.801	95.06
332.03	68.06
332.258	74.06
332.486	81.06
332.715	84.06
332.943	81.06
333.172	77.06
333.4	90.06
333.629	93.06
333.857	92.06
334.085	63.06
334.314	98.06
334.542	97.06
334.771	83.06
334.999	84.06
335.227	86.06
335.455	86.06
335.684	74.06
335.912	86.06
336.14	81.06
336.369	94.06
336.597	66.06
336.825	71.06
337.053	84.06
337.281	90.06
337.51	94.06
337.738	108.06
337.966	78.06
338.194	86.06
338.422	92.06
338.65	82.06
338.878	70.06
339.106	97.06
339.334	96.06
339.562	80.06
339.79	92.06
340.018	78.06
340.246	63.06
340.474	75.06
340.702	91.06
340.93	88.06
341.158	74.06
341.386	82.06
341.614	82.06
341.842	70.06
342.07	84.06
342.298	77.06
342.526	75.06
342.754	84.06
342.981	82.06
343.209	92.06
343.437	81.06
343.665	76.06
343.893	73.06
344.12	81.06
344.348	82.06
344.576	80.06
344.804	73.06
345.031	73.06
345.259	84.06
345.487	96.06
345.714	86.06
345.942	83.06
346.17	87.06
346.397	85.06
346.625	93.06
346.853	94.06
347.08	88.06
347.308	80.06
347.535	86.06
347.763	77.06
347.99	79.06
348.218	80.06
348.445	87.06
348.673	82.06
348.9	83.06
349.128	88.06
349.355	87.06
349.583	88.06
349.81	89.06
350.037	82.06
350.265	86.06
350.492	93.06
350.72	100.06
350.947	90.06
351.174	91.06
351.402	87.06
351.629	80.06
351.856	82.06
352.083	92.06
352.311	81.06
352.538	86.06
352.765	72.06
352.992	76.06
353.22	82.06
353.447	75.06
353.674	72.06
353.901	88.06
354.128	82.06
354.355	80.06
354.583	81.06
354.81	79.06
355.037	91.06
355.264	81.06
355.491	85.06
355.718	71.06
355.945	92.06
356.172	78.06
356.399	72.06
356.626	80.06
356.853	78.06
357.08	77.06
357.307	94.06
357.534	80.06
357.761	74.06
357.988	87.06
358.215	81.06
358.441	87.06
358.668	86.06
358.895	88.06
359.122	89.06
359.349	79.06
359.576	86.06
359.802	86.06
360.029	75.06
360.256	85.06
360.483	90.06
360.709	75.06
360.936	73.06
361.163	97.06
361.39	64.06
361.616	78.06
361.843	88.06
362.07	75.06
362.296	75.06
362.523	88.06
362.749	75.06
362.976	87.06
363.203	93.06
363.429	72.06
363.656	88.06
363.882	67.06
364.109	67.06
364.335	92.06
364.562	84.06
364.788	97.06
365.015	88.06
365.241	84.06
365.468	89.06
365.694	93.06
365.92	85.06
366.147	87.06
366.373	81.06
366.599	90.06
366.826	79.06
367.052	99.06
367.278	89.06
367.505	68.06
367.731	92.06
367.957	87.06
368.184	96.06
368.41	86.06
368.636	73.06
368.862	90.06
369.089	89.06
369.315	68.06
369.541	82.06
369.767	78.06
369.993	88.06
370.219	86.06
370.445	71.06
370.672	95.06
370.898	83.06
371.124	100.06
371.35	79.06
371.576	84.06
371.802	80.06
372.028	84.06
372.254	78.06
372.48	94.06
372.706	81.06
372.932	95.06
373.158	77.06
373.384	80.06
373.61	73.06
373.835	78.06
374.061	92.06
374.287	80.06
374.513	80.06
374.739	74.06
374.965	88.06
375.191	94.06
375.416	96.06
375.642	84.06
375.868	88.06
376.094	79.06
376.319	81.06
376.545	91.06
376.771	72.06
376.997	89.06
377.222	81.06
377.448	86.06
377.674	84.06
377.899	79.06
378.125	64.06
378.35	89.06
378.576	84.06
378.802	84.06
379.027	82.06
379.253	90.06
379.478	71.06
379.704	80.06
379.929	70.06
380.155	65.06
380.38	87.06
380.606	88.06
380.831	78.06
381.057	89.06
381.282	84.06
381.507	72.06
381.733	83.06
381.958	80.06
382.184	81.06
382.409	82.06
382.634	93.06
382.86	82.06
383.085	87.06
383.31	90.06
383.535	78.06
383.761	90.06
383.986	79.06
384.211	89.06
384.436	88.06
384.662	86.06
384.887	79.06
385.112	80.06
385.337	79.06
385.562	84.06
385.787	90.06
386.013	85.06
386.238	84.06
386.463	82.06
386.688	99.06
386.913	92.06
387.138	67.06
387.363	82.06
387.588	76.06
387.813	85.06
388.038	86.06
388.263	73.06
388.488	66.06
388.713	79.06
388.938	82.06
389.163	79.06
389.387	74.06
389.612	72.06
389.837	86.06
390.062	88.06
390.287	91.06
390.512	78.06
390.736	72.06
390.961	82.06
391.186	74.06
391.411	82.06
391.636	82.06
391.86	86.06
392.085	85.06
392.31	92.06
392.534	88.06
392.759	97.06
392.984	82.06
393.208	131.06
393.433	147.06
393.658	130.06
393.882	95.06
394.107	84.06
394.331	80.06
394.556	89.06
394.78	76.06
395.005	90.06
395.229	84.06
395.454	88.06
395.678	92.06
395.903	93.06
396.127	97.06
396.352	93.06
396.576	91.06
396.801	125.06
397.025	147.06
397.249	100.06
397.474	89.06
397.698	80.06
397.922	95.06
398.147	95.06
398.371	80.06
398.595	96.06
398.82	91.06
399.044	81.06
399.268	76.06
399.492	66.06
399.717	72.06
399.941	83.06
400.165	69.06
400.389	79.06
400.613	87.06
400.837	70.06
401.062	76.06
401.286	67.06
401.51	81.06
401.734	73.06
401.958	66.06
402.182	95.06
402.406	73.06
402.63	84.06
402.854	94.06
403.078	86.06
403.302	71.06
403.526	74.06
403.75	83.06
403.974	72.06
404.198	90.06
404.422	84.06
404.645	79.06
404.869	85.06
405.093	74.06
405.317	66.06
405.541	97.06
405.765	78.06
405.988	81.06
406.212	75.06
406.436	79.06
406.66	88.06
406.883	105.06
407.107	86.06
407.331	84.06
407.555	81.06
407.778	87.06
408.002	88.06
408.226	93.06
408.449	97.06
408.673	81.06
408.896	84.06
409.12	76.06
409.344	66.06
409.567	80.06
409.791	73.06
410.014	80.06
410.238	87.06
410.461	74.06
410.685	70.06
410.908	74.06
411.132	73.06
411.355	78.06
411.578	84.06
411.802	88.06
412.025	77.06
412.249	70.06
412.472	82.06
412.695	72.06
412.919	77.06
413.142	80.06
413.365	64.06
413.589	94.06
413.812	78.06
414.035	87.06
414.258	89.06
414.482	80.06
414.705	80.06
414.928	61.06
415.151	79.06
415.374	74.06
415.597	87.06
415.821	64.06
416.044	70.06
416.267	71.06
416.49	80.06
416.713	78.06
416.936	72.06
417.159	82.06
417.382	89.06
417.605	72.06
417.828	74.06
418.051	82.06
418.274	87.06
418.497	92.06
418.72	96.06
418.943	83.06
419.166	76.06
419.389	85.06
419.611	87.06
419.834	75.06
420.057	84.06
420.28	72.06
420.503	72.06
420.726	54.06
420.948	73.06
421.171	98.06
421.394	84.06
421.617	81.06
421.839	98.06
422.062	89.06
422.285	97.06
422.507	108.06
422.73	152.06
422.953	137.06
423.175	98.06
423.398	93.06
423.621	82.06
423.843	85.06
424.066	90.06
424.288	75.06
424.511	65.06
424.733	89.06
424.956	79.06
425.178	82.06
425.401	74.06
425.623	90.06
425.846	86.06
426.068	62.06
426.291	88.06
426.513	96.06
426.735	80.06
426.958	80.06
427.18	95.06
427.402	86.06
427.625	68.06
427.847	82.06
428.069	92.06
428.292	113.06
428.514	101.06
428.736	100.06
428.958	91.06
429.181	90.06
429.403	88.06
429.625	75.06
429.847	89.06
430.069	96.06
430.292	105.06
430.514	95.06
430.736	92.06
430.958	106.06
431.18	80.06
431.402	80.06
431.624	81.06
431.846	96.06
432.068	90.06
432.29	82.06
432.512	90.06
432.734	81.06
432.956	86.06
433.178	67.06
433.4	77.06
433.622	80.06
433.844	86.06
434.066	81.06
434.287	86.06
434.509	88.06
434.731	72.06
434.953	82.06
435.175	80.06
435.397	87.06
435.618	73.06
435.84	89.06
436.062	82.06
436.284	78.06
436.505	86.06
436.727	86.06
436.949	83.06
437.17	74.06
437.392	97.06
437.614	94.06
437.835	72.06
438.057	97.06
438.278	78.06
438.5	89.06
438.721	85.06
438.943	88.06
439.165	79.06
439.386	91.06
439.608	90.06
439.829	78.06
440.05	82.06
440.272	72.06
440.493	86.06
440.715	81.06
440.936	73.06
441.158	80.06
441.379	82.06
441.6	91.06
441.822	88.06
442.043	78.06
442.264	74.06
442.486	99.06
442.707	76.06
442.928	84.06
443.149	70.06
443.371	110.06
443.592	97.06
443.813	104.06
444.034	77.06
444.255	69.06
444.476	90.06
444.698	81.06
444.919	87.06
445.14	158.06
445.361	119.06
445.582	107.06
445.803	96.06
446.024	85.06
446.245	85.06
446.466	88.06
446.687	69.06
446.908	80.06
447.129	74.06
447.35	81.06
447.571	66.06
447.792	82.06
448.013	69.06
448.234	69.06
448.455	92.06
448.675	79.06
448.896	85.06
449.117	67.06
449.338	60.06
449.559	87.06
449.779	64.06
450	77.06
450.221	72.06
450.442	81.06
450.662	72.06
450.883	81.06
451.104	81.06
451.324	99.06
451.545	89.06
451.766	73.06
451.986	91.06
452.207	79.06
452.428	78.06
452.648	77.06
452.869	79.06
453.089	80.06
453.31	65.06
453.53	85.06
453.751	78.06
453.971	86.06
454.192	78.06
454.412	68.06
454.633	82.06
454.853	88.06
455.073	92.06
455.294	81.06
455.514	75.06
455.734	71.06
455.955	82.06
456.175	85.06
456.395	81.06
456.616	82.06
456.836	88.06
457.056	98.06
457.276	71.06
457.497	87.06
457.717	73.06
457.937	82.06
458.157	84.06
458.377	82.06
458.598	73.06
458.818	92.06
459.038	84.06
459.258	89.06
459.478	92.06
459.698	88.06
459.918	87.06
460.138	72.06
460.358	81.06
460.578	88.06
460.798	94.06
461.018	89.06
461.238	78.06
461.458	68.06
461.678	84.06
461.898	76.06
462.118	70.06
462.338	77.06
462.558	84.06
462.777	84.06
462.997	95.06
463.217	100.06
463.437	77.06
463.657	76.06
463.876	65.06
464.096	80.06
464.316	92.06
464.536	76.06
464.755	80.06
464.975	81.06
465.195	81.06
465.414	75.06
465.634	89.06
465.854	71.06
466.073	81.06
466.293	75.06
466.512	64.06
466.732	78.06
466.951	90.06
467.171	81.06
467.391	71.06
467.61	83.06
467.829	82.06
468.049	85.06
468.268	70.06
468.488	90.06
468.707	88.06
468.927	86.06
469.146	80.06
469.365	94.06
469.585	82.06
469.804	77.06
470.023	80.06
470.243	72.06
470.462	64.06
470.681	75.06
470.901	75.06
471.12	72.06
471.339	78.06
471.558	92.06
471.777	92.06
471.997	88.06
472.216	80.06
472.435	73.06
472.654	82.06
472.873	94.06
473.092	93.06
473.311	72.06
473.53	76.06
473.749	71.06
473.968	98.06
474.187	87.06
474.406	82.06
474.625	79.06
474.844	82.06
475.063	74.06
475.282	83.06
475.501	81.06
475.72	78.06
475.939	80.06
476.158	71.06
476.377	82.06
476.596	91.06
476.814	73.06
477.033	99.06
477.252	73.06
477.471	83.06
477.69	92.06
477.908	79.06
478.127	79.06
478.346	92.06
478.564	77.06
478.783	66.06
479.002	80.06
479.22	75.06
479.439	92.06
479.658	78.06
479.876	84.06
480.095	72.06
480.313	81.06
480.532	85.06
480.751	74.06
480.969	77.06
481.188	84.06
481.406	82.06
481.624	78.06
481.843	90.06
482.061	82.06
482.28	87.06
482.498	78.06
482.717	89.06
482.935	89.06
483.153	79.06
483.372	72.06
483.59	80.06
483.808	72.06
484.027	77.06
484.245	93.06
484.463	91.06
484.681	83.06
484.9	83.06
485.118	96.06
485.336	69.06
485.554	90.06
485.772	82.06
485.99	79.06
486.209	80.06
486.427	87.06
486.645	85.06
486.863	82.06
487.081	71.06
487.299	70.06
487.517	73.06
487.735	88.06
487.953	88.06
488.171	92.06
488.389	70.06
488.607	62.06
488.825	70.06
489.043	82.06
489.261	84.06
489.479	81.06
489.696	91.06
489.914	92.06
490.132	83.06
490.35	91.06
490.568	89.06
490.786	78.06
491.003	76.06
491.221	79.06
491.439	72.06
491.657	83.06
491.874	88.06
492.092	94.06
492.31	78.06
492.527	69.06
492.745	73.06
492.963	80.06
493.18	76.06
493.398	90.06
493.615	94.06
493.833	78.06
494.05	85.06
494.268	83.06
494.485	74.06
494.703	99.06
494.92	83.06
495.138	80.06
495.355	80.06
495.573	71.06
495.79	74.06
496.008	89.06
496.225	83.06
496.442	79.06
496.66	80.06
496.877	93.06
497.094	94.06
497.312	86.06
497.529	75.06
497.746	76.06
497.963	74.06
498.181	88.06
498.398	78.06
498.615	81.06
498.832	92.06
499.049	64.06
499.267	78.06
499.484	86.06
499.701	74.06
499.918	86.06
500.135	76.06
500.352	72.06
500.569	78.06
500.786	84.06
501.003	83.06
501.22	84.06
501.437	82.06
501.654	86.06
501.871	87.06
502.088	80.06
502.305	85.06
502.522	80.06
502.739	90.06
502.956	84.06
503.172	81.06
503.389	86.06
503.606	94.06
503.823	88.06
504.04	98.06
504.256	84.06
504.473	86.06
504.69	90.06
504.907	93.06
505.123	74.06
505.34	75.06
505.557	72.06
505.773	78.06
505.99	86.06
506.207	90.06
506.423	79.06
506.64	70.06
506.856	86.06
507.073	81.06
507.289	89.06
507.506	85.06
507.722	85.06
507.939	93.06
508.155	81.06
508.372	68.06
508.588	76.06
508.805	78.06
509.021	84.06
509.238	78.06
509.454	84.06
509.67	79.06
509.887	72.06
510.103	76.06
510.319	79.06
510.536	79.06
510.752	74.06
510.968	88.06
511.184	97.06
511.401	78.06
511.617	86.06
511.833	88.06
512.049	87.06
512.265	97.06
512.481	99.06
512.698	88.06
512.914	79.06
513.13	78.06
513.346	78.06
513.562	77.06
513.778	85.06
513.994	81.06
514.21	72.06
514.426	82.06
514.642	81.06
514.858	70.06
515.074	81.06
515.29	76.06
515.506	81.06
515.721	79.06
515.937	93.06
516.153	86.06
516.369	73.06
516.585	93.06
516.801	86.06
517.016	84.06
517.232	93.06
517.448	88.06
517.664	81.06
517.879	90.06
518.095	81.06
518.311	85.06
518.527	79.06
518.742	94.06
518.958	84.06
519.173	88.06
519.389	96.06
519.605	86.06
519.82	76.06
520.036	88.06
