Data from 10100_2_HRD10591_00035.txt Node
Date: Mon Jan 19 14:01:41 EST 2026
User: Yrep
Spectrometer: HR+D1059
Trigger mode: 1
Integration Time (sec): 1.000000E-1
Scans to average: 1
Electric dark correction enabled: true
Nonlinearity correction enabled: false
Boxcar width: 0
XAxis mode: Wavelengths
Number of Pixels in Spectrum: 2048
>>>>>Begin Spectral Data<<<<<
223.165	-7.69
223.4	-7.69
223.635	-7.69
223.869	-19.69
224.104	-18.69
224.338	-30.69
224.573	-16.69
224.808	3.31
225.042	-4.69
225.277	-15.69
225.511	-9.69
225.746	6.31
225.98	10.31
226.215	7.31
226.449	28.31
226.683	12.31
226.918	18.31
227.152	37.31
227.387	36.31
227.621	23.31
227.856	42.31
228.09	46.31
228.324	49.31
228.559	54.31
228.793	49.31
229.027	60.31
229.262	53.31
229.496	64.31
229.73	63.31
229.964	66.31
230.199	70.31
230.433	71.31
230.667	90.31
230.901	75.31
231.136	57.31
231.37	85.31
231.604	66.31
231.838	86.31
232.072	75.31
232.306	66.31
232.541	77.31
232.775	84.31
233.009	88.31
233.243	74.31
233.477	73.31
233.711	75.31
233.945	77.31
234.179	74.31
234.413	95.31
234.647	65.31
234.881	66.31
235.115	53.31
235.349	69.31
235.583	93.31
235.817	77.31
236.051	77.31
236.285	76.31
236.519	69.31
236.753	75.31
236.987	78.31
237.221	69.31
237.455	67.31
237.689	77.31
237.922	63.31
238.156	63.31
238.39	69.31
238.624	64.31
238.858	77.31
239.091	81.31
239.325	78.31
239.559	85.31
239.793	65.31
240.027	83.31
240.26	74.31
240.494	73.31
240.728	63.31
240.961	63.31
241.195	63.31
241.429	76.31
241.662	75.31
241.896	70.31
242.13	61.31
242.363	74.31
242.597	85.31
242.83	66.31
243.064	69.31
243.298	73.31
243.531	79.31
243.765	80.31
243.998	70.31
244.232	82.31
244.465	57.31
244.699	77.31
244.932	68.31
245.166	85.31
245.399	70.31
245.633	73.31
245.866	74.31
246.099	76.31
246.333	68.31
246.566	66.31
246.8	74.31
247.033	63.31
247.266	75.31
247.5	76.31
247.733	76.31
247.966	68.31
248.2	84.31
248.433	91.31
248.666	70.31
248.899	79.31
249.133	47.31
249.366	79.31
249.599	62.31
249.832	77.31
250.066	82.31
250.299	73.31
250.532	69.31
250.765	86.31
250.998	80.31
251.231	86.31
251.465	81.31
251.698	68.31
251.931	83.31
252.164	77.31
252.397	74.31
252.63	94.31
252.863	69.31
253.096	58.31
253.329	76.31
253.562	95.31
253.795	71.31
254.028	95.31
254.261	69.31
254.494	78.31
254.727	63.31
254.96	82.31
255.193	75.31
255.426	86.31
255.659	86.31
255.892	80.31
256.124	81.31
256.357	72.31
256.59	87.31
256.823	65.31
257.056	85.31
257.289	81.31
257.521	77.31
257.754	93.31
257.987	69.31
258.22	91.31
258.452	77.31
258.685	84.31
258.918	67.31
259.151	71.31
259.383	69.31
259.616	66.31
259.849	77.31
260.081	81.31
260.314	70.31
260.547	78.31
260.779	86.31
261.012	85.31
261.244	83.31
261.477	84.31
261.71	77.31
261.942	75.31
262.175	77.31
262.407	86.31
262.64	75.31
262.872	63.31
263.105	80.31
263.337	77.31
263.57	86.31
263.802	75.31
264.035	84.31
264.267	77.31
264.499	70.31
264.732	81.31
264.964	66.31
265.197	86.31
265.429	87.31
265.661	71.31
265.894	68.31
266.126	76.31
266.358	79.31
266.591	80.31
266.823	73.31
267.055	75.31
267.287	82.31
267.52	78.31
267.752	68.31
267.984	80.31
268.216	85.31
268.448	82.31
268.681	79.31
268.913	74.31
269.145	80.31
269.377	73.31
269.609	79.31
269.841	77.31
270.073	80.31
270.306	73.31
270.538	83.31
270.77	78.31
271.002	66.31
271.234	73.31
271.466	76.31
271.698	89.31
271.93	85.31
272.162	79.31
272.394	86.31
272.626	70.31
272.858	74.31
273.09	69.31
273.322	73.31
273.553	84.31
273.785	81.31
274.017	69.31
274.249	80.31
274.481	69.31
274.713	77.31
274.945	94.31
275.176	85.31
275.408	85.31
275.64	82.31
275.872	70.31
276.104	84.31
276.335	87.31
276.567	69.31
276.799	73.31
277.031	73.31
277.262	80.31
277.494	80.31
277.726	72.31
277.957	78.31
278.189	81.31
278.421	92.31
278.652	77.31
278.884	76.31
279.115	87.31
279.347	78.31
279.579	90.31
279.81	69.31
280.042	66.31
280.273	82.31
280.505	87.31
280.736	78.31
280.968	68.31
281.199	82.31
281.431	88.31
281.662	80.31
281.894	66.31
282.125	84.31
282.356	75.31
282.588	91.31
282.819	87.31
283.051	80.31
283.282	85.31
283.513	94.31
283.745	72.31
283.976	76.31
284.207	76.31
284.439	85.31
284.67	79.31
284.901	71.31
285.132	78.31
285.364	81.31
285.595	77.31
285.826	85.31
286.057	83.31
286.288	89.31
286.52	80.31
286.751	76.31
286.982	74.31
287.213	83.31
287.444	80.31
287.675	83.31
287.906	75.31
288.138	79.31
288.369	75.31
288.6	90.31
288.831	94.31
289.062	74.31
289.293	82.31
289.524	80.31
289.755	82.31
289.986	77.31
290.217	97.31
290.448	78.31
290.679	85.31
290.91	72.31
291.141	80.31
291.371	80.31
291.602	71.31
291.833	75.31
292.064	76.31
292.295	87.31
292.526	87.31
292.757	82.31
292.987	80.31
293.218	73.31
293.449	80.31
293.68	78.31
293.91	87.31
294.141	78.31
294.372	85.31
294.603	81.31
294.833	79.31
295.064	83.31
295.295	79.31
295.525	83.31
295.756	75.31
295.987	77.31
296.217	74.31
296.448	81.31
296.679	83.31
296.909	75.31
297.14	81.31
297.37	78.31
297.601	77.31
297.831	79.31
298.062	87.31
298.292	86.31
298.523	81.31
298.753	78.31
298.984	78.31
299.214	77.31
299.445	87.31
299.675	91.31
299.905	105.31
300.136	97.31
300.366	82.31
300.597	70.31
300.827	79.31
301.057	79.31
301.288	77.31
301.518	80.31
301.748	83.31
301.979	85.31
302.209	79.31
302.439	75.31
302.669	90.31
302.9	81.31
303.13	87.31
303.36	83.31
303.59	84.31
303.82	83.31
304.051	77.31
304.281	67.31
304.511	85.31
304.741	97.31
304.971	95.31
305.201	94.31
305.431	86.31
305.661	85.31
305.891	80.31
306.121	87.31
306.352	79.31
306.582	86.31
306.812	88.31
307.042	82.31
307.272	90.31
307.502	81.31
307.731	82.31
307.961	80.31
308.191	75.31
308.421	69.31
308.651	85.31
308.881	89.31
309.111	77.31
309.341	91.31
309.571	85.31
309.8	89.31
310.03	84.31
310.26	98.31
310.49	79.31
310.72	82.31
310.949	76.31
311.179	84.31
311.409	86.31
311.639	77.31
311.868	83.31
312.098	76.31
312.328	65.31
312.557	61.31
312.787	82.31
313.017	85.31
313.246	81.31
313.476	88.31
313.706	83.31
313.935	74.31
314.165	69.31
314.394	109.31
314.624	83.31
314.853	80.31
315.083	82.31
315.312	56.31
315.542	90.31
315.771	82.31
316.001	91.31
316.23	83.31
316.46	101.31
316.689	67.31
316.919	75.31
317.148	79.31
317.377	85.31
317.607	83.31
317.836	75.31
318.065	79.31
318.295	81.31
318.524	89.31
318.753	90.31
318.983	90.31
319.212	82.31
319.441	76.31
319.67	94.31
319.9	81.31
320.129	91.31
320.358	78.31
320.587	59.31
320.816	65.31
321.046	81.31
321.275	74.31
321.504	91.31
321.733	79.31
321.962	81.31
322.191	78.31
322.42	90.31
322.649	78.31
322.878	88.31
323.108	90.31
323.337	82.31
323.566	85.31
323.795	91.31
324.024	92.31
324.253	99.31
324.482	86.31
324.71	84.31
324.939	82.31
325.168	77.31
325.397	79.31
325.626	85.31
325.855	81.31
326.084	89.31
326.313	88.31
326.542	101.31
326.77	76.31
326.999	78.31
327.228	89.31
327.457	79.31
327.686	86.31
327.914	85.31
328.143	85.31
328.372	76.31
328.6	81.31
328.829	91.31
329.058	68.31
329.287	76.31
329.515	73.31
329.744	73.31
329.972	82.31
330.201	87.31
330.43	79.31
330.658	89.31
330.887	67.31
331.115	74.31
331.344	83.31
331.572	79.31
331.801	65.31
332.03	79.31
332.258	91.31
332.486	79.31
332.715	101.31
332.943	81.31
333.172	93.31
333.4	81.31
333.629	68.31
333.857	79.31
334.085	88.31
334.314	71.31
334.542	78.31
334.771	79.31
334.999	86.31
335.227	88.31
335.455	86.31
335.684	79.31
335.912	79.31
336.14	79.31
336.369	66.31
336.597	77.31
336.825	77.31
337.053	87.31
337.281	82.31
337.51	82.31
337.738	84.31
337.966	75.31
338.194	71.31
338.422	97.31
338.65	79.31
338.878	78.31
339.106	85.31
339.334	72.31
339.562	76.31
339.79	77.31
340.018	63.31
340.246	77.31
340.474	98.31
340.702	74.31
340.93	92.31
341.158	69.31
341.386	78.31
341.614	85.31
341.842	85.31
342.07	76.31
342.298	85.31
342.526	82.31
342.754	78.31
342.981	80.31
343.209	83.31
343.437	101.31
343.665	80.31
343.893	79.31
344.12	78.31
344.348	88.31
344.576	75.31
344.804	82.31
345.031	80.31
345.259	75.31
345.487	82.31
345.714	76.31
345.942	79.31
346.17	66.31
346.397	75.31
346.625	84.31
346.853	83.31
347.08	75.31
347.308	82.31
347.535	85.31
347.763	85.31
347.99	56.31
348.218	70.31
348.445	77.31
348.673	80.31
348.9	77.31
349.128	81.31
349.355	69.31
349.583	78.31
349.81	83.31
350.037	76.31
350.265	87.31
350.492	73.31
350.72	84.31
350.947	78.31
351.174	67.31
351.402	70.31
351.629	67.31
351.856	89.31
352.083	72.31
352.311	74.31
352.538	63.31
352.765	74.31
352.992	86.31
353.22	87.31
353.447	59.31
353.674	80.31
353.901	85.31
354.128	78.31
354.355	72.31
354.583	81.31
354.81	83.31
355.037	79.31
355.264	79.31
355.491	79.31
355.718	78.31
355.945	74.31
356.172	80.31
356.399	80.31
356.626	73.31
356.853	73.31
357.08	84.31
357.307	81.31
357.534	72.31
357.761	88.31
357.988	83.31
358.215	70.31
358.441	89.31
358.668	76.31
358.895	88.31
359.122	77.31
359.349	73.31
359.576	89.31
359.802	68.31
360.029	75.31
360.256	75.31
360.483	76.31
360.709	93.31
360.936	97.31
361.163	80.31
361.39	82.31
361.616	89.31
361.843	67.31
362.07	89.31
362.296	71.31
362.523	89.31
362.749	98.31
362.976	93.31
363.203	94.31
363.429	88.31
363.656	83.31
363.882	77.31
364.109	88.31
364.335	90.31
364.562	78.31
364.788	80.31
365.015	96.31
365.241	72.31
365.468	82.31
365.694	67.31
365.92	89.31
366.147	89.31
366.373	76.31
366.599	83.31
366.826	77.31
367.052	80.31
367.278	83.31
367.505	71.31
367.731	88.31
367.957	91.31
368.184	93.31
368.41	67.31
368.636	69.31
368.862	86.31
369.089	89.31
369.315	75.31
369.541	77.31
369.767	77.31
369.993	80.31
370.219	83.31
370.445	78.31
370.672	86.31
370.898	71.31
371.124	80.31
371.35	75.31
371.576	63.31
371.802	84.31
372.028	96.31
372.254	71.31
372.48	77.31
372.706	61.31
372.932	71.31
373.158	71.31
373.384	79.31
373.61	89.31
373.835	71.31
374.061	83.31
374.287	84.31
374.513	76.31
374.739	71.31
374.965	78.31
375.191	82.31
375.416	74.31
375.642	84.31
375.868	86.31
376.094	89.31
376.319	65.31
376.545	73.31
376.771	75.31
376.997	76.31
377.222	71.31
377.448	82.31
377.674	73.31
377.899	68.31
378.125	74.31
378.35	82.31
378.576	75.31
378.802	70.31
379.027	77.31
379.253	85.31
379.478	86.31
379.704	79.31
379.929	89.31
380.155	79.31
380.38	72.31
380.606	67.31
380.831	70.31
381.057	71.31
381.282	95.31
381.507	71.31
381.733	89.31
381.958	72.31
382.184	87.31
382.409	76.31
382.634	75.31
382.86	75.31
383.085	79.31
383.31	73.31
383.535	77.31
383.761	78.31
383.986	87.31
384.211	88.31
384.436	87.31
384.662	91.31
384.887	85.31
385.112	89.31
385.337	77.31
385.562	87.31
385.787	75.31
386.013	53.31
386.238	87.31
386.463	77.31
386.688	97.31
386.913	83.31
387.138	53.31
387.363	83.31
387.588	86.31
387.813	88.31
388.038	71.31
388.263	82.31
388.488	81.31
388.713	90.31
388.938	83.31
389.163	73.31
389.387	84.31
389.612	78.31
389.837	85.31
390.062	85.31
390.287	66.31
390.512	73.31
390.736	79.31
390.961	82.31
391.186	87.31
391.411	80.31
391.636	70.31
391.86	75.31
392.085	72.31
392.31	70.31
392.534	89.31
392.759	77.31
392.984	96.31
393.208	113.31
393.433	149.31
393.658	121.31
393.882	104.31
394.107	89.31
394.331	80.31
394.556	88.31
394.78	87.31
395.005	70.31
395.229	75.31
395.454	89.31
395.678	82.31
395.903	89.31
396.127	82.31
396.352	99.31
396.576	103.31
396.801	115.31
397.025	108.31
397.249	101.31
397.474	94.31
397.698	87.31
397.922	69.31
398.147	72.31
398.371	89.31
398.595	91.31
398.82	80.31
399.044	86.31
399.268	63.31
399.492	83.31
399.717	87.31
399.941	88.31
400.165	73.31
400.389	77.31
400.613	81.31
400.837	84.31
401.062	92.31
401.286	74.31
401.51	87.31
401.734	92.31
401.958	85.31
402.182	93.31
402.406	73.31
402.63	69.31
402.854	75.31
403.078	77.31
403.302	65.31
403.526	84.31
403.75	85.31
403.974	75.31
404.198	74.31
404.422	68.31
404.645	74.31
404.869	83.31
405.093	82.31
405.317	71.31
405.541	71.31
405.765	84.31
405.988	88.31
406.212	85.31
406.436	90.31
406.66	78.31
406.883	67.31
407.107	70.31
407.331	74.31
407.555	78.31
407.778	78.31
408.002	67.31
408.226	80.31
408.449	77.31
408.673	71.31
408.896	77.31
409.12	73.31
409.344	82.31
409.567	76.31
409.791	86.31
410.014	72.31
410.238	77.31
410.461	83.31
410.685	84.31
410.908	74.31
411.132	77.31
411.355	81.31
411.578	89.31
411.802	87.31
412.025	82.31
412.249	72.31
412.472	78.31
412.695	78.31
412.919	82.31
413.142	74.31
413.365	60.31
413.589	76.31
413.812	72.31
414.035	91.31
414.258	87.31
414.482	69.31
414.705	74.31
414.928	90.31
415.151	77.31
415.374	77.31
415.597	84.31
415.821	77.31
416.044	79.31
416.267	77.31
416.49	63.31
416.713	74.31
416.936	90.31
417.159	70.31
417.382	63.31
417.605	67.31
417.828	75.31
418.051	83.31
418.274	77.31
418.497	63.31
418.72	83.31
418.943	80.31
419.166	77.31
419.389	90.31
419.611	70.31
419.834	65.31
420.057	64.31
420.28	70.31
420.503	80.31
420.726	80.31
420.948	68.31
421.171	71.31
421.394	79.31
421.617	83.31
421.839	75.31
422.062	87.31
422.285	93.31
422.507	115.31
422.73	163.31
422.953	155.31
423.175	98.31
423.398	94.31
423.621	74.31
423.843	97.31
424.066	78.31
424.288	79.31
424.511	93.31
424.733	77.31
424.956	90.31
425.178	90.31
425.401	90.31
425.623	77.31
425.846	64.31
426.068	79.31
426.291	81.31
426.513	63.31
426.735	82.31
426.958	92.31
427.18	79.31
427.402	81.31
427.625	79.31
427.847	85.31
428.069	71.31
428.292	89.31
428.514	86.31
428.736	87.31
428.958	102.31
429.181	97.31
429.403	86.31
429.625	79.31
429.847	78.31
430.069	101.31
430.292	101.31
430.514	96.31
430.736	78.31
430.958	94.31
431.18	68.31
431.402	79.31
431.624	79.31
431.846	92.31
432.068	85.31
432.29	79.31
432.512	90.31
432.734	79.31
432.956	75.31
433.178	85.31
433.4	82.31
433.622	81.31
433.844	77.31
434.066	74.31
434.287	82.31
434.509	76.31
434.731	87.31
434.953	74.31
435.175	90.31
435.397	72.31
435.618	65.31
435.84	81.31
436.062	87.31
436.284	74.31
436.505	92.31
436.727	96.31
436.949	81.31
437.17	71.31
437.392	65.31
437.614	70.31
437.835	77.31
438.057	84.31
438.278	83.31
438.5	81.31
438.721	71.31
438.943	61.31
439.165	69.31
439.386	85.31
439.608	82.31
439.829	79.31
440.05	64.31
440.272	81.31
440.493	79.31
440.715	71.31
440.936	87.31
441.158	89.31
441.379	92.31
441.6	84.31
441.822	89.31
442.043	86.31
442.264	77.31
442.486	84.31
442.707	95.31
442.928	110.31
443.149	91.31
443.371	75.31
443.592	114.31
443.813	102.31
444.034	90.31
444.255	91.31
444.476	87.31
444.698	75.31
444.919	80.31
445.14	161.31
445.361	148.31
445.582	119.31
445.803	104.31
446.024	78.31
446.245	83.31
446.466	78.31
446.687	73.31
446.908	75.31
447.129	79.31
447.35	84.31
447.571	91.31
447.792	98.31
448.013	84.31
448.234	91.31
448.455	72.31
448.675	82.31
448.896	76.31
449.117	75.31
449.338	79.31
449.559	80.31
449.779	86.31
450	77.31
450.221	72.31
450.442	79.31
450.662	90.31
450.883	76.31
451.104	83.31
451.324	92.31
451.545	77.31
451.766	78.31
451.986	78.31
452.207	99.31
452.428	72.31
452.648	67.31
452.869	94.31
453.089	84.31
453.31	69.31
453.53	83.31
453.751	92.31
453.971	61.31
454.192	73.31
454.412	72.31
454.633	78.31
454.853	74.31
455.073	76.31
455.294	75.31
455.514	85.31
455.734	74.31
455.955	68.31
456.175	78.31
456.395	77.31
456.616	71.31
456.836	71.31
457.056	63.31
457.276	70.31
457.497	78.31
457.717	81.31
457.937	85.31
458.157	76.31
458.377	83.31
458.598	81.31
458.818	99.31
459.038	84.31
459.258	75.31
459.478	78.31
459.698	75.31
459.918	79.31
460.138	78.31
460.358	81.31
460.578	77.31
460.798	72.31
461.018	83.31
461.238	87.31
461.458	82.31
461.678	90.31
461.898	86.31
462.118	70.31
462.338	72.31
462.558	81.31
462.777	67.31
462.997	102.31
463.217	77.31
463.437	72.31
463.657	70.31
463.876	77.31
464.096	70.31
464.316	83.31
464.536	90.31
464.755	69.31
464.975	85.31
465.195	77.31
465.414	69.31
465.634	63.31
465.854	64.31
466.073	96.31
466.293	64.31
466.512	80.31
466.732	73.31
466.951	66.31
467.171	86.31
467.391	80.31
467.61	87.31
467.829	70.31
468.049	80.31
468.268	88.31
468.488	69.31
468.707	75.31
468.927	78.31
469.146	78.31
469.365	77.31
469.585	83.31
469.804	83.31
470.023	71.31
470.243	74.31
470.462	84.31
470.681	76.31
470.901	79.31
471.12	86.31
471.339	83.31
471.558	86.31
471.777	81.31
471.997	69.31
472.216	69.31
472.435	71.31
472.654	83.31
472.873	73.31
473.092	70.31
473.311	72.31
473.53	83.31
473.749	86.31
473.968	81.31
474.187	72.31
474.406	78.31
474.625	77.31
474.844	66.31
475.063	75.31
475.282	83.31
475.501	58.31
475.72	88.31
475.939	80.31
476.158	87.31
476.377	80.31
476.596	78.31
476.814	77.31
477.033	77.31
477.252	70.31
477.471	67.31
477.69	81.31
477.908	79.31
478.127	76.31
478.346	75.31
478.564	78.31
478.783	82.31
479.002	89.31
479.22	74.31
479.439	78.31
479.658	86.31
479.876	75.31
480.095	84.31
480.313	82.31
480.532	64.31
480.751	78.31
480.969	92.31
481.188	94.31
481.406	89.31
481.624	93.31
481.843	84.31
482.061	91.31
482.28	83.31
482.498	70.31
482.717	93.31
482.935	75.31
483.153	83.31
483.372	78.31
483.59	68.31
483.808	71.31
484.027	79.31
484.245	84.31
484.463	97.31
484.681	88.31
484.9	69.31
485.118	84.31
485.336	81.31
485.554	70.31
485.772	85.31
485.99	79.31
486.209	66.31
486.427	77.31
486.645	75.31
486.863	82.31
487.081	83.31
487.299	83.31
487.517	87.31
487.735	74.31
487.953	93.31
488.171	83.31
488.389	79.31
488.607	88.31
488.825	80.31
489.043	67.31
489.261	82.31
489.479	87.31
489.696	83.31
489.914	78.31
490.132	71.31
490.35	85.31
490.568	80.31
490.786	74.31
491.003	81.31
491.221	79.31
491.439	81.31
491.657	73.31
491.874	80.31
492.092	76.31
492.31	83.31
492.527	85.31
492.745	81.31
492.963	84.31
493.18	91.31
493.398	81.31
493.615	76.31
493.833	78.31
494.05	81.31
494.268	86.31
494.485	82.31
494.703	90.31
494.92	76.31
495.138	75.31
495.355	87.31
495.573	84.31
495.79	70.31
496.008	81.31
496.225	72.31
496.442	70.31
496.66	81.31
496.877	82.31
497.094	79.31
497.312	65.31
497.529	81.31
497.746	67.31
497.963	64.31
498.181	81.31
498.398	68.31
498.615	74.31
498.832	77.31
499.049	92.31
499.267	83.31
499.484	95.31
499.701	82.31
499.918	75.31
500.135	82.31
500.352	81.31
500.569	76.31
500.786	77.31
501.003	83.31
501.22	85.31
501.437	85.31
501.654	85.31
501.871	64.31
502.088	77.31
502.305	77.31
502.522	81.31
502.739	84.31
502.956	106.31
503.172	78.31
503.389	74.31
503.606	71.31
503.823	81.31
504.04	80.31
504.256	82.31
504.473	85.31
504.69	98.31
504.907	93.31
505.123	77.31
505.34	92.31
505.557	85.31
505.773	80.31
505.99	83.31
506.207	91.31
506.423	70.31
506.64	81.31
506.856	103.31
507.073	78.31
507.289	80.31
507.506	63.31
507.722	86.31
507.939	94.31
508.155	77.31
508.372	80.31
508.588	104.31
508.805	95.31
509.021	83.31
509.238	81.31
509.454	81.31
509.67	75.31
509.887	88.31
510.103	81.31
510.319	81.31
510.536	97.31
510.752	91.31
510.968	81.31
511.184	76.31
511.401	69.31
511.617	86.31
511.833	79.31
512.049	78.31
512.265	76.31
512.481	87.31
512.698	83.31
512.914	90.31
513.13	79.31
513.346	86.31
513.562	81.31
513.778	88.31
513.994	77.31
514.21	75.31
514.426	79.31
514.642	85.31
514.858	78.31
515.074	74.31
515.29	75.31
515.506	86.31
515.721	79.31
515.937	80.31
516.153	80.31
516.369	72.31
516.585	69.31
516.801	79.31
517.016	90.31
517.232	69.31
517.448	93.31
517.664	84.31
517.879	75.31
518.095	80.31
518.311	84.31
518.527	73.31
518.742	83.31
518.958	89.31
519.173	97.31
519.389	92.31
519.605	80.31
519.82	83.31
