Data from 10100_2_HRD10591_00049.txt Node
Date: Mon Jan 19 14:01:48 EST 2026
User: Yrep
Spectrometer: HR+D1059
Trigger mode: 1
Integration Time (sec): 1.000000E-1
Scans to average: 1
Electric dark correction enabled: true
Nonlinearity correction enabled: false
Boxcar width: 0
XAxis mode: Wavelengths
Number of Pixels in Spectrum: 2048
>>>>>Begin Spectral Data<<<<<
223.165	-18.31
223.4	-18.31
223.635	-18.31
223.869	-27.31
224.104	-31.31
224.338	-16.31
224.573	-16.31
224.808	-25.31
225.042	-5.31
225.277	-6.31
225.511	4.69
225.746	9.69
225.98	18.69
226.215	14.69
226.449	21.69
226.683	27.69
226.918	30.69
227.152	18.69
227.387	26.69
227.621	31.69
227.856	48.69
228.09	43.69
228.324	68.69
228.559	49.69
228.793	56.69
229.027	65.69
229.262	79.69
229.496	57.69
229.73	71.69
229.964	66.69
230.199	74.69
230.433	66.69
230.667	85.69
230.901	78.69
231.136	81.69
231.37	79.69
231.604	74.69
231.838	81.69
232.072	77.69
232.306	66.69
232.541	75.69
232.775	70.69
233.009	76.69
233.243	75.69
233.477	81.69
233.711	79.69
233.945	71.69
234.179	80.69
234.413	72.69
234.647	75.69
234.881	75.69
235.115	69.69
235.349	69.69
235.583	82.69
235.817	93.69
236.051	74.69
236.285	71.69
236.519	76.69
236.753	72.69
236.987	69.69
237.221	83.69
237.455	68.69
237.689	67.69
237.922	68.69
238.156	89.69
238.39	79.69
238.624	82.69
238.858	84.69
239.091	68.69
239.325	66.69
239.559	80.69
239.793	82.69
240.027	76.69
240.26	75.69
240.494	70.69
240.728	74.69
240.961	80.69
241.195	82.69
241.429	88.69
241.662	68.69
241.896	66.69
242.13	69.69
242.363	79.69
242.597	85.69
242.83	74.69
243.064	87.69
243.298	85.69
243.531	68.69
243.765	81.69
243.998	90.69
244.232	88.69
244.465	90.69
244.699	76.69
244.932	67.69
245.166	85.69
245.399	84.69
245.633	78.69
245.866	74.69
246.099	75.69
246.333	75.69
246.566	89.69
246.8	70.69
247.033	69.69
247.266	79.69
247.5	61.69
247.733	73.69
247.966	78.69
248.2	71.69
248.433	79.69
248.666	83.69
248.899	78.69
249.133	87.69
249.366	75.69
249.599	65.69
249.832	64.69
250.066	82.69
250.299	70.69
250.532	78.69
250.765	85.69
250.998	79.69
251.231	90.69
251.465	75.69
251.698	66.69
251.931	87.69
252.164	81.69
252.397	73.69
252.63	73.69
252.863	84.69
253.096	81.69
253.329	83.69
253.562	75.69
253.795	79.69
254.028	72.69
254.261	70.69
254.494	82.69
254.727	85.69
254.96	69.69
255.193	90.69
255.426	76.69
255.659	72.69
255.892	72.69
256.124	64.69
256.357	74.69
256.59	82.69
256.823	77.69
257.056	100.69
257.289	73.69
257.521	84.69
257.754	92.69
257.987	74.69
258.22	79.69
258.452	83.69
258.685	71.69
258.918	74.69
259.151	62.69
259.383	71.69
259.616	92.69
259.849	63.69
260.081	72.69
260.314	60.69
260.547	76.69
260.779	88.69
261.012	82.69
261.244	81.69
261.477	94.69
261.71	77.69
261.942	67.69
262.175	71.69
262.407	74.69
262.64	76.69
262.872	73.69
263.105	83.69
263.337	89.69
263.57	81.69
263.802	91.69
264.035	79.69
264.267	68.69
264.499	65.69
264.732	78.69
264.964	76.69
265.197	76.69
265.429	83.69
265.661	77.69
265.894	86.69
266.126	69.69
266.358	81.69
266.591	81.69
266.823	82.69
267.055	84.69
267.287	80.69
267.52	84.69
267.752	79.69
267.984	70.69
268.216	89.69
268.448	75.69
268.681	78.69
268.913	81.69
269.145	87.69
269.377	79.69
269.609	81.69
269.841	71.69
270.073	72.69
270.306	79.69
270.538	81.69
270.77	75.69
271.002	81.69
271.234	71.69
271.466	75.69
271.698	81.69
271.93	78.69
272.162	86.69
272.394	91.69
272.626	81.69
272.858	72.69
273.09	78.69
273.322	80.69
273.553	81.69
273.785	86.69
274.017	81.69
274.249	66.69
274.481	85.69
274.713	65.69
274.945	81.69
275.176	73.69
275.408	74.69
275.64	75.69
275.872	88.69
276.104	86.69
276.335	80.69
276.567	80.69
276.799	84.69
277.031	82.69
277.262	79.69
277.494	95.69
277.726	78.69
277.957	67.69
278.189	89.69
278.421	79.69
278.652	77.69
278.884	91.69
279.115	93.69
279.347	90.69
279.579	77.69
279.81	89.69
280.042	86.69
280.273	75.69
280.505	91.69
280.736	83.69
280.968	77.69
281.199	79.69
281.431	74.69
281.662	80.69
281.894	90.69
282.125	74.69
282.356	73.69
282.588	79.69
282.819	82.69
283.051	76.69
283.282	76.69
283.513	75.69
283.745	100.69
283.976	77.69
284.207	70.69
284.439	81.69
284.67	82.69
284.901	94.69
285.132	63.69
285.364	81.69
285.595	81.69
285.826	89.69
286.057	96.69
286.288	83.69
286.52	72.69
286.751	84.69
286.982	77.69
287.213	85.69
287.444	88.69
287.675	90.69
287.906	79.69
288.138	89.69
288.369	83.69
288.6	75.69
288.831	74.69
289.062	73.69
289.293	77.69
289.524	80.69
289.755	73.69
289.986	73.69
290.217	73.69
290.448	91.69
290.679	81.69
290.91	90.69
291.141	73.69
291.371	72.69
291.602	75.69
291.833	79.69
292.064	83.69
292.295	82.69
292.526	83.69
292.757	82.69
292.987	82.69
293.218	79.69
293.449	92.69
293.68	94.69
293.91	88.69
294.141	83.69
294.372	94.69
294.603	82.69
294.833	78.69
295.064	71.69
295.295	70.69
295.525	89.69
295.756	86.69
295.987	64.69
296.217	93.69
296.448	79.69
296.679	99.69
296.909	91.69
297.14	88.69
297.37	85.69
297.601	81.69
297.831	82.69
298.062	88.69
298.292	82.69
298.523	83.69
298.753	76.69
298.984	94.69
299.214	84.69
299.445	89.69
299.675	79.69
299.905	82.69
300.136	63.69
300.366	80.69
300.597	87.69
300.827	85.69
301.057	95.69
301.288	93.69
301.518	94.69
301.748	86.69
301.979	98.69
302.209	79.69
302.439	85.69
302.669	81.69
302.9	83.69
303.13	79.69
303.36	94.69
303.59	91.69
303.82	74.69
304.051	86.69
304.281	83.69
304.511	84.69
304.741	85.69
304.971	81.69
305.201	81.69
305.431	94.69
305.661	80.69
305.891	87.69
306.121	84.69
306.352	91.69
306.582	102.69
306.812	82.69
307.042	88.69
307.272	89.69
307.502	73.69
307.731	70.69
307.961	85.69
308.191	90.69
308.421	96.69
308.651	83.69
308.881	79.69
309.111	75.69
309.341	79.69
309.571	89.69
309.8	95.69
310.03	86.69
310.26	92.69
310.49	77.69
310.72	71.69
310.949	71.69
311.179	91.69
311.409	82.69
311.639	71.69
311.868	85.69
312.098	89.69
312.328	87.69
312.557	82.69
312.787	82.69
313.017	91.69
313.246	74.69
313.476	81.69
313.706	83.69
313.935	84.69
314.165	91.69
314.394	80.69
314.624	82.69
314.853	94.69
315.083	98.69
315.312	92.69
315.542	74.69
315.771	88.69
316.001	81.69
316.23	75.69
316.46	76.69
316.689	79.69
316.919	73.69
317.148	85.69
317.377	83.69
317.607	73.69
317.836	85.69
318.065	81.69
318.295	89.69
318.524	87.69
318.753	71.69
318.983	95.69
319.212	94.69
319.441	79.69
319.67	89.69
319.9	90.69
320.129	87.69
320.358	70.69
320.587	70.69
320.816	75.69
321.046	86.69
321.275	94.69
321.504	81.69
321.733	92.69
321.962	74.69
322.191	83.69
322.42	85.69
322.649	84.69
322.878	88.69
323.108	87.69
323.337	84.69
323.566	83.69
323.795	77.69
324.024	89.69
324.253	84.69
324.482	83.69
324.71	96.69
324.939	94.69
325.168	90.69
325.397	84.69
325.626	87.69
325.855	89.69
326.084	66.69
326.313	76.69
326.542	79.69
326.77	70.69
326.999	98.69
327.228	85.69
327.457	69.69
327.686	76.69
327.914	73.69
328.143	88.69
328.372	87.69
328.6	100.69
328.829	73.69
329.058	96.69
329.287	82.69
329.515	80.69
329.744	87.69
329.972	90.69
330.201	84.69
330.43	99.69
330.658	91.69
330.887	93.69
331.115	97.69
331.344	86.69
331.572	85.69
331.801	78.69
332.03	80.69
332.258	78.69
332.486	82.69
332.715	86.69
332.943	72.69
333.172	81.69
333.4	72.69
333.629	76.69
333.857	85.69
334.085	81.69
334.314	87.69
334.542	72.69
334.771	91.69
334.999	83.69
335.227	79.69
335.455	78.69
335.684	82.69
335.912	98.69
336.14	86.69
336.369	75.69
336.597	82.69
336.825	96.69
337.053	71.69
337.281	89.69
337.51	89.69
337.738	74.69
337.966	91.69
338.194	97.69
338.422	72.69
338.65	82.69
338.878	94.69
339.106	95.69
339.334	88.69
339.562	88.69
339.79	76.69
340.018	84.69
340.246	89.69
340.474	74.69
340.702	89.69
340.93	67.69
341.158	77.69
341.386	91.69
341.614	75.69
341.842	80.69
342.07	73.69
342.298	85.69
342.526	62.69
342.754	87.69
342.981	86.69
343.209	77.69
343.437	79.69
343.665	90.69
343.893	74.69
344.12	84.69
344.348	74.69
344.576	74.69
344.804	89.69
345.031	83.69
345.259	93.69
345.487	78.69
345.714	82.69
345.942	84.69
346.17	78.69
346.397	84.69
346.625	72.69
346.853	85.69
347.08	80.69
347.308	91.69
347.535	81.69
347.763	80.69
347.99	75.69
348.218	77.69
348.445	86.69
348.673	81.69
348.9	87.69
349.128	79.69
349.355	84.69
349.583	83.69
349.81	93.69
350.037	92.69
350.265	81.69
350.492	89.69
350.72	76.69
350.947	77.69
351.174	92.69
351.402	90.69
351.629	83.69
351.856	87.69
352.083	86.69
352.311	81.69
352.538	72.69
352.765	79.69
352.992	97.69
353.22	80.69
353.447	89.69
353.674	71.69
353.901	85.69
354.128	83.69
354.355	92.69
354.583	75.69
354.81	87.69
355.037	86.69
355.264	88.69
355.491	82.69
355.718	86.69
355.945	93.69
356.172	88.69
356.399	74.69
356.626	93.69
356.853	82.69
357.08	83.69
357.307	91.69
357.534	84.69
357.761	96.69
357.988	101.69
358.215	88.69
358.441	88.69
358.668	74.69
358.895	90.69
359.122	91.69
359.349	79.69
359.576	74.69
359.802	82.69
360.029	95.69
360.256	86.69
360.483	78.69
360.709	74.69
360.936	77.69
361.163	93.69
361.39	88.69
361.616	77.69
361.843	82.69
362.07	92.69
362.296	71.69
362.523	77.69
362.749	66.69
362.976	89.69
363.203	90.69
363.429	96.69
363.656	92.69
363.882	83.69
364.109	83.69
364.335	102.69
364.562	99.69
364.788	85.69
365.015	88.69
365.241	87.69
365.468	81.69
365.694	75.69
365.92	72.69
366.147	80.69
366.373	81.69
366.599	71.69
366.826	69.69
367.052	78.69
367.278	82.69
367.505	75.69
367.731	87.69
367.957	86.69
368.184	82.69
368.41	76.69
368.636	84.69
368.862	91.69
369.089	96.69
369.315	78.69
369.541	68.69
369.767	87.69
369.993	71.69
370.219	78.69
370.445	72.69
370.672	79.69
370.898	71.69
371.124	89.69
371.35	90.69
371.576	84.69
371.802	79.69
372.028	83.69
372.254	78.69
372.48	86.69
372.706	85.69
372.932	76.69
373.158	93.69
373.384	118.69
373.61	89.69
373.835	93.69
374.061	85.69
374.287	84.69
374.513	86.69
374.739	90.69
374.965	90.69
375.191	85.69
375.416	75.69
375.642	67.69
375.868	86.69
376.094	82.69
376.319	80.69
376.545	89.69
376.771	93.69
376.997	89.69
377.222	76.69
377.448	88.69
377.674	88.69
377.899	80.69
378.125	82.69
378.35	81.69
378.576	98.69
378.802	73.69
379.027	79.69
379.253	91.69
379.478	82.69
379.704	96.69
379.929	87.69
380.155	78.69
380.38	82.69
380.606	82.69
380.831	94.69
381.057	79.69
381.282	83.69
381.507	82.69
381.733	74.69
381.958	92.69
382.184	92.69
382.409	87.69
382.634	91.69
382.86	98.69
383.085	86.69
383.31	105.69
383.535	92.69
383.761	104.69
383.986	117.69
384.211	81.69
384.436	93.69
384.662	89.69
384.887	91.69
385.112	90.69
385.337	70.69
385.562	90.69
385.787	87.69
386.013	81.69
386.238	86.69
386.463	87.69
386.688	91.69
386.913	95.69
387.138	80.69
387.363	86.69
387.588	91.69
387.813	86.69
388.038	87.69
388.263	91.69
388.488	85.69
388.713	101.69
388.938	82.69
389.163	91.69
389.387	93.69
389.612	98.69
389.837	85.69
390.062	78.69
390.287	91.69
390.512	77.69
390.736	87.69
390.961	89.69
391.186	95.69
391.411	83.69
391.636	88.69
391.86	92.69
392.085	89.69
392.31	75.69
392.534	86.69
392.759	85.69
392.984	124.69
393.208	106.69
393.433	138.69
393.658	115.69
393.882	91.69
394.107	86.69
394.331	93.69
394.556	101.69
394.78	73.69
395.005	70.69
395.229	85.69
395.454	86.69
395.678	87.69
395.903	97.69
396.127	88.69
396.352	99.69
396.576	94.69
396.801	117.69
397.025	127.69
397.249	116.69
397.474	98.69
397.698	87.69
397.922	80.69
398.147	97.69
398.371	89.69
398.595	71.69
398.82	84.69
399.044	95.69
399.268	79.69
399.492	89.69
399.717	82.69
399.941	83.69
400.165	84.69
400.389	83.69
400.613	81.69
400.837	88.69
401.062	89.69
401.286	82.69
401.51	89.69
401.734	74.69
401.958	90.69
402.182	66.69
402.406	79.69
402.63	98.69
402.854	81.69
403.078	71.69
403.302	79.69
403.526	81.69
403.75	88.69
403.974	70.69
404.198	88.69
404.422	95.69
404.645	81.69
404.869	69.69
405.093	81.69
405.317	84.69
405.541	83.69
405.765	76.69
405.988	86.69
406.212	83.69
406.436	80.69
406.66	97.69
406.883	95.69
407.107	75.69
407.331	95.69
407.555	90.69
407.778	80.69
408.002	81.69
408.226	86.69
408.449	78.69
408.673	89.69
408.896	74.69
409.12	90.69
409.344	81.69
409.567	67.69
409.791	70.69
410.014	80.69
410.238	85.69
410.461	76.69
410.685	79.69
410.908	74.69
411.132	86.69
411.355	101.69
411.578	91.69
411.802	86.69
412.025	67.69
412.249	84.69
412.472	81.69
412.695	75.69
412.919	90.69
413.142	90.69
413.365	100.69
413.589	66.69
413.812	75.69
414.035	81.69
414.258	77.69
414.482	90.69
414.705	82.69
414.928	70.69
415.151	65.69
415.374	73.69
415.597	83.69
415.821	74.69
416.044	81.69
416.267	88.69
416.49	69.69
416.713	87.69
416.936	80.69
417.159	73.69
417.382	83.69
417.605	69.69
417.828	74.69
418.051	83.69
418.274	80.69
418.497	81.69
418.72	85.69
418.943	85.69
419.166	76.69
419.389	89.69
419.611	78.69
419.834	85.69
420.057	86.69
420.28	80.69
420.503	86.69
420.726	75.69
420.948	83.69
421.171	90.69
421.394	75.69
421.617	96.69
421.839	85.69
422.062	84.69
422.285	87.69
422.507	147.69
422.73	162.69
422.953	142.69
423.175	112.69
423.398	99.69
423.621	95.69
423.843	78.69
424.066	89.69
424.288	83.69
424.511	77.69
424.733	74.69
424.956	77.69
425.178	84.69
425.401	74.69
425.623	79.69
425.846	74.69
426.068	81.69
426.291	74.69
426.513	78.69
426.735	72.69
426.958	74.69
427.18	80.69
427.402	75.69
427.625	84.69
427.847	89.69
428.069	88.69
428.292	93.69
428.514	96.69
428.736	83.69
428.958	88.69
429.181	100.69
429.403	84.69
429.625	89.69
429.847	89.69
430.069	108.69
430.292	111.69
430.514	107.69
430.736	98.69
430.958	103.69
431.18	88.69
431.402	87.69
431.624	86.69
431.846	94.69
432.068	101.69
432.29	83.69
432.512	95.69
432.734	93.69
432.956	65.69
433.178	93.69
433.4	91.69
433.622	93.69
433.844	83.69
434.066	83.69
434.287	79.69
434.509	64.69
434.731	78.69
434.953	73.69
435.175	82.69
435.397	93.69
435.618	90.69
435.84	82.69
436.062	91.69
436.284	64.69
436.505	78.69
436.727	75.69
436.949	91.69
437.17	77.69
437.392	72.69
437.614	77.69
437.835	86.69
438.057	73.69
438.278	81.69
438.5	99.69
438.721	98.69
438.943	72.69
439.165	87.69
439.386	83.69
439.608	84.69
439.829	80.69
440.05	99.69
440.272	79.69
440.493	83.69
440.715	94.69
440.936	89.69
441.158	88.69
441.379	90.69
441.6	89.69
441.822	82.69
442.043	81.69
442.264	100.69
442.486	91.69
442.707	89.69
442.928	83.69
443.149	90.69
443.371	95.69
443.592	125.69
443.813	98.69
444.034	82.69
444.255	88.69
444.476	81.69
444.698	87.69
444.919	96.69
445.14	163.69
445.361	141.69
445.582	138.69
445.803	117.69
446.024	105.69
446.245	88.69
446.466	83.69
446.687	95.69
446.908	82.69
447.129	103.69
447.35	75.69
447.571	75.69
447.792	81.69
448.013	82.69
448.234	70.69
448.455	81.69
448.675	82.69
448.896	87.69
449.117	90.69
449.338	92.69
449.559	86.69
449.779	91.69
450	80.69
450.221	79.69
450.442	81.69
450.662	92.69
450.883	71.69
451.104	90.69
451.324	65.69
451.545	82.69
451.766	82.69
451.986	76.69
452.207	87.69
452.428	81.69
452.648	97.69
452.869	78.69
453.089	75.69
453.31	81.69
453.53	85.69
453.751	97.69
453.971	75.69
454.192	92.69
454.412	69.69
454.633	88.69
454.853	80.69
455.073	96.69
455.294	71.69
455.514	96.69
455.734	76.69
455.955	78.69
456.175	87.69
456.395	72.69
456.616	81.69
456.836	88.69
457.056	79.69
457.276	72.69
457.497	80.69
457.717	88.69
457.937	92.69
458.157	84.69
458.377	94.69
458.598	93.69
458.818	97.69
459.038	85.69
459.258	90.69
459.478	83.69
459.698	88.69
459.918	81.69
460.138	84.69
460.358	87.69
460.578	80.69
460.798	100.69
461.018	81.69
461.238	79.69
461.458	83.69
461.678	92.69
461.898	69.69
462.118	93.69
462.338	89.69
462.558	73.69
462.777	82.69
462.997	84.69
463.217	85.69
463.437	76.69
463.657	80.69
463.876	82.69
464.096	96.69
464.316	83.69
464.536	62.69
464.755	84.69
464.975	99.69
465.195	89.69
465.414	83.69
465.634	84.69
465.854	82.69
466.073	78.69
466.293	75.69
466.512	79.69
466.732	83.69
466.951	87.69
467.171	79.69
467.391	82.69
467.61	85.69
467.829	85.69
468.049	83.69
468.268	85.69
468.488	74.69
468.707	81.69
468.927	75.69
469.146	87.69
469.365	75.69
469.585	91.69
469.804	80.69
470.023	79.69
470.243	97.69
470.462	65.69
470.681	79.69
470.901	82.69
471.12	79.69
471.339	95.69
471.558	90.69
471.777	89.69
471.997	86.69
472.216	80.69
472.435	89.69
472.654	87.69
472.873	81.69
473.092	76.69
473.311	62.69
473.53	80.69
473.749	106.69
473.968	89.69
474.187	80.69
474.406	77.69
474.625	81.69
474.844	95.69
475.063	68.69
475.282	87.69
475.501	88.69
475.72	79.69
475.939	76.69
476.158	95.69
476.377	79.69
476.596	94.69
476.814	84.69
477.033	72.69
477.252	90.69
477.471	80.69
477.69	85.69
477.908	81.69
478.127	94.69
478.346	88.69
478.564	90.69
478.783	77.69
479.002	88.69
479.22	75.69
479.439	75.69
479.658	87.69
479.876	89.69
480.095	82.69
480.313	81.69
480.532	97.69
480.751	84.69
480.969	84.69
481.188	72.69
481.406	76.69
481.624	93.69
481.843	80.69
482.061	87.69
482.28	77.69
482.498	75.69
482.717	71.69
482.935	98.69
483.153	91.69
483.372	80.69
483.59	96.69
483.808	86.69
484.027	94.69
484.245	99.69
484.463	72.69
484.681	91.69
484.9	80.69
485.118	95.69
485.336	101.69
485.554	77.69
485.772	85.69
485.99	68.69
486.209	61.69
486.427	81.69
486.645	68.69
486.863	80.69
487.081	86.69
487.299	72.69
487.517	86.69
487.735	91.69
487.953	105.69
488.171	104.69
488.389	83.69
488.607	81.69
488.825	76.69
489.043	75.69
489.261	112.69
489.479	89.69
489.696	94.69
489.914	86.69
490.132	87.69
490.35	90.69
490.568	76.69
490.786	75.69
491.003	85.69
491.221	84.69
491.439	84.69
491.657	87.69
491.874	86.69
492.092	89.69
492.31	90.69
492.527	72.69
492.745	85.69
492.963	87.69
493.18	76.69
493.398	82.69
493.615	87.69
493.833	84.69
494.05	88.69
494.268	75.69
494.485	81.69
494.703	84.69
494.92	81.69
495.138	83.69
495.355	97.69
495.573	82.69
495.79	86.69
496.008	94.69
496.225	82.69
496.442	76.69
496.66	84.69
496.877	78.69
497.094	82.69
497.312	80.69
497.529	81.69
497.746	75.69
497.963	75.69
498.181	86.69
498.398	74.69
498.615	94.69
498.832	98.69
499.049	95.69
499.267	75.69
499.484	85.69
499.701	82.69
499.918	87.69
500.135	88.69
500.352	79.69
500.569	82.69
500.786	87.69
501.003	83.69
501.22	81.69
501.437	83.69
501.654	84.69
501.871	78.69
502.088	90.69
502.305	77.69
502.522	79.69
502.739	93.69
502.956	72.69
503.172	87.69
503.389	79.69
503.606	88.69
503.823	79.69
504.04	94.69
504.256	96.69
504.473	108.69
504.69	92.69
504.907	96.69
505.123	88.69
505.34	83.69
505.557	78.69
505.773	84.69
505.99	79.69
506.207	75.69
506.423	77.69
506.64	96.69
506.856	86.69
507.073	82.69
507.289	93.69
507.506	86.69
507.722	74.69
507.939	93.69
508.155	75.69
508.372	89.69
508.588	85.69
508.805	101.69
509.021	72.69
509.238	80.69
509.454	67.69
509.67	84.69
509.887	78.69
510.103	81.69
510.319	71.69
510.536	80.69
510.752	76.69
510.968	81.69
511.184	79.69
511.401	86.69
511.617	82.69
511.833	78.69
512.049	78.69
512.265	88.69
512.481	94.69
512.698	83.69
512.914	70.69
513.13	83.69
513.346	82.69
513.562	88.69
513.778	94.69
513.994	95.69
514.21	89.69
514.426	81.69
514.642	82.69
514.858	87.69
515.074	82.69
515.29	93.69
515.506	107.69
515.721	81.69
515.937	88.69
516.153	93.69
516.369	88.69
516.585	89.69
516.801	96.69
517.016	93.69
517.232	87.69
517.448	90.69
517.664	84.69
517.879	84.69
518.095	91.69
518.311	90.69
518.527	79.69
518.742	87.69
518.958	113.69
519.173	114.69
519.389	92.69
519.605	95.69
