Data from 10100_2_HRD10591_00003.txt Node
Date: Mon Jan 19 14:01:25 EST 2026
User: Yrep
Spectrometer: HR+D1059
Trigger mode: 1
Integration Time (sec): 1.000000E-1
Scans to average: 1
Electric dark correction enabled: true
Nonlinearity correction enabled: false
Boxcar width: 0
XAxis mode: Wavelengths
Number of Pixels in Spectrum: 2048
>>>>>Begin Spectral Data<<<<<
223.165	-15
223.4	-15
223.635	-15
223.869	-12
224.104	-11
224.338	-5
224.573	-16
224.808	-17
225.042	-17
225.277	-18
225.511	2
225.746	3
225.98	-2
226.215	22
226.449	14
226.683	10
226.918	29
227.152	33
227.387	15
227.621	48
227.856	49
228.09	35
228.324	42
228.559	54
228.793	53
229.027	56
229.262	55
229.496	65
229.73	67
229.964	77
230.199	83
230.433	65
230.667	70
230.901	76
231.136	67
231.37	70
231.604	98
231.838	78
232.072	87
232.306	71
232.541	77
232.775	85
233.009	73
233.243	78
233.477	77
233.711	73
233.945	82
234.179	64
234.413	79
234.647	84
234.881	85
235.115	74
235.349	71
235.583	78
235.817	70
236.051	85
236.285	68
236.519	52
236.753	64
236.987	79
237.221	71
237.455	70
237.689	74
237.922	73
238.156	72
238.39	66
238.624	72
238.858	74
239.091	79
239.325	61
239.559	67
239.793	72
240.027	74
240.26	88
240.494	80
240.728	68
240.961	65
241.195	73
241.429	78
241.662	64
241.896	58
242.13	74
242.363	70
242.597	89
242.83	66
243.064	82
243.298	72
243.531	65
243.765	79
243.998	77
244.232	71
244.465	61
244.699	70
244.932	60
245.166	68
245.399	71
245.633	69
245.866	71
246.099	78
246.333	75
246.566	80
246.8	69
247.033	58
247.266	81
247.5	56
247.733	78
247.966	82
248.2	63
248.433	80
248.666	64
248.899	67
249.133	64
249.366	75
249.599	74
249.832	76
250.066	84
250.299	69
250.532	78
250.765	78
250.998	75
251.231	70
251.465	72
251.698	83
251.931	83
252.164	69
252.397	67
252.63	66
252.863	59
253.096	76
253.329	75
253.562	68
253.795	87
254.028	77
254.261	65
254.494	76
254.727	74
254.96	91
255.193	92
255.426	77
255.659	70
255.892	79
256.124	84
256.357	83
256.59	74
256.823	76
257.056	63
257.289	74
257.521	67
257.754	86
257.987	88
258.22	73
258.452	83
258.685	67
258.918	70
259.151	73
259.383	70
259.616	82
259.849	76
260.081	76
260.314	81
260.547	80
260.779	80
261.012	70
261.244	70
261.477	79
261.71	84
261.942	74
262.175	87
262.407	69
262.64	78
262.872	68
263.105	75
263.337	82
263.57	66
263.802	70
264.035	73
264.267	74
264.499	83
264.732	70
264.964	76
265.197	78
265.429	84
265.661	76
265.894	93
266.126	80
266.358	72
266.591	86
266.823	76
267.055	72
267.287	94
267.52	81
267.752	82
267.984	81
268.216	74
268.448	87
268.681	90
268.913	76
269.145	90
269.377	76
269.609	78
269.841	74
270.073	80
270.306	79
270.538	90
270.77	63
271.002	81
271.234	76
271.466	77
271.698	68
271.93	77
272.162	90
272.394	77
272.626	74
272.858	78
273.09	71
273.322	80
273.553	88
273.785	76
274.017	73
274.249	80
274.481	80
274.713	71
274.945	86
275.176	69
275.408	77
275.64	67
275.872	87
276.104	80
276.335	84
276.567	78
276.799	69
277.031	80
277.262	62
277.494	78
277.726	80
277.957	78
278.189	86
278.421	85
278.652	81
278.884	85
279.115	76
279.347	67
279.579	77
279.81	80
280.042	83
280.273	76
280.505	90
280.736	71
280.968	76
281.199	84
281.431	76
281.662	74
281.894	79
282.125	77
282.356	79
282.588	81
282.819	65
283.051	66
283.282	86
283.513	65
283.745	82
283.976	70
284.207	83
284.439	75
284.67	78
284.901	79
285.132	67
285.364	65
285.595	77
285.826	69
286.057	94
286.288	90
286.52	75
286.751	80
286.982	67
287.213	82
287.444	84
287.675	77
287.906	81
288.138	85
288.369	78
288.6	78
288.831	70
289.062	89
289.293	82
289.524	81
289.755	82
289.986	80
290.217	73
290.448	62
290.679	77
290.91	91
291.141	106
291.371	87
291.602	82
291.833	69
292.064	76
292.295	89
292.526	101
292.757	86
292.987	89
293.218	80
293.449	90
293.68	97
293.91	84
294.141	84
294.372	67
294.603	78
294.833	79
295.064	88
295.295	83
295.525	69
295.756	83
295.987	86
296.217	68
296.448	88
296.679	76
296.909	86
297.14	84
297.37	79
297.601	99
297.831	80
298.062	77
298.292	83
298.523	70
298.753	60
298.984	84
299.214	75
299.445	90
299.675	99
299.905	83
300.136	86
300.366	86
300.597	89
300.827	84
301.057	93
301.288	90
301.518	89
301.748	75
301.979	109
302.209	75
302.439	84
302.669	83
302.9	88
303.13	74
303.36	76
303.59	83
303.82	79
304.051	82
304.281	90
304.511	87
304.741	101
304.971	85
305.201	87
305.431	97
305.661	82
305.891	72
306.121	84
306.352	78
306.582	95
306.812	74
307.042	73
307.272	82
307.502	85
307.731	95
307.961	86
308.191	85
308.421	97
308.651	83
308.881	84
309.111	80
309.341	95
309.571	86
309.8	79
310.03	78
310.26	74
310.49	83
310.72	76
310.949	85
311.179	82
311.409	73
311.639	82
311.868	81
312.098	74
312.328	75
312.557	73
312.787	82
313.017	92
313.246	78
313.476	80
313.706	79
313.935	91
314.165	80
314.394	104
314.624	72
314.853	89
315.083	77
315.312	79
315.542	106
315.771	82
316.001	89
316.23	74
316.46	83
316.689	91
316.919	85
317.148	92
317.377	64
317.607	91
317.836	102
318.065	84
318.295	94
318.524	86
318.753	68
318.983	88
319.212	80
319.441	82
319.67	84
319.9	85
320.129	71
320.358	95
320.587	86
320.816	76
321.046	83
321.275	83
321.504	76
321.733	78
321.962	77
322.191	76
322.42	98
322.649	74
322.878	81
323.108	88
323.337	74
323.566	85
323.795	91
324.024	90
324.253	97
324.482	82
324.71	75
324.939	96
325.168	85
325.397	72
325.626	80
325.855	82
326.084	88
326.313	87
326.542	77
326.77	75
326.999	90
327.228	83
327.457	87
327.686	74
327.914	88
328.143	69
328.372	76
328.6	78
328.829	80
329.058	85
329.287	86
329.515	81
329.744	77
329.972	85
330.201	76
330.43	82
330.658	88
330.887	93
331.115	88
331.344	60
331.572	92
331.801	60
332.03	89
332.258	100
332.486	88
332.715	69
332.943	68
333.172	68
333.4	88
333.629	74
333.857	73
334.085	88
334.314	87
334.542	92
334.771	85
334.999	78
335.227	88
335.455	85
335.684	94
335.912	84
336.14	93
336.369	105
336.597	80
336.825	72
337.053	76
337.281	93
337.51	82
337.738	81
337.966	92
338.194	73
338.422	60
338.65	80
338.878	91
339.106	96
339.334	97
339.562	89
339.79	94
340.018	85
340.246	69
340.474	67
340.702	94
340.93	76
341.158	80
341.386	83
341.614	80
341.842	90
342.07	82
342.298	74
342.526	80
342.754	89
342.981	78
343.209	87
343.437	90
343.665	70
343.893	74
344.12	81
344.348	94
344.576	97
344.804	101
345.031	60
345.259	74
345.487	68
345.714	74
345.942	82
346.17	74
346.397	91
346.625	76
346.853	84
347.08	73
347.308	93
347.535	76
347.763	88
347.99	70
348.218	97
348.445	80
348.673	70
348.9	80
349.128	86
349.355	84
349.583	91
349.81	82
350.037	97
350.265	92
350.492	72
350.72	87
350.947	82
351.174	73
351.402	75
351.629	80
351.856	86
352.083	73
352.311	85
352.538	78
352.765	89
352.992	93
353.22	73
353.447	78
353.674	82
353.901	83
354.128	71
354.355	86
354.583	71
354.81	85
355.037	85
355.264	69
355.491	90
355.718	76
355.945	78
356.172	58
356.399	84
356.626	82
356.853	90
357.08	82
357.307	82
357.534	79
357.761	87
357.988	74
358.215	88
358.441	84
358.668	91
358.895	83
359.122	93
359.349	91
359.576	64
359.802	94
360.029	82
360.256	84
360.483	82
360.709	95
360.936	84
361.163	93
361.39	78
361.616	81
361.843	92
362.07	87
362.296	101
362.523	101
362.749	90
362.976	127
363.203	125
363.429	93
363.656	85
363.882	89
364.109	93
364.335	94
364.562	114
364.788	107
365.015	88
365.241	88
365.468	89
365.694	82
365.92	94
366.147	92
366.373	80
366.599	74
366.826	78
367.052	90
367.278	91
367.505	76
367.731	88
367.957	79
368.184	75
368.41	69
368.636	81
368.862	82
369.089	76
369.315	75
369.541	95
369.767	75
369.993	88
370.219	76
370.445	56
370.672	98
370.898	83
371.124	83
371.35	77
371.576	95
371.802	84
372.028	99
372.254	84
372.48	86
372.706	88
372.932	90
373.158	101
373.384	94
373.61	85
373.835	90
374.061	82
374.287	86
374.513	95
374.739	83
374.965	89
375.191	87
375.416	90
375.642	84
375.868	83
376.094	91
376.319	77
376.545	88
376.771	77
376.997	97
377.222	83
377.448	87
377.674	86
377.899	88
378.125	74
378.35	83
378.576	66
378.802	90
379.027	81
379.253	87
379.478	74
379.704	82
379.929	95
380.155	70
380.38	95
380.606	83
380.831	80
381.057	74
381.282	84
381.507	88
381.733	100
381.958	96
382.184	81
382.409	90
382.634	105
382.86	93
383.085	87
383.31	81
383.535	95
383.761	84
383.986	70
384.211	89
384.436	86
384.662	65
384.887	84
385.112	82
385.337	95
385.562	85
385.787	90
386.013	92
386.238	75
386.463	76
386.688	116
386.913	83
387.138	90
387.363	91
387.588	76
387.813	112
388.038	96
388.263	91
388.488	85
388.713	80
388.938	90
389.163	87
389.387	86
389.612	90
389.837	96
390.062	78
390.287	78
390.512	81
390.736	94
390.961	100
391.186	85
391.411	67
391.636	90
391.86	90
392.085	88
392.31	76
392.534	96
392.759	109
392.984	136
393.208	197
393.433	284
393.658	240
393.882	133
394.107	101
394.331	102
394.556	112
394.78	116
395.005	93
395.229	91
395.454	100
395.678	100
395.903	116
396.127	112
396.352	118
396.576	153
396.801	203
397.025	248
397.249	142
397.474	113
397.698	100
397.922	91
398.147	70
398.371	88
398.595	92
398.82	87
399.044	86
399.268	82
399.492	77
399.717	100
399.941	82
400.165	71
400.389	68
400.613	86
400.837	83
401.062	68
401.286	88
401.51	77
401.734	86
401.958	85
402.182	87
402.406	80
402.63	75
402.854	70
403.078	80
403.302	81
403.526	90
403.75	93
403.974	87
404.198	92
404.422	100
404.645	84
404.869	101
405.093	91
405.317	101
405.541	77
405.765	79
405.988	80
406.212	82
406.436	74
406.66	93
406.883	82
407.107	70
407.331	85
407.555	83
407.778	84
408.002	98
408.226	84
408.449	84
408.673	84
408.896	95
409.12	99
409.344	97
409.567	99
409.791	90
410.014	89
410.238	93
410.461	78
410.685	80
410.908	101
411.132	91
411.355	84
411.578	83
411.802	77
412.025	86
412.249	85
412.472	83
412.695	102
412.919	81
413.142	97
413.365	75
413.589	90
413.812	80
414.035	82
414.258	80
414.482	91
414.705	77
414.928	84
415.151	80
415.374	93
415.597	72
415.821	80
416.044	85
416.267	79
416.49	88
416.713	82
416.936	74
417.159	78
417.382	85
417.605	89
417.828	92
418.051	91
418.274	83
418.497	71
418.72	88
418.943	84
419.166	78
419.389	76
419.611	79
419.834	82
420.057	78
420.28	73
420.503	86
420.726	82
420.948	76
421.171	89
421.394	114
421.617	117
421.839	113
422.062	118
422.285	147
422.507	225
422.73	316
422.953	277
423.175	195
423.398	135
423.621	99
423.843	92
424.066	97
424.288	100
424.511	79
424.733	81
424.956	99
425.178	85
425.401	81
425.623	84
425.846	74
426.068	74
426.291	89
426.513	91
426.735	85
426.958	84
427.18	98
427.402	99
427.625	82
427.847	92
428.069	104
428.292	117
428.514	125
428.736	121
428.958	126
429.181	105
429.403	88
429.625	89
429.847	105
430.069	145
430.292	153
430.514	159
430.736	117
430.958	130
431.18	99
431.402	80
431.624	102
431.846	117
432.068	115
432.29	96
432.512	92
432.734	92
432.956	74
433.178	90
433.4	67
433.622	77
433.844	85
434.066	97
434.287	79
434.509	88
434.731	79
434.953	76
435.175	79
435.397	94
435.618	96
435.84	90
436.062	85
436.284	86
436.505	73
436.727	80
436.949	74
437.17	83
437.392	76
437.614	82
437.835	86
438.057	74
438.278	83
438.5	77
438.721	80
438.943	75
439.165	84
439.386	93
439.608	90
439.829	84
440.05	96
440.272	83
440.493	80
440.715	94
440.936	80
441.158	85
441.379	83
441.6	74
441.822	90
442.043	84
442.264	84
442.486	120
442.707	140
442.928	112
443.149	84
443.371	120
443.592	206
443.813	188
444.034	93
444.255	74
444.476	94
444.698	68
444.919	99
445.14	189
445.361	193
445.582	250
445.803	240
446.024	116
446.245	95
446.466	89
446.687	80
446.908	66
447.129	89
447.35	92
447.571	86
447.792	76
448.013	73
448.234	75
448.455	74
448.675	84
448.896	85
449.117	85
449.338	82
449.559	84
449.779	83
450	65
450.221	93
450.442	87
450.662	78
450.883	70
451.104	93
451.324	71
451.545	99
451.766	79
451.986	89
452.207	80
452.428	70
452.648	102
452.869	98
453.089	91
453.31	84
453.53	88
453.751	99
453.971	87
454.192	96
454.412	88
454.633	86
454.853	81
455.073	97
455.294	85
455.514	68
455.734	78
455.955	74
456.175	84
456.395	76
456.616	85
456.836	94
457.056	87
457.276	72
457.497	89
457.717	92
457.937	100
458.157	107
458.377	119
458.598	106
458.818	122
459.038	97
459.258	83
459.478	78
459.698	80
459.918	96
460.138	90
460.358	90
460.578	96
460.798	108
461.018	124
461.238	65
461.458	80
461.678	65
461.898	80
462.118	90
462.338	76
462.558	93
462.777	89
462.997	70
463.217	79
463.437	68
463.657	80
463.876	82
464.096	83
464.316	83
464.536	90
464.755	86
464.975	73
465.195	72
465.414	77
465.634	69
465.854	66
466.073	84
466.293	75
466.512	84
466.732	80
466.951	86
467.171	79
467.391	73
467.61	73
467.829	87
468.049	82
468.268	71
468.488	69
468.707	78
468.927	78
469.146	64
469.365	80
469.585	80
469.804	89
470.023	89
470.243	93
470.462	84
470.681	74
470.901	82
471.12	75
471.339	75
471.558	83
471.777	85
471.997	88
472.216	76
472.435	69
472.654	76
472.873	80
473.092	67
473.311	92
473.53	78
473.749	73
473.968	81
474.187	77
474.406	76
474.625	83
474.844	82
475.063	75
475.282	88
475.501	77
475.72	89
475.939	90
476.158	75
476.377	78
476.596	89
476.814	76
477.033	65
477.252	75
477.471	83
477.69	80
477.908	95
478.127	83
478.346	83
478.564	85
478.783	87
479.002	97
479.22	90
479.439	100
479.658	79
479.876	82
480.095	84
480.313	93
480.532	86
480.751	83
480.969	82
481.188	75
481.406	90
481.624	83
481.843	91
482.061	80
482.28	84
482.498	94
482.717	80
482.935	87
483.153	98
483.372	88
483.59	95
483.808	93
484.027	90
484.245	96
484.463	100
484.681	98
484.9	84
485.118	100
485.336	89
485.554	88
485.772	73
485.99	94
486.209	78
486.427	78
486.645	87
486.863	76
487.081	85
487.299	82
487.517	98
487.735	129
487.953	162
488.171	147
488.389	92
488.607	86
488.825	86
489.043	84
489.261	88
489.479	82
489.696	92
489.914	76
490.132	82
490.35	94
490.568	86
490.786	90
491.003	82
491.221	79
491.439	78
491.657	83
491.874	90
492.092	78
492.31	97
492.527	94
492.745	90
492.963	85
493.18	92
493.398	92
493.615	93
493.833	90
494.05	91
494.268	74
494.485	100
494.703	88
494.92	95
495.138	92
495.355	88
495.573	95
495.79	89
496.008	95
496.225	60
496.442	101
496.66	82
496.877	90
497.094	80
497.312	95
497.529	84
497.746	89
497.963	82
498.181	92
498.398	107
498.615	82
498.832	90
499.049	93
499.267	98
499.484	89
499.701	88
499.918	101
500.135	102
500.352	73
500.569	78
500.786	96
501.003	87
501.22	101
501.437	90
501.654	94
501.871	81
502.088	95
502.305	90
502.522	80
502.739	74
502.956	69
503.172	84
503.389	82
503.606	81
503.823	82
504.04	92
504.256	114
504.473	135
504.69	92
504.907	94
505.123	90
505.34	78
505.557	80
505.773	84
505.99	85
506.207	77
506.423	85
506.64	86
506.856	69
507.073	89
507.289	78
507.506	88
507.722	100
507.939	88
508.155	88
508.372	89
508.588	79
508.805	92
509.021	81
509.238	69
509.454	81
509.67	91
509.887	85
510.103	96
510.319	76
510.536	83
510.752	93
510.968	99
511.184	95
511.401	85
511.617	92
511.833	84
512.049	64
512.265	77
512.481	76
512.698	99
512.914	80
513.13	92
513.346	89
513.562	93
513.778	99
513.994	88
514.21	84
514.426	78
514.642	103
514.858	86
515.074	81
515.29	84
515.506	90
515.721	84
515.937	88
516.153	83
516.369	89
516.585	81
516.801	89
517.016	104
517.232	98
517.448	95
517.664	99
517.879	93
518.095	85
518.311	81
518.527	87
518.742	101
518.958	162
519.173	154
519.389	100
519.605	85
519.82	93
520.036	96
520.251	90
520.467	88
520.682	81
520.898	98
521.113	89
521.329	92
521.544	77
521.76	91
521.975	83
522.19	90
522.406	84
522.621	94
522.836	88
523.052	84
523.267	86
523.482	97
523.698	85
523.913	90
524.128	96
524.343	90
524.559	84
524.774	85
524.989	87
525.204	89
525.419	98
525.634	104
525.849	115
526.064	120
526.28	209
526.495	286
526.71	306
526.925	206
527.14	256
527.355	232
527.57	102
527.785	106
527.999	102
528.214	87
528.429	86
528.644	88
528.859	85
529.074	100
529.289	93
529.503	94
529.718	101
529.933	93
530.148	100
530.363	92
530.577	83
530.792	103
531.007	94
531.221	93
531.436	86
531.651	91
531.865	73
532.08	88
532.295	101
532.509	95
532.724	97
532.938	92
533.153	104
533.367	107
533.582	91
533.796	96
534.011	93
534.225	101
534.44	95
534.654	100
534.868	116
535.083	151
535.297	148
535.511	99
535.726	108
535.94	93
536.154	116
536.369	91
536.583	106
536.797	110
537.011	95
537.225	99
537.44	96
537.654	100
537.868	110
538.082	100
538.296	100
538.51	97
538.724	106
538.938	106
539.153	107
539.367	110
539.581	89
539.795	96
540.009	112
540.222	90
540.436	98
540.65	109
540.864	102
541.078	97
541.292	117
541.506	96
541.72	97
541.934	97
542.147	97
542.361	102
542.575	84
542.789	105
543.002	105
543.216	104
543.43	103
543.644	112
543.857	100
544.071	102
544.285	116
544.498	122
544.712	110
544.925	101
545.139	108
545.352	114
545.566	113
545.779	108
545.993	116
546.206	123
546.42	110
546.633	119
546.847	120
547.06	121
547.274	135
547.487	168
547.7	168
547.914	163
548.127	177
548.34	184
548.554	198
548.767	180
548.98	197
549.193	200
549.407	210
549.62	205
549.833	220
550.046	246
550.259	260
550.473	266
550.686	276
550.899	306
551.112	305
551.325	335
551.538	373
551.751	356
551.964	318
552.177	326
552.39	353
552.603	340
552.816	338
553.029	344
553.242	343
553.455	364
553.667	366
553.88	396
554.093	392
554.306	385
554.519	397
554.732	403
554.944	378
555.157	366
555.37	363
555.583	353
555.795	330
556.008	316
556.221	296
556.433	301
556.646	282
556.859	260
557.071	254
557.284	228
557.496	219
557.709	221
557.921	199
558.134	199
558.346	254
558.559	221
558.771	216
558.984	306
559.196	368
559.409	217
559.621	286
559.833	239
560.046	286
560.258	242
560.47	241
560.683	170
560.895	144
561.107	125
561.32	110
561.532	128
561.744	124
561.956	132
562.168	113
562.381	125
562.593	124
562.805	121
563.017	114
563.229	104
563.441	111
563.653	99
563.865	123
564.077	96
564.289	98
564.501	121
564.713	114
564.925	110
565.137	112
565.349	108
565.561	113
565.773	122
565.985	100
566.197	98
566.408	114
566.62	116
566.832	102
567.044	108
567.255	100
567.467	116
567.679	104
567.891	128
568.102	112
568.314	100
568.526	108
568.737	103
568.949	116
569.161	108
569.372	90
569.584	98
569.795	107
570.007	106
570.218	118
570.43	109
570.641	122
570.853	113
571.064	110
571.276	109
571.487	88
571.698	88
571.91	108
572.121	117
572.333	131
572.544	116
572.755	90
572.966	91
573.178	93
573.389	113
573.6	114
573.811	100
574.023	100
574.234	101
574.445	109
574.656	109
574.867	109
575.078	110
575.289	90
575.501	97
575.712	104
575.923	101
576.134	108
576.345	87
576.556	93
576.767	96
576.978	68
577.188	99
577.399	91
577.61	98
577.821	92
578.032	97
578.243	80
578.454	103
578.665	112
578.875	97
579.086	108
579.297	94
579.508	92
579.718	94
579.929	97
580.14	94
580.35	107
580.561	101
580.772	82
580.982	98
581.193	106
581.403	98
581.614	101
581.825	98
582.035	87
582.246	92
582.456	93
582.667	92
582.877	89
583.087	117
583.298	98
583.508	100
583.719	110
583.929	114
584.139	96
584.35	108
584.56	88
584.77	112
584.981	91
585.191	108
585.401	97
585.611	111
