Data from 10100_2_HRD10591_00038.txt Node
Date: Mon Jan 19 14:01:43 EST 2026
User: Yrep
Spectrometer: HR+D1059
Trigger mode: 1
Integration Time (sec): 1.000000E-1
Scans to average: 1
Electric dark correction enabled: true
Nonlinearity correction enabled: false
Boxcar width: 0
XAxis mode: Wavelengths
Number of Pixels in Spectrum: 2048
>>>>>Begin Spectral Data<<<<<
223.165	-10.81
223.4	-10.81
223.635	-10.81
223.869	-23.81
224.104	-12.81
224.338	-11.81
224.573	-23.81
224.808	-14.81
225.042	-10.81
225.277	-1.81
225.511	1.19
225.746	8.19
225.98	9.19
226.215	9.19
226.449	6.19
226.683	20.19
226.918	24.19
227.152	32.19
227.387	45.19
227.621	47.19
227.856	53.19
228.09	53.19
228.324	57.19
228.559	55.19
228.793	67.19
229.027	79.19
229.262	69.19
229.496	62.19
229.73	76.19
229.964	81.19
230.199	57.19
230.433	73.19
230.667	73.19
230.901	99.19
231.136	77.19
231.37	74.19
231.604	81.19
231.838	77.19
232.072	91.19
232.306	79.19
232.541	73.19
232.775	74.19
233.009	84.19
233.243	75.19
233.477	82.19
233.711	86.19
233.945	87.19
234.179	88.19
234.413	84.19
234.647	81.19
234.881	77.19
235.115	73.19
235.349	79.19
235.583	81.19
235.817	69.19
236.051	74.19
236.285	78.19
236.519	89.19
236.753	65.19
236.987	71.19
237.221	83.19
237.455	72.19
237.689	73.19
237.922	72.19
238.156	69.19
238.39	78.19
238.624	71.19
238.858	72.19
239.091	80.19
239.325	71.19
239.559	78.19
239.793	62.19
240.027	70.19
240.26	75.19
240.494	72.19
240.728	74.19
240.961	81.19
241.195	75.19
241.429	63.19
241.662	68.19
241.896	75.19
242.13	83.19
242.363	64.19
242.597	82.19
242.83	79.19
243.064	72.19
243.298	95.19
243.531	80.19
243.765	75.19
243.998	51.19
244.232	73.19
244.465	74.19
244.699	93.19
244.932	80.19
245.166	79.19
245.399	75.19
245.633	72.19
245.866	63.19
246.099	71.19
246.333	77.19
246.566	76.19
246.8	79.19
247.033	71.19
247.266	87.19
247.5	95.19
247.733	77.19
247.966	74.19
248.2	86.19
248.433	74.19
248.666	101.19
248.899	84.19
249.133	82.19
249.366	77.19
249.599	70.19
249.832	91.19
250.066	83.19
250.299	74.19
250.532	81.19
250.765	67.19
250.998	75.19
251.231	83.19
251.465	83.19
251.698	82.19
251.931	79.19
252.164	87.19
252.397	84.19
252.63	86.19
252.863	68.19
253.096	87.19
253.329	71.19
253.562	83.19
253.795	74.19
254.028	73.19
254.261	84.19
254.494	67.19
254.727	81.19
254.96	84.19
255.193	77.19
255.426	87.19
255.659	72.19
255.892	81.19
256.124	81.19
256.357	85.19
256.59	82.19
256.823	82.19
257.056	77.19
257.289	81.19
257.521	80.19
257.754	63.19
257.987	80.19
258.22	100.19
258.452	89.19
258.685	92.19
258.918	72.19
259.151	66.19
259.383	81.19
259.616	73.19
259.849	90.19
260.081	79.19
260.314	70.19
260.547	78.19
260.779	72.19
261.012	73.19
261.244	73.19
261.477	80.19
261.71	74.19
261.942	84.19
262.175	75.19
262.407	74.19
262.64	70.19
262.872	80.19
263.105	85.19
263.337	89.19
263.57	74.19
263.802	72.19
264.035	79.19
264.267	83.19
264.499	76.19
264.732	79.19
264.964	82.19
265.197	73.19
265.429	71.19
265.661	85.19
265.894	93.19
266.126	78.19
266.358	85.19
266.591	93.19
266.823	77.19
267.055	87.19
267.287	88.19
267.52	70.19
267.752	82.19
267.984	84.19
268.216	76.19
268.448	83.19
268.681	82.19
268.913	82.19
269.145	77.19
269.377	86.19
269.609	83.19
269.841	77.19
270.073	95.19
270.306	93.19
270.538	84.19
270.77	81.19
271.002	74.19
271.234	85.19
271.466	78.19
271.698	82.19
271.93	83.19
272.162	71.19
272.394	75.19
272.626	78.19
272.858	86.19
273.09	82.19
273.322	91.19
273.553	75.19
273.785	72.19
274.017	81.19
274.249	97.19
274.481	86.19
274.713	95.19
274.945	91.19
275.176	81.19
275.408	88.19
275.64	89.19
275.872	77.19
276.104	83.19
276.335	84.19
276.567	86.19
276.799	84.19
277.031	85.19
277.262	62.19
277.494	79.19
277.726	83.19
277.957	83.19
278.189	84.19
278.421	83.19
278.652	72.19
278.884	82.19
279.115	82.19
279.347	81.19
279.579	103.19
279.81	92.19
280.042	80.19
280.273	87.19
280.505	96.19
280.736	77.19
280.968	90.19
281.199	93.19
281.431	71.19
281.662	79.19
281.894	85.19
282.125	81.19
282.356	95.19
282.588	79.19
282.819	93.19
283.051	81.19
283.282	89.19
283.513	86.19
283.745	75.19
283.976	77.19
284.207	89.19
284.439	83.19
284.67	85.19
284.901	81.19
285.132	76.19
285.364	95.19
285.595	79.19
285.826	88.19
286.057	93.19
286.288	97.19
286.52	93.19
286.751	90.19
286.982	77.19
287.213	100.19
287.444	81.19
287.675	86.19
287.906	91.19
288.138	88.19
288.369	95.19
288.6	95.19
288.831	81.19
289.062	77.19
289.293	76.19
289.524	82.19
289.755	96.19
289.986	87.19
290.217	99.19
290.448	72.19
290.679	86.19
290.91	71.19
291.141	93.19
291.371	68.19
291.602	77.19
291.833	89.19
292.064	87.19
292.295	89.19
292.526	87.19
292.757	72.19
292.987	84.19
293.218	87.19
293.449	70.19
293.68	72.19
293.91	72.19
294.141	101.19
294.372	91.19
294.603	81.19
294.833	86.19
295.064	71.19
295.295	85.19
295.525	77.19
295.756	86.19
295.987	85.19
296.217	79.19
296.448	77.19
296.679	77.19
296.909	82.19
297.14	84.19
297.37	91.19
297.601	92.19
297.831	85.19
298.062	88.19
298.292	75.19
298.523	77.19
298.753	84.19
298.984	80.19
299.214	76.19
299.445	84.19
299.675	86.19
299.905	86.19
300.136	89.19
300.366	79.19
300.597	87.19
300.827	79.19
301.057	94.19
301.288	102.19
301.518	88.19
301.748	84.19
301.979	86.19
302.209	81.19
302.439	93.19
302.669	93.19
302.9	74.19
303.13	96.19
303.36	74.19
303.59	80.19
303.82	81.19
304.051	84.19
304.281	89.19
304.511	81.19
304.741	87.19
304.971	87.19
305.201	76.19
305.431	85.19
305.661	71.19
305.891	75.19
306.121	84.19
306.352	77.19
306.582	86.19
306.812	86.19
307.042	81.19
307.272	82.19
307.502	67.19
307.731	88.19
307.961	81.19
308.191	99.19
308.421	87.19
308.651	94.19
308.881	89.19
309.111	81.19
309.341	87.19
309.571	79.19
309.8	69.19
310.03	84.19
310.26	97.19
310.49	86.19
310.72	97.19
310.949	81.19
311.179	81.19
311.409	80.19
311.639	80.19
311.868	92.19
312.098	76.19
312.328	86.19
312.557	76.19
312.787	90.19
313.017	80.19
313.246	91.19
313.476	90.19
313.706	82.19
313.935	85.19
314.165	83.19
314.394	95.19
314.624	78.19
314.853	81.19
315.083	88.19
315.312	87.19
315.542	99.19
315.771	74.19
316.001	75.19
316.23	87.19
316.46	84.19
316.689	72.19
316.919	72.19
317.148	73.19
317.377	84.19
317.607	84.19
317.836	108.19
318.065	86.19
318.295	89.19
318.524	81.19
318.753	78.19
318.983	96.19
319.212	69.19
319.441	87.19
319.67	79.19
319.9	92.19
320.129	75.19
320.358	83.19
320.587	99.19
320.816	85.19
321.046	76.19
321.275	67.19
321.504	83.19
321.733	84.19
321.962	67.19
322.191	91.19
322.42	81.19
322.649	89.19
322.878	98.19
323.108	95.19
323.337	93.19
323.566	89.19
323.795	95.19
324.024	76.19
324.253	83.19
324.482	69.19
324.71	87.19
324.939	81.19
325.168	88.19
325.397	90.19
325.626	83.19
325.855	77.19
326.084	80.19
326.313	92.19
326.542	87.19
326.77	80.19
326.999	78.19
327.228	76.19
327.457	87.19
327.686	94.19
327.914	102.19
328.143	89.19
328.372	66.19
328.6	83.19
328.829	81.19
329.058	71.19
329.287	81.19
329.515	94.19
329.744	89.19
329.972	89.19
330.201	68.19
330.43	93.19
330.658	88.19
330.887	75.19
331.115	68.19
331.344	87.19
331.572	73.19
331.801	85.19
332.03	67.19
332.258	88.19
332.486	83.19
332.715	79.19
332.943	85.19
333.172	89.19
333.4	85.19
333.629	73.19
333.857	91.19
334.085	79.19
334.314	68.19
334.542	71.19
334.771	79.19
334.999	77.19
335.227	80.19
335.455	83.19
335.684	80.19
335.912	89.19
336.14	86.19
336.369	82.19
336.597	70.19
336.825	77.19
337.053	84.19
337.281	86.19
337.51	85.19
337.738	96.19
337.966	95.19
338.194	77.19
338.422	66.19
338.65	97.19
338.878	79.19
339.106	84.19
339.334	81.19
339.562	96.19
339.79	89.19
340.018	86.19
340.246	74.19
340.474	74.19
340.702	87.19
340.93	76.19
341.158	83.19
341.386	81.19
341.614	99.19
341.842	90.19
342.07	80.19
342.298	83.19
342.526	74.19
342.754	95.19
342.981	73.19
343.209	80.19
343.437	102.19
343.665	82.19
343.893	76.19
344.12	80.19
344.348	89.19
344.576	71.19
344.804	81.19
345.031	84.19
345.259	82.19
345.487	83.19
345.714	77.19
345.942	81.19
346.17	84.19
346.397	79.19
346.625	88.19
346.853	80.19
347.08	85.19
347.308	86.19
347.535	91.19
347.763	91.19
347.99	89.19
348.218	88.19
348.445	87.19
348.673	81.19
348.9	75.19
349.128	87.19
349.355	71.19
349.583	78.19
349.81	91.19
350.037	83.19
350.265	88.19
350.492	92.19
350.72	89.19
350.947	77.19
351.174	82.19
351.402	83.19
351.629	81.19
351.856	85.19
352.083	88.19
352.311	87.19
352.538	71.19
352.765	85.19
352.992	97.19
353.22	86.19
353.447	77.19
353.674	77.19
353.901	90.19
354.128	96.19
354.355	91.19
354.583	92.19
354.81	76.19
355.037	82.19
355.264	79.19
355.491	73.19
355.718	82.19
355.945	83.19
356.172	68.19
356.399	77.19
356.626	67.19
356.853	81.19
357.08	81.19
357.307	81.19
357.534	80.19
357.761	78.19
357.988	88.19
358.215	87.19
358.441	82.19
358.668	66.19
358.895	72.19
359.122	82.19
359.349	81.19
359.576	72.19
359.802	77.19
360.029	75.19
360.256	89.19
360.483	72.19
360.709	93.19
360.936	83.19
361.163	75.19
361.39	91.19
361.616	90.19
361.843	85.19
362.07	91.19
362.296	83.19
362.523	94.19
362.749	83.19
362.976	73.19
363.203	68.19
363.429	80.19
363.656	95.19
363.882	80.19
364.109	91.19
364.335	99.19
364.562	92.19
364.788	83.19
365.015	75.19
365.241	74.19
365.468	82.19
365.694	95.19
365.92	83.19
366.147	84.19
366.373	80.19
366.599	92.19
366.826	79.19
367.052	88.19
367.278	96.19
367.505	77.19
367.731	91.19
367.957	77.19
368.184	84.19
368.41	78.19
368.636	101.19
368.862	81.19
369.089	64.19
369.315	89.19
369.541	81.19
369.767	87.19
369.993	73.19
370.219	82.19
370.445	84.19
370.672	85.19
370.898	90.19
371.124	93.19
371.35	89.19
371.576	71.19
371.802	87.19
372.028	72.19
372.254	94.19
372.48	84.19
372.706	66.19
372.932	91.19
373.158	82.19
373.384	82.19
373.61	79.19
373.835	96.19
374.061	77.19
374.287	81.19
374.513	80.19
374.739	84.19
374.965	90.19
375.191	77.19
375.416	84.19
375.642	92.19
375.868	83.19
376.094	81.19
376.319	69.19
376.545	73.19
376.771	91.19
376.997	95.19
377.222	81.19
377.448	82.19
377.674	85.19
377.899	62.19
378.125	86.19
378.35	83.19
378.576	75.19
378.802	77.19
379.027	64.19
379.253	63.19
379.478	85.19
379.704	92.19
379.929	87.19
380.155	76.19
380.38	74.19
380.606	69.19
380.831	77.19
381.057	85.19
381.282	87.19
381.507	96.19
381.733	75.19
381.958	79.19
382.184	83.19
382.409	71.19
382.634	83.19
382.86	74.19
383.085	89.19
383.31	65.19
383.535	79.19
383.761	90.19
383.986	78.19
384.211	83.19
384.436	78.19
384.662	71.19
384.887	79.19
385.112	85.19
385.337	75.19
385.562	88.19
385.787	72.19
386.013	76.19
386.238	75.19
386.463	85.19
386.688	92.19
386.913	85.19
387.138	92.19
387.363	84.19
387.588	70.19
387.813	81.19
388.038	88.19
388.263	77.19
388.488	85.19
388.713	87.19
388.938	89.19
389.163	92.19
389.387	81.19
389.612	86.19
389.837	79.19
390.062	83.19
390.287	67.19
390.512	80.19
390.736	75.19
390.961	78.19
391.186	92.19
391.411	74.19
391.636	90.19
391.86	74.19
392.085	83.19
392.31	74.19
392.534	89.19
392.759	80.19
392.984	109.19
393.208	165.19
393.433	222.19
393.658	172.19
393.882	110.19
394.107	91.19
394.331	86.19
394.556	83.19
394.78	87.19
395.005	86.19
395.229	73.19
395.454	95.19
395.678	100.19
395.903	81.19
396.127	87.19
396.352	88.19
396.576	123.19
396.801	174.19
397.025	187.19
397.249	100.19
397.474	105.19
397.698	90.19
397.922	92.19
398.147	89.19
398.371	69.19
398.595	78.19
398.82	75.19
399.044	82.19
399.268	77.19
399.492	76.19
399.717	85.19
399.941	84.19
400.165	78.19
400.389	79.19
400.613	88.19
400.837	77.19
401.062	73.19
401.286	77.19
401.51	78.19
401.734	84.19
401.958	73.19
402.182	67.19
402.406	81.19
402.63	80.19
402.854	79.19
403.078	85.19
403.302	86.19
403.526	85.19
403.75	78.19
403.974	82.19
404.198	83.19
404.422	71.19
404.645	81.19
404.869	83.19
405.093	93.19
405.317	81.19
405.541	86.19
405.765	71.19
405.988	73.19
406.212	80.19
406.436	65.19
406.66	76.19
406.883	72.19
407.107	75.19
407.331	86.19
407.555	83.19
407.778	80.19
408.002	67.19
408.226	89.19
408.449	77.19
408.673	83.19
408.896	89.19
409.12	63.19
409.344	85.19
409.567	93.19
409.791	78.19
410.014	83.19
410.238	68.19
410.461	74.19
410.685	88.19
410.908	91.19
411.132	85.19
411.355	70.19
411.578	81.19
411.802	90.19
412.025	80.19
412.249	88.19
412.472	68.19
412.695	97.19
412.919	71.19
413.142	83.19
413.365	71.19
413.589	86.19
413.812	79.19
414.035	79.19
414.258	73.19
414.482	83.19
414.705	100.19
414.928	88.19
415.151	73.19
415.374	73.19
415.597	89.19
415.821	83.19
416.044	85.19
416.267	96.19
416.49	78.19
416.713	72.19
416.936	75.19
417.159	76.19
417.382	78.19
417.605	71.19
417.828	84.19
418.051	84.19
418.274	82.19
418.497	72.19
418.72	81.19
418.943	92.19
419.166	84.19
419.389	92.19
419.611	81.19
419.834	82.19
420.057	85.19
420.28	68.19
420.503	67.19
420.726	79.19
420.948	67.19
421.171	73.19
421.394	91.19
421.617	84.19
421.839	81.19
422.062	80.19
422.285	81.19
422.507	115.19
422.73	145.19
422.953	125.19
423.175	105.19
423.398	91.19
423.621	88.19
423.843	75.19
424.066	87.19
424.288	88.19
424.511	91.19
424.733	75.19
424.956	78.19
425.178	87.19
425.401	84.19
425.623	73.19
425.846	73.19
426.068	78.19
426.291	79.19
426.513	78.19
426.735	92.19
426.958	81.19
427.18	73.19
427.402	85.19
427.625	80.19
427.847	77.19
428.069	72.19
428.292	94.19
428.514	92.19
428.736	88.19
428.958	79.19
429.181	84.19
429.403	87.19
429.625	77.19
429.847	91.19
430.069	87.19
430.292	100.19
430.514	99.19
430.736	93.19
430.958	97.19
431.18	95.19
431.402	84.19
431.624	83.19
431.846	85.19
432.068	84.19
432.29	101.19
432.512	78.19
432.734	77.19
432.956	84.19
433.178	89.19
433.4	68.19
433.622	75.19
433.844	96.19
434.066	77.19
434.287	78.19
434.509	71.19
434.731	69.19
434.953	83.19
435.175	79.19
435.397	74.19
435.618	74.19
435.84	88.19
436.062	79.19
436.284	81.19
436.505	74.19
436.727	70.19
436.949	69.19
437.17	99.19
437.392	81.19
437.614	69.19
437.835	87.19
438.057	79.19
438.278	84.19
438.5	88.19
438.721	87.19
438.943	78.19
439.165	60.19
439.386	80.19
439.608	69.19
439.829	79.19
440.05	86.19
440.272	97.19
440.493	87.19
440.715	74.19
440.936	78.19
441.158	83.19
441.379	66.19
441.6	77.19
441.822	77.19
442.043	73.19
442.264	81.19
442.486	81.19
442.707	88.19
442.928	88.19
443.149	96.19
443.371	80.19
443.592	100.19
443.813	109.19
444.034	81.19
444.255	71.19
444.476	85.19
444.698	79.19
444.919	90.19
445.14	172.19
445.361	144.19
445.582	119.19
445.803	110.19
446.024	88.19
446.245	88.19
446.466	76.19
446.687	73.19
446.908	77.19
447.129	88.19
447.35	83.19
447.571	81.19
447.792	77.19
448.013	72.19
448.234	86.19
448.455	80.19
448.675	72.19
448.896	69.19
449.117	89.19
449.338	70.19
449.559	93.19
449.779	83.19
450	79.19
450.221	73.19
450.442	83.19
450.662	72.19
450.883	74.19
451.104	67.19
451.324	91.19
451.545	75.19
451.766	84.19
451.986	80.19
452.207	88.19
452.428	72.19
452.648	89.19
452.869	95.19
453.089	80.19
453.31	76.19
453.53	72.19
453.751	72.19
453.971	86.19
454.192	98.19
454.412	86.19
454.633	79.19
454.853	77.19
455.073	79.19
455.294	84.19
455.514	85.19
455.734	82.19
455.955	83.19
456.175	79.19
456.395	73.19
456.616	89.19
456.836	79.19
457.056	87.19
457.276	76.19
457.497	88.19
457.717	79.19
457.937	70.19
458.157	79.19
458.377	84.19
458.598	81.19
458.818	72.19
459.038	77.19
459.258	71.19
459.478	88.19
459.698	88.19
459.918	86.19
460.138	82.19
460.358	88.19
460.578	88.19
460.798	95.19
461.018	79.19
461.238	74.19
461.458	75.19
461.678	80.19
461.898	72.19
462.118	79.19
462.338	69.19
462.558	67.19
462.777	79.19
462.997	67.19
463.217	79.19
463.437	90.19
463.657	75.19
463.876	72.19
464.096	84.19
464.316	87.19
464.536	79.19
464.755	79.19
464.975	93.19
465.195	83.19
465.414	73.19
465.634	65.19
465.854	69.19
466.073	86.19
466.293	72.19
466.512	83.19
466.732	77.19
466.951	91.19
467.171	77.19
467.391	69.19
467.61	67.19
467.829	84.19
468.049	89.19
468.268	98.19
468.488	84.19
468.707	69.19
468.927	82.19
469.146	85.19
469.365	84.19
469.585	97.19
469.804	92.19
470.023	73.19
470.243	74.19
470.462	90.19
470.681	72.19
470.901	83.19
471.12	77.19
471.339	94.19
471.558	77.19
471.777	82.19
471.997	87.19
472.216	73.19
472.435	80.19
472.654	67.19
472.873	77.19
473.092	67.19
473.311	89.19
473.53	82.19
473.749	65.19
473.968	83.19
474.187	75.19
474.406	85.19
474.625	85.19
474.844	73.19
475.063	71.19
475.282	83.19
475.501	88.19
475.72	92.19
475.939	83.19
476.158	76.19
476.377	77.19
476.596	84.19
476.814	77.19
477.033	79.19
477.252	80.19
477.471	79.19
477.69	83.19
477.908	73.19
478.127	68.19
478.346	75.19
478.564	88.19
478.783	66.19
479.002	86.19
479.22	84.19
479.439	60.19
479.658	69.19
479.876	84.19
480.095	79.19
480.313	97.19
480.532	81.19
480.751	86.19
480.969	79.19
481.188	79.19
481.406	73.19
481.624	92.19
481.843	82.19
482.061	90.19
482.28	76.19
482.498	67.19
482.717	71.19
482.935	67.19
483.153	78.19
483.372	73.19
483.59	87.19
483.808	73.19
484.027	81.19
484.245	83.19
484.463	88.19
484.681	87.19
484.9	75.19
485.118	75.19
485.336	79.19
485.554	90.19
485.772	70.19
485.99	91.19
486.209	83.19
486.427	73.19
486.645	82.19
486.863	80.19
487.081	77.19
487.299	89.19
487.517	85.19
487.735	84.19
487.953	89.19
488.171	98.19
488.389	79.19
488.607	74.19
488.825	84.19
489.043	73.19
489.261	97.19
489.479	74.19
489.696	81.19
489.914	83.19
490.132	85.19
490.35	67.19
490.568	69.19
490.786	95.19
491.003	91.19
491.221	84.19
491.439	78.19
491.657	66.19
491.874	86.19
492.092	96.19
492.31	81.19
492.527	76.19
492.745	91.19
492.963	85.19
493.18	78.19
493.398	81.19
493.615	75.19
493.833	77.19
494.05	90.19
494.268	88.19
494.485	77.19
494.703	86.19
494.92	88.19
495.138	78.19
495.355	84.19
495.573	91.19
495.79	90.19
496.008	80.19
496.225	100.19
496.442	92.19
496.66	91.19
496.877	96.19
497.094	87.19
497.312	83.19
497.529	83.19
497.746	82.19
497.963	85.19
498.181	98.19
498.398	85.19
498.615	71.19
498.832	77.19
499.049	80.19
499.267	61.19
499.484	69.19
499.701	87.19
499.918	81.19
500.135	82.19
500.352	89.19
500.569	89.19
500.786	84.19
501.003	70.19
501.22	86.19
501.437	95.19
501.654	84.19
501.871	86.19
502.088	72.19
502.305	83.19
502.522	79.19
502.739	92.19
502.956	86.19
503.172	87.19
503.389	82.19
503.606	87.19
503.823	92.19
504.04	95.19
504.256	89.19
504.473	95.19
504.69	75.19
504.907	88.19
505.123	79.19
505.34	77.19
505.557	79.19
505.773	88.19
505.99	81.19
506.207	75.19
506.423	76.19
506.64	95.19
506.856	77.19
507.073	91.19
507.289	73.19
507.506	87.19
507.722	78.19
507.939	68.19
508.155	89.19
508.372	83.19
508.588	91.19
508.805	85.19
509.021	81.19
509.238	67.19
509.454	79.19
509.67	81.19
509.887	79.19
510.103	81.19
510.319	85.19
510.536	90.19
510.752	90.19
510.968	78.19
511.184	67.19
511.401	84.19
511.617	95.19
511.833	88.19
512.049	79.19
512.265	95.19
512.481	82.19
512.698	75.19
512.914	83.19
513.13	90.19
513.346	87.19
513.562	75.19
513.778	87.19
513.994	72.19
514.21	79.19
514.426	73.19
514.642	93.19
514.858	83.19
515.074	84.19
515.29	80.19
515.506	89.19
515.721	90.19
515.937	101.19
516.153	89.19
516.369	79.19
516.585	80.19
516.801	93.19
517.016	83.19
517.232	93.19
517.448	84.19
517.664	88.19
517.879	92.19
518.095	71.19
518.311	79.19
518.527	95.19
518.742	88.19
518.958	88.19
519.173	96.19
519.389	85.19
519.605	95.19
519.82	88.19
