Data from 10100_2_HRD10591_00021.txt Node
Date: Mon Jan 19 14:01:34 EST 2026
User: Yrep
Spectrometer: HR+D1059
Trigger mode: 1
Integration Time (sec): 1.000000E-1
Scans to average: 1
Electric dark correction enabled: true
Nonlinearity correction enabled: false
Boxcar width: 0
XAxis mode: Wavelengths
Number of Pixels in Spectrum: 2048
>>>>>Begin Spectral Data<<<<<
223.165	-17.06
223.4	-17.06
223.635	-17.06
223.869	-29.06
224.104	-24.06
224.338	-23.06
224.573	-13.06
224.808	-15.06
225.042	-9.06
225.277	-3.06
225.511	-3.06
225.746	1.94
225.98	17.94
226.215	17.94
226.449	9.94
226.683	17.94
226.918	35.94
227.152	34.94
227.387	30.94
227.621	29.94
227.856	48.94
228.09	36.94
228.324	36.94
228.559	59.94
228.793	64.94
229.027	62.94
229.262	68.94
229.496	76.94
229.73	57.94
229.964	67.94
230.199	64.94
230.433	71.94
230.667	82.94
230.901	72.94
231.136	85.94
231.37	82.94
231.604	77.94
231.838	84.94
232.072	76.94
232.306	80.94
232.541	82.94
232.775	81.94
233.009	82.94
233.243	76.94
233.477	76.94
233.711	79.94
233.945	82.94
234.179	72.94
234.413	98.94
234.647	79.94
234.881	80.94
235.115	76.94
235.349	73.94
235.583	82.94
235.817	85.94
236.051	71.94
236.285	82.94
236.519	79.94
236.753	81.94
236.987	73.94
237.221	81.94
237.455	66.94
237.689	75.94
237.922	84.94
238.156	70.94
238.39	76.94
238.624	79.94
238.858	77.94
239.091	74.94
239.325	66.94
239.559	82.94
239.793	75.94
240.027	76.94
240.26	75.94
240.494	66.94
240.728	81.94
240.961	76.94
241.195	60.94
241.429	73.94
241.662	67.94
241.896	84.94
242.13	71.94
242.363	56.94
242.597	66.94
242.83	73.94
243.064	77.94
243.298	66.94
243.531	82.94
243.765	75.94
243.998	71.94
244.232	92.94
244.465	75.94
244.699	77.94
244.932	81.94
245.166	68.94
245.399	76.94
245.633	81.94
245.866	70.94
246.099	90.94
246.333	61.94
246.566	75.94
246.8	82.94
247.033	77.94
247.266	85.94
247.5	69.94
247.733	72.94
247.966	78.94
248.2	60.94
248.433	82.94
248.666	86.94
248.899	81.94
249.133	68.94
249.366	88.94
249.599	73.94
249.832	87.94
250.066	72.94
250.299	83.94
250.532	86.94
250.765	85.94
250.998	69.94
251.231	89.94
251.465	79.94
251.698	75.94
251.931	100.94
252.164	89.94
252.397	84.94
252.63	103.94
252.863	78.94
253.096	96.94
253.329	92.94
253.562	88.94
253.795	82.94
254.028	82.94
254.261	79.94
254.494	82.94
254.727	86.94
254.96	80.94
255.193	79.94
255.426	88.94
255.659	63.94
255.892	86.94
256.124	73.94
256.357	86.94
256.59	74.94
256.823	77.94
257.056	76.94
257.289	86.94
257.521	79.94
257.754	84.94
257.987	82.94
258.22	93.94
258.452	84.94
258.685	70.94
258.918	80.94
259.151	66.94
259.383	74.94
259.616	88.94
259.849	84.94
260.081	82.94
260.314	88.94
260.547	83.94
260.779	75.94
261.012	92.94
261.244	87.94
261.477	87.94
261.71	87.94
261.942	78.94
262.175	88.94
262.407	82.94
262.64	77.94
262.872	61.94
263.105	73.94
263.337	89.94
263.57	83.94
263.802	80.94
264.035	84.94
264.267	86.94
264.499	73.94
264.732	96.94
264.964	80.94
265.197	74.94
265.429	85.94
265.661	84.94
265.894	88.94
266.126	87.94
266.358	84.94
266.591	65.94
266.823	79.94
267.055	92.94
267.287	80.94
267.52	73.94
267.752	86.94
267.984	82.94
268.216	86.94
268.448	88.94
268.681	79.94
268.913	88.94
269.145	84.94
269.377	79.94
269.609	92.94
269.841	108.94
270.073	83.94
270.306	79.94
270.538	96.94
270.77	84.94
271.002	80.94
271.234	80.94
271.466	93.94
271.698	85.94
271.93	73.94
272.162	88.94
272.394	101.94
272.626	87.94
272.858	90.94
273.09	80.94
273.322	79.94
273.553	70.94
273.785	88.94
274.017	96.94
274.249	94.94
274.481	84.94
274.713	92.94
274.945	97.94
275.176	80.94
275.408	88.94
275.64	97.94
275.872	80.94
276.104	89.94
276.335	86.94
276.567	82.94
276.799	74.94
277.031	93.94
277.262	70.94
277.494	74.94
277.726	92.94
277.957	84.94
278.189	83.94
278.421	83.94
278.652	89.94
278.884	87.94
279.115	101.94
279.347	86.94
279.579	102.94
279.81	105.94
280.042	86.94
280.273	97.94
280.505	100.94
280.736	76.94
280.968	93.94
281.199	86.94
281.431	80.94
281.662	75.94
281.894	94.94
282.125	96.94
282.356	89.94
282.588	98.94
282.819	75.94
283.051	80.94
283.282	81.94
283.513	96.94
283.745	70.94
283.976	94.94
284.207	87.94
284.439	93.94
284.67	98.94
284.901	83.94
285.132	101.94
285.364	113.94
285.595	105.94
285.826	96.94
286.057	98.94
286.288	99.94
286.52	95.94
286.751	87.94
286.982	76.94
287.213	94.94
287.444	84.94
287.675	90.94
287.906	94.94
288.138	110.94
288.369	93.94
288.6	89.94
288.831	88.94
289.062	99.94
289.293	100.94
289.524	85.94
289.755	78.94
289.986	84.94
290.217	72.94
290.448	96.94
290.679	84.94
290.91	99.94
291.141	83.94
291.371	80.94
291.602	104.94
291.833	96.94
292.064	98.94
292.295	92.94
292.526	90.94
292.757	76.94
292.987	83.94
293.218	77.94
293.449	74.94
293.68	89.94
293.91	84.94
294.141	86.94
294.372	86.94
294.603	82.94
294.833	97.94
295.064	87.94
295.295	95.94
295.525	88.94
295.756	106.94
295.987	80.94
296.217	91.94
296.448	99.94
296.679	90.94
296.909	88.94
297.14	88.94
297.37	104.94
297.601	95.94
297.831	90.94
298.062	93.94
298.292	72.94
298.523	102.94
298.753	85.94
298.984	98.94
299.214	102.94
299.445	99.94
299.675	108.94
299.905	132.94
300.136	110.94
300.366	120.94
300.597	100.94
300.827	115.94
301.057	114.94
301.288	102.94
301.518	104.94
301.748	86.94
301.979	98.94
302.209	108.94
302.439	84.94
302.669	86.94
302.9	89.94
303.13	95.94
303.36	94.94
303.59	86.94
303.82	88.94
304.051	85.94
304.281	84.94
304.511	96.94
304.741	82.94
304.971	92.94
305.201	97.94
305.431	97.94
305.661	95.94
305.891	97.94
306.121	105.94
306.352	88.94
306.582	89.94
306.812	88.94
307.042	86.94
307.272	94.94
307.502	93.94
307.731	97.94
307.961	103.94
308.191	118.94
308.421	117.94
308.651	116.94
308.881	109.94
309.111	122.94
309.341	132.94
309.571	114.94
309.8	107.94
310.03	88.94
310.26	86.94
310.49	86.94
310.72	82.94
310.949	92.94
311.179	86.94
311.409	88.94
311.639	79.94
311.868	77.94
312.098	97.94
312.328	89.94
312.557	89.94
312.787	84.94
313.017	75.94
313.246	89.94
313.476	82.94
313.706	96.94
313.935	104.94
314.165	117.94
314.394	86.94
314.624	97.94
314.853	105.94
315.083	87.94
315.312	97.94
315.542	125.94
315.771	116.94
316.001	119.94
316.23	117.94
316.46	95.94
316.689	104.94
316.919	100.94
317.148	100.94
317.377	124.94
317.607	109.94
317.836	142.94
318.065	163.94
318.295	135.94
318.524	116.94
318.753	102.94
318.983	116.94
319.212	91.94
319.441	87.94
319.67	99.94
319.9	105.94
320.129	102.94
320.358	94.94
320.587	108.94
320.816	113.94
321.046	101.94
321.275	99.94
321.504	115.94
321.733	114.94
321.962	109.94
322.191	102.94
322.42	110.94
322.649	106.94
322.878	108.94
323.108	95.94
323.337	92.94
323.566	110.94
323.795	95.94
324.024	100.94
324.253	88.94
324.482	89.94
324.71	106.94
324.939	109.94
325.168	75.94
325.397	92.94
325.626	82.94
325.855	92.94
326.084	81.94
326.313	89.94
326.542	93.94
326.77	96.94
326.999	92.94
327.228	93.94
327.457	96.94
327.686	88.94
327.914	83.94
328.143	95.94
328.372	84.94
328.6	90.94
328.829	108.94
329.058	95.94
329.287	84.94
329.515	87.94
329.744	93.94
329.972	102.94
330.201	107.94
330.43	92.94
330.658	84.94
330.887	97.94
331.115	84.94
331.344	92.94
331.572	93.94
331.801	84.94
332.03	86.94
332.258	79.94
332.486	87.94
332.715	111.94
332.943	78.94
333.172	88.94
333.4	110.94
333.629	101.94
333.857	97.94
334.085	98.94
334.314	121.94
334.542	120.94
334.771	137.94
334.999	137.94
335.227	145.94
335.455	112.94
335.684	131.94
335.912	148.94
336.14	164.94
336.369	136.94
336.597	115.94
336.825	112.94
337.053	109.94
337.281	106.94
337.51	91.94
337.738	80.94
337.966	89.94
338.194	102.94
338.422	94.94
338.65	85.94
338.878	115.94
339.106	92.94
339.334	95.94
339.562	108.94
339.79	86.94
340.018	81.94
340.246	97.94
340.474	104.94
340.702	100.94
340.93	90.94
341.158	96.94
341.386	108.94
341.614	84.94
341.842	85.94
342.07	100.94
342.298	89.94
342.526	94.94
342.754	92.94
342.981	89.94
343.209	73.94
343.437	108.94
343.665	97.94
343.893	90.94
344.12	128.94
344.348	105.94
344.576	105.94
344.804	103.94
345.031	101.94
345.259	101.94
345.487	97.94
345.714	87.94
345.942	108.94
346.17	93.94
346.397	98.94
346.625	104.94
346.853	110.94
347.08	110.94
347.308	97.94
347.535	108.94
347.763	124.94
347.99	94.94
348.218	98.94
348.445	85.94
348.673	116.94
348.9	110.94
349.128	119.94
349.355	94.94
349.583	95.94
349.81	94.94
350.037	94.94
350.265	108.94
350.492	87.94
350.72	88.94
350.947	92.94
351.174	101.94
351.402	94.94
351.629	102.94
351.856	113.94
352.083	110.94
352.311	100.94
352.538	98.94
352.765	91.94
352.992	89.94
353.22	88.94
353.447	96.94
353.674	87.94
353.901	90.94
354.128	104.94
354.355	97.94
354.583	96.94
354.81	82.94
355.037	93.94
355.264	89.94
355.491	94.94
355.718	113.94
355.945	112.94
356.172	92.94
356.399	99.94
356.626	116.94
356.853	118.94
357.08	111.94
357.307	116.94
357.534	93.94
357.761	103.94
357.988	126.94
358.215	139.94
358.441	126.94
358.668	120.94
358.895	99.94
359.122	104.94
359.349	114.94
359.576	125.94
359.802	115.94
360.029	96.94
360.256	110.94
360.483	106.94
360.709	114.94
360.936	133.94
361.163	110.94
361.39	103.94
361.616	116.94
361.843	126.94
362.07	146.94
362.296	170.94
362.523	219.94
362.749	199.94
362.976	271.94
363.203	303.94
363.429	212.94
363.656	152.94
363.882	151.94
364.109	223.94
364.335	330.94
364.562	390.94
364.788	236.94
365.015	154.94
365.241	108.94
365.468	120.94
365.694	110.94
365.92	112.94
366.147	110.94
366.373	99.94
366.599	90.94
366.826	113.94
367.052	92.94
367.278	106.94
367.505	124.94
367.731	121.94
367.957	110.94
368.184	105.94
368.41	108.94
368.636	92.94
368.862	118.94
369.089	103.94
369.315	92.94
369.541	88.94
369.767	79.94
369.993	96.94
370.219	109.94
370.445	127.94
370.672	161.94
370.898	133.94
371.124	118.94
371.35	97.94
371.576	96.94
371.802	110.94
372.028	130.94
372.254	126.94
372.48	105.94
372.706	107.94
372.932	114.94
373.158	122.94
373.384	165.94
373.61	216.94
373.835	204.94
374.061	153.94
374.287	140.94
374.513	164.94
374.739	159.94
374.965	152.94
375.191	161.94
375.416	135.94
375.642	133.94
375.868	130.94
376.094	123.94
376.319	120.94
376.545	123.94
376.771	120.94
376.997	106.94
377.222	94.94
377.448	97.94
377.674	103.94
377.899	96.94
378.125	87.94
378.35	112.94
378.576	87.94
378.802	102.94
379.027	108.94
379.253	117.94
379.478	98.94
379.704	112.94
379.929	124.94
380.155	101.94
380.38	96.94
380.606	112.94
380.831	130.94
381.057	104.94
381.282	111.94
381.507	129.94
381.733	130.94
381.958	136.94
382.184	148.94
382.409	147.94
382.634	164.94
382.86	164.94
383.085	138.94
383.31	161.94
383.535	172.94
383.761	180.94
383.986	178.94
384.211	143.94
384.436	133.94
384.662	119.94
384.887	113.94
385.112	137.94
385.337	118.94
385.562	137.94
385.787	150.94
386.013	158.94
386.238	152.94
386.463	130.94
386.688	158.94
386.913	138.94
387.138	143.94
387.363	143.94
387.588	153.94
387.813	165.94
388.038	169.94
388.263	143.94
388.488	154.94
388.713	142.94
388.938	133.94
389.163	116.94
389.387	129.94
389.612	127.94
389.837	121.94
390.062	114.94
390.287	128.94
390.512	126.94
390.736	124.94
390.961	128.94
391.186	127.94
391.411	126.94
391.636	120.94
391.86	135.94
392.085	162.94
392.31	186.94
392.534	214.94
392.759	302.94
392.984	486.94
393.208	943.94
393.433	1368.94
393.658	1026.94
393.882	394.94
394.107	256.94
394.331	248.94
394.556	273.94
394.78	222.94
395.005	164.94
395.229	157.94
395.454	199.94
395.678	212.94
395.903	268.94
396.127	344.94
396.352	400.94
396.576	535.94
396.801	898.94
397.025	1060.94
397.249	548.94
397.474	329.94
397.698	201.94
397.922	145.94
398.147	137.94
398.371	133.94
398.595	122.94
398.82	101.94
399.044	121.94
399.268	108.94
399.492	116.94
399.717	121.94
399.941	128.94
400.165	118.94
400.389	94.94
400.613	106.94
400.837	114.94
401.062	100.94
401.286	102.94
401.51	111.94
401.734	101.94
401.958	90.94
402.182	109.94
402.406	100.94
402.63	104.94
402.854	105.94
403.078	110.94
403.302	108.94
403.526	112.94
403.75	109.94
403.974	111.94
404.198	98.94
404.422	110.94
404.645	130.94
404.869	127.94
405.093	119.94
405.317	98.94
405.541	97.94
405.765	100.94
405.988	111.94
406.212	110.94
406.436	132.94
406.66	126.94
406.883	104.94
407.107	124.94
407.331	136.94
407.555	144.94
407.778	201.94
408.002	214.94
408.226	126.94
408.449	101.94
408.673	114.94
408.896	118.94
409.12	124.94
409.344	157.94
409.567	179.94
409.791	206.94
410.014	205.94
410.238	190.94
410.461	132.94
410.685	128.94
410.908	111.94
411.132	114.94
411.355	118.94
411.578	121.94
411.802	103.94
412.025	119.94
412.249	108.94
412.472	106.94
412.695	116.94
412.919	99.94
413.142	108.94
413.365	122.94
413.589	97.94
413.812	103.94
414.035	103.94
414.258	118.94
414.482	104.94
414.705	94.94
414.928	104.94
415.151	116.94
415.374	105.94
415.597	100.94
415.821	110.94
416.044	102.94
416.267	103.94
416.49	90.94
416.713	94.94
416.936	103.94
417.159	105.94
417.382	104.94
417.605	96.94
417.828	98.94
418.051	92.94
418.274	94.94
418.497	100.94
418.72	105.94
418.943	113.94
419.166	112.94
419.389	101.94
419.611	98.94
419.834	113.94
420.057	111.94
420.28	116.94
420.503	140.94
420.726	121.94
420.948	138.94
421.171	152.94
421.394	191.94
421.617	247.94
421.839	287.94
422.062	316.94
422.285	499.94
422.507	963.94
422.73	1422.94
422.953	1260.94
423.175	711.94
423.398	378.94
423.621	248.94
423.843	203.94
424.066	179.94
424.288	165.94
424.511	140.94
424.733	111.94
424.956	136.94
425.178	141.94
425.401	135.94
425.623	123.94
425.846	114.94
426.068	103.94
426.291	112.94
426.513	106.94
426.735	108.94
426.958	112.94
427.18	145.94
427.402	143.94
427.625	119.94
427.847	146.94
428.069	163.94
428.292	304.94
428.514	350.94
428.736	230.94
428.958	308.94
429.181	340.94
429.403	178.94
429.625	174.94
429.847	268.94
430.069	466.94
430.292	545.94
430.514	505.94
430.736	336.94
430.958	388.94
431.18	195.94
431.402	129.94
431.624	153.94
431.846	282.94
432.068	341.94
432.29	160.94
432.512	145.94
432.734	133.94
432.956	105.94
433.178	93.94
433.4	118.94
433.622	95.94
433.844	112.94
434.066	95.94
434.287	87.94
434.509	109.94
434.731	95.94
434.953	94.94
435.175	112.94
435.397	134.94
435.618	139.94
435.84	143.94
436.062	118.94
436.284	123.94
436.505	105.94
436.727	109.94
436.949	96.94
437.17	80.94
437.392	95.94
437.614	104.94
437.835	105.94
438.057	98.94
438.278	121.94
438.5	143.94
438.721	119.94
438.943	111.94
439.165	110.94
439.386	101.94
439.608	108.94
439.829	102.94
440.05	116.94
440.272	101.94
440.493	124.94
440.715	119.94
440.936	101.94
441.158	103.94
441.379	111.94
441.6	125.94
441.822	108.94
442.043	127.94
442.264	168.94
442.486	346.94
442.707	521.94
442.928	306.94
443.149	237.94
443.371	446.94
443.592	874.94
443.813	733.94
444.034	249.94
444.255	153.94
444.476	142.94
444.698	124.94
444.919	153.94
445.14	308.94
445.361	568.94
445.582	1084.94
445.803	954.94
446.024	297.94
446.245	151.94
446.466	126.94
446.687	105.94
446.908	92.94
447.129	112.94
447.35	97.94
447.571	98.94
447.792	91.94
448.013	100.94
448.234	102.94
448.455	111.94
448.675	92.94
448.896	84.94
449.117	94.94
449.338	99.94
449.559	98.94
449.779	87.94
450	94.94
450.221	86.94
450.442	78.94
450.662	95.94
450.883	104.94
451.104	112.94
451.324	102.94
451.545	100.94
451.766	95.94
451.986	102.94
452.207	121.94
452.428	112.94
452.648	132.94
452.869	184.94
453.089	156.94
453.31	140.94
453.53	132.94
453.751	122.94
453.971	87.94
454.192	101.94
454.412	97.94
454.633	111.94
454.853	89.94
455.073	101.94
455.294	125.94
455.514	132.94
455.734	122.94
455.955	102.94
456.175	94.94
456.395	91.94
456.616	98.94
456.836	102.94
457.056	109.94
457.276	105.94
457.497	108.94
457.717	142.94
457.937	240.94
458.157	348.94
458.377	352.94
458.598	330.94
458.818	372.94
459.038	184.94
459.258	105.94
459.478	95.94
459.698	102.94
459.918	89.94
460.138	102.94
460.358	109.94
460.578	141.94
460.798	212.94
461.018	202.94
461.238	111.94
461.458	116.94
461.678	97.94
461.898	85.94
462.118	104.94
462.338	108.94
462.558	88.94
462.777	100.94
462.997	98.94
463.217	99.94
463.437	93.94
463.657	91.94
463.876	98.94
464.096	88.94
464.316	97.94
464.536	92.94
464.755	101.94
464.975	96.94
465.195	94.94
465.414	93.94
465.634	110.94
465.854	86.94
466.073	88.94
466.293	91.94
466.512	84.94
466.732	103.94
466.951	99.94
467.171	82.94
467.391	94.94
467.61	96.94
467.829	97.94
468.049	96.94
468.268	105.94
468.488	121.94
468.707	122.94
468.927	117.94
469.146	95.94
469.365	102.94
469.585	96.94
469.804	97.94
470.023	94.94
470.243	96.94
470.462	82.94
470.681	91.94
470.901	104.94
471.12	103.94
471.339	108.94
471.558	86.94
471.777	110.94
471.997	89.94
472.216	97.94
472.435	78.94
472.654	91.94
472.873	99.94
473.092	98.94
473.311	114.94
473.53	106.94
473.749	93.94
473.968	103.94
474.187	103.94
474.406	99.94
474.625	88.94
474.844	101.94
475.063	95.94
475.282	97.94
475.501	100.94
475.72	105.94
475.939	100.94
476.158	93.94
476.377	90.94
476.596	97.94
476.814	114.94
477.033	97.94
477.252	97.94
477.471	99.94
477.69	119.94
477.908	101.94
478.127	101.94
478.346	94.94
478.564	99.94
478.783	90.94
479.002	99.94
479.22	96.94
479.439	102.94
479.658	105.94
479.876	101.94
480.095	112.94
480.313	94.94
480.532	112.94
480.751	92.94
480.969	123.94
481.188	116.94
481.406	128.94
481.624	112.94
481.843	112.94
482.061	112.94
482.28	103.94
482.498	111.94
482.717	114.94
482.935	108.94
483.153	123.94
483.372	130.94
483.59	120.94
483.808	101.94
484.027	121.94
484.245	119.94
484.463	102.94
484.681	134.94
484.9	131.94
485.118	103.94
485.336	101.94
485.554	101.94
485.772	118.94
485.99	117.94
486.209	94.94
486.427	101.94
486.645	101.94
486.863	98.94
487.081	123.94
487.299	127.94
487.517	159.94
487.735	279.94
487.953	602.94
488.171	471.94
488.389	157.94
488.607	114.94
488.825	110.94
489.043	119.94
489.261	127.94
489.479	102.94
489.696	103.94
489.914	98.94
490.132	98.94
490.35	111.94
490.568	100.94
490.786	95.94
491.003	104.94
491.221	100.94
491.439	104.94
491.657	113.94
491.874	105.94
492.092	108.94
492.31	120.94
492.527	99.94
492.745	102.94
492.963	106.94
493.18	104.94
493.398	129.94
493.615	143.94
493.833	124.94
494.05	105.94
494.268	110.94
494.485	86.94
494.703	107.94
494.92	100.94
495.138	103.94
495.355	105.94
495.573	104.94
495.79	100.94
496.008	135.94
496.225	110.94
496.442	110.94
496.66	99.94
496.877	126.94
497.094	116.94
497.312	102.94
497.529	102.94
497.746	107.94
497.963	114.94
498.181	130.94
498.398	176.94
498.615	125.94
498.832	89.94
499.049	99.94
499.267	150.94
499.484	116.94
499.701	111.94
499.918	125.94
500.135	137.94
500.352	125.94
500.569	113.94
500.786	126.94
501.003	129.94
501.22	110.94
501.437	129.94
501.654	159.94
501.871	105.94
502.088	113.94
502.305	112.94
502.522	104.94
502.739	102.94
502.956	103.94
503.172	118.94
503.389	121.94
503.606	121.94
503.823	154.94
504.04	202.94
504.256	406.94
504.473	421.94
504.69	165.94
504.907	128.94
505.123	115.94
505.34	97.94
505.557	120.94
505.773	104.94
505.99	100.94
506.207	96.94
506.423	89.94
506.64	106.94
506.856	113.94
507.073	96.94
507.289	108.94
507.506	103.94
507.722	118.94
507.939	101.94
508.155	109.94
508.372	88.94
508.588	112.94
508.805	112.94
509.021	107.94
509.238	91.94
509.454	95.94
509.67	101.94
509.887	96.94
510.103	87.94
510.319	92.94
510.536	95.94
