Data from 10100_2_HRD10591_00010.txt Node
Date: Mon Jan 19 14:01:29 EST 2026
User: Yrep
Spectrometer: HR+D1059
Trigger mode: 1
Integration Time (sec): 1.000000E-1
Scans to average: 1
Electric dark correction enabled: true
Nonlinearity correction enabled: false
Boxcar width: 0
XAxis mode: Wavelengths
Number of Pixels in Spectrum: 2048
>>>>>Begin Spectral Data<<<<<
223.165	-21.5
223.4	-21.5
223.635	-21.5
223.869	-15.5
224.104	-14.5
224.338	-27.5
224.573	-8.5
224.808	-8.5
225.042	1.5
225.277	-9.5
225.511	-2.5
225.746	6.5
225.98	10.5
226.215	-2.5
226.449	30.5
226.683	23.5
226.918	11.5
227.152	26.5
227.387	30.5
227.621	33.5
227.856	29.5
228.09	49.5
228.324	51.5
228.559	38.5
228.793	61.5
229.027	51.5
229.262	55.5
229.496	52.5
229.73	72.5
229.964	79.5
230.199	69.5
230.433	62.5
230.667	84.5
230.901	67.5
231.136	70.5
231.37	81.5
231.604	78.5
231.838	68.5
232.072	75.5
232.306	95.5
232.541	87.5
232.775	82.5
233.009	79.5
233.243	75.5
233.477	67.5
233.711	80.5
233.945	71.5
234.179	79.5
234.413	86.5
234.647	79.5
234.881	84.5
235.115	83.5
235.349	85.5
235.583	95.5
235.817	81.5
236.051	69.5
236.285	64.5
236.519	82.5
236.753	75.5
236.987	63.5
237.221	63.5
237.455	80.5
237.689	80.5
237.922	68.5
238.156	73.5
238.39	73.5
238.624	80.5
238.858	66.5
239.091	72.5
239.325	82.5
239.559	57.5
239.793	67.5
240.027	74.5
240.26	81.5
240.494	80.5
240.728	82.5
240.961	73.5
241.195	81.5
241.429	64.5
241.662	69.5
241.896	73.5
242.13	80.5
242.363	81.5
242.597	74.5
242.83	81.5
243.064	67.5
243.298	79.5
243.531	73.5
243.765	81.5
243.998	74.5
244.232	76.5
244.465	64.5
244.699	82.5
244.932	91.5
245.166	64.5
245.399	84.5
245.633	72.5
245.866	70.5
246.099	66.5
246.333	88.5
246.566	79.5
246.8	95.5
247.033	79.5
247.266	80.5
247.5	68.5
247.733	75.5
247.966	87.5
248.2	65.5
248.433	75.5
248.666	79.5
248.899	85.5
249.133	85.5
249.366	81.5
249.599	67.5
249.832	81.5
250.066	77.5
250.299	78.5
250.532	73.5
250.765	95.5
250.998	79.5
251.231	74.5
251.465	80.5
251.698	91.5
251.931	73.5
252.164	77.5
252.397	75.5
252.63	85.5
252.863	84.5
253.096	75.5
253.329	89.5
253.562	78.5
253.795	66.5
254.028	81.5
254.261	82.5
254.494	89.5
254.727	69.5
254.96	77.5
255.193	88.5
255.426	70.5
255.659	81.5
255.892	68.5
256.124	80.5
256.357	86.5
256.59	83.5
256.823	71.5
257.056	70.5
257.289	86.5
257.521	81.5
257.754	81.5
257.987	85.5
258.22	85.5
258.452	78.5
258.685	82.5
258.918	94.5
259.151	85.5
259.383	83.5
259.616	76.5
259.849	85.5
260.081	77.5
260.314	76.5
260.547	70.5
260.779	81.5
261.012	75.5
261.244	72.5
261.477	69.5
261.71	91.5
261.942	74.5
262.175	87.5
262.407	76.5
262.64	70.5
262.872	90.5
263.105	84.5
263.337	77.5
263.57	81.5
263.802	83.5
264.035	76.5
264.267	71.5
264.499	63.5
264.732	82.5
264.964	87.5
265.197	73.5
265.429	76.5
265.661	71.5
265.894	82.5
266.126	95.5
266.358	89.5
266.591	68.5
266.823	76.5
267.055	64.5
267.287	85.5
267.52	95.5
267.752	93.5
267.984	86.5
268.216	79.5
268.448	95.5
268.681	84.5
268.913	85.5
269.145	74.5
269.377	74.5
269.609	81.5
269.841	63.5
270.073	78.5
270.306	76.5
270.538	85.5
270.77	74.5
271.002	93.5
271.234	80.5
271.466	94.5
271.698	77.5
271.93	76.5
272.162	79.5
272.394	84.5
272.626	84.5
272.858	77.5
273.09	91.5
273.322	76.5
273.553	78.5
273.785	95.5
274.017	77.5
274.249	79.5
274.481	87.5
274.713	78.5
274.945	87.5
275.176	85.5
275.408	82.5
275.64	72.5
275.872	84.5
276.104	79.5
276.335	78.5
276.567	70.5
276.799	79.5
277.031	83.5
277.262	70.5
277.494	83.5
277.726	71.5
277.957	78.5
278.189	84.5
278.421	81.5
278.652	88.5
278.884	90.5
279.115	89.5
279.347	91.5
279.579	80.5
279.81	80.5
280.042	84.5
280.273	93.5
280.505	87.5
280.736	80.5
280.968	84.5
281.199	97.5
281.431	96.5
281.662	72.5
281.894	68.5
282.125	89.5
282.356	88.5
282.588	86.5
282.819	89.5
283.051	70.5
283.282	86.5
283.513	76.5
283.745	93.5
283.976	73.5
284.207	88.5
284.439	84.5
284.67	86.5
284.901	89.5
285.132	91.5
285.364	97.5
285.595	104.5
285.826	91.5
286.057	87.5
286.288	91.5
286.52	83.5
286.751	76.5
286.982	79.5
287.213	90.5
287.444	79.5
287.675	99.5
287.906	91.5
288.138	83.5
288.369	91.5
288.6	93.5
288.831	85.5
289.062	101.5
289.293	97.5
289.524	92.5
289.755	82.5
289.986	81.5
290.217	94.5
290.448	91.5
290.679	97.5
290.91	93.5
291.141	89.5
291.371	80.5
291.602	71.5
291.833	99.5
292.064	90.5
292.295	67.5
292.526	82.5
292.757	84.5
292.987	81.5
293.218	91.5
293.449	71.5
293.68	86.5
293.91	83.5
294.141	88.5
294.372	71.5
294.603	92.5
294.833	77.5
295.064	96.5
295.295	86.5
295.525	80.5
295.756	95.5
295.987	95.5
296.217	97.5
296.448	96.5
296.679	81.5
296.909	94.5
297.14	80.5
297.37	94.5
297.601	104.5
297.831	83.5
298.062	82.5
298.292	79.5
298.523	78.5
298.753	91.5
298.984	83.5
299.214	87.5
299.445	74.5
299.675	99.5
299.905	93.5
300.136	84.5
300.366	84.5
300.597	79.5
300.827	93.5
301.057	107.5
301.288	79.5
301.518	78.5
301.748	100.5
301.979	103.5
302.209	95.5
302.439	92.5
302.669	77.5
302.9	94.5
303.13	85.5
303.36	79.5
303.59	82.5
303.82	91.5
304.051	89.5
304.281	83.5
304.511	80.5
304.741	88.5
304.971	95.5
305.201	88.5
305.431	80.5
305.661	86.5
305.891	76.5
306.121	95.5
306.352	90.5
306.582	78.5
306.812	79.5
307.042	74.5
307.272	79.5
307.502	78.5
307.731	89.5
307.961	104.5
308.191	92.5
308.421	87.5
308.651	87.5
308.881	83.5
309.111	82.5
309.341	99.5
309.571	85.5
309.8	89.5
310.03	105.5
310.26	82.5
310.49	88.5
310.72	83.5
310.949	81.5
311.179	89.5
311.409	85.5
311.639	94.5
311.868	78.5
312.098	91.5
312.328	77.5
312.557	91.5
312.787	104.5
313.017	91.5
313.246	59.5
313.476	83.5
313.706	87.5
313.935	82.5
314.165	92.5
314.394	83.5
314.624	80.5
314.853	102.5
315.083	88.5
315.312	77.5
315.542	95.5
315.771	113.5
316.001	86.5
316.23	94.5
316.46	99.5
316.689	83.5
316.919	79.5
317.148	91.5
317.377	89.5
317.607	74.5
317.836	91.5
318.065	112.5
318.295	91.5
318.524	91.5
318.753	93.5
318.983	87.5
319.212	96.5
319.441	99.5
319.67	65.5
319.9	74.5
320.129	77.5
320.358	88.5
320.587	80.5
320.816	88.5
321.046	89.5
321.275	86.5
321.504	87.5
321.733	85.5
321.962	74.5
322.191	96.5
322.42	93.5
322.649	94.5
322.878	77.5
323.108	87.5
323.337	87.5
323.566	91.5
323.795	96.5
324.024	86.5
324.253	89.5
324.482	84.5
324.71	104.5
324.939	79.5
325.168	81.5
325.397	89.5
325.626	81.5
325.855	105.5
326.084	97.5
326.313	91.5
326.542	91.5
326.77	92.5
326.999	86.5
327.228	85.5
327.457	85.5
327.686	77.5
327.914	87.5
328.143	103.5
328.372	89.5
328.6	91.5
328.829	105.5
329.058	81.5
329.287	74.5
329.515	86.5
329.744	80.5
329.972	72.5
330.201	79.5
330.43	98.5
330.658	91.5
330.887	99.5
331.115	91.5
331.344	89.5
331.572	94.5
331.801	82.5
332.03	82.5
332.258	91.5
332.486	80.5
332.715	78.5
332.943	92.5
333.172	84.5
333.4	85.5
333.629	96.5
333.857	100.5
334.085	93.5
334.314	95.5
334.542	85.5
334.771	92.5
334.999	108.5
335.227	95.5
335.455	88.5
335.684	105.5
335.912	104.5
336.14	110.5
336.369	96.5
336.597	92.5
336.825	91.5
337.053	101.5
337.281	98.5
337.51	91.5
337.738	82.5
337.966	89.5
338.194	82.5
338.422	94.5
338.65	91.5
338.878	76.5
339.106	93.5
339.334	98.5
339.562	70.5
339.79	81.5
340.018	70.5
340.246	85.5
340.474	91.5
340.702	100.5
340.93	79.5
341.158	83.5
341.386	85.5
341.614	81.5
341.842	84.5
342.07	96.5
342.298	83.5
342.526	91.5
342.754	86.5
342.981	86.5
343.209	87.5
343.437	109.5
343.665	79.5
343.893	90.5
344.12	94.5
344.348	96.5
344.576	80.5
344.804	103.5
345.031	84.5
345.259	80.5
345.487	83.5
345.714	107.5
345.942	87.5
346.17	80.5
346.397	87.5
346.625	77.5
346.853	79.5
347.08	80.5
347.308	87.5
347.535	92.5
347.763	88.5
347.99	105.5
348.218	96.5
348.445	91.5
348.673	93.5
348.9	89.5
349.128	96.5
349.355	81.5
349.583	100.5
349.81	83.5
350.037	87.5
350.265	81.5
350.492	93.5
350.72	88.5
350.947	86.5
351.174	96.5
351.402	86.5
351.629	99.5
351.856	88.5
352.083	93.5
352.311	95.5
352.538	78.5
352.765	79.5
352.992	99.5
353.22	95.5
353.447	79.5
353.674	78.5
353.901	92.5
354.128	95.5
354.355	80.5
354.583	75.5
354.81	88.5
355.037	82.5
355.264	78.5
355.491	95.5
355.718	87.5
355.945	86.5
356.172	88.5
356.399	94.5
356.626	105.5
356.853	91.5
357.08	87.5
357.307	91.5
357.534	97.5
357.761	100.5
357.988	96.5
358.215	104.5
358.441	95.5
358.668	93.5
358.895	91.5
359.122	102.5
359.349	87.5
359.576	82.5
359.802	81.5
360.029	94.5
360.256	81.5
360.483	91.5
360.709	96.5
360.936	100.5
361.163	81.5
361.39	89.5
361.616	95.5
361.843	98.5
362.07	99.5
362.296	99.5
362.523	108.5
362.749	112.5
362.976	130.5
363.203	155.5
363.429	105.5
363.656	89.5
363.882	113.5
364.109	141.5
364.335	170.5
364.562	195.5
364.788	126.5
365.015	93.5
365.241	98.5
365.468	101.5
365.694	90.5
365.92	101.5
366.147	94.5
366.373	93.5
366.599	84.5
366.826	80.5
367.052	92.5
367.278	80.5
367.505	83.5
367.731	92.5
367.957	99.5
368.184	97.5
368.41	94.5
368.636	74.5
368.862	76.5
369.089	75.5
369.315	95.5
369.541	85.5
369.767	91.5
369.993	91.5
370.219	81.5
370.445	79.5
370.672	111.5
370.898	109.5
371.124	86.5
371.35	94.5
371.576	78.5
371.802	69.5
372.028	107.5
372.254	107.5
372.48	85.5
372.706	83.5
372.932	91.5
373.158	92.5
373.384	100.5
373.61	124.5
373.835	125.5
374.061	95.5
374.287	107.5
374.513	111.5
374.739	100.5
374.965	101.5
375.191	108.5
375.416	103.5
375.642	87.5
375.868	96.5
376.094	88.5
376.319	95.5
376.545	93.5
376.771	94.5
376.997	100.5
377.222	77.5
377.448	86.5
377.674	84.5
377.899	96.5
378.125	83.5
378.35	87.5
378.576	86.5
378.802	78.5
379.027	97.5
379.253	93.5
379.478	92.5
379.704	76.5
379.929	94.5
380.155	87.5
380.38	98.5
380.606	76.5
380.831	91.5
381.057	93.5
381.282	99.5
381.507	97.5
381.733	118.5
381.958	91.5
382.184	122.5
382.409	103.5
382.634	106.5
382.86	113.5
383.085	104.5
383.31	101.5
383.535	108.5
383.761	107.5
383.986	119.5
384.211	93.5
384.436	102.5
384.662	91.5
384.887	84.5
385.112	109.5
385.337	95.5
385.562	97.5
385.787	100.5
386.013	104.5
386.238	100.5
386.463	96.5
386.688	89.5
386.913	92.5
387.138	113.5
387.363	115.5
387.588	113.5
387.813	112.5
388.038	108.5
388.263	111.5
388.488	100.5
388.713	89.5
388.938	95.5
389.163	99.5
389.387	95.5
389.612	101.5
389.837	95.5
390.062	99.5
390.287	99.5
390.512	92.5
390.736	101.5
390.961	101.5
391.186	85.5
391.411	91.5
391.636	96.5
391.86	90.5
392.085	93.5
392.31	102.5
392.534	105.5
392.759	121.5
392.984	212.5
393.208	359.5
393.433	515.5
393.658	384.5
393.882	182.5
394.107	139.5
394.331	130.5
394.556	147.5
394.78	109.5
395.005	100.5
395.229	111.5
395.454	108.5
395.678	132.5
395.903	137.5
396.127	152.5
396.352	198.5
396.576	209.5
396.801	361.5
397.025	396.5
397.249	225.5
397.474	152.5
397.698	128.5
397.922	100.5
398.147	102.5
398.371	97.5
398.595	96.5
398.82	101.5
399.044	97.5
399.268	86.5
399.492	96.5
399.717	109.5
399.941	102.5
400.165	83.5
400.389	99.5
400.613	79.5
400.837	76.5
401.062	99.5
401.286	81.5
401.51	82.5
401.734	95.5
401.958	81.5
402.182	84.5
402.406	72.5
402.63	82.5
402.854	97.5
403.078	102.5
403.302	82.5
403.526	81.5
403.75	88.5
403.974	89.5
404.198	100.5
404.422	99.5
404.645	104.5
404.869	93.5
405.093	109.5
405.317	86.5
405.541	86.5
405.765	88.5
405.988	85.5
406.212	87.5
406.436	93.5
406.66	93.5
406.883	94.5
407.107	93.5
407.331	94.5
407.555	109.5
407.778	134.5
408.002	133.5
408.226	94.5
408.449	89.5
408.673	101.5
408.896	95.5
409.12	100.5
409.344	116.5
409.567	123.5
409.791	123.5
410.014	126.5
410.238	109.5
410.461	96.5
410.685	96.5
410.908	92.5
411.132	90.5
411.355	87.5
411.578	83.5
411.802	85.5
412.025	81.5
412.249	79.5
412.472	88.5
412.695	77.5
412.919	84.5
413.142	87.5
413.365	82.5
413.589	84.5
413.812	93.5
414.035	87.5
414.258	87.5
414.482	101.5
414.705	88.5
414.928	80.5
415.151	79.5
415.374	80.5
415.597	79.5
415.821	94.5
416.044	101.5
416.267	84.5
416.49	71.5
416.713	88.5
416.936	84.5
417.159	84.5
417.382	88.5
417.605	83.5
417.828	102.5
418.051	96.5
418.274	91.5
418.497	83.5
418.72	88.5
418.943	95.5
419.166	105.5
419.389	108.5
419.611	92.5
419.834	83.5
420.057	101.5
420.28	85.5
420.503	91.5
420.726	99.5
420.948	88.5
421.171	102.5
421.394	129.5
421.617	151.5
421.839	155.5
422.062	161.5
422.285	221.5
422.507	357.5
422.73	461.5
422.953	450.5
423.175	276.5
423.398	171.5
423.621	149.5
423.843	127.5
424.066	102.5
424.288	110.5
424.511	97.5
424.733	101.5
424.956	99.5
425.178	95.5
425.401	96.5
425.623	103.5
425.846	104.5
426.068	86.5
426.291	84.5
426.513	94.5
426.735	86.5
426.958	100.5
427.18	74.5
427.402	101.5
427.625	89.5
427.847	81.5
428.069	113.5
428.292	158.5
428.514	184.5
428.736	111.5
428.958	171.5
429.181	154.5
429.403	111.5
429.625	110.5
429.847	140.5
430.069	183.5
430.292	235.5
430.514	201.5
430.736	148.5
430.958	168.5
431.18	108.5
431.402	92.5
431.624	101.5
431.846	147.5
432.068	175.5
432.29	100.5
432.512	82.5
432.734	102.5
432.956	102.5
433.178	88.5
433.4	88.5
433.622	81.5
433.844	93.5
434.066	100.5
434.287	100.5
434.509	83.5
434.731	63.5
434.953	85.5
435.175	72.5
435.397	102.5
435.618	100.5
435.84	107.5
436.062	81.5
436.284	93.5
436.505	83.5
436.727	92.5
436.949	93.5
437.17	91.5
437.392	82.5
437.614	85.5
437.835	89.5
438.057	85.5
438.278	96.5
438.5	99.5
438.721	91.5
438.943	100.5
439.165	78.5
439.386	98.5
439.608	86.5
439.829	94.5
440.05	87.5
440.272	102.5
440.493	78.5
440.715	97.5
440.936	81.5
441.158	91.5
441.379	80.5
441.6	91.5
441.822	85.5
442.043	85.5
442.264	97.5
442.486	158.5
442.707	214.5
442.928	153.5
443.149	133.5
443.371	183.5
443.592	339.5
443.813	286.5
444.034	135.5
444.255	107.5
444.476	96.5
444.698	102.5
444.919	108.5
445.14	207.5
445.361	255.5
445.582	402.5
445.803	326.5
446.024	159.5
446.245	121.5
446.466	108.5
446.687	93.5
446.908	81.5
447.129	84.5
447.35	83.5
447.571	79.5
447.792	91.5
448.013	100.5
448.234	88.5
448.455	80.5
448.675	87.5
448.896	72.5
449.117	95.5
449.338	85.5
449.559	88.5
449.779	94.5
450	87.5
450.221	95.5
450.442	81.5
450.662	87.5
450.883	72.5
451.104	92.5
451.324	93.5
451.545	91.5
451.766	102.5
451.986	87.5
452.207	96.5
452.428	98.5
452.648	94.5
452.869	121.5
453.089	99.5
453.31	110.5
453.53	99.5
453.751	89.5
453.971	83.5
454.192	88.5
454.412	93.5
454.633	78.5
454.853	92.5
455.073	80.5
455.294	87.5
455.514	112.5
455.734	82.5
455.955	75.5
456.175	82.5
456.395	84.5
456.616	94.5
456.836	83.5
457.056	73.5
457.276	91.5
457.497	82.5
457.717	88.5
457.937	136.5
458.157	158.5
458.377	168.5
458.598	155.5
458.818	182.5
459.038	100.5
459.258	91.5
459.478	92.5
459.698	87.5
459.918	72.5
460.138	101.5
460.358	100.5
460.578	111.5
460.798	131.5
461.018	131.5
461.238	75.5
461.458	86.5
461.678	72.5
461.898	76.5
462.118	89.5
462.338	97.5
462.558	92.5
462.777	79.5
462.997	75.5
463.217	87.5
463.437	97.5
463.657	107.5
463.876	95.5
464.096	89.5
464.316	81.5
464.536	82.5
464.755	90.5
464.975	74.5
465.195	80.5
465.414	81.5
465.634	83.5
465.854	74.5
466.073	82.5
466.293	80.5
466.512	84.5
466.732	101.5
466.951	78.5
467.171	89.5
467.391	84.5
467.61	92.5
467.829	101.5
468.049	81.5
468.268	94.5
468.488	97.5
468.707	96.5
468.927	88.5
469.146	73.5
469.365	98.5
469.585	77.5
469.804	97.5
470.023	74.5
470.243	91.5
470.462	96.5
470.681	103.5
470.901	94.5
471.12	70.5
471.339	96.5
471.558	87.5
471.777	91.5
471.997	82.5
472.216	74.5
472.435	86.5
472.654	86.5
472.873	95.5
473.092	96.5
473.311	95.5
473.53	94.5
473.749	97.5
473.968	99.5
474.187	77.5
474.406	95.5
474.625	88.5
474.844	87.5
475.063	83.5
475.282	78.5
475.501	88.5
475.72	106.5
475.939	97.5
476.158	96.5
476.377	83.5
476.596	75.5
476.814	99.5
477.033	90.5
477.252	80.5
477.471	83.5
477.69	89.5
477.908	92.5
478.127	84.5
478.346	88.5
478.564	99.5
478.783	88.5
479.002	92.5
479.22	88.5
479.439	96.5
479.658	93.5
479.876	92.5
480.095	94.5
480.313	95.5
480.532	80.5
480.751	93.5
480.969	101.5
481.188	87.5
481.406	83.5
481.624	93.5
481.843	93.5
482.061	95.5
482.28	85.5
482.498	101.5
482.717	81.5
482.935	98.5
483.153	96.5
483.372	93.5
483.59	93.5
483.808	73.5
484.027	94.5
484.245	95.5
484.463	93.5
484.681	125.5
484.9	101.5
485.118	110.5
485.336	102.5
485.554	88.5
485.772	97.5
485.99	84.5
486.209	84.5
486.427	83.5
486.645	96.5
486.863	97.5
487.081	95.5
487.299	87.5
487.517	129.5
487.735	145.5
487.953	269.5
488.171	202.5
488.389	101.5
488.607	88.5
488.825	92.5
489.043	103.5
489.261	99.5
489.479	87.5
489.696	101.5
489.914	97.5
490.132	95.5
490.35	119.5
490.568	89.5
490.786	94.5
491.003	70.5
491.221	99.5
491.439	88.5
491.657	100.5
491.874	73.5
492.092	93.5
492.31	82.5
492.527	93.5
492.745	91.5
492.963	107.5
493.18	106.5
493.398	111.5
493.615	96.5
493.833	103.5
494.05	107.5
494.268	93.5
494.485	80.5
494.703	97.5
494.92	93.5
495.138	87.5
495.355	83.5
495.573	85.5
495.79	86.5
496.008	91.5
496.225	98.5
496.442	107.5
496.66	93.5
496.877	89.5
497.094	106.5
497.312	85.5
497.529	88.5
497.746	94.5
497.963	105.5
498.181	104.5
498.398	113.5
498.615	87.5
498.832	80.5
499.049	93.5
499.267	115.5
499.484	89.5
499.701	87.5
499.918	103.5
500.135	103.5
500.352	98.5
500.569	94.5
500.786	96.5
501.003	98.5
501.22	89.5
501.437	107.5
501.654	101.5
501.871	89.5
502.088	85.5
502.305	104.5
502.522	93.5
502.739	98.5
502.956	86.5
503.172	101.5
503.389	114.5
503.606	93.5
503.823	113.5
504.04	124.5
504.256	183.5
504.473	189.5
504.69	107.5
504.907	96.5
505.123	85.5
505.34	95.5
505.557	97.5
505.773	103.5
505.99	91.5
506.207	97.5
506.423	94.5
506.64	85.5
506.856	81.5
507.073	83.5
507.289	89.5
507.506	93.5
507.722	102.5
507.939	93.5
508.155	88.5
508.372	87.5
508.588	90.5
508.805	97.5
509.021	92.5
509.238	83.5
509.454	89.5
509.67	80.5
509.887	102.5
510.103	97.5
510.319	85.5
510.536	89.5
510.752	94.5
510.968	85.5
511.184	91.5
511.401	99.5
511.617	84.5
511.833	88.5
512.049	91.5
512.265	99.5
512.481	88.5
512.698	91.5
512.914	96.5
513.13	98.5
513.346	95.5
513.562	112.5
513.778	99.5
513.994	91.5
514.21	97.5
514.426	96.5
514.642	90.5
514.858	86.5
515.074	87.5
515.29	97.5
515.506	85.5
515.721	86.5
515.937	85.5
516.153	91.5
516.369	87.5
516.585	86.5
516.801	97.5
517.016	126.5
517.232	89.5
517.448	113.5
517.664	101.5
517.879	92.5
518.095	96.5
518.311	107.5
518.527	124.5
518.742	133.5
518.958	220.5
519.173	257.5
519.389	126.5
519.605	108.5
519.82	98.5
520.036	99.5
520.251	88.5
520.467	87.5
520.682	89.5
520.898	84.5
521.113	94.5
521.329	108.5
521.544	93.5
521.76	91.5
521.975	92.5
522.19	94.5
522.406	87.5
522.621	98.5
522.836	99.5
523.052	92.5
523.267	95.5
523.482	96.5
523.698	98.5
523.913	103.5
524.128	93.5
524.343	108.5
524.559	105.5
524.774	98.5
524.989	97.5
525.204	102.5
525.419	107.5
525.634	94.5
525.849	115.5
526.064	154.5
526.28	320.5
526.495	479.5
526.71	513.5
526.925	327.5
527.14	405.5
527.355	363.5
527.57	128.5
527.785	102.5
527.999	108.5
528.214	113.5
528.429	86.5
528.644	102.5
528.859	111.5
529.074	105.5
529.289	89.5
529.503	100.5
529.718	100.5
529.933	107.5
530.148	107.5
530.363	88.5
530.577	110.5
530.792	94.5
531.007	89.5
531.221	89.5
531.436	113.5
531.651	107.5
531.865	105.5
532.08	105.5
532.295	108.5
532.509	119.5
532.724	101.5
532.938	131.5
533.153	115.5
533.367	114.5
533.582	99.5
533.796	127.5
534.011	109.5
534.225	117.5
534.44	113.5
534.654	115.5
534.868	132.5
535.083	224.5
535.297	198.5
535.511	127.5
535.726	119.5
