Data from 10100_2_HRD10591_00001.txt Node
Date: Mon Jan 19 14:01:24 EST 2026
User: Yrep
Spectrometer: HR+D1059
Trigger mode: 1
Integration Time (sec): 1.000000E-1
Scans to average: 1
Electric dark correction enabled: true
Nonlinearity correction enabled: false
Boxcar width: 0
XAxis mode: Wavelengths
Number of Pixels in Spectrum: 2048
>>>>>Begin Spectral Data<<<<<
223.165	-7.56
223.4	-7.56
223.635	-7.56
223.869	-20.56
224.104	-6.56
224.338	-10.56
224.573	-7.56
224.808	-21.56
225.042	-12.56
225.277	-6.56
225.511	-6.56
225.746	-6.56
225.98	-15.56
226.215	6.44
226.449	30.44
226.683	22.44
226.918	21.44
227.152	41.44
227.387	41.44
227.621	50.44
227.856	55.44
228.09	57.44
228.324	52.44
228.559	57.44
228.793	68.44
229.027	67.44
229.262	72.44
229.496	66.44
229.73	82.44
229.964	83.44
230.199	77.44
230.433	77.44
230.667	73.44
230.901	77.44
231.136	80.44
231.37	79.44
231.604	83.44
231.838	82.44
232.072	87.44
232.306	81.44
232.541	77.44
232.775	77.44
233.009	93.44
233.243	86.44
233.477	86.44
233.711	72.44
233.945	77.44
234.179	73.44
234.413	73.44
234.647	83.44
234.881	83.44
235.115	70.44
235.349	86.44
235.583	93.44
235.817	60.44
236.051	74.44
236.285	68.44
236.519	86.44
236.753	80.44
236.987	83.44
237.221	78.44
237.455	80.44
237.689	85.44
237.922	80.44
238.156	58.44
238.39	67.44
238.624	76.44
238.858	67.44
239.091	82.44
239.325	65.44
239.559	76.44
239.793	79.44
240.027	86.44
240.26	80.44
240.494	69.44
240.728	70.44
240.961	78.44
241.195	88.44
241.429	68.44
241.662	69.44
241.896	75.44
242.13	61.44
242.363	82.44
242.597	81.44
242.83	95.44
243.064	73.44
243.298	65.44
243.531	67.44
243.765	84.44
243.998	77.44
244.232	90.44
244.465	80.44
244.699	86.44
244.932	73.44
245.166	69.44
245.399	78.44
245.633	88.44
245.866	74.44
246.099	82.44
246.333	79.44
246.566	75.44
246.8	75.44
247.033	63.44
247.266	86.44
247.5	79.44
247.733	95.44
247.966	84.44
248.2	76.44
248.433	68.44
248.666	92.44
248.899	76.44
249.133	93.44
249.366	80.44
249.599	67.44
249.832	90.44
250.066	87.44
250.299	71.44
250.532	83.44
250.765	64.44
250.998	65.44
251.231	86.44
251.465	79.44
251.698	80.44
251.931	90.44
252.164	90.44
252.397	81.44
252.63	75.44
252.863	80.44
253.096	85.44
253.329	82.44
253.562	93.44
253.795	75.44
254.028	95.44
254.261	71.44
254.494	89.44
254.727	69.44
254.96	87.44
255.193	74.44
255.426	85.44
255.659	89.44
255.892	82.44
256.124	78.44
256.357	78.44
256.59	75.44
256.823	75.44
257.056	81.44
257.289	82.44
257.521	85.44
257.754	83.44
257.987	87.44
258.22	84.44
258.452	87.44
258.685	70.44
258.918	74.44
259.151	65.44
259.383	93.44
259.616	83.44
259.849	81.44
260.081	85.44
260.314	76.44
260.547	79.44
260.779	76.44
261.012	84.44
261.244	81.44
261.477	74.44
261.71	93.44
261.942	67.44
262.175	75.44
262.407	83.44
262.64	87.44
262.872	92.44
263.105	86.44
263.337	83.44
263.57	76.44
263.802	89.44
264.035	88.44
264.267	77.44
264.499	77.44
264.732	88.44
264.964	82.44
265.197	72.44
265.429	90.44
265.661	80.44
265.894	85.44
266.126	91.44
266.358	78.44
266.591	74.44
266.823	77.44
267.055	88.44
267.287	79.44
267.52	104.44
267.752	61.44
267.984	84.44
268.216	82.44
268.448	91.44
268.681	86.44
268.913	78.44
269.145	89.44
269.377	74.44
269.609	87.44
269.841	85.44
270.073	92.44
270.306	78.44
270.538	79.44
270.77	71.44
271.002	83.44
271.234	87.44
271.466	86.44
271.698	89.44
271.93	71.44
272.162	75.44
272.394	96.44
272.626	87.44
272.858	79.44
273.09	85.44
273.322	90.44
273.553	75.44
273.785	84.44
274.017	81.44
274.249	88.44
274.481	89.44
274.713	61.44
274.945	79.44
275.176	72.44
275.408	80.44
275.64	68.44
275.872	83.44
276.104	83.44
276.335	86.44
276.567	93.44
276.799	82.44
277.031	83.44
277.262	90.44
277.494	81.44
277.726	87.44
277.957	80.44
278.189	85.44
278.421	91.44
278.652	94.44
278.884	78.44
279.115	86.44
279.347	95.44
279.579	96.44
279.81	89.44
280.042	85.44
280.273	82.44
280.505	84.44
280.736	72.44
280.968	92.44
281.199	78.44
281.431	74.44
281.662	74.44
281.894	82.44
282.125	89.44
282.356	91.44
282.588	82.44
282.819	95.44
283.051	96.44
283.282	86.44
283.513	95.44
283.745	76.44
283.976	83.44
284.207	95.44
284.439	70.44
284.67	81.44
284.901	97.44
285.132	99.44
285.364	96.44
285.595	104.44
285.826	102.44
286.057	100.44
286.288	101.44
286.52	79.44
286.751	93.44
286.982	93.44
287.213	91.44
287.444	80.44
287.675	91.44
287.906	81.44
288.138	85.44
288.369	85.44
288.6	84.44
288.831	101.44
289.062	79.44
289.293	89.44
289.524	90.44
289.755	83.44
289.986	76.44
290.217	102.44
290.448	97.44
290.679	89.44
290.91	89.44
291.141	85.44
291.371	92.44
291.602	97.44
291.833	95.44
292.064	84.44
292.295	85.44
292.526	89.44
292.757	87.44
292.987	94.44
293.218	87.44
293.449	97.44
293.68	81.44
293.91	91.44
294.141	89.44
294.372	81.44
294.603	98.44
294.833	81.44
295.064	95.44
295.295	83.44
295.525	115.44
295.756	94.44
295.987	89.44
296.217	85.44
296.448	90.44
296.679	92.44
296.909	80.44
297.14	93.44
297.37	89.44
297.601	69.44
297.831	91.44
298.062	89.44
298.292	86.44
298.523	84.44
298.753	94.44
298.984	79.44
299.214	86.44
299.445	83.44
299.675	100.44
299.905	110.44
300.136	106.44
300.366	93.44
300.597	100.44
300.827	104.44
301.057	98.44
301.288	93.44
301.518	86.44
301.748	89.44
301.979	117.44
302.209	101.44
302.439	95.44
302.669	91.44
302.9	87.44
303.13	88.44
303.36	85.44
303.59	80.44
303.82	89.44
304.051	91.44
304.281	95.44
304.511	98.44
304.741	83.44
304.971	83.44
305.201	96.44
305.431	105.44
305.661	95.44
305.891	97.44
306.121	103.44
306.352	92.44
306.582	98.44
306.812	97.44
307.042	96.44
307.272	81.44
307.502	92.44
307.731	90.44
307.961	95.44
308.191	98.44
308.421	95.44
308.651	90.44
308.881	82.44
309.111	105.44
309.341	97.44
309.571	100.44
309.8	90.44
310.03	94.44
310.26	98.44
310.49	84.44
310.72	85.44
310.949	99.44
311.179	85.44
311.409	89.44
311.639	81.44
311.868	93.44
312.098	84.44
312.328	88.44
312.557	80.44
312.787	79.44
313.017	105.44
313.246	97.44
313.476	101.44
313.706	94.44
313.935	93.44
314.165	92.44
314.394	96.44
314.624	94.44
314.853	108.44
315.083	86.44
315.312	85.44
315.542	81.44
315.771	99.44
316.001	99.44
316.23	101.44
316.46	98.44
316.689	86.44
316.919	88.44
317.148	93.44
317.377	98.44
317.607	105.44
317.836	106.44
318.065	106.44
318.295	107.44
318.524	99.44
318.753	106.44
318.983	105.44
319.212	86.44
319.441	99.44
319.67	101.44
319.9	95.44
320.129	81.44
320.358	92.44
320.587	87.44
320.816	97.44
321.046	92.44
321.275	102.44
321.504	91.44
321.733	98.44
321.962	98.44
322.191	95.44
322.42	107.44
322.649	98.44
322.878	89.44
323.108	87.44
323.337	83.44
323.566	97.44
323.795	105.44
324.024	95.44
324.253	89.44
324.482	96.44
324.71	86.44
324.939	83.44
325.168	88.44
325.397	88.44
325.626	65.44
325.855	96.44
326.084	105.44
326.313	99.44
326.542	83.44
326.77	89.44
326.999	97.44
327.228	85.44
327.457	92.44
327.686	80.44
327.914	101.44
328.143	95.44
328.372	91.44
328.6	93.44
328.829	87.44
329.058	85.44
329.287	94.44
329.515	101.44
329.744	87.44
329.972	93.44
330.201	99.44
330.43	114.44
330.658	88.44
330.887	94.44
331.115	98.44
331.344	84.44
331.572	92.44
331.801	86.44
332.03	93.44
332.258	93.44
332.486	89.44
332.715	89.44
332.943	82.44
333.172	102.44
333.4	95.44
333.629	90.44
333.857	91.44
334.085	109.44
334.314	117.44
334.542	113.44
334.771	105.44
334.999	113.44
335.227	110.44
335.455	96.44
335.684	113.44
335.912	122.44
336.14	112.44
336.369	106.44
336.597	104.44
336.825	98.44
337.053	97.44
337.281	100.44
337.51	95.44
337.738	100.44
337.966	101.44
338.194	80.44
338.422	97.44
338.65	107.44
338.878	98.44
339.106	79.44
339.334	90.44
339.562	86.44
339.79	92.44
340.018	89.44
340.246	83.44
340.474	95.44
340.702	82.44
340.93	102.44
341.158	85.44
341.386	106.44
341.614	99.44
341.842	84.44
342.07	88.44
342.298	74.44
342.526	95.44
342.754	99.44
342.981	96.44
343.209	85.44
343.437	117.44
343.665	85.44
343.893	88.44
344.12	98.44
344.348	105.44
344.576	85.44
344.804	93.44
345.031	90.44
345.259	99.44
345.487	88.44
345.714	90.44
345.942	90.44
346.17	99.44
346.397	93.44
346.625	100.44
346.853	106.44
347.08	89.44
347.308	105.44
347.535	107.44
347.763	92.44
347.99	98.44
348.218	104.44
348.445	99.44
348.673	98.44
348.9	107.44
349.128	99.44
349.355	111.44
349.583	94.44
349.81	100.44
350.037	103.44
350.265	96.44
350.492	89.44
350.72	98.44
350.947	102.44
351.174	88.44
351.402	73.44
351.629	85.44
351.856	90.44
352.083	99.44
352.311	96.44
352.538	87.44
352.765	95.44
352.992	109.44
353.22	83.44
353.447	81.44
353.674	89.44
353.901	92.44
354.128	81.44
354.355	86.44
354.583	94.44
354.81	89.44
355.037	93.44
355.264	87.44
355.491	109.44
355.718	91.44
355.945	86.44
356.172	101.44
356.399	97.44
356.626	102.44
356.853	95.44
357.08	107.44
357.307	105.44
357.534	90.44
357.761	89.44
357.988	100.44
358.215	120.44
358.441	108.44
358.668	98.44
358.895	101.44
359.122	94.44
359.349	86.44
359.576	92.44
359.802	104.44
360.029	90.44
360.256	90.44
360.483	98.44
360.709	102.44
360.936	119.44
361.163	111.44
361.39	101.44
361.616	99.44
361.843	105.44
362.07	109.44
362.296	137.44
362.523	154.44
362.749	171.44
362.976	175.44
363.203	202.44
363.429	155.44
363.656	122.44
363.882	129.44
364.109	158.44
364.335	222.44
364.562	242.44
364.788	165.44
365.015	122.44
365.241	116.44
365.468	105.44
365.694	107.44
365.92	90.44
366.147	93.44
366.373	95.44
366.599	93.44
366.826	102.44
367.052	101.44
367.278	99.44
367.505	104.44
367.731	109.44
367.957	98.44
368.184	92.44
368.41	96.44
368.636	81.44
368.862	86.44
369.089	85.44
369.315	99.44
369.541	106.44
369.767	86.44
369.993	95.44
370.219	95.44
370.445	119.44
370.672	113.44
370.898	103.44
371.124	99.44
371.35	101.44
371.576	99.44
371.802	91.44
372.028	122.44
372.254	109.44
372.48	116.44
372.706	105.44
372.932	106.44
373.158	97.44
373.384	121.44
373.61	125.44
373.835	134.44
374.061	124.44
374.287	105.44
374.513	121.44
374.739	129.44
374.965	119.44
375.191	119.44
375.416	105.44
375.642	83.44
375.868	120.44
376.094	104.44
376.319	105.44
376.545	102.44
376.771	89.44
376.997	97.44
377.222	99.44
377.448	89.44
377.674	78.44
377.899	96.44
378.125	97.44
378.35	94.44
378.576	102.44
378.802	99.44
379.027	88.44
379.253	111.44
379.478	117.44
379.704	104.44
379.929	104.44
380.155	103.44
380.38	105.44
380.606	88.44
380.831	99.44
381.057	100.44
381.282	109.44
381.507	107.44
381.733	119.44
381.958	112.44
382.184	118.44
382.409	105.44
382.634	111.44
382.86	113.44
383.085	105.44
383.31	107.44
383.535	123.44
383.761	116.44
383.986	129.44
384.211	116.44
384.436	101.44
384.662	87.44
384.887	100.44
385.112	94.44
385.337	99.44
385.562	115.44
385.787	115.44
386.013	126.44
386.238	124.44
386.463	111.44
386.688	124.44
386.913	106.44
387.138	119.44
387.363	127.44
387.588	129.44
387.813	131.44
388.038	128.44
388.263	123.44
388.488	113.44
388.713	131.44
388.938	112.44
389.163	111.44
389.387	108.44
389.612	94.44
389.837	102.44
390.062	98.44
390.287	115.44
390.512	99.44
390.736	100.44
390.961	107.44
391.186	109.44
391.411	89.44
391.636	109.44
391.86	113.44
392.085	126.44
392.31	131.44
392.534	123.44
392.759	171.44
392.984	234.44
393.208	400.44
393.433	554.44
393.658	425.44
393.882	203.44
394.107	149.44
394.331	157.44
394.556	180.44
394.78	166.44
395.005	129.44
395.229	125.44
395.454	122.44
395.678	129.44
395.903	170.44
396.127	205.44
396.352	245.44
396.576	262.44
396.801	411.44
397.025	453.44
397.249	273.44
397.474	191.44
397.698	131.44
397.922	122.44
398.147	109.44
398.371	106.44
398.595	113.44
398.82	100.44
399.044	107.44
399.268	103.44
399.492	98.44
399.717	117.44
399.941	97.44
400.165	114.44
400.389	104.44
400.613	82.44
400.837	98.44
401.062	98.44
401.286	96.44
401.51	87.44
401.734	75.44
401.958	99.44
402.182	95.44
402.406	111.44
402.63	106.44
402.854	99.44
403.078	102.44
403.302	105.44
403.526	102.44
403.75	98.44
403.974	94.44
404.198	109.44
404.422	149.44
404.645	158.44
404.869	144.44
405.093	111.44
405.317	91.44
405.541	103.44
405.765	114.44
405.988	107.44
406.212	102.44
406.436	115.44
406.66	109.44
406.883	92.44
407.107	93.44
407.331	118.44
407.555	112.44
407.778	128.44
408.002	139.44
408.226	104.44
408.449	107.44
408.673	101.44
408.896	97.44
409.12	83.44
409.344	125.44
409.567	137.44
409.791	158.44
410.014	159.44
410.238	134.44
410.461	123.44
410.685	114.44
410.908	125.44
411.132	116.44
411.355	110.44
411.578	112.44
411.802	91.44
412.025	109.44
412.249	104.44
412.472	104.44
412.695	105.44
412.919	97.44
413.142	90.44
413.365	115.44
413.589	94.44
413.812	104.44
414.035	101.44
414.258	102.44
414.482	104.44
414.705	101.44
414.928	102.44
415.151	98.44
415.374	96.44
415.597	106.44
415.821	103.44
416.044	98.44
416.267	97.44
416.49	111.44
416.713	89.44
416.936	97.44
417.159	91.44
417.382	87.44
417.605	95.44
417.828	113.44
418.051	89.44
418.274	102.44
418.497	89.44
418.72	99.44
418.943	103.44
419.166	102.44
419.389	100.44
419.611	102.44
419.834	98.44
420.057	112.44
420.28	122.44
420.503	122.44
420.726	124.44
420.948	133.44
421.171	137.44
421.394	158.44
421.617	207.44
421.839	228.44
422.062	276.44
422.285	393.44
422.507	637.44
422.73	832.44
422.953	734.44
423.175	521.44
423.398	339.44
423.621	213.44
423.843	190.44
424.066	157.44
424.288	158.44
424.511	139.44
424.733	143.44
424.956	131.44
425.178	117.44
425.401	134.44
425.623	121.44
425.846	116.44
426.068	124.44
426.291	98.44
426.513	102.44
426.735	102.44
426.958	96.44
427.18	121.44
427.402	125.44
427.625	121.44
427.847	128.44
428.069	136.44
428.292	198.44
428.514	235.44
428.736	179.44
428.958	207.44
429.181	232.44
429.403	133.44
429.625	134.44
429.847	209.44
430.069	298.44
430.292	367.44
430.514	287.44
430.736	244.44
430.958	243.44
431.18	134.44
431.402	111.44
431.624	109.44
431.846	192.44
432.068	219.44
432.29	129.44
432.512	95.44
432.734	105.44
432.956	93.44
433.178	99.44
433.4	112.44
433.622	89.44
433.844	96.44
434.066	100.44
434.287	99.44
434.509	105.44
434.731	97.44
434.953	105.44
435.175	92.44
435.397	102.44
435.618	120.44
435.84	112.44
436.062	106.44
436.284	104.44
436.505	105.44
436.727	104.44
436.949	115.44
437.17	83.44
437.392	88.44
437.614	100.44
437.835	95.44
438.057	95.44
438.278	92.44
438.5	109.44
438.721	94.44
438.943	91.44
439.165	88.44
439.386	95.44
439.608	96.44
439.829	99.44
440.05	98.44
440.272	96.44
440.493	117.44
440.715	111.44
440.936	101.44
441.158	123.44
441.379	106.44
441.6	93.44
441.822	104.44
442.043	138.44
442.264	149.44
442.486	234.44
442.707	321.44
442.928	226.44
443.149	186.44
443.371	303.44
443.592	499.44
443.813	445.44
444.034	173.44
444.255	142.44
444.476	111.44
444.698	119.44
444.919	121.44
445.14	278.44
445.361	392.44
445.582	639.44
445.803	566.44
446.024	226.44
446.245	130.44
446.466	122.44
446.687	111.44
446.908	107.44
447.129	113.44
447.35	100.44
447.571	84.44
447.792	89.44
448.013	98.44
448.234	101.44
448.455	85.44
448.675	80.44
448.896	87.44
449.117	82.44
449.338	81.44
449.559	93.44
449.779	106.44
450	93.44
450.221	90.44
450.442	85.44
450.662	104.44
450.883	95.44
451.104	95.44
451.324	98.44
451.545	87.44
451.766	105.44
451.986	97.44
452.207	98.44
452.428	96.44
452.648	125.44
452.869	145.44
453.089	121.44
453.31	109.44
453.53	127.44
453.751	112.44
453.971	113.44
454.192	99.44
454.412	94.44
454.633	106.44
454.853	112.44
455.073	95.44
455.294	109.44
455.514	121.44
455.734	125.44
455.955	98.44
456.175	114.44
456.395	110.44
456.616	96.44
456.836	93.44
457.056	98.44
457.276	87.44
457.497	104.44
457.717	125.44
457.937	181.44
458.157	243.44
458.377	239.44
458.598	228.44
458.818	235.44
459.038	159.44
459.258	116.44
459.478	109.44
459.698	91.44
459.918	94.44
460.138	81.44
460.358	97.44
460.578	120.44
460.798	180.44
461.018	184.44
461.238	103.44
461.458	99.44
461.678	89.44
461.898	95.44
462.118	102.44
462.338	84.44
462.558	88.44
462.777	89.44
462.997	97.44
463.217	95.44
463.437	102.44
463.657	102.44
463.876	105.44
464.096	90.44
464.316	93.44
464.536	93.44
464.755	106.44
464.975	90.44
465.195	104.44
465.414	75.44
465.634	87.44
465.854	98.44
466.073	87.44
466.293	88.44
466.512	86.44
466.732	81.44
466.951	89.44
467.171	102.44
467.391	103.44
467.61	98.44
467.829	100.44
468.049	103.44
468.268	121.44
468.488	103.44
468.707	111.44
468.927	109.44
469.146	87.44
469.365	93.44
469.585	92.44
469.804	84.44
470.023	90.44
470.243	82.44
470.462	88.44
470.681	76.44
470.901	102.44
471.12	99.44
471.339	93.44
471.558	85.44
471.777	103.44
471.997	96.44
472.216	104.44
472.435	110.44
472.654	97.44
472.873	97.44
473.092	95.44
473.311	88.44
473.53	90.44
473.749	90.44
473.968	90.44
474.187	86.44
474.406	95.44
474.625	91.44
474.844	107.44
475.063	94.44
475.282	95.44
475.501	95.44
475.72	97.44
475.939	102.44
476.158	95.44
476.377	107.44
476.596	93.44
476.814	94.44
477.033	101.44
477.252	93.44
477.471	86.44
477.69	103.44
477.908	98.44
478.127	90.44
478.346	83.44
478.564	97.44
478.783	91.44
479.002	95.44
479.22	104.44
479.439	95.44
479.658	99.44
479.876	97.44
480.095	94.44
480.313	94.44
480.532	99.44
480.751	101.44
480.969	102.44
481.188	106.44
481.406	109.44
481.624	90.44
481.843	115.44
482.061	97.44
482.28	113.44
482.498	112.44
482.717	94.44
482.935	91.44
483.153	109.44
483.372	106.44
483.59	113.44
483.808	98.44
484.027	98.44
484.245	96.44
484.463	116.44
484.681	103.44
484.9	104.44
485.118	99.44
485.336	105.44
485.554	96.44
485.772	101.44
485.99	90.44
486.209	104.44
486.427	113.44
486.645	98.44
486.863	113.44
487.081	102.44
487.299	121.44
487.517	135.44
487.735	218.44
487.953	386.44
488.171	309.44
488.389	147.44
488.607	118.44
488.825	109.44
489.043	104.44
489.261	109.44
489.479	101.44
489.696	115.44
489.914	103.44
490.132	119.44
490.35	98.44
490.568	87.44
490.786	107.44
491.003	102.44
491.221	115.44
491.439	99.44
491.657	104.44
491.874	101.44
492.092	99.44
492.31	119.44
492.527	101.44
492.745	101.44
492.963	118.44
493.18	89.44
493.398	96.44
493.615	136.44
493.833	109.44
494.05	114.44
494.268	111.44
494.485	100.44
494.703	83.44
494.92	99.44
495.138	112.44
495.355	106.44
495.573	104.44
495.79	103.44
496.008	120.44
496.225	115.44
496.442	125.44
496.66	106.44
496.877	102.44
497.094	115.44
497.312	101.44
497.529	90.44
497.746	104.44
497.963	114.44
498.181	105.44
498.398	123.44
498.615	115.44
498.832	88.44
499.049	118.44
499.267	125.44
499.484	114.44
499.701	105.44
499.918	107.44
500.135	123.44
500.352	113.44
500.569	115.44
500.786	110.44
501.003	113.44
501.22	102.44
501.437	114.44
501.654	122.44
501.871	98.44
502.088	119.44
502.305	103.44
502.522	97.44
502.739	116.44
502.956	121.44
503.172	106.44
503.389	96.44
503.606	113.44
503.823	127.44
504.04	149.44
504.256	257.44
504.473	262.44
504.69	153.44
504.907	108.44
505.123	94.44
505.34	104.44
505.557	105.44
505.773	104.44
505.99	107.44
506.207	104.44
506.423	102.44
506.64	101.44
506.856	120.44
507.073	91.44
507.289	105.44
507.506	109.44
507.722	103.44
507.939	104.44
508.155	102.44
508.372	96.44
508.588	95.44
508.805	99.44
509.021	116.44
509.238	102.44
509.454	110.44
509.67	99.44
509.887	87.44
510.103	99.44
510.319	106.44
510.536	113.44
510.752	106.44
510.968	98.44
511.184	105.44
511.401	96.44
511.617	106.44
511.833	112.44
512.049	106.44
512.265	89.44
512.481	102.44
