Data from 10100_2_HRD10591_00016.txt Node
Date: Mon Jan 19 14:01:32 EST 2026
User: Yrep
Spectrometer: HR+D1059
Trigger mode: 1
Integration Time (sec): 1.000000E-1
Scans to average: 1
Electric dark correction enabled: true
Nonlinearity correction enabled: false
Boxcar width: 0
XAxis mode: Wavelengths
Number of Pixels in Spectrum: 2048
>>>>>Begin Spectral Data<<<<<
223.165	-20.88
223.4	-20.88
223.635	-20.88
223.869	-20.88
224.104	-19.88
224.338	-8.88
224.573	4.12
224.808	-14.88
225.042	-4.88
225.277	-0.88
225.511	-2.88
225.746	1.12
225.98	4.12
226.215	8.12
226.449	12.12
226.683	25.12
226.918	9.12
227.152	30.12
227.387	28.12
227.621	32.12
227.856	39.12
228.09	42.12
228.324	49.12
228.559	52.12
228.793	53.12
229.027	51.12
229.262	60.12
229.496	56.12
229.73	65.12
229.964	76.12
230.199	78.12
230.433	70.12
230.667	65.12
230.901	83.12
231.136	69.12
231.37	61.12
231.604	82.12
231.838	71.12
232.072	89.12
232.306	78.12
232.541	75.12
232.775	86.12
233.009	71.12
233.243	67.12
233.477	89.12
233.711	80.12
233.945	82.12
234.179	70.12
234.413	91.12
234.647	87.12
234.881	87.12
235.115	77.12
235.349	78.12
235.583	70.12
235.817	61.12
236.051	82.12
236.285	63.12
236.519	72.12
236.753	70.12
236.987	79.12
237.221	84.12
237.455	77.12
237.689	64.12
237.922	83.12
238.156	59.12
238.39	72.12
238.624	67.12
238.858	73.12
239.091	59.12
239.325	70.12
239.559	79.12
239.793	74.12
240.027	72.12
240.26	71.12
240.494	59.12
240.728	79.12
240.961	63.12
241.195	72.12
241.429	74.12
241.662	77.12
241.896	72.12
242.13	75.12
242.363	66.12
242.597	71.12
242.83	68.12
243.064	64.12
243.298	79.12
243.531	69.12
243.765	85.12
243.998	84.12
244.232	73.12
244.465	69.12
244.699	63.12
244.932	84.12
245.166	69.12
245.399	74.12
245.633	88.12
245.866	76.12
246.099	80.12
246.333	80.12
246.566	89.12
246.8	67.12
247.033	83.12
247.266	59.12
247.5	79.12
247.733	80.12
247.966	85.12
248.2	68.12
248.433	70.12
248.666	60.12
248.899	68.12
249.133	80.12
249.366	75.12
249.599	65.12
249.832	61.12
250.066	82.12
250.299	76.12
250.532	85.12
250.765	68.12
250.998	78.12
251.231	65.12
251.465	87.12
251.698	81.12
251.931	81.12
252.164	93.12
252.397	75.12
252.63	69.12
252.863	73.12
253.096	83.12
253.329	77.12
253.562	80.12
253.795	67.12
254.028	88.12
254.261	81.12
254.494	71.12
254.727	83.12
254.96	78.12
255.193	92.12
255.426	73.12
255.659	75.12
255.892	72.12
256.124	81.12
256.357	77.12
256.59	76.12
256.823	74.12
257.056	85.12
257.289	75.12
257.521	77.12
257.754	79.12
257.987	79.12
258.22	79.12
258.452	70.12
258.685	86.12
258.918	77.12
259.151	61.12
259.383	85.12
259.616	81.12
259.849	78.12
260.081	62.12
260.314	74.12
260.547	77.12
260.779	80.12
261.012	88.12
261.244	78.12
261.477	71.12
261.71	69.12
261.942	59.12
262.175	72.12
262.407	86.12
262.64	77.12
262.872	87.12
263.105	81.12
263.337	85.12
263.57	72.12
263.802	78.12
264.035	80.12
264.267	78.12
264.499	82.12
264.732	90.12
264.964	81.12
265.197	93.12
265.429	81.12
265.661	75.12
265.894	83.12
266.126	99.12
266.358	82.12
266.591	82.12
266.823	71.12
267.055	74.12
267.287	83.12
267.52	65.12
267.752	81.12
267.984	74.12
268.216	82.12
268.448	79.12
268.681	78.12
268.913	91.12
269.145	87.12
269.377	77.12
269.609	89.12
269.841	94.12
270.073	98.12
270.306	86.12
270.538	84.12
270.77	77.12
271.002	83.12
271.234	83.12
271.466	91.12
271.698	83.12
271.93	75.12
272.162	89.12
272.394	83.12
272.626	75.12
272.858	94.12
273.09	84.12
273.322	96.12
273.553	75.12
273.785	69.12
274.017	84.12
274.249	79.12
274.481	88.12
274.713	95.12
274.945	80.12
275.176	83.12
275.408	79.12
275.64	85.12
275.872	86.12
276.104	98.12
276.335	70.12
276.567	90.12
276.799	78.12
277.031	80.12
277.262	76.12
277.494	79.12
277.726	69.12
277.957	61.12
278.189	88.12
278.421	86.12
278.652	71.12
278.884	72.12
279.115	68.12
279.347	82.12
279.579	91.12
279.81	86.12
280.042	86.12
280.273	88.12
280.505	81.12
280.736	69.12
280.968	77.12
281.199	93.12
281.431	99.12
281.662	68.12
281.894	90.12
282.125	81.12
282.356	87.12
282.588	90.12
282.819	74.12
283.051	85.12
283.282	75.12
283.513	92.12
283.745	88.12
283.976	84.12
284.207	73.12
284.439	86.12
284.67	75.12
284.901	88.12
285.132	87.12
285.364	70.12
285.595	79.12
285.826	107.12
286.057	97.12
286.288	77.12
286.52	77.12
286.751	89.12
286.982	66.12
287.213	83.12
287.444	86.12
287.675	83.12
287.906	89.12
288.138	74.12
288.369	87.12
288.6	89.12
288.831	81.12
289.062	74.12
289.293	77.12
289.524	97.12
289.755	85.12
289.986	83.12
290.217	69.12
290.448	80.12
290.679	87.12
290.91	95.12
291.141	89.12
291.371	91.12
291.602	96.12
291.833	83.12
292.064	85.12
292.295	71.12
292.526	87.12
292.757	94.12
292.987	79.12
293.218	79.12
293.449	68.12
293.68	81.12
293.91	87.12
294.141	89.12
294.372	78.12
294.603	77.12
294.833	79.12
295.064	85.12
295.295	88.12
295.525	74.12
295.756	76.12
295.987	91.12
296.217	92.12
296.448	92.12
296.679	99.12
296.909	85.12
297.14	85.12
297.37	73.12
297.601	73.12
297.831	92.12
298.062	82.12
298.292	79.12
298.523	97.12
298.753	89.12
298.984	86.12
299.214	80.12
299.445	87.12
299.675	93.12
299.905	94.12
300.136	84.12
300.366	82.12
300.597	89.12
300.827	74.12
301.057	89.12
301.288	84.12
301.518	80.12
301.748	82.12
301.979	86.12
302.209	78.12
302.439	83.12
302.669	80.12
302.9	81.12
303.13	75.12
303.36	86.12
303.59	89.12
303.82	81.12
304.051	91.12
304.281	101.12
304.511	80.12
304.741	78.12
304.971	87.12
305.201	75.12
305.431	83.12
305.661	85.12
305.891	74.12
306.121	82.12
306.352	89.12
306.582	75.12
306.812	85.12
307.042	70.12
307.272	79.12
307.502	83.12
307.731	73.12
307.961	97.12
308.191	67.12
308.421	88.12
308.651	78.12
308.881	93.12
309.111	87.12
309.341	75.12
309.571	81.12
309.8	89.12
310.03	81.12
310.26	82.12
310.49	83.12
310.72	84.12
310.949	85.12
311.179	99.12
311.409	85.12
311.639	84.12
311.868	90.12
312.098	82.12
312.328	83.12
312.557	78.12
312.787	80.12
313.017	78.12
313.246	84.12
313.476	80.12
313.706	86.12
313.935	81.12
314.165	88.12
314.394	85.12
314.624	92.12
314.853	86.12
315.083	88.12
315.312	95.12
315.542	81.12
315.771	87.12
316.001	96.12
316.23	83.12
316.46	62.12
316.689	72.12
316.919	82.12
317.148	85.12
317.377	94.12
317.607	86.12
317.836	101.12
318.065	82.12
318.295	93.12
318.524	71.12
318.753	82.12
318.983	93.12
319.212	86.12
319.441	83.12
319.67	97.12
319.9	76.12
320.129	99.12
320.358	90.12
320.587	82.12
320.816	82.12
321.046	85.12
321.275	85.12
321.504	73.12
321.733	93.12
321.962	86.12
322.191	85.12
322.42	88.12
322.649	93.12
322.878	82.12
323.108	80.12
323.337	88.12
323.566	86.12
323.795	81.12
324.024	87.12
324.253	83.12
324.482	77.12
324.71	65.12
324.939	79.12
325.168	96.12
325.397	91.12
325.626	86.12
325.855	87.12
326.084	82.12
326.313	87.12
326.542	75.12
326.77	87.12
326.999	88.12
327.228	81.12
327.457	70.12
327.686	87.12
327.914	87.12
328.143	82.12
328.372	80.12
328.6	78.12
328.829	93.12
329.058	77.12
329.287	82.12
329.515	91.12
329.744	82.12
329.972	87.12
330.201	86.12
330.43	87.12
330.658	67.12
330.887	72.12
331.115	83.12
331.344	83.12
331.572	82.12
331.801	86.12
332.03	87.12
332.258	83.12
332.486	88.12
332.715	73.12
332.943	92.12
333.172	86.12
333.4	91.12
333.629	86.12
333.857	81.12
334.085	91.12
334.314	74.12
334.542	95.12
334.771	89.12
334.999	101.12
335.227	81.12
335.455	92.12
335.684	99.12
335.912	80.12
336.14	91.12
336.369	86.12
336.597	101.12
336.825	77.12
337.053	87.12
337.281	82.12
337.51	83.12
337.738	84.12
337.966	84.12
338.194	82.12
338.422	93.12
338.65	83.12
338.878	88.12
339.106	82.12
339.334	79.12
339.562	87.12
339.79	81.12
340.018	72.12
340.246	97.12
340.474	80.12
340.702	83.12
340.93	82.12
341.158	80.12
341.386	93.12
341.614	78.12
341.842	83.12
342.07	72.12
342.298	86.12
342.526	86.12
342.754	76.12
342.981	80.12
343.209	83.12
343.437	89.12
343.665	72.12
343.893	98.12
344.12	88.12
344.348	89.12
344.576	97.12
344.804	87.12
345.031	80.12
345.259	72.12
345.487	85.12
345.714	73.12
345.942	77.12
346.17	91.12
346.397	81.12
346.625	84.12
346.853	72.12
347.08	71.12
347.308	66.12
347.535	91.12
347.763	94.12
347.99	99.12
348.218	89.12
348.445	87.12
348.673	84.12
348.9	83.12
349.128	74.12
349.355	83.12
349.583	89.12
349.81	86.12
350.037	89.12
350.265	88.12
350.492	90.12
350.72	72.12
350.947	69.12
351.174	84.12
351.402	78.12
351.629	91.12
351.856	79.12
352.083	79.12
352.311	92.12
352.538	71.12
352.765	79.12
352.992	92.12
353.22	70.12
353.447	70.12
353.674	81.12
353.901	88.12
354.128	78.12
354.355	88.12
354.583	92.12
354.81	80.12
355.037	89.12
355.264	87.12
355.491	88.12
355.718	95.12
355.945	83.12
356.172	87.12
356.399	85.12
356.626	91.12
356.853	104.12
357.08	86.12
357.307	79.12
357.534	88.12
357.761	79.12
357.988	94.12
358.215	85.12
358.441	92.12
358.668	79.12
358.895	75.12
359.122	90.12
359.349	83.12
359.576	86.12
359.802	89.12
360.029	79.12
360.256	81.12
360.483	71.12
360.709	79.12
360.936	81.12
361.163	72.12
361.39	82.12
361.616	79.12
361.843	77.12
362.07	83.12
362.296	95.12
362.523	96.12
362.749	92.12
362.976	100.12
363.203	110.12
363.429	91.12
363.656	89.12
363.882	76.12
364.109	101.12
364.335	120.12
364.562	138.12
364.788	105.12
365.015	90.12
365.241	75.12
365.468	85.12
365.694	82.12
365.92	62.12
366.147	86.12
366.373	97.12
366.599	69.12
366.826	76.12
367.052	84.12
367.278	92.12
367.505	84.12
367.731	96.12
367.957	77.12
368.184	64.12
368.41	79.12
368.636	80.12
368.862	90.12
369.089	72.12
369.315	69.12
369.541	83.12
369.767	86.12
369.993	81.12
370.219	71.12
370.445	92.12
370.672	85.12
370.898	86.12
371.124	82.12
371.35	80.12
371.576	84.12
371.802	75.12
372.028	95.12
372.254	91.12
372.48	92.12
372.706	71.12
372.932	87.12
373.158	79.12
373.384	94.12
373.61	99.12
373.835	96.12
374.061	97.12
374.287	93.12
374.513	86.12
374.739	77.12
374.965	99.12
375.191	103.12
375.416	76.12
375.642	99.12
375.868	78.12
376.094	80.12
376.319	87.12
376.545	73.12
376.771	94.12
376.997	88.12
377.222	95.12
377.448	82.12
377.674	88.12
377.899	98.12
378.125	82.12
378.35	91.12
378.576	91.12
378.802	77.12
379.027	83.12
379.253	78.12
379.478	87.12
379.704	91.12
379.929	79.12
380.155	92.12
380.38	77.12
380.606	78.12
380.831	86.12
381.057	73.12
381.282	94.12
381.507	81.12
381.733	88.12
381.958	79.12
382.184	75.12
382.409	91.12
382.634	90.12
382.86	92.12
383.085	82.12
383.31	92.12
383.535	109.12
383.761	91.12
383.986	97.12
384.211	96.12
384.436	89.12
384.662	87.12
384.887	89.12
385.112	84.12
385.337	93.12
385.562	95.12
385.787	102.12
386.013	103.12
386.238	100.12
386.463	98.12
386.688	102.12
386.913	87.12
387.138	83.12
387.363	85.12
387.588	95.12
387.813	102.12
388.038	95.12
388.263	100.12
388.488	84.12
388.713	80.12
388.938	85.12
389.163	102.12
389.387	87.12
389.612	95.12
389.837	80.12
390.062	85.12
390.287	84.12
390.512	88.12
390.736	95.12
390.961	96.12
391.186	85.12
391.411	91.12
391.636	100.12
391.86	87.12
392.085	88.12
392.31	90.12
392.534	95.12
392.759	117.12
392.984	133.12
393.208	212.12
393.433	305.12
393.658	239.12
393.882	117.12
394.107	94.12
394.331	96.12
394.556	124.12
394.78	115.12
395.005	85.12
395.229	83.12
395.454	91.12
395.678	104.12
395.903	121.12
396.127	124.12
396.352	125.12
396.576	144.12
396.801	225.12
397.025	242.12
397.249	150.12
397.474	112.12
397.698	104.12
397.922	86.12
398.147	89.12
398.371	86.12
398.595	88.12
398.82	89.12
399.044	88.12
399.268	96.12
399.492	103.12
399.717	89.12
399.941	91.12
400.165	79.12
400.389	93.12
400.613	98.12
400.837	94.12
401.062	97.12
401.286	91.12
401.51	84.12
401.734	81.12
401.958	87.12
402.182	82.12
402.406	87.12
402.63	86.12
402.854	100.12
403.078	72.12
403.302	86.12
403.526	99.12
403.75	100.12
403.974	78.12
404.198	84.12
404.422	79.12
404.645	75.12
404.869	80.12
405.093	85.12
405.317	80.12
405.541	76.12
405.765	87.12
405.988	91.12
406.212	85.12
406.436	93.12
406.66	98.12
406.883	73.12
407.107	100.12
407.331	83.12
407.555	88.12
407.778	109.12
408.002	97.12
408.226	79.12
408.449	85.12
408.673	98.12
408.896	83.12
409.12	97.12
409.344	95.12
409.567	101.12
409.791	87.12
410.014	109.12
410.238	95.12
410.461	86.12
410.685	91.12
410.908	77.12
411.132	97.12
411.355	94.12
411.578	90.12
411.802	85.12
412.025	94.12
412.249	81.12
412.472	71.12
412.695	84.12
412.919	85.12
413.142	78.12
413.365	77.12
413.589	83.12
413.812	84.12
414.035	98.12
414.258	79.12
414.482	85.12
414.705	76.12
414.928	79.12
415.151	93.12
415.374	85.12
415.597	77.12
415.821	92.12
416.044	84.12
416.267	68.12
416.49	79.12
416.713	97.12
416.936	93.12
417.159	85.12
417.382	78.12
417.605	89.12
417.828	87.12
418.051	67.12
418.274	78.12
418.497	81.12
418.72	91.12
418.943	99.12
419.166	96.12
419.389	93.12
419.611	74.12
419.834	72.12
420.057	81.12
420.28	101.12
420.503	80.12
420.726	100.12
420.948	88.12
421.171	90.12
421.394	111.12
421.617	112.12
421.839	120.12
422.062	129.12
422.285	166.12
422.507	299.12
422.73	441.12
422.953	384.12
423.175	200.12
423.398	135.12
423.621	94.12
423.843	95.12
424.066	101.12
424.288	84.12
424.511	88.12
424.733	102.12
424.956	107.12
425.178	83.12
425.401	88.12
425.623	88.12
425.846	71.12
426.068	101.12
426.291	97.12
426.513	94.12
426.735	90.12
426.958	97.12
427.18	99.12
427.402	100.12
427.625	87.12
427.847	76.12
428.069	101.12
428.292	134.12
428.514	129.12
428.736	118.12
428.958	123.12
429.181	114.12
429.403	91.12
429.625	81.12
429.847	119.12
430.069	152.12
430.292	164.12
430.514	167.12
430.736	136.12
430.958	137.12
431.18	95.12
431.402	95.12
431.624	104.12
431.846	108.12
432.068	119.12
432.29	108.12
432.512	107.12
432.734	92.12
432.956	75.12
433.178	91.12
433.4	71.12
433.622	84.12
433.844	82.12
434.066	83.12
434.287	91.12
434.509	89.12
434.731	91.12
434.953	76.12
435.175	97.12
435.397	85.12
435.618	85.12
435.84	101.12
436.062	91.12
436.284	87.12
436.505	91.12
436.727	81.12
436.949	93.12
437.17	78.12
437.392	82.12
437.614	68.12
437.835	74.12
438.057	90.12
438.278	88.12
438.5	84.12
438.721	102.12
438.943	88.12
439.165	83.12
439.386	88.12
439.608	94.12
439.829	89.12
440.05	97.12
440.272	82.12
440.493	96.12
440.715	84.12
440.936	86.12
441.158	87.12
441.379	104.12
441.6	94.12
441.822	93.12
442.043	100.12
442.264	98.12
442.486	114.12
442.707	158.12
442.928	130.12
443.149	102.12
443.371	141.12
443.592	215.12
443.813	219.12
444.034	116.12
444.255	107.12
444.476	95.12
444.698	83.12
444.919	97.12
445.14	197.12
445.361	187.12
445.582	276.12
445.803	235.12
446.024	126.12
446.245	107.12
446.466	99.12
446.687	81.12
446.908	78.12
447.129	87.12
447.35	79.12
447.571	87.12
447.792	88.12
448.013	70.12
448.234	68.12
448.455	81.12
448.675	83.12
448.896	92.12
449.117	80.12
449.338	94.12
449.559	86.12
449.779	86.12
450	93.12
450.221	89.12
450.442	83.12
450.662	86.12
450.883	80.12
451.104	81.12
451.324	92.12
451.545	87.12
451.766	87.12
451.986	89.12
452.207	87.12
452.428	96.12
452.648	86.12
452.869	112.12
453.089	94.12
453.31	93.12
453.53	97.12
453.751	86.12
453.971	90.12
454.192	94.12
454.412	96.12
454.633	82.12
454.853	83.12
455.073	91.12
455.294	83.12
455.514	96.12
455.734	95.12
455.955	99.12
456.175	81.12
456.395	89.12
456.616	89.12
456.836	85.12
457.056	80.12
457.276	104.12
457.497	97.12
457.717	91.12
457.937	92.12
458.157	118.12
458.377	120.12
458.598	108.12
458.818	117.12
459.038	110.12
459.258	79.12
459.478	91.12
459.698	73.12
459.918	79.12
460.138	80.12
460.358	79.12
460.578	88.12
460.798	128.12
461.018	123.12
461.238	93.12
461.458	102.12
461.678	88.12
461.898	79.12
462.118	87.12
462.338	89.12
462.558	82.12
462.777	85.12
462.997	77.12
463.217	80.12
463.437	92.12
463.657	73.12
463.876	92.12
464.096	78.12
464.316	91.12
464.536	74.12
464.755	86.12
464.975	82.12
465.195	73.12
465.414	83.12
465.634	79.12
465.854	80.12
466.073	80.12
466.293	77.12
466.512	80.12
466.732	80.12
466.951	88.12
467.171	88.12
467.391	88.12
467.61	83.12
467.829	74.12
468.049	92.12
468.268	95.12
468.488	81.12
468.707	79.12
468.927	71.12
469.146	79.12
469.365	92.12
469.585	87.12
469.804	79.12
470.023	80.12
470.243	82.12
470.462	96.12
470.681	81.12
470.901	85.12
471.12	85.12
471.339	84.12
471.558	89.12
471.777	85.12
471.997	96.12
472.216	91.12
472.435	87.12
472.654	93.12
472.873	86.12
473.092	89.12
473.311	90.12
473.53	100.12
473.749	95.12
473.968	103.12
474.187	88.12
474.406	79.12
474.625	94.12
474.844	75.12
475.063	95.12
475.282	86.12
475.501	72.12
475.72	88.12
475.939	96.12
476.158	96.12
476.377	92.12
476.596	89.12
476.814	79.12
477.033	81.12
477.252	79.12
477.471	94.12
477.69	84.12
477.908	82.12
478.127	101.12
478.346	93.12
478.564	99.12
478.783	95.12
479.002	93.12
479.22	79.12
479.439	89.12
479.658	86.12
479.876	83.12
480.095	92.12
480.313	95.12
480.532	84.12
480.751	88.12
480.969	89.12
481.188	83.12
481.406	86.12
481.624	84.12
481.843	77.12
482.061	73.12
482.28	96.12
482.498	88.12
482.717	90.12
482.935	87.12
483.153	100.12
483.372	97.12
483.59	105.12
483.808	94.12
484.027	85.12
484.245	83.12
484.463	97.12
484.681	93.12
484.9	89.12
485.118	88.12
485.336	83.12
485.554	91.12
485.772	95.12
485.99	82.12
486.209	85.12
486.427	77.12
486.645	87.12
486.863	79.12
487.081	89.12
487.299	108.12
487.517	99.12
487.735	115.12
487.953	146.12
488.171	123.12
488.389	92.12
488.607	90.12
488.825	99.12
489.043	91.12
489.261	86.12
489.479	101.12
489.696	79.12
489.914	87.12
490.132	88.12
490.35	104.12
490.568	81.12
490.786	86.12
491.003	88.12
491.221	95.12
491.439	82.12
491.657	97.12
491.874	90.12
492.092	100.12
492.31	87.12
492.527	93.12
492.745	79.12
492.963	79.12
493.18	94.12
493.398	86.12
493.615	98.12
493.833	87.12
494.05	94.12
494.268	91.12
494.485	95.12
494.703	64.12
494.92	79.12
495.138	80.12
495.355	85.12
495.573	99.12
495.79	95.12
496.008	91.12
496.225	112.12
496.442	79.12
496.66	94.12
496.877	88.12
497.094	97.12
497.312	92.12
497.529	96.12
497.746	93.12
497.963	84.12
498.181	104.12
498.398	92.12
498.615	99.12
498.832	93.12
499.049	102.12
499.267	92.12
499.484	79.12
499.701	89.12
499.918	111.12
500.135	115.12
500.352	69.12
500.569	101.12
500.786	91.12
501.003	97.12
501.22	91.12
501.437	89.12
501.654	81.12
501.871	95.12
502.088	88.12
502.305	92.12
502.522	85.12
502.739	96.12
502.956	83.12
503.172	86.12
503.389	72.12
503.606	86.12
503.823	80.12
504.04	104.12
504.256	122.12
504.473	129.12
504.69	117.12
504.907	95.12
505.123	90.12
505.34	83.12
505.557	96.12
505.773	91.12
505.99	84.12
506.207	69.12
506.423	86.12
506.64	95.12
506.856	80.12
507.073	87.12
507.289	87.12
507.506	78.12
507.722	95.12
507.939	85.12
508.155	86.12
508.372	102.12
508.588	105.12
508.805	94.12
509.021	81.12
509.238	99.12
509.454	81.12
509.67	94.12
509.887	80.12
510.103	79.12
510.319	91.12
510.536	94.12
510.752	94.12
510.968	96.12
511.184	100.12
511.401	101.12
511.617	87.12
511.833	89.12
512.049	87.12
512.265	93.12
512.481	101.12
512.698	89.12
512.914	79.12
513.13	88.12
513.346	80.12
513.562	97.12
513.778	88.12
513.994	84.12
514.21	85.12
514.426	97.12
514.642	82.12
514.858	88.12
515.074	74.12
515.29	98.12
515.506	101.12
515.721	85.12
515.937	102.12
516.153	96.12
516.369	118.12
516.585	100.12
516.801	109.12
517.016	113.12
517.232	101.12
517.448	95.12
517.664	98.12
517.879	84.12
518.095	82.12
518.311	99.12
