Data from 10100_2_HRD10591_00046.txt Node
Date: Mon Jan 19 14:01:47 EST 2026
User: Yrep
Spectrometer: HR+D1059
Trigger mode: 1
Integration Time (sec): 1.000000E-1
Scans to average: 1
Electric dark correction enabled: true
Nonlinearity correction enabled: false
Boxcar width: 0
XAxis mode: Wavelengths
Number of Pixels in Spectrum: 2048
>>>>>Begin Spectral Data<<<<<
223.165	-11.38
223.4	-11.38
223.635	-11.38
223.869	-23.38
224.104	-20.38
224.338	-7.38
224.573	-20.38
224.808	-6.38
225.042	-11.38
225.277	-2.38
225.511	-6.38
225.746	13.62
225.98	-3.38
226.215	3.62
226.449	14.62
226.683	16.62
226.918	26.62
227.152	37.62
227.387	54.62
227.621	48.62
227.856	54.62
228.09	52.62
228.324	52.62
228.559	68.62
228.793	67.62
229.027	72.62
229.262	74.62
229.496	64.62
229.73	71.62
229.964	62.62
230.199	57.62
230.433	63.62
230.667	89.62
230.901	70.62
231.136	56.62
231.37	88.62
231.604	76.62
231.838	78.62
232.072	80.62
232.306	92.62
232.541	85.62
232.775	80.62
233.009	80.62
233.243	95.62
233.477	82.62
233.711	82.62
233.945	85.62
234.179	77.62
234.413	92.62
234.647	84.62
234.881	79.62
235.115	78.62
235.349	72.62
235.583	68.62
235.817	72.62
236.051	67.62
236.285	80.62
236.519	81.62
236.753	72.62
236.987	86.62
237.221	70.62
237.455	75.62
237.689	92.62
237.922	79.62
238.156	83.62
238.39	86.62
238.624	84.62
238.858	87.62
239.091	82.62
239.325	87.62
239.559	72.62
239.793	76.62
240.027	82.62
240.26	72.62
240.494	86.62
240.728	80.62
240.961	68.62
241.195	86.62
241.429	67.62
241.662	60.62
241.896	76.62
242.13	77.62
242.363	68.62
242.597	67.62
242.83	75.62
243.064	75.62
243.298	82.62
243.531	86.62
243.765	60.62
243.998	83.62
244.232	77.62
244.465	70.62
244.699	80.62
244.932	74.62
245.166	65.62
245.399	93.62
245.633	80.62
245.866	81.62
246.099	91.62
246.333	87.62
246.566	79.62
246.8	87.62
247.033	83.62
247.266	67.62
247.5	91.62
247.733	90.62
247.966	91.62
248.2	89.62
248.433	75.62
248.666	76.62
248.899	71.62
249.133	75.62
249.366	83.62
249.599	85.62
249.832	82.62
250.066	88.62
250.299	92.62
250.532	95.62
250.765	82.62
250.998	91.62
251.231	75.62
251.465	91.62
251.698	89.62
251.931	72.62
252.164	88.62
252.397	83.62
252.63	82.62
252.863	75.62
253.096	69.62
253.329	82.62
253.562	74.62
253.795	81.62
254.028	80.62
254.261	86.62
254.494	91.62
254.727	84.62
254.96	91.62
255.193	77.62
255.426	93.62
255.659	81.62
255.892	88.62
256.124	80.62
256.357	83.62
256.59	83.62
256.823	98.62
257.056	84.62
257.289	78.62
257.521	89.62
257.754	82.62
257.987	79.62
258.22	74.62
258.452	66.62
258.685	84.62
258.918	94.62
259.151	76.62
259.383	86.62
259.616	74.62
259.849	96.62
260.081	75.62
260.314	86.62
260.547	81.62
260.779	79.62
261.012	84.62
261.244	90.62
261.477	86.62
261.71	73.62
261.942	84.62
262.175	82.62
262.407	79.62
262.64	84.62
262.872	93.62
263.105	91.62
263.337	80.62
263.57	73.62
263.802	83.62
264.035	78.62
264.267	98.62
264.499	83.62
264.732	90.62
264.964	66.62
265.197	90.62
265.429	89.62
265.661	73.62
265.894	82.62
266.126	99.62
266.358	82.62
266.591	79.62
266.823	82.62
267.055	86.62
267.287	85.62
267.52	81.62
267.752	99.62
267.984	90.62
268.216	74.62
268.448	83.62
268.681	77.62
268.913	71.62
269.145	87.62
269.377	90.62
269.609	86.62
269.841	81.62
270.073	95.62
270.306	73.62
270.538	90.62
270.77	86.62
271.002	86.62
271.234	77.62
271.466	74.62
271.698	93.62
271.93	91.62
272.162	88.62
272.394	87.62
272.626	83.62
272.858	92.62
273.09	98.62
273.322	77.62
273.553	80.62
273.785	87.62
274.017	94.62
274.249	95.62
274.481	86.62
274.713	70.62
274.945	72.62
275.176	89.62
275.408	88.62
275.64	80.62
275.872	81.62
276.104	74.62
276.335	78.62
276.567	85.62
276.799	80.62
277.031	82.62
277.262	76.62
277.494	80.62
277.726	84.62
277.957	82.62
278.189	75.62
278.421	84.62
278.652	74.62
278.884	83.62
279.115	71.62
279.347	82.62
279.579	84.62
279.81	91.62
280.042	80.62
280.273	86.62
280.505	83.62
280.736	80.62
280.968	87.62
281.199	85.62
281.431	79.62
281.662	82.62
281.894	92.62
282.125	90.62
282.356	94.62
282.588	91.62
282.819	78.62
283.051	86.62
283.282	79.62
283.513	88.62
283.745	94.62
283.976	94.62
284.207	87.62
284.439	89.62
284.67	80.62
284.901	100.62
285.132	79.62
285.364	91.62
285.595	81.62
285.826	83.62
286.057	89.62
286.288	82.62
286.52	90.62
286.751	70.62
286.982	76.62
287.213	76.62
287.444	95.62
287.675	96.62
287.906	90.62
288.138	75.62
288.369	86.62
288.6	80.62
288.831	98.62
289.062	100.62
289.293	82.62
289.524	78.62
289.755	75.62
289.986	84.62
290.217	81.62
290.448	82.62
290.679	89.62
290.91	106.62
291.141	84.62
291.371	91.62
291.602	91.62
291.833	87.62
292.064	83.62
292.295	99.62
292.526	92.62
292.757	82.62
292.987	93.62
293.218	92.62
293.449	74.62
293.68	87.62
293.91	89.62
294.141	84.62
294.372	92.62
294.603	96.62
294.833	90.62
295.064	86.62
295.295	70.62
295.525	86.62
295.756	85.62
295.987	82.62
296.217	76.62
296.448	85.62
296.679	85.62
296.909	77.62
297.14	92.62
297.37	86.62
297.601	83.62
297.831	86.62
298.062	78.62
298.292	89.62
298.523	103.62
298.753	70.62
298.984	89.62
299.214	91.62
299.445	73.62
299.675	84.62
299.905	80.62
300.136	91.62
300.366	78.62
300.597	76.62
300.827	89.62
301.057	90.62
301.288	89.62
301.518	92.62
301.748	81.62
301.979	97.62
302.209	103.62
302.439	94.62
302.669	83.62
302.9	91.62
303.13	92.62
303.36	89.62
303.59	98.62
303.82	89.62
304.051	86.62
304.281	90.62
304.511	86.62
304.741	73.62
304.971	82.62
305.201	101.62
305.431	78.62
305.661	82.62
305.891	80.62
306.121	90.62
306.352	89.62
306.582	97.62
306.812	86.62
307.042	86.62
307.272	86.62
307.502	93.62
307.731	91.62
307.961	82.62
308.191	98.62
308.421	95.62
308.651	84.62
308.881	76.62
309.111	93.62
309.341	90.62
309.571	90.62
309.8	84.62
310.03	78.62
310.26	91.62
310.49	80.62
310.72	103.62
310.949	92.62
311.179	89.62
311.409	89.62
311.639	99.62
311.868	95.62
312.098	75.62
312.328	82.62
312.557	91.62
312.787	88.62
313.017	86.62
313.246	88.62
313.476	95.62
313.706	75.62
313.935	85.62
314.165	78.62
314.394	99.62
314.624	91.62
314.853	92.62
315.083	83.62
315.312	84.62
315.542	87.62
315.771	90.62
316.001	82.62
316.23	79.62
316.46	87.62
316.689	86.62
316.919	89.62
317.148	85.62
317.377	85.62
317.607	75.62
317.836	96.62
318.065	82.62
318.295	72.62
318.524	84.62
318.753	86.62
318.983	92.62
319.212	97.62
319.441	83.62
319.67	93.62
319.9	84.62
320.129	79.62
320.358	87.62
320.587	85.62
320.816	80.62
321.046	87.62
321.275	77.62
321.504	71.62
321.733	77.62
321.962	82.62
322.191	88.62
322.42	83.62
322.649	88.62
322.878	75.62
323.108	74.62
323.337	95.62
323.566	91.62
323.795	86.62
324.024	78.62
324.253	92.62
324.482	79.62
324.71	77.62
324.939	84.62
325.168	80.62
325.397	89.62
325.626	84.62
325.855	93.62
326.084	81.62
326.313	86.62
326.542	80.62
326.77	86.62
326.999	74.62
327.228	88.62
327.457	79.62
327.686	92.62
327.914	91.62
328.143	96.62
328.372	94.62
328.6	86.62
328.829	84.62
329.058	65.62
329.287	88.62
329.515	79.62
329.744	90.62
329.972	90.62
330.201	97.62
330.43	94.62
330.658	82.62
330.887	89.62
331.115	88.62
331.344	94.62
331.572	82.62
331.801	87.62
332.03	100.62
332.258	88.62
332.486	93.62
332.715	104.62
332.943	78.62
333.172	83.62
333.4	78.62
333.629	71.62
333.857	79.62
334.085	77.62
334.314	77.62
334.542	84.62
334.771	91.62
334.999	92.62
335.227	102.62
335.455	95.62
335.684	82.62
335.912	76.62
336.14	84.62
336.369	91.62
336.597	87.62
336.825	89.62
337.053	71.62
337.281	81.62
337.51	102.62
337.738	78.62
337.966	94.62
338.194	82.62
338.422	80.62
338.65	89.62
338.878	82.62
339.106	90.62
339.334	88.62
339.562	85.62
339.79	91.62
340.018	71.62
340.246	80.62
340.474	84.62
340.702	85.62
340.93	89.62
341.158	88.62
341.386	85.62
341.614	83.62
341.842	82.62
342.07	76.62
342.298	88.62
342.526	94.62
342.754	75.62
342.981	95.62
343.209	90.62
343.437	107.62
343.665	80.62
343.893	80.62
344.12	96.62
344.348	91.62
344.576	83.62
344.804	86.62
345.031	90.62
345.259	79.62
345.487	73.62
345.714	104.62
345.942	78.62
346.17	76.62
346.397	98.62
346.625	82.62
346.853	82.62
347.08	82.62
347.308	79.62
347.535	82.62
347.763	86.62
347.99	85.62
348.218	87.62
348.445	87.62
348.673	90.62
348.9	86.62
349.128	86.62
349.355	71.62
349.583	75.62
349.81	75.62
350.037	83.62
350.265	78.62
350.492	90.62
350.72	83.62
350.947	86.62
351.174	91.62
351.402	83.62
351.629	82.62
351.856	88.62
352.083	70.62
352.311	88.62
352.538	91.62
352.765	91.62
352.992	99.62
353.22	90.62
353.447	73.62
353.674	88.62
353.901	88.62
354.128	76.62
354.355	83.62
354.583	93.62
354.81	82.62
355.037	86.62
355.264	85.62
355.491	76.62
355.718	91.62
355.945	83.62
356.172	74.62
356.399	87.62
356.626	110.62
356.853	98.62
357.08	80.62
357.307	83.62
357.534	85.62
357.761	94.62
357.988	87.62
358.215	84.62
358.441	76.62
358.668	104.62
358.895	95.62
359.122	88.62
359.349	69.62
359.576	82.62
359.802	80.62
360.029	82.62
360.256	76.62
360.483	90.62
360.709	90.62
360.936	89.62
361.163	85.62
361.39	90.62
361.616	80.62
361.843	87.62
362.07	77.62
362.296	95.62
362.523	84.62
362.749	93.62
362.976	89.62
363.203	92.62
363.429	83.62
363.656	90.62
363.882	81.62
364.109	91.62
364.335	90.62
364.562	77.62
364.788	81.62
365.015	90.62
365.241	90.62
365.468	80.62
365.694	79.62
365.92	86.62
366.147	80.62
366.373	73.62
366.599	82.62
366.826	82.62
367.052	91.62
367.278	88.62
367.505	74.62
367.731	76.62
367.957	71.62
368.184	104.62
368.41	85.62
368.636	97.62
368.862	80.62
369.089	81.62
369.315	81.62
369.541	90.62
369.767	77.62
369.993	78.62
370.219	96.62
370.445	79.62
370.672	83.62
370.898	76.62
371.124	92.62
371.35	90.62
371.576	91.62
371.802	103.62
372.028	95.62
372.254	78.62
372.48	84.62
372.706	86.62
372.932	77.62
373.158	91.62
373.384	96.62
373.61	98.62
373.835	96.62
374.061	99.62
374.287	90.62
374.513	92.62
374.739	87.62
374.965	63.62
375.191	84.62
375.416	75.62
375.642	87.62
375.868	95.62
376.094	89.62
376.319	83.62
376.545	71.62
376.771	90.62
376.997	91.62
377.222	66.62
377.448	83.62
377.674	79.62
377.899	98.62
378.125	101.62
378.35	92.62
378.576	70.62
378.802	90.62
379.027	82.62
379.253	82.62
379.478	88.62
379.704	93.62
379.929	88.62
380.155	94.62
380.38	80.62
380.606	80.62
380.831	83.62
381.057	89.62
381.282	73.62
381.507	84.62
381.733	83.62
381.958	77.62
382.184	85.62
382.409	81.62
382.634	84.62
382.86	74.62
383.085	85.62
383.31	87.62
383.535	86.62
383.761	85.62
383.986	84.62
384.211	91.62
384.436	75.62
384.662	80.62
384.887	80.62
385.112	92.62
385.337	82.62
385.562	98.62
385.787	80.62
386.013	82.62
386.238	92.62
386.463	94.62
386.688	102.62
386.913	76.62
387.138	72.62
387.363	75.62
387.588	86.62
387.813	78.62
388.038	87.62
388.263	90.62
388.488	75.62
388.713	76.62
388.938	78.62
389.163	87.62
389.387	88.62
389.612	92.62
389.837	109.62
390.062	93.62
390.287	88.62
390.512	83.62
390.736	85.62
390.961	89.62
391.186	71.62
391.411	73.62
391.636	83.62
391.86	90.62
392.085	74.62
392.31	83.62
392.534	73.62
392.759	91.62
392.984	99.62
393.208	108.62
393.433	135.62
393.658	129.62
393.882	82.62
394.107	84.62
394.331	80.62
394.556	80.62
394.78	83.62
395.005	76.62
395.229	87.62
395.454	92.62
395.678	85.62
395.903	95.62
396.127	106.62
396.352	99.62
396.576	94.62
396.801	125.62
397.025	124.62
397.249	98.62
397.474	82.62
397.698	88.62
397.922	82.62
398.147	86.62
398.371	86.62
398.595	82.62
398.82	93.62
399.044	75.62
399.268	84.62
399.492	89.62
399.717	80.62
399.941	98.62
400.165	91.62
400.389	83.62
400.613	82.62
400.837	93.62
401.062	88.62
401.286	89.62
401.51	86.62
401.734	82.62
401.958	70.62
402.182	83.62
402.406	87.62
402.63	80.62
402.854	82.62
403.078	74.62
403.302	81.62
403.526	84.62
403.75	82.62
403.974	60.62
404.198	88.62
404.422	84.62
404.645	97.62
404.869	86.62
405.093	93.62
405.317	77.62
405.541	94.62
405.765	84.62
405.988	86.62
406.212	91.62
406.436	89.62
406.66	88.62
406.883	90.62
407.107	81.62
407.331	74.62
407.555	85.62
407.778	89.62
408.002	105.62
408.226	85.62
408.449	82.62
408.673	76.62
408.896	86.62
409.12	91.62
409.344	81.62
409.567	88.62
409.791	89.62
410.014	95.62
410.238	86.62
410.461	86.62
410.685	73.62
410.908	77.62
411.132	77.62
411.355	77.62
411.578	78.62
411.802	82.62
412.025	74.62
412.249	88.62
412.472	78.62
412.695	87.62
412.919	86.62
413.142	84.62
413.365	85.62
413.589	81.62
413.812	86.62
414.035	82.62
414.258	99.62
414.482	70.62
414.705	84.62
414.928	95.62
415.151	84.62
415.374	74.62
415.597	84.62
415.821	90.62
416.044	84.62
416.267	83.62
416.49	71.62
416.713	80.62
416.936	76.62
417.159	89.62
417.382	74.62
417.605	80.62
417.828	99.62
418.051	82.62
418.274	74.62
418.497	93.62
418.72	81.62
418.943	88.62
419.166	80.62
419.389	91.62
419.611	99.62
419.834	76.62
420.057	84.62
420.28	86.62
420.503	80.62
420.726	74.62
420.948	88.62
421.171	84.62
421.394	95.62
421.617	79.62
421.839	83.62
422.062	83.62
422.285	99.62
422.507	110.62
422.73	147.62
422.953	130.62
423.175	105.62
423.398	97.62
423.621	82.62
423.843	82.62
424.066	86.62
424.288	92.62
424.511	90.62
424.733	100.62
424.956	75.62
425.178	86.62
425.401	82.62
425.623	68.62
425.846	77.62
426.068	78.62
426.291	86.62
426.513	84.62
426.735	78.62
426.958	80.62
427.18	96.62
427.402	88.62
427.625	93.62
427.847	86.62
428.069	83.62
428.292	96.62
428.514	76.62
428.736	84.62
428.958	94.62
429.181	90.62
429.403	82.62
429.625	88.62
429.847	85.62
430.069	78.62
430.292	110.62
430.514	109.62
430.736	91.62
430.958	97.62
431.18	77.62
431.402	84.62
431.624	84.62
431.846	83.62
432.068	103.62
432.29	80.62
432.512	84.62
432.734	94.62
432.956	95.62
433.178	83.62
433.4	97.62
433.622	96.62
433.844	67.62
434.066	86.62
434.287	83.62
434.509	84.62
434.731	85.62
434.953	92.62
435.175	83.62
435.397	83.62
435.618	76.62
435.84	89.62
436.062	80.62
436.284	78.62
436.505	71.62
436.727	80.62
436.949	79.62
437.17	87.62
437.392	75.62
437.614	81.62
437.835	87.62
438.057	90.62
438.278	77.62
438.5	90.62
438.721	78.62
438.943	84.62
439.165	67.62
439.386	86.62
439.608	74.62
439.829	93.62
440.05	98.62
440.272	74.62
440.493	80.62
440.715	69.62
440.936	95.62
441.158	79.62
441.379	106.62
441.6	94.62
441.822	71.62
442.043	86.62
442.264	88.62
442.486	94.62
442.707	99.62
442.928	94.62
443.149	85.62
443.371	102.62
443.592	105.62
443.813	103.62
444.034	100.62
444.255	70.62
444.476	85.62
444.698	76.62
444.919	92.62
445.14	175.62
445.361	138.62
445.582	132.62
445.803	105.62
446.024	97.62
446.245	88.62
446.466	95.62
446.687	70.62
446.908	90.62
447.129	86.62
447.35	86.62
447.571	94.62
447.792	70.62
448.013	70.62
448.234	85.62
448.455	91.62
448.675	92.62
448.896	84.62
449.117	82.62
449.338	89.62
449.559	88.62
449.779	85.62
450	86.62
450.221	84.62
450.442	80.62
450.662	76.62
450.883	88.62
451.104	80.62
451.324	96.62
451.545	90.62
451.766	90.62
451.986	99.62
452.207	81.62
452.428	75.62
452.648	88.62
452.869	79.62
453.089	95.62
453.31	84.62
453.53	88.62
453.751	86.62
453.971	81.62
454.192	81.62
454.412	81.62
454.633	84.62
454.853	92.62
455.073	66.62
455.294	68.62
455.514	81.62
455.734	89.62
455.955	83.62
456.175	71.62
456.395	88.62
456.616	69.62
456.836	83.62
457.056	84.62
457.276	81.62
457.497	77.62
457.717	86.62
457.937	59.62
458.157	94.62
458.377	87.62
458.598	88.62
458.818	91.62
459.038	99.62
459.258	95.62
459.478	74.62
459.698	74.62
459.918	88.62
460.138	71.62
460.358	97.62
460.578	92.62
460.798	71.62
461.018	82.62
461.238	94.62
461.458	81.62
461.678	84.62
461.898	79.62
462.118	92.62
462.338	84.62
462.558	87.62
462.777	86.62
462.997	88.62
463.217	80.62
463.437	89.62
463.657	86.62
463.876	87.62
464.096	78.62
464.316	98.62
464.536	72.62
464.755	84.62
464.975	97.62
465.195	83.62
465.414	85.62
465.634	84.62
465.854	81.62
466.073	87.62
466.293	95.62
466.512	76.62
466.732	77.62
466.951	80.62
467.171	78.62
467.391	82.62
467.61	94.62
467.829	78.62
468.049	82.62
468.268	89.62
468.488	69.62
468.707	82.62
468.927	76.62
469.146	92.62
469.365	102.62
469.585	104.62
469.804	90.62
470.023	83.62
470.243	76.62
470.462	66.62
470.681	85.62
470.901	82.62
471.12	75.62
471.339	80.62
471.558	78.62
471.777	65.62
471.997	74.62
472.216	98.62
472.435	77.62
472.654	84.62
472.873	86.62
473.092	81.62
473.311	83.62
473.53	79.62
473.749	70.62
473.968	94.62
474.187	93.62
474.406	79.62
474.625	85.62
474.844	92.62
475.063	77.62
475.282	74.62
475.501	89.62
475.72	95.62
475.939	92.62
476.158	75.62
476.377	99.62
476.596	82.62
476.814	86.62
477.033	84.62
477.252	74.62
477.471	85.62
477.69	82.62
477.908	82.62
478.127	87.62
478.346	80.62
478.564	78.62
478.783	81.62
479.002	87.62
479.22	85.62
479.439	75.62
479.658	80.62
479.876	60.62
480.095	94.62
480.313	89.62
480.532	84.62
480.751	80.62
480.969	84.62
481.188	63.62
481.406	96.62
481.624	80.62
481.843	89.62
482.061	90.62
482.28	90.62
482.498	95.62
482.717	76.62
482.935	83.62
483.153	86.62
483.372	82.62
483.59	87.62
483.808	73.62
484.027	89.62
484.245	96.62
484.463	77.62
484.681	80.62
484.9	79.62
485.118	86.62
485.336	77.62
485.554	70.62
485.772	78.62
485.99	79.62
486.209	86.62
486.427	74.62
486.645	83.62
486.863	71.62
487.081	79.62
487.299	90.62
487.517	69.62
487.735	78.62
487.953	96.62
488.171	91.62
488.389	66.62
488.607	89.62
488.825	68.62
489.043	75.62
489.261	77.62
489.479	82.62
489.696	76.62
489.914	77.62
490.132	96.62
490.35	88.62
490.568	85.62
490.786	89.62
491.003	91.62
491.221	79.62
491.439	73.62
491.657	87.62
491.874	90.62
492.092	81.62
492.31	76.62
492.527	75.62
492.745	67.62
492.963	79.62
493.18	82.62
493.398	96.62
493.615	84.62
493.833	87.62
494.05	75.62
494.268	80.62
494.485	96.62
494.703	98.62
494.92	79.62
495.138	84.62
495.355	88.62
495.573	108.62
495.79	74.62
496.008	91.62
496.225	89.62
496.442	91.62
496.66	87.62
496.877	80.62
497.094	97.62
497.312	82.62
497.529	82.62
497.746	83.62
497.963	74.62
498.181	73.62
498.398	97.62
498.615	85.62
498.832	74.62
499.049	88.62
499.267	94.62
499.484	84.62
499.701	92.62
499.918	84.62
500.135	106.62
500.352	96.62
500.569	70.62
500.786	83.62
501.003	90.62
501.22	88.62
501.437	91.62
501.654	78.62
501.871	66.62
502.088	82.62
502.305	92.62
502.522	87.62
502.739	89.62
502.956	86.62
503.172	92.62
503.389	83.62
503.606	87.62
503.823	87.62
504.04	94.62
504.256	80.62
504.473	94.62
504.69	87.62
504.907	102.62
505.123	70.62
505.34	72.62
505.557	92.62
505.773	92.62
505.99	80.62
506.207	82.62
506.423	76.62
506.64	86.62
506.856	69.62
507.073	72.62
507.289	86.62
507.506	73.62
507.722	91.62
507.939	84.62
508.155	71.62
508.372	80.62
508.588	82.62
508.805	92.62
509.021	79.62
509.238	87.62
509.454	82.62
509.67	80.62
509.887	71.62
510.103	75.62
510.319	103.62
510.536	94.62
510.752	80.62
510.968	86.62
511.184	94.62
511.401	75.62
511.617	79.62
511.833	89.62
512.049	90.62
512.265	71.62
512.481	94.62
512.698	87.62
512.914	87.62
513.13	89.62
513.346	78.62
513.562	87.62
513.778	99.62
513.994	95.62
514.21	96.62
514.426	91.62
514.642	86.62
514.858	80.62
515.074	87.62
515.29	88.62
515.506	78.62
515.721	92.62
515.937	76.62
516.153	100.62
516.369	94.62
516.585	88.62
516.801	99.62
517.016	91.62
517.232	91.62
517.448	76.62
517.664	91.62
517.879	84.62
518.095	85.62
518.311	74.62
518.527	88.62
518.742	90.62
518.958	90.62
519.173	99.62
519.389	91.62
519.605	78.62
