Data from 10100_2_HRD10591_00007.txt Node
Date: Mon Jan 19 14:01:27 EST 2026
User: Yrep
Spectrometer: HR+D1059
Trigger mode: 1
Integration Time (sec): 1.000000E-1
Scans to average: 1
Electric dark correction enabled: true
Nonlinearity correction enabled: false
Boxcar width: 0
XAxis mode: Wavelengths
Number of Pixels in Spectrum: 2048
>>>>>Begin Spectral Data<<<<<
223.165	-29.25
223.4	-29.25
223.635	-29.25
223.869	-9.25
224.104	-24.25
224.338	-5.25
224.573	-11.25
224.808	-15.25
225.042	-6.25
225.277	-10.25
225.511	-2.25
225.746	-7.25
225.98	6.75
226.215	18.75
226.449	24.75
226.683	23.75
226.918	13.75
227.152	32.75
227.387	52.75
227.621	28.75
227.856	25.75
228.09	52.75
228.324	54.75
228.559	58.75
228.793	77.75
229.027	54.75
229.262	57.75
229.496	75.75
229.73	88.75
229.964	74.75
230.199	71.75
230.433	74.75
230.667	73.75
230.901	88.75
231.136	85.75
231.37	80.75
231.604	65.75
231.838	68.75
232.072	81.75
232.306	84.75
232.541	72.75
232.775	70.75
233.009	89.75
233.243	66.75
233.477	72.75
233.711	69.75
233.945	92.75
234.179	84.75
234.413	88.75
234.647	85.75
234.881	60.75
235.115	73.75
235.349	69.75
235.583	81.75
235.817	82.75
236.051	77.75
236.285	87.75
236.519	90.75
236.753	64.75
236.987	74.75
237.221	77.75
237.455	75.75
237.689	64.75
237.922	72.75
238.156	71.75
238.39	70.75
238.624	67.75
238.858	73.75
239.091	90.75
239.325	78.75
239.559	53.75
239.793	73.75
240.027	88.75
240.26	71.75
240.494	88.75
240.728	66.75
240.961	62.75
241.195	73.75
241.429	70.75
241.662	74.75
241.896	73.75
242.13	63.75
242.363	64.75
242.597	69.75
242.83	86.75
243.064	68.75
243.298	81.75
243.531	70.75
243.765	76.75
243.998	74.75
244.232	68.75
244.465	77.75
244.699	78.75
244.932	75.75
245.166	80.75
245.399	89.75
245.633	73.75
245.866	84.75
246.099	68.75
246.333	82.75
246.566	82.75
246.8	83.75
247.033	64.75
247.266	80.75
247.5	74.75
247.733	85.75
247.966	71.75
248.2	81.75
248.433	68.75
248.666	76.75
248.899	86.75
249.133	84.75
249.366	68.75
249.599	68.75
249.832	76.75
250.066	71.75
250.299	73.75
250.532	78.75
250.765	76.75
250.998	80.75
251.231	71.75
251.465	70.75
251.698	70.75
251.931	97.75
252.164	70.75
252.397	66.75
252.63	77.75
252.863	72.75
253.096	68.75
253.329	81.75
253.562	72.75
253.795	78.75
254.028	66.75
254.261	72.75
254.494	84.75
254.727	76.75
254.96	72.75
255.193	79.75
255.426	80.75
255.659	85.75
255.892	82.75
256.124	78.75
256.357	76.75
256.59	93.75
256.823	86.75
257.056	83.75
257.289	72.75
257.521	82.75
257.754	84.75
257.987	73.75
258.22	89.75
258.452	80.75
258.685	88.75
258.918	71.75
259.151	66.75
259.383	74.75
259.616	79.75
259.849	90.75
260.081	89.75
260.314	79.75
260.547	88.75
260.779	65.75
261.012	76.75
261.244	88.75
261.477	72.75
261.71	84.75
261.942	82.75
262.175	72.75
262.407	81.75
262.64	78.75
262.872	88.75
263.105	67.75
263.337	81.75
263.57	78.75
263.802	88.75
264.035	75.75
264.267	78.75
264.499	84.75
264.732	72.75
264.964	94.75
265.197	74.75
265.429	78.75
265.661	72.75
265.894	88.75
266.126	70.75
266.358	88.75
266.591	85.75
266.823	91.75
267.055	75.75
267.287	69.75
267.52	84.75
267.752	96.75
267.984	83.75
268.216	81.75
268.448	89.75
268.681	76.75
268.913	63.75
269.145	94.75
269.377	83.75
269.609	79.75
269.841	80.75
270.073	87.75
270.306	89.75
270.538	74.75
270.77	82.75
271.002	74.75
271.234	86.75
271.466	70.75
271.698	65.75
271.93	87.75
272.162	80.75
272.394	78.75
272.626	88.75
272.858	77.75
273.09	77.75
273.322	92.75
273.553	88.75
273.785	82.75
274.017	74.75
274.249	74.75
274.481	84.75
274.713	93.75
274.945	82.75
275.176	89.75
275.408	88.75
275.64	86.75
275.872	80.75
276.104	72.75
276.335	83.75
276.567	88.75
276.799	91.75
277.031	89.75
277.262	76.75
277.494	82.75
277.726	85.75
277.957	69.75
278.189	87.75
278.421	93.75
278.652	72.75
278.884	68.75
279.115	88.75
279.347	86.75
279.579	84.75
279.81	78.75
280.042	92.75
280.273	78.75
280.505	95.75
280.736	98.75
280.968	79.75
281.199	94.75
281.431	80.75
281.662	84.75
281.894	87.75
282.125	71.75
282.356	73.75
282.588	75.75
282.819	79.75
283.051	83.75
283.282	83.75
283.513	85.75
283.745	80.75
283.976	89.75
284.207	81.75
284.439	92.75
284.67	82.75
284.901	87.75
285.132	92.75
285.364	87.75
285.595	90.75
285.826	79.75
286.057	90.75
286.288	95.75
286.52	86.75
286.751	83.75
286.982	87.75
287.213	78.75
287.444	94.75
287.675	82.75
287.906	95.75
288.138	82.75
288.369	93.75
288.6	86.75
288.831	94.75
289.062	79.75
289.293	87.75
289.524	85.75
289.755	75.75
289.986	76.75
290.217	90.75
290.448	74.75
290.679	80.75
290.91	82.75
291.141	80.75
291.371	87.75
291.602	77.75
291.833	96.75
292.064	73.75
292.295	84.75
292.526	79.75
292.757	75.75
292.987	89.75
293.218	87.75
293.449	83.75
293.68	95.75
293.91	79.75
294.141	84.75
294.372	81.75
294.603	81.75
294.833	90.75
295.064	90.75
295.295	85.75
295.525	80.75
295.756	88.75
295.987	96.75
296.217	89.75
296.448	86.75
296.679	82.75
296.909	78.75
297.14	86.75
297.37	98.75
297.601	77.75
297.831	79.75
298.062	85.75
298.292	88.75
298.523	81.75
298.753	87.75
298.984	85.75
299.214	90.75
299.445	92.75
299.675	91.75
299.905	95.75
300.136	103.75
300.366	94.75
300.597	91.75
300.827	83.75
301.057	78.75
301.288	78.75
301.518	97.75
301.748	93.75
301.979	97.75
302.209	90.75
302.439	86.75
302.669	76.75
302.9	74.75
303.13	75.75
303.36	85.75
303.59	92.75
303.82	76.75
304.051	97.75
304.281	88.75
304.511	81.75
304.741	73.75
304.971	86.75
305.201	89.75
305.431	86.75
305.661	93.75
305.891	100.75
306.121	96.75
306.352	84.75
306.582	85.75
306.812	84.75
307.042	73.75
307.272	82.75
307.502	88.75
307.731	81.75
307.961	89.75
308.191	92.75
308.421	103.75
308.651	100.75
308.881	94.75
309.111	93.75
309.341	95.75
309.571	109.75
309.8	83.75
310.03	87.75
310.26	80.75
310.49	89.75
310.72	86.75
310.949	77.75
311.179	91.75
311.409	88.75
311.639	91.75
311.868	76.75
312.098	87.75
312.328	79.75
312.557	86.75
312.787	92.75
313.017	84.75
313.246	90.75
313.476	76.75
313.706	94.75
313.935	89.75
314.165	80.75
314.394	94.75
314.624	85.75
314.853	98.75
315.083	91.75
315.312	94.75
315.542	79.75
315.771	97.75
316.001	86.75
316.23	103.75
316.46	81.75
316.689	85.75
316.919	90.75
317.148	94.75
317.377	90.75
317.607	78.75
317.836	97.75
318.065	109.75
318.295	92.75
318.524	89.75
318.753	84.75
318.983	93.75
319.212	85.75
319.441	90.75
319.67	84.75
319.9	88.75
320.129	90.75
320.358	73.75
320.587	97.75
320.816	89.75
321.046	78.75
321.275	93.75
321.504	85.75
321.733	96.75
321.962	98.75
322.191	85.75
322.42	84.75
322.649	108.75
322.878	94.75
323.108	84.75
323.337	80.75
323.566	96.75
323.795	88.75
324.024	82.75
324.253	76.75
324.482	77.75
324.71	94.75
324.939	100.75
325.168	84.75
325.397	93.75
325.626	69.75
325.855	80.75
326.084	86.75
326.313	86.75
326.542	87.75
326.77	84.75
326.999	108.75
327.228	80.75
327.457	93.75
327.686	87.75
327.914	65.75
328.143	81.75
328.372	80.75
328.6	93.75
328.829	98.75
329.058	90.75
329.287	82.75
329.515	98.75
329.744	84.75
329.972	92.75
330.201	94.75
330.43	84.75
330.658	87.75
330.887	84.75
331.115	88.75
331.344	85.75
331.572	84.75
331.801	88.75
332.03	92.75
332.258	93.75
332.486	77.75
332.715	81.75
332.943	83.75
333.172	76.75
333.4	77.75
333.629	96.75
333.857	95.75
334.085	100.75
334.314	104.75
334.542	105.75
334.771	92.75
334.999	92.75
335.227	98.75
335.455	94.75
335.684	114.75
335.912	110.75
336.14	104.75
336.369	117.75
336.597	74.75
336.825	86.75
337.053	81.75
337.281	85.75
337.51	88.75
337.738	104.75
337.966	89.75
338.194	89.75
338.422	81.75
338.65	88.75
338.878	84.75
339.106	71.75
339.334	86.75
339.562	95.75
339.79	88.75
340.018	92.75
340.246	93.75
340.474	90.75
340.702	70.75
340.93	89.75
341.158	83.75
341.386	84.75
341.614	88.75
341.842	84.75
342.07	71.75
342.298	82.75
342.526	82.75
342.754	92.75
342.981	97.75
343.209	91.75
343.437	97.75
343.665	90.75
343.893	97.75
344.12	83.75
344.348	72.75
344.576	74.75
344.804	75.75
345.031	66.75
345.259	84.75
345.487	92.75
345.714	88.75
345.942	97.75
346.17	87.75
346.397	74.75
346.625	95.75
346.853	87.75
347.08	96.75
347.308	91.75
347.535	76.75
347.763	93.75
347.99	91.75
348.218	77.75
348.445	77.75
348.673	74.75
348.9	83.75
349.128	86.75
349.355	90.75
349.583	81.75
349.81	93.75
350.037	87.75
350.265	93.75
350.492	78.75
350.72	94.75
350.947	98.75
351.174	81.75
351.402	80.75
351.629	83.75
351.856	94.75
352.083	65.75
352.311	91.75
352.538	100.75
352.765	94.75
352.992	82.75
353.22	105.75
353.447	106.75
353.674	80.75
353.901	77.75
354.128	89.75
354.355	89.75
354.583	94.75
354.81	88.75
355.037	76.75
355.264	88.75
355.491	92.75
355.718	88.75
355.945	86.75
356.172	86.75
356.399	87.75
356.626	86.75
356.853	97.75
357.08	106.75
357.307	99.75
357.534	89.75
357.761	91.75
357.988	101.75
358.215	102.75
358.441	106.75
358.668	90.75
358.895	93.75
359.122	77.75
359.349	78.75
359.576	81.75
359.802	78.75
360.029	67.75
360.256	88.75
360.483	86.75
360.709	91.75
360.936	94.75
361.163	82.75
361.39	101.75
361.616	102.75
361.843	92.75
362.07	94.75
362.296	88.75
362.523	119.75
362.749	136.75
362.976	128.75
363.203	143.75
363.429	128.75
363.656	98.75
363.882	101.75
364.109	129.75
364.335	154.75
364.562	162.75
364.788	125.75
365.015	92.75
365.241	88.75
365.468	109.75
365.694	88.75
365.92	94.75
366.147	92.75
366.373	87.75
366.599	83.75
366.826	81.75
367.052	78.75
367.278	82.75
367.505	83.75
367.731	99.75
367.957	65.75
368.184	80.75
368.41	95.75
368.636	98.75
368.862	93.75
369.089	80.75
369.315	96.75
369.541	81.75
369.767	94.75
369.993	92.75
370.219	100.75
370.445	87.75
370.672	100.75
370.898	96.75
371.124	89.75
371.35	74.75
371.576	105.75
371.802	79.75
372.028	104.75
372.254	103.75
372.48	89.75
372.706	104.75
372.932	97.75
373.158	98.75
373.384	125.75
373.61	128.75
373.835	118.75
374.061	102.75
374.287	100.75
374.513	101.75
374.739	101.75
374.965	104.75
375.191	96.75
375.416	91.75
375.642	108.75
375.868	92.75
376.094	94.75
376.319	96.75
376.545	82.75
376.771	88.75
376.997	104.75
377.222	83.75
377.448	95.75
377.674	90.75
377.899	106.75
378.125	89.75
378.35	83.75
378.576	87.75
378.802	99.75
379.027	85.75
379.253	89.75
379.478	81.75
379.704	87.75
379.929	97.75
380.155	97.75
380.38	92.75
380.606	95.75
380.831	101.75
381.057	96.75
381.282	101.75
381.507	97.75
381.733	109.75
381.958	78.75
382.184	94.75
382.409	102.75
382.634	105.75
382.86	103.75
383.085	112.75
383.31	108.75
383.535	121.75
383.761	112.75
383.986	116.75
384.211	86.75
384.436	87.75
384.662	85.75
384.887	95.75
385.112	103.75
385.337	93.75
385.562	96.75
385.787	90.75
386.013	102.75
386.238	96.75
386.463	98.75
386.688	118.75
386.913	105.75
387.138	101.75
387.363	106.75
387.588	105.75
387.813	97.75
388.038	98.75
388.263	102.75
388.488	97.75
388.713	103.75
388.938	90.75
389.163	98.75
389.387	88.75
389.612	109.75
389.837	108.75
390.062	98.75
390.287	94.75
390.512	102.75
390.736	88.75
390.961	88.75
391.186	85.75
391.411	97.75
391.636	113.75
391.86	90.75
392.085	100.75
392.31	105.75
392.534	111.75
392.759	133.75
392.984	204.75
393.208	377.75
393.433	526.75
393.658	413.75
393.882	190.75
394.107	140.75
394.331	135.75
394.556	141.75
394.78	116.75
395.005	100.75
395.229	102.75
395.454	75.75
395.678	117.75
395.903	143.75
396.127	163.75
396.352	184.75
396.576	215.75
396.801	369.75
397.025	426.75
397.249	211.75
397.474	143.75
397.698	126.75
397.922	105.75
398.147	112.75
398.371	97.75
398.595	94.75
398.82	95.75
399.044	100.75
399.268	92.75
399.492	96.75
399.717	96.75
399.941	72.75
400.165	94.75
400.389	99.75
400.613	94.75
400.837	85.75
401.062	81.75
401.286	93.75
401.51	96.75
401.734	95.75
401.958	89.75
402.182	105.75
402.406	102.75
402.63	92.75
402.854	92.75
403.078	96.75
403.302	87.75
403.526	93.75
403.75	89.75
403.974	81.75
404.198	84.75
404.422	112.75
404.645	103.75
404.869	97.75
405.093	92.75
405.317	90.75
405.541	95.75
405.765	90.75
405.988	87.75
406.212	92.75
406.436	88.75
406.66	94.75
406.883	84.75
407.107	95.75
407.331	94.75
407.555	105.75
407.778	124.75
408.002	119.75
408.226	102.75
408.449	82.75
408.673	92.75
408.896	88.75
409.12	103.75
409.344	101.75
409.567	118.75
409.791	120.75
410.014	128.75
410.238	108.75
410.461	81.75
410.685	84.75
410.908	89.75
411.132	80.75
411.355	101.75
411.578	87.75
411.802	89.75
412.025	82.75
412.249	89.75
412.472	94.75
412.695	76.75
412.919	90.75
413.142	93.75
413.365	86.75
413.589	86.75
413.812	90.75
414.035	90.75
414.258	95.75
414.482	104.75
414.705	103.75
414.928	76.75
415.151	77.75
415.374	87.75
415.597	90.75
415.821	81.75
416.044	78.75
416.267	84.75
416.49	85.75
416.713	90.75
416.936	94.75
417.159	95.75
417.382	79.75
417.605	94.75
417.828	84.75
418.051	92.75
418.274	90.75
418.497	70.75
418.72	78.75
418.943	93.75
419.166	87.75
419.389	84.75
419.611	96.75
419.834	94.75
420.057	76.75
420.28	96.75
420.503	104.75
420.726	101.75
420.948	104.75
421.171	97.75
421.394	100.75
421.617	141.75
421.839	153.75
422.062	161.75
422.285	221.75
422.507	327.75
422.73	501.75
422.953	440.75
423.175	252.75
423.398	167.75
423.621	145.75
423.843	106.75
424.066	124.75
424.288	102.75
424.511	108.75
424.733	89.75
424.956	105.75
425.178	96.75
425.401	100.75
425.623	105.75
425.846	90.75
426.068	93.75
426.291	92.75
426.513	100.75
426.735	96.75
426.958	81.75
427.18	85.75
427.402	98.75
427.625	86.75
427.847	98.75
428.069	103.75
428.292	142.75
428.514	157.75
428.736	133.75
428.958	154.75
429.181	145.75
429.403	107.75
429.625	122.75
429.847	140.75
430.069	186.75
430.292	219.75
430.514	210.75
430.736	156.75
430.958	162.75
431.18	117.75
431.402	100.75
431.624	108.75
431.846	128.75
432.068	158.75
432.29	105.75
432.512	91.75
432.734	101.75
432.956	96.75
433.178	102.75
433.4	84.75
433.622	85.75
433.844	84.75
434.066	89.75
434.287	86.75
434.509	81.75
434.731	88.75
434.953	96.75
435.175	91.75
435.397	96.75
435.618	117.75
435.84	108.75
436.062	101.75
436.284	86.75
436.505	86.75
436.727	93.75
436.949	96.75
437.17	78.75
437.392	77.75
437.614	83.75
437.835	95.75
438.057	94.75
438.278	82.75
438.5	94.75
438.721	95.75
438.943	88.75
439.165	103.75
439.386	75.75
439.608	94.75
439.829	100.75
440.05	85.75
440.272	97.75
440.493	97.75
440.715	100.75
440.936	80.75
441.158	107.75
441.379	114.75
441.6	86.75
441.822	92.75
442.043	86.75
442.264	118.75
442.486	160.75
442.707	214.75
442.928	147.75
443.149	132.75
443.371	172.75
443.592	304.75
443.813	285.75
444.034	138.75
444.255	103.75
444.476	116.75
444.698	95.75
444.919	94.75
445.14	198.75
445.361	244.75
445.582	377.75
445.803	332.75
446.024	152.75
446.245	110.75
446.466	84.75
446.687	86.75
446.908	83.75
447.129	76.75
447.35	82.75
447.571	82.75
447.792	80.75
448.013	80.75
448.234	82.75
448.455	90.75
448.675	80.75
448.896	70.75
449.117	83.75
449.338	70.75
449.559	81.75
449.779	79.75
450	83.75
450.221	81.75
450.442	75.75
450.662	85.75
450.883	80.75
451.104	76.75
451.324	88.75
451.545	81.75
451.766	87.75
451.986	91.75
452.207	85.75
452.428	82.75
452.648	119.75
452.869	123.75
453.089	116.75
453.31	96.75
453.53	87.75
453.751	97.75
453.971	89.75
454.192	95.75
454.412	83.75
454.633	84.75
454.853	103.75
455.073	93.75
455.294	94.75
455.514	103.75
455.734	94.75
455.955	108.75
456.175	87.75
456.395	100.75
456.616	86.75
456.836	79.75
457.056	97.75
457.276	77.75
457.497	87.75
457.717	82.75
457.937	106.75
458.157	143.75
458.377	139.75
458.598	150.75
458.818	166.75
459.038	105.75
459.258	90.75
459.478	82.75
459.698	75.75
459.918	85.75
460.138	93.75
460.358	100.75
460.578	95.75
460.798	123.75
461.018	127.75
461.238	92.75
461.458	89.75
461.678	96.75
461.898	82.75
462.118	79.75
462.338	91.75
462.558	90.75
462.777	91.75
462.997	72.75
463.217	82.75
463.437	89.75
463.657	90.75
463.876	89.75
464.096	76.75
464.316	90.75
464.536	75.75
464.755	81.75
464.975	89.75
465.195	88.75
465.414	68.75
465.634	89.75
465.854	88.75
466.073	96.75
466.293	87.75
466.512	85.75
466.732	91.75
466.951	89.75
467.171	90.75
467.391	98.75
467.61	79.75
467.829	86.75
468.049	83.75
468.268	78.75
468.488	77.75
468.707	104.75
468.927	100.75
469.146	91.75
469.365	79.75
469.585	81.75
469.804	80.75
470.023	90.75
470.243	94.75
470.462	85.75
470.681	79.75
470.901	80.75
471.12	97.75
471.339	93.75
471.558	98.75
471.777	98.75
471.997	93.75
472.216	83.75
472.435	81.75
472.654	85.75
472.873	94.75
473.092	100.75
473.311	93.75
473.53	92.75
473.749	99.75
473.968	96.75
474.187	85.75
474.406	86.75
474.625	82.75
474.844	93.75
475.063	97.75
475.282	78.75
475.501	87.75
475.72	77.75
475.939	86.75
476.158	91.75
476.377	94.75
476.596	80.75
476.814	85.75
477.033	92.75
477.252	82.75
477.471	91.75
477.69	81.75
477.908	86.75
478.127	93.75
478.346	95.75
478.564	91.75
478.783	94.75
479.002	81.75
479.22	80.75
479.439	90.75
479.658	87.75
479.876	88.75
480.095	103.75
480.313	90.75
480.532	98.75
480.751	102.75
480.969	88.75
481.188	78.75
481.406	89.75
481.624	94.75
481.843	78.75
482.061	79.75
482.28	89.75
482.498	93.75
482.717	83.75
482.935	93.75
483.153	85.75
483.372	92.75
483.59	84.75
483.808	80.75
484.027	89.75
484.245	87.75
484.463	94.75
484.681	100.75
484.9	90.75
485.118	97.75
485.336	98.75
485.554	85.75
485.772	86.75
485.99	94.75
486.209	98.75
486.427	85.75
486.645	94.75
486.863	96.75
487.081	98.75
487.299	84.75
487.517	110.75
487.735	136.75
487.953	248.75
488.171	180.75
488.389	110.75
488.607	99.75
488.825	85.75
489.043	84.75
489.261	104.75
489.479	90.75
489.696	96.75
489.914	108.75
490.132	96.75
490.35	89.75
490.568	88.75
490.786	94.75
491.003	101.75
491.221	91.75
491.439	86.75
491.657	91.75
491.874	107.75
492.092	102.75
492.31	97.75
492.527	94.75
492.745	83.75
492.963	94.75
493.18	95.75
493.398	87.75
493.615	111.75
493.833	97.75
494.05	106.75
494.268	89.75
494.485	84.75
494.703	80.75
494.92	85.75
495.138	84.75
495.355	88.75
495.573	87.75
495.79	95.75
496.008	101.75
496.225	84.75
496.442	92.75
496.66	100.75
496.877	97.75
497.094	103.75
497.312	91.75
497.529	96.75
497.746	83.75
497.963	100.75
498.181	105.75
498.398	117.75
498.615	90.75
498.832	105.75
499.049	88.75
499.267	106.75
499.484	99.75
499.701	96.75
499.918	111.75
500.135	110.75
500.352	108.75
500.569	92.75
500.786	105.75
501.003	108.75
501.22	103.75
501.437	108.75
501.654	95.75
501.871	108.75
502.088	103.75
502.305	97.75
502.522	97.75
502.739	81.75
502.956	99.75
503.172	77.75
503.389	103.75
503.606	92.75
503.823	109.75
504.04	122.75
504.256	184.75
504.473	173.75
504.69	110.75
504.907	92.75
505.123	89.75
505.34	90.75
505.557	90.75
505.773	98.75
505.99	93.75
506.207	103.75
506.423	73.75
506.64	84.75
506.856	97.75
507.073	90.75
507.289	97.75
507.506	82.75
507.722	92.75
507.939	98.75
508.155	77.75
508.372	101.75
508.588	83.75
508.805	83.75
509.021	93.75
509.238	90.75
509.454	93.75
509.67	90.75
509.887	85.75
510.103	85.75
510.319	85.75
510.536	93.75
510.752	88.75
510.968	89.75
511.184	89.75
511.401	89.75
511.617	89.75
511.833	97.75
512.049	85.75
512.265	86.75
512.481	96.75
512.698	96.75
512.914	92.75
513.13	101.75
513.346	99.75
513.562	85.75
513.778	93.75
513.994	99.75
514.21	85.75
514.426	95.75
514.642	102.75
514.858	81.75
515.074	93.75
515.29	101.75
515.506	84.75
515.721	101.75
515.937	112.75
516.153	85.75
516.369	88.75
516.585	97.75
