Data from 10100_2_HRD10591_00005.txt Node
Date: Mon Jan 19 14:01:26 EST 2026
User: Yrep
Spectrometer: HR+D1059
Trigger mode: 1
Integration Time (sec): 1.000000E-1
Scans to average: 1
Electric dark correction enabled: true
Nonlinearity correction enabled: false
Boxcar width: 0
XAxis mode: Wavelengths
Number of Pixels in Spectrum: 2048
>>>>>Begin Spectral Data<<<<<
223.165	-21.69
223.4	-21.69
223.635	-21.69
223.869	-9.69
224.104	-15.69
224.338	-17.69
224.573	-25.69
224.808	-7.69
225.042	-18.69
225.277	-8.69
225.511	-4.69
225.746	8.31
225.98	7.31
226.215	6.31
226.449	24.31
226.683	32.31
226.918	22.31
227.152	29.31
227.387	51.31
227.621	31.31
227.856	32.31
228.09	46.31
228.324	50.31
228.559	48.31
228.793	50.31
229.027	59.31
229.262	58.31
229.496	64.31
229.73	71.31
229.964	78.31
230.199	60.31
230.433	66.31
230.667	84.31
230.901	78.31
231.136	81.31
231.37	81.31
231.604	77.31
231.838	67.31
232.072	72.31
232.306	78.31
232.541	79.31
232.775	79.31
233.009	64.31
233.243	65.31
233.477	81.31
233.711	66.31
233.945	67.31
234.179	75.31
234.413	74.31
234.647	65.31
234.881	80.31
235.115	70.31
235.349	87.31
235.583	67.31
235.817	62.31
236.051	73.31
236.285	65.31
236.519	75.31
236.753	64.31
236.987	68.31
237.221	88.31
237.455	75.31
237.689	80.31
237.922	81.31
238.156	72.31
238.39	74.31
238.624	83.31
238.858	82.31
239.091	72.31
239.325	70.31
239.559	66.31
239.793	69.31
240.027	80.31
240.26	60.31
240.494	81.31
240.728	65.31
240.961	65.31
241.195	83.31
241.429	86.31
241.662	87.31
241.896	74.31
242.13	70.31
242.363	69.31
242.597	71.31
242.83	57.31
243.064	66.31
243.298	75.31
243.531	59.31
243.765	74.31
243.998	81.31
244.232	75.31
244.465	78.31
244.699	79.31
244.932	72.31
245.166	72.31
245.399	84.31
245.633	59.31
245.866	73.31
246.099	82.31
246.333	73.31
246.566	68.31
246.8	70.31
247.033	61.31
247.266	74.31
247.5	86.31
247.733	62.31
247.966	82.31
248.2	75.31
248.433	66.31
248.666	70.31
248.899	71.31
249.133	75.31
249.366	79.31
249.599	76.31
249.832	73.31
250.066	74.31
250.299	66.31
250.532	80.31
250.765	76.31
250.998	90.31
251.231	72.31
251.465	83.31
251.698	86.31
251.931	86.31
252.164	85.31
252.397	86.31
252.63	76.31
252.863	84.31
253.096	94.31
253.329	74.31
253.562	74.31
253.795	77.31
254.028	78.31
254.261	91.31
254.494	70.31
254.727	72.31
254.96	63.31
255.193	85.31
255.426	66.31
255.659	69.31
255.892	88.31
256.124	79.31
256.357	81.31
256.59	66.31
256.823	77.31
257.056	79.31
257.289	83.31
257.521	82.31
257.754	71.31
257.987	70.31
258.22	82.31
258.452	79.31
258.685	86.31
258.918	90.31
259.151	79.31
259.383	84.31
259.616	95.31
259.849	70.31
260.081	81.31
260.314	73.31
260.547	80.31
260.779	83.31
261.012	102.31
261.244	79.31
261.477	90.31
261.71	88.31
261.942	79.31
262.175	77.31
262.407	80.31
262.64	87.31
262.872	95.31
263.105	86.31
263.337	88.31
263.57	75.31
263.802	77.31
264.035	71.31
264.267	79.31
264.499	72.31
264.732	85.31
264.964	63.31
265.197	78.31
265.429	90.31
265.661	84.31
265.894	82.31
266.126	79.31
266.358	98.31
266.591	82.31
266.823	82.31
267.055	74.31
267.287	70.31
267.52	90.31
267.752	80.31
267.984	85.31
268.216	85.31
268.448	74.31
268.681	89.31
268.913	80.31
269.145	69.31
269.377	87.31
269.609	97.31
269.841	81.31
270.073	88.31
270.306	61.31
270.538	87.31
270.77	91.31
271.002	81.31
271.234	70.31
271.466	67.31
271.698	68.31
271.93	70.31
272.162	83.31
272.394	100.31
272.626	95.31
272.858	74.31
273.09	82.31
273.322	82.31
273.553	90.31
273.785	96.31
274.017	90.31
274.249	86.31
274.481	69.31
274.713	89.31
274.945	86.31
275.176	79.31
275.408	79.31
275.64	72.31
275.872	81.31
276.104	74.31
276.335	75.31
276.567	73.31
276.799	83.31
277.031	66.31
277.262	86.31
277.494	77.31
277.726	76.31
277.957	80.31
278.189	92.31
278.421	77.31
278.652	76.31
278.884	79.31
279.115	90.31
279.347	84.31
279.579	83.31
279.81	85.31
280.042	87.31
280.273	91.31
280.505	88.31
280.736	95.31
280.968	87.31
281.199	76.31
281.431	95.31
281.662	92.31
281.894	90.31
282.125	73.31
282.356	70.31
282.588	76.31
282.819	87.31
283.051	92.31
283.282	73.31
283.513	89.31
283.745	92.31
283.976	75.31
284.207	81.31
284.439	90.31
284.67	90.31
284.901	86.31
285.132	92.31
285.364	95.31
285.595	97.31
285.826	80.31
286.057	79.31
286.288	90.31
286.52	86.31
286.751	72.31
286.982	80.31
287.213	82.31
287.444	86.31
287.675	80.31
287.906	90.31
288.138	100.31
288.369	82.31
288.6	77.31
288.831	101.31
289.062	98.31
289.293	88.31
289.524	78.31
289.755	71.31
289.986	82.31
290.217	97.31
290.448	73.31
290.679	88.31
290.91	80.31
291.141	65.31
291.371	98.31
291.602	79.31
291.833	84.31
292.064	72.31
292.295	74.31
292.526	68.31
292.757	79.31
292.987	90.31
293.218	85.31
293.449	82.31
293.68	87.31
293.91	77.31
294.141	79.31
294.372	83.31
294.603	86.31
294.833	77.31
295.064	95.31
295.295	94.31
295.525	77.31
295.756	95.31
295.987	84.31
296.217	78.31
296.448	87.31
296.679	87.31
296.909	94.31
297.14	97.31
297.37	82.31
297.601	79.31
297.831	69.31
298.062	78.31
298.292	90.31
298.523	85.31
298.753	82.31
298.984	73.31
299.214	84.31
299.445	79.31
299.675	110.31
299.905	95.31
300.136	94.31
300.366	79.31
300.597	73.31
300.827	106.31
301.057	103.31
301.288	88.31
301.518	80.31
301.748	75.31
301.979	103.31
302.209	93.31
302.439	83.31
302.669	79.31
302.9	70.31
303.13	78.31
303.36	80.31
303.59	79.31
303.82	78.31
304.051	72.31
304.281	71.31
304.511	93.31
304.741	75.31
304.971	74.31
305.201	79.31
305.431	101.31
305.661	92.31
305.891	84.31
306.121	78.31
306.352	85.31
306.582	80.31
306.812	72.31
307.042	92.31
307.272	79.31
307.502	82.31
307.731	77.31
307.961	93.31
308.191	94.31
308.421	101.31
308.651	79.31
308.881	81.31
309.111	87.31
309.341	114.31
309.571	108.31
309.8	88.31
310.03	65.31
310.26	88.31
310.49	103.31
310.72	79.31
310.949	81.31
311.179	84.31
311.409	90.31
311.639	85.31
311.868	88.31
312.098	85.31
312.328	82.31
312.557	100.31
312.787	65.31
313.017	75.31
313.246	89.31
313.476	87.31
313.706	84.31
313.935	91.31
314.165	92.31
314.394	80.31
314.624	88.31
314.853	86.31
315.083	72.31
315.312	84.31
315.542	97.31
315.771	107.31
316.001	108.31
316.23	88.31
316.46	87.31
316.689	78.31
316.919	87.31
317.148	84.31
317.377	86.31
317.607	89.31
317.836	83.31
318.065	104.31
318.295	108.31
318.524	115.31
318.753	87.31
318.983	90.31
319.212	87.31
319.441	89.31
319.67	80.31
319.9	86.31
320.129	66.31
320.358	82.31
320.587	88.31
320.816	82.31
321.046	78.31
321.275	89.31
321.504	91.31
321.733	99.31
321.962	79.31
322.191	90.31
322.42	88.31
322.649	93.31
322.878	108.31
323.108	87.31
323.337	88.31
323.566	69.31
323.795	86.31
324.024	91.31
324.253	96.31
324.482	74.31
324.71	91.31
324.939	100.31
325.168	92.31
325.397	79.31
325.626	83.31
325.855	77.31
326.084	80.31
326.313	83.31
326.542	94.31
326.77	90.31
326.999	71.31
327.228	96.31
327.457	78.31
327.686	97.31
327.914	87.31
328.143	91.31
328.372	89.31
328.6	82.31
328.829	88.31
329.058	77.31
329.287	82.31
329.515	90.31
329.744	80.31
329.972	81.31
330.201	97.31
330.43	88.31
330.658	81.31
330.887	82.31
331.115	72.31
331.344	71.31
331.572	82.31
331.801	87.31
332.03	82.31
332.258	78.31
332.486	91.31
332.715	88.31
332.943	91.31
333.172	97.31
333.4	80.31
333.629	76.31
333.857	79.31
334.085	102.31
334.314	95.31
334.542	103.31
334.771	108.31
334.999	102.31
335.227	106.31
335.455	95.31
335.684	105.31
335.912	96.31
336.14	104.31
336.369	122.31
336.597	84.31
336.825	83.31
337.053	78.31
337.281	94.31
337.51	79.31
337.738	83.31
337.966	71.31
338.194	81.31
338.422	95.31
338.65	78.31
338.878	96.31
339.106	81.31
339.334	77.31
339.562	90.31
339.79	88.31
340.018	90.31
340.246	88.31
340.474	75.31
340.702	82.31
340.93	88.31
341.158	74.31
341.386	74.31
341.614	90.31
341.842	73.31
342.07	82.31
342.298	94.31
342.526	86.31
342.754	68.31
342.981	71.31
343.209	78.31
343.437	88.31
343.665	76.31
343.893	90.31
344.12	86.31
344.348	107.31
344.576	88.31
344.804	92.31
345.031	77.31
345.259	87.31
345.487	89.31
345.714	91.31
345.942	75.31
346.17	71.31
346.397	86.31
346.625	79.31
346.853	83.31
347.08	77.31
347.308	104.31
347.535	103.31
347.763	83.31
347.99	79.31
348.218	75.31
348.445	87.31
348.673	94.31
348.9	93.31
349.128	83.31
349.355	95.31
349.583	92.31
349.81	82.31
350.037	90.31
350.265	94.31
350.492	84.31
350.72	82.31
350.947	97.31
351.174	104.31
351.402	85.31
351.629	91.31
351.856	91.31
352.083	82.31
352.311	84.31
352.538	91.31
352.765	96.31
352.992	78.31
353.22	76.31
353.447	98.31
353.674	75.31
353.901	82.31
354.128	72.31
354.355	62.31
354.583	87.31
354.81	86.31
355.037	80.31
355.264	88.31
355.491	72.31
355.718	86.31
355.945	88.31
356.172	97.31
356.399	90.31
356.626	98.31
356.853	84.31
357.08	100.31
357.307	84.31
357.534	73.31
357.761	78.31
357.988	83.31
358.215	91.31
358.441	94.31
358.668	94.31
358.895	98.31
359.122	87.31
359.349	91.31
359.576	87.31
359.802	83.31
360.029	82.31
360.256	86.31
360.483	78.31
360.709	82.31
360.936	101.31
361.163	94.31
361.39	104.31
361.616	80.31
361.843	87.31
362.07	107.31
362.296	114.31
362.523	119.31
362.749	123.31
362.976	153.31
363.203	161.31
363.429	146.31
363.656	125.31
363.882	106.31
364.109	134.31
364.335	183.31
364.562	170.31
364.788	131.31
365.015	102.31
365.241	99.31
365.468	91.31
365.694	96.31
365.92	96.31
366.147	76.31
366.373	81.31
366.599	85.31
366.826	78.31
367.052	102.31
367.278	84.31
367.505	90.31
367.731	94.31
367.957	88.31
368.184	90.31
368.41	92.31
368.636	95.31
368.862	95.31
369.089	74.31
369.315	86.31
369.541	80.31
369.767	99.31
369.993	72.31
370.219	91.31
370.445	89.31
370.672	106.31
370.898	95.31
371.124	77.31
371.35	98.31
371.576	70.31
371.802	91.31
372.028	108.31
372.254	98.31
372.48	84.31
372.706	83.31
372.932	95.31
373.158	108.31
373.384	118.31
373.61	123.31
373.835	126.31
374.061	103.31
374.287	100.31
374.513	103.31
374.739	115.31
374.965	108.31
375.191	90.31
375.416	94.31
375.642	98.31
375.868	111.31
376.094	103.31
376.319	88.31
376.545	92.31
376.771	88.31
376.997	98.31
377.222	72.31
377.448	85.31
377.674	84.31
377.899	90.31
378.125	82.31
378.35	79.31
378.576	82.31
378.802	84.31
379.027	72.31
379.253	74.31
379.478	96.31
379.704	98.31
379.929	99.31
380.155	81.31
380.38	90.31
380.606	92.31
380.831	94.31
381.057	78.31
381.282	93.31
381.507	91.31
381.733	103.31
381.958	115.31
382.184	92.31
382.409	106.31
382.634	116.31
382.86	113.31
383.085	116.31
383.31	97.31
383.535	92.31
383.761	113.31
383.986	120.31
384.211	112.31
384.436	93.31
384.662	91.31
384.887	97.31
385.112	90.31
385.337	86.31
385.562	93.31
385.787	99.31
386.013	90.31
386.238	100.31
386.463	114.31
386.688	103.31
386.913	92.31
387.138	100.31
387.363	97.31
387.588	110.31
387.813	109.31
388.038	108.31
388.263	106.31
388.488	101.31
388.713	102.31
388.938	95.31
389.163	97.31
389.387	96.31
389.612	79.31
389.837	86.31
390.062	91.31
390.287	106.31
390.512	95.31
390.736	96.31
390.961	82.31
391.186	94.31
391.411	88.31
391.636	96.31
391.86	99.31
392.085	110.31
392.31	108.31
392.534	115.31
392.759	151.31
392.984	215.31
393.208	390.31
393.433	580.31
393.658	447.31
393.882	203.31
394.107	132.31
394.331	142.31
394.556	150.31
394.78	126.31
395.005	106.31
395.229	96.31
395.454	95.31
395.678	129.31
395.903	149.31
396.127	181.31
396.352	196.31
396.576	232.31
396.801	378.31
397.025	442.31
397.249	252.31
397.474	163.31
397.698	117.31
397.922	104.31
398.147	92.31
398.371	97.31
398.595	94.31
398.82	101.31
399.044	95.31
399.268	98.31
399.492	93.31
399.717	81.31
399.941	86.31
400.165	96.31
400.389	86.31
400.613	92.31
400.837	82.31
401.062	87.31
401.286	87.31
401.51	80.31
401.734	86.31
401.958	86.31
402.182	79.31
402.406	86.31
402.63	86.31
402.854	77.31
403.078	75.31
403.302	84.31
403.526	81.31
403.75	91.31
403.974	92.31
404.198	95.31
404.422	87.31
404.645	106.31
404.869	85.31
405.093	73.31
405.317	90.31
405.541	89.31
405.765	82.31
405.988	90.31
406.212	102.31
406.436	96.31
406.66	79.31
406.883	91.31
407.107	83.31
407.331	108.31
407.555	102.31
407.778	130.31
408.002	120.31
408.226	86.31
408.449	93.31
408.673	86.31
408.896	94.31
409.12	91.31
409.344	107.31
409.567	114.31
409.791	126.31
410.014	107.31
410.238	110.31
410.461	89.31
410.685	98.31
410.908	87.31
411.132	92.31
411.355	91.31
411.578	99.31
411.802	86.31
412.025	90.31
412.249	90.31
412.472	77.31
412.695	84.31
412.919	81.31
413.142	85.31
413.365	89.31
413.589	80.31
413.812	85.31
414.035	67.31
414.258	77.31
414.482	86.31
414.705	85.31
414.928	83.31
415.151	82.31
415.374	81.31
415.597	86.31
415.821	86.31
416.044	88.31
416.267	72.31
416.49	78.31
416.713	82.31
416.936	65.31
417.159	77.31
417.382	84.31
417.605	84.31
417.828	83.31
418.051	79.31
418.274	81.31
418.497	80.31
418.72	83.31
418.943	91.31
419.166	90.31
419.389	91.31
419.611	92.31
419.834	88.31
420.057	99.31
420.28	77.31
420.503	86.31
420.726	96.31
420.948	92.31
421.171	100.31
421.394	114.31
421.617	152.31
421.839	157.31
422.062	158.31
422.285	230.31
422.507	406.31
422.73	604.31
422.953	539.31
423.175	304.31
423.398	201.31
423.621	122.31
423.843	128.31
424.066	132.31
424.288	114.31
424.511	101.31
424.733	98.31
424.956	91.31
425.178	92.31
425.401	93.31
425.623	88.31
425.846	76.31
426.068	77.31
426.291	82.31
426.513	94.31
426.735	90.31
426.958	94.31
427.18	99.31
427.402	108.31
427.625	89.31
427.847	96.31
428.069	115.31
428.292	152.31
428.514	180.31
428.736	135.31
428.958	171.31
429.181	184.31
429.403	116.31
429.625	126.31
429.847	166.31
430.069	226.31
430.292	261.31
430.514	234.31
430.736	190.31
430.958	196.31
431.18	114.31
431.402	97.31
431.624	115.31
431.846	158.31
432.068	168.31
432.29	103.31
432.512	106.31
432.734	78.31
432.956	83.31
433.178	82.31
433.4	86.31
433.622	60.31
433.844	86.31
434.066	87.31
434.287	77.31
434.509	72.31
434.731	84.31
434.953	83.31
435.175	84.31
435.397	95.31
435.618	117.31
435.84	103.31
436.062	101.31
436.284	87.31
436.505	71.31
436.727	79.31
436.949	86.31
437.17	83.31
437.392	75.31
437.614	81.31
437.835	79.31
438.057	90.31
438.278	103.31
438.5	90.31
438.721	97.31
438.943	98.31
439.165	85.31
439.386	78.31
439.608	99.31
439.829	82.31
440.05	94.31
440.272	92.31
440.493	83.31
440.715	90.31
440.936	77.31
441.158	91.31
441.379	76.31
441.6	92.31
441.822	90.31
442.043	93.31
442.264	107.31
442.486	180.31
442.707	254.31
442.928	158.31
443.149	141.31
443.371	211.31
443.592	379.31
443.813	330.31
444.034	148.31
444.255	120.31
444.476	92.31
444.698	93.31
444.919	106.31
445.14	216.31
445.361	292.31
445.582	474.31
445.803	408.31
446.024	155.31
446.245	96.31
446.466	88.31
446.687	86.31
446.908	92.31
447.129	80.31
447.35	82.31
447.571	99.31
447.792	78.31
448.013	74.31
448.234	87.31
448.455	90.31
448.675	84.31
448.896	87.31
449.117	99.31
449.338	74.31
449.559	90.31
449.779	82.31
450	94.31
450.221	79.31
450.442	90.31
450.662	95.31
450.883	84.31
451.104	66.31
451.324	91.31
451.545	86.31
451.766	77.31
451.986	81.31
452.207	71.31
452.428	87.31
452.648	93.31
452.869	124.31
453.089	99.31
453.31	95.31
453.53	96.31
453.751	91.31
453.971	85.31
454.192	84.31
454.412	83.31
454.633	91.31
454.853	96.31
455.073	94.31
455.294	90.31
455.514	103.31
455.734	90.31
455.955	86.31
456.175	85.31
456.395	83.31
456.616	87.31
456.836	94.31
457.056	97.31
457.276	87.31
457.497	89.31
457.717	106.31
457.937	144.31
458.157	184.31
458.377	171.31
458.598	162.31
458.818	177.31
459.038	95.31
459.258	80.31
459.478	103.31
459.698	88.31
459.918	86.31
460.138	93.31
460.358	81.31
460.578	100.31
460.798	141.31
461.018	133.31
461.238	92.31
461.458	86.31
461.678	88.31
461.898	101.31
462.118	89.31
462.338	89.31
462.558	87.31
462.777	78.31
462.997	72.31
463.217	91.31
463.437	92.31
463.657	84.31
463.876	79.31
464.096	82.31
464.316	80.31
464.536	86.31
464.755	80.31
464.975	78.31
465.195	95.31
465.414	91.31
465.634	80.31
465.854	86.31
466.073	68.31
466.293	88.31
466.512	87.31
466.732	81.31
466.951	86.31
467.171	85.31
467.391	92.31
467.61	98.31
467.829	86.31
468.049	87.31
468.268	86.31
468.488	89.31
468.707	95.31
468.927	101.31
469.146	78.31
469.365	86.31
469.585	80.31
469.804	89.31
470.023	69.31
470.243	83.31
470.462	78.31
470.681	91.31
470.901	87.31
471.12	94.31
471.339	88.31
471.558	86.31
471.777	90.31
471.997	95.31
472.216	87.31
472.435	85.31
472.654	75.31
472.873	80.31
473.092	81.31
473.311	90.31
473.53	82.31
473.749	88.31
473.968	93.31
474.187	77.31
474.406	80.31
474.625	97.31
474.844	87.31
475.063	95.31
475.282	90.31
475.501	90.31
475.72	102.31
475.939	90.31
476.158	85.31
476.377	98.31
476.596	86.31
476.814	76.31
477.033	73.31
477.252	80.31
477.471	82.31
477.69	82.31
477.908	96.31
478.127	88.31
478.346	85.31
478.564	80.31
478.783	79.31
479.002	82.31
479.22	84.31
479.439	113.31
479.658	97.31
479.876	78.31
480.095	90.31
480.313	95.31
480.532	86.31
480.751	92.31
480.969	87.31
481.188	85.31
481.406	87.31
481.624	94.31
481.843	67.31
482.061	88.31
482.28	87.31
482.498	88.31
482.717	79.31
482.935	85.31
483.153	83.31
483.372	87.31
483.59	97.31
483.808	86.31
484.027	96.31
484.245	83.31
484.463	82.31
484.681	106.31
484.9	86.31
485.118	84.31
485.336	90.31
485.554	80.31
485.772	86.31
485.99	87.31
486.209	87.31
486.427	87.31
486.645	91.31
486.863	90.31
487.081	108.31
487.299	100.31
487.517	103.31
487.735	137.31
487.953	290.31
488.171	207.31
488.389	118.31
488.607	97.31
488.825	84.31
489.043	83.31
489.261	93.31
489.479	98.31
489.696	96.31
489.914	94.31
490.132	108.31
490.35	80.31
490.568	85.31
490.786	91.31
491.003	76.31
491.221	114.31
491.439	108.31
491.657	101.31
491.874	82.31
492.092	104.31
492.31	77.31
492.527	79.31
492.745	82.31
492.963	81.31
493.18	94.31
493.398	97.31
493.615	110.31
493.833	92.31
494.05	91.31
494.268	76.31
494.485	87.31
494.703	79.31
494.92	84.31
495.138	95.31
495.355	98.31
495.573	95.31
495.79	90.31
496.008	106.31
496.225	96.31
496.442	92.31
496.66	94.31
496.877	86.31
497.094	96.31
497.312	83.31
497.529	90.31
497.746	87.31
497.963	86.31
498.181	121.31
498.398	118.31
498.615	94.31
498.832	85.31
499.049	103.31
499.267	109.31
499.484	94.31
499.701	91.31
499.918	95.31
500.135	110.31
500.352	107.31
500.569	95.31
500.786	97.31
501.003	84.31
501.22	83.31
501.437	91.31
501.654	99.31
501.871	99.31
502.088	90.31
502.305	86.31
502.522	94.31
502.739	99.31
502.956	83.31
503.172	92.31
503.389	78.31
503.606	96.31
503.823	105.31
504.04	106.31
504.256	196.31
504.473	188.31
504.69	99.31
504.907	110.31
505.123	86.31
505.34	93.31
505.557	103.31
505.773	95.31
505.99	72.31
506.207	93.31
506.423	88.31
506.64	91.31
506.856	87.31
507.073	73.31
507.289	94.31
507.506	88.31
507.722	92.31
507.939	100.31
508.155	103.31
508.372	86.31
508.588	95.31
508.805	95.31
509.021	96.31
509.238	77.31
509.454	96.31
509.67	97.31
509.887	92.31
510.103	86.31
510.319	90.31
510.536	85.31
510.752	88.31
510.968	83.31
511.184	92.31
511.401	79.31
511.617	84.31
511.833	95.31
512.049	89.31
512.265	96.31
512.481	90.31
512.698	83.31
512.914	89.31
513.13	85.31
513.346	83.31
513.562	83.31
513.778	98.31
513.994	103.31
514.21	87.31
514.426	92.31
514.642	97.31
514.858	89.31
515.074	85.31
515.29	102.31
515.506	98.31
515.721	92.31
515.937	87.31
516.153	86.31
516.369	91.31
516.585	90.31
516.801	89.31
517.016	102.31
