Data from 10100_2_HRD10591_00023.txt Node
Date: Mon Jan 19 14:01:35 EST 2026
User: Yrep
Spectrometer: HR+D1059
Trigger mode: 1
Integration Time (sec): 1.000000E-1
Scans to average: 1
Electric dark correction enabled: true
Nonlinearity correction enabled: false
Boxcar width: 0
XAxis mode: Wavelengths
Number of Pixels in Spectrum: 2048
>>>>>Begin Spectral Data<<<<<
223.165	-12.38
223.4	-12.38
223.635	-12.38
223.869	-18.38
224.104	-11.38
224.338	-12.38
224.573	-24.38
224.808	-13.38
225.042	-18.38
225.277	-5.38
225.511	12.62
225.746	16.62
225.98	-1.38
226.215	7.62
226.449	11.62
226.683	21.62
226.918	16.62
227.152	30.62
227.387	27.62
227.621	46.62
227.856	54.62
228.09	41.62
228.324	59.62
228.559	57.62
228.793	54.62
229.027	53.62
229.262	63.62
229.496	72.62
229.73	58.62
229.964	81.62
230.199	74.62
230.433	65.62
230.667	79.62
230.901	62.62
231.136	80.62
231.37	79.62
231.604	75.62
231.838	91.62
232.072	83.62
232.306	85.62
232.541	79.62
232.775	84.62
233.009	85.62
233.243	87.62
233.477	81.62
233.711	95.62
233.945	72.62
234.179	80.62
234.413	83.62
234.647	88.62
234.881	75.62
235.115	82.62
235.349	67.62
235.583	75.62
235.817	79.62
236.051	83.62
236.285	72.62
236.519	88.62
236.753	74.62
236.987	71.62
237.221	88.62
237.455	66.62
237.689	74.62
237.922	91.62
238.156	80.62
238.39	77.62
238.624	80.62
238.858	85.62
239.091	81.62
239.325	63.62
239.559	83.62
239.793	69.62
240.027	86.62
240.26	80.62
240.494	68.62
240.728	68.62
240.961	75.62
241.195	76.62
241.429	71.62
241.662	80.62
241.896	68.62
242.13	83.62
242.363	81.62
242.597	71.62
242.83	87.62
243.064	61.62
243.298	81.62
243.531	80.62
243.765	62.62
243.998	80.62
244.232	79.62
244.465	82.62
244.699	90.62
244.932	68.62
245.166	70.62
245.399	80.62
245.633	79.62
245.866	72.62
246.099	73.62
246.333	85.62
246.566	76.62
246.8	73.62
247.033	83.62
247.266	74.62
247.5	80.62
247.733	76.62
247.966	81.62
248.2	77.62
248.433	74.62
248.666	78.62
248.899	83.62
249.133	80.62
249.366	80.62
249.599	84.62
249.832	58.62
250.066	74.62
250.299	82.62
250.532	83.62
250.765	67.62
250.998	79.62
251.231	81.62
251.465	81.62
251.698	63.62
251.931	66.62
252.164	76.62
252.397	85.62
252.63	68.62
252.863	74.62
253.096	74.62
253.329	86.62
253.562	69.62
253.795	71.62
254.028	76.62
254.261	67.62
254.494	82.62
254.727	72.62
254.96	82.62
255.193	71.62
255.426	81.62
255.659	80.62
255.892	76.62
256.124	69.62
256.357	63.62
256.59	74.62
256.823	86.62
257.056	73.62
257.289	76.62
257.521	70.62
257.754	79.62
257.987	83.62
258.22	74.62
258.452	75.62
258.685	80.62
258.918	81.62
259.151	76.62
259.383	85.62
259.616	93.62
259.849	73.62
260.081	87.62
260.314	72.62
260.547	83.62
260.779	75.62
261.012	85.62
261.244	77.62
261.477	79.62
261.71	76.62
261.942	80.62
262.175	82.62
262.407	69.62
262.64	85.62
262.872	75.62
263.105	74.62
263.337	78.62
263.57	85.62
263.802	77.62
264.035	75.62
264.267	87.62
264.499	89.62
264.732	71.62
264.964	75.62
265.197	100.62
265.429	80.62
265.661	87.62
265.894	80.62
266.126	93.62
266.358	87.62
266.591	71.62
266.823	88.62
267.055	66.62
267.287	100.62
267.52	87.62
267.752	87.62
267.984	90.62
268.216	78.62
268.448	75.62
268.681	77.62
268.913	87.62
269.145	85.62
269.377	103.62
269.609	81.62
269.841	74.62
270.073	83.62
270.306	103.62
270.538	98.62
270.77	95.62
271.002	89.62
271.234	89.62
271.466	76.62
271.698	81.62
271.93	75.62
272.162	66.62
272.394	98.62
272.626	70.62
272.858	88.62
273.09	83.62
273.322	91.62
273.553	77.62
273.785	77.62
274.017	76.62
274.249	79.62
274.481	91.62
274.713	80.62
274.945	82.62
275.176	78.62
275.408	79.62
275.64	90.62
275.872	85.62
276.104	93.62
276.335	79.62
276.567	85.62
276.799	70.62
277.031	74.62
277.262	79.62
277.494	106.62
277.726	76.62
277.957	81.62
278.189	87.62
278.421	81.62
278.652	87.62
278.884	74.62
279.115	82.62
279.347	73.62
279.579	81.62
279.81	93.62
280.042	74.62
280.273	85.62
280.505	77.62
280.736	63.62
280.968	63.62
281.199	75.62
281.431	77.62
281.662	86.62
281.894	83.62
282.125	81.62
282.356	81.62
282.588	90.62
282.819	85.62
283.051	91.62
283.282	81.62
283.513	72.62
283.745	92.62
283.976	79.62
284.207	85.62
284.439	87.62
284.67	85.62
284.901	70.62
285.132	88.62
285.364	81.62
285.595	84.62
285.826	75.62
286.057	81.62
286.288	82.62
286.52	86.62
286.751	80.62
286.982	80.62
287.213	91.62
287.444	72.62
287.675	72.62
287.906	91.62
288.138	88.62
288.369	80.62
288.6	71.62
288.831	85.62
289.062	83.62
289.293	65.62
289.524	80.62
289.755	85.62
289.986	81.62
290.217	74.62
290.448	96.62
290.679	93.62
290.91	90.62
291.141	78.62
291.371	88.62
291.602	76.62
291.833	76.62
292.064	86.62
292.295	79.62
292.526	78.62
292.757	86.62
292.987	86.62
293.218	92.62
293.449	88.62
293.68	83.62
293.91	82.62
294.141	88.62
294.372	91.62
294.603	84.62
294.833	95.62
295.064	91.62
295.295	82.62
295.525	88.62
295.756	84.62
295.987	97.62
296.217	89.62
296.448	72.62
296.679	87.62
296.909	92.62
297.14	72.62
297.37	83.62
297.601	82.62
297.831	75.62
298.062	75.62
298.292	95.62
298.523	76.62
298.753	66.62
298.984	89.62
299.214	89.62
299.445	84.62
299.675	83.62
299.905	73.62
300.136	79.62
300.366	90.62
300.597	85.62
300.827	83.62
301.057	89.62
301.288	85.62
301.518	98.62
301.748	87.62
301.979	104.62
302.209	79.62
302.439	89.62
302.669	110.62
302.9	84.62
303.13	80.62
303.36	73.62
303.59	89.62
303.82	91.62
304.051	82.62
304.281	87.62
304.511	87.62
304.741	80.62
304.971	78.62
305.201	96.62
305.431	83.62
305.661	82.62
305.891	74.62
306.121	85.62
306.352	93.62
306.582	99.62
306.812	82.62
307.042	81.62
307.272	86.62
307.502	73.62
307.731	86.62
307.961	88.62
308.191	100.62
308.421	83.62
308.651	88.62
308.881	80.62
309.111	88.62
309.341	73.62
309.571	93.62
309.8	85.62
310.03	85.62
310.26	82.62
310.49	87.62
310.72	77.62
310.949	74.62
311.179	83.62
311.409	93.62
311.639	93.62
311.868	90.62
312.098	72.62
312.328	78.62
312.557	82.62
312.787	90.62
313.017	89.62
313.246	82.62
313.476	74.62
313.706	74.62
313.935	95.62
314.165	83.62
314.394	85.62
314.624	79.62
314.853	93.62
315.083	74.62
315.312	81.62
315.542	89.62
315.771	83.62
316.001	87.62
316.23	76.62
316.46	69.62
316.689	71.62
316.919	84.62
317.148	86.62
317.377	96.62
317.607	93.62
317.836	79.62
318.065	90.62
318.295	89.62
318.524	85.62
318.753	85.62
318.983	77.62
319.212	92.62
319.441	81.62
319.67	75.62
319.9	84.62
320.129	87.62
320.358	93.62
320.587	83.62
320.816	86.62
321.046	87.62
321.275	95.62
321.504	87.62
321.733	70.62
321.962	88.62
322.191	91.62
322.42	84.62
322.649	94.62
322.878	83.62
323.108	93.62
323.337	101.62
323.566	79.62
323.795	95.62
324.024	90.62
324.253	93.62
324.482	85.62
324.71	78.62
324.939	88.62
325.168	73.62
325.397	86.62
325.626	89.62
325.855	69.62
326.084	79.62
326.313	84.62
326.542	93.62
326.77	83.62
326.999	81.62
327.228	76.62
327.457	78.62
327.686	79.62
327.914	85.62
328.143	71.62
328.372	91.62
328.6	79.62
328.829	73.62
329.058	79.62
329.287	89.62
329.515	80.62
329.744	82.62
329.972	81.62
330.201	69.62
330.43	77.62
330.658	97.62
330.887	80.62
331.115	82.62
331.344	67.62
331.572	89.62
331.801	81.62
332.03	99.62
332.258	86.62
332.486	91.62
332.715	68.62
332.943	93.62
333.172	95.62
333.4	86.62
333.629	71.62
333.857	86.62
334.085	82.62
334.314	81.62
334.542	95.62
334.771	74.62
334.999	79.62
335.227	88.62
335.455	81.62
335.684	73.62
335.912	72.62
336.14	83.62
336.369	83.62
336.597	98.62
336.825	81.62
337.053	85.62
337.281	80.62
337.51	86.62
337.738	82.62
337.966	93.62
338.194	82.62
338.422	87.62
338.65	72.62
338.878	81.62
339.106	96.62
339.334	70.62
339.562	69.62
339.79	87.62
340.018	78.62
340.246	81.62
340.474	82.62
340.702	81.62
340.93	88.62
341.158	90.62
341.386	78.62
341.614	86.62
341.842	92.62
342.07	79.62
342.298	75.62
342.526	77.62
342.754	78.62
342.981	98.62
343.209	86.62
343.437	85.62
343.665	81.62
343.893	93.62
344.12	83.62
344.348	81.62
344.576	83.62
344.804	86.62
345.031	76.62
345.259	81.62
345.487	91.62
345.714	78.62
345.942	92.62
346.17	94.62
346.397	84.62
346.625	93.62
346.853	77.62
347.08	75.62
347.308	82.62
347.535	88.62
347.763	67.62
347.99	91.62
348.218	83.62
348.445	84.62
348.673	91.62
348.9	87.62
349.128	90.62
349.355	89.62
349.583	83.62
349.81	85.62
350.037	76.62
350.265	93.62
350.492	93.62
350.72	82.62
350.947	81.62
351.174	78.62
351.402	93.62
351.629	76.62
351.856	84.62
352.083	90.62
352.311	101.62
352.538	86.62
352.765	72.62
352.992	84.62
353.22	78.62
353.447	82.62
353.674	87.62
353.901	77.62
354.128	71.62
354.355	93.62
354.583	81.62
354.81	89.62
355.037	76.62
355.264	77.62
355.491	87.62
355.718	98.62
355.945	93.62
356.172	81.62
356.399	83.62
356.626	74.62
356.853	89.62
357.08	79.62
357.307	86.62
357.534	95.62
357.761	96.62
357.988	84.62
358.215	85.62
358.441	87.62
358.668	98.62
358.895	95.62
359.122	91.62
359.349	91.62
359.576	86.62
359.802	81.62
360.029	78.62
360.256	89.62
360.483	67.62
360.709	93.62
360.936	72.62
361.163	67.62
361.39	85.62
361.616	82.62
361.843	73.62
362.07	85.62
362.296	83.62
362.523	75.62
362.749	101.62
362.976	81.62
363.203	98.62
363.429	98.62
363.656	78.62
363.882	102.62
364.109	94.62
364.335	110.62
364.562	106.62
364.788	85.62
365.015	87.62
365.241	96.62
365.468	95.62
365.694	83.62
365.92	75.62
366.147	90.62
366.373	77.62
366.599	84.62
366.826	81.62
367.052	72.62
367.278	95.62
367.505	93.62
367.731	90.62
367.957	81.62
368.184	86.62
368.41	85.62
368.636	82.62
368.862	94.62
369.089	75.62
369.315	83.62
369.541	64.62
369.767	83.62
369.993	85.62
370.219	73.62
370.445	90.62
370.672	81.62
370.898	71.62
371.124	77.62
371.35	85.62
371.576	91.62
371.802	85.62
372.028	81.62
372.254	96.62
372.48	92.62
372.706	86.62
372.932	81.62
373.158	75.62
373.384	73.62
373.61	98.62
373.835	95.62
374.061	83.62
374.287	81.62
374.513	86.62
374.739	82.62
374.965	92.62
375.191	72.62
375.416	90.62
375.642	96.62
375.868	62.62
376.094	80.62
376.319	90.62
376.545	97.62
376.771	76.62
376.997	90.62
377.222	71.62
377.448	90.62
377.674	89.62
377.899	77.62
378.125	84.62
378.35	83.62
378.576	79.62
378.802	78.62
379.027	74.62
379.253	88.62
379.478	73.62
379.704	80.62
379.929	88.62
380.155	89.62
380.38	102.62
380.606	78.62
380.831	93.62
381.057	85.62
381.282	89.62
381.507	73.62
381.733	89.62
381.958	93.62
382.184	85.62
382.409	66.62
382.634	83.62
382.86	76.62
383.085	101.62
383.31	80.62
383.535	94.62
383.761	102.62
383.986	89.62
384.211	85.62
384.436	81.62
384.662	77.62
384.887	73.62
385.112	73.62
385.337	97.62
385.562	98.62
385.787	81.62
386.013	91.62
386.238	93.62
386.463	88.62
386.688	91.62
386.913	74.62
387.138	87.62
387.363	98.62
387.588	83.62
387.813	81.62
388.038	75.62
388.263	85.62
388.488	83.62
388.713	84.62
388.938	80.62
389.163	98.62
389.387	70.62
389.612	85.62
389.837	65.62
390.062	94.62
390.287	104.62
390.512	93.62
390.736	81.62
390.961	79.62
391.186	74.62
391.411	70.62
391.636	76.62
391.86	83.62
392.085	97.62
392.31	95.62
392.534	85.62
392.759	86.62
392.984	85.62
393.208	139.62
393.433	179.62
393.658	130.62
393.882	102.62
394.107	83.62
394.331	111.62
394.556	97.62
394.78	73.62
395.005	95.62
395.229	89.62
395.454	88.62
395.678	101.62
395.903	105.62
396.127	82.62
396.352	95.62
396.576	120.62
396.801	145.62
397.025	151.62
397.249	117.62
397.474	82.62
397.698	90.62
397.922	90.62
398.147	80.62
398.371	79.62
398.595	79.62
398.82	76.62
399.044	86.62
399.268	78.62
399.492	97.62
399.717	95.62
399.941	77.62
400.165	85.62
400.389	89.62
400.613	81.62
400.837	78.62
401.062	72.62
401.286	77.62
401.51	88.62
401.734	80.62
401.958	76.62
402.182	83.62
402.406	83.62
402.63	88.62
402.854	93.62
403.078	83.62
403.302	97.62
403.526	84.62
403.75	85.62
403.974	82.62
404.198	74.62
404.422	84.62
404.645	85.62
404.869	84.62
405.093	72.62
405.317	81.62
405.541	70.62
405.765	78.62
405.988	76.62
406.212	83.62
406.436	97.62
406.66	83.62
406.883	95.62
407.107	85.62
407.331	92.62
407.555	70.62
407.778	78.62
408.002	80.62
408.226	78.62
408.449	65.62
408.673	83.62
408.896	102.62
409.12	88.62
409.344	79.62
409.567	85.62
409.791	85.62
410.014	90.62
410.238	89.62
410.461	81.62
410.685	83.62
410.908	85.62
411.132	89.62
411.355	82.62
411.578	90.62
411.802	82.62
412.025	90.62
412.249	94.62
412.472	99.62
412.695	94.62
412.919	83.62
413.142	85.62
413.365	79.62
413.589	71.62
413.812	87.62
414.035	92.62
414.258	82.62
414.482	75.62
414.705	85.62
414.928	82.62
415.151	95.62
415.374	69.62
415.597	75.62
415.821	96.62
416.044	89.62
416.267	82.62
416.49	81.62
416.713	79.62
416.936	94.62
417.159	74.62
417.382	68.62
417.605	78.62
417.828	76.62
418.051	81.62
418.274	73.62
418.497	72.62
418.72	85.62
418.943	89.62
419.166	69.62
419.389	91.62
419.611	87.62
419.834	76.62
420.057	77.62
420.28	82.62
420.503	87.62
420.726	91.62
420.948	97.62
421.171	98.62
421.394	85.62
421.617	87.62
421.839	94.62
422.062	99.62
422.285	128.62
422.507	185.62
422.73	221.62
422.953	200.62
423.175	117.62
423.398	113.62
423.621	87.62
423.843	84.62
424.066	87.62
424.288	87.62
424.511	83.62
424.733	95.62
424.956	83.62
425.178	90.62
425.401	86.62
425.623	88.62
425.846	86.62
426.068	82.62
426.291	74.62
426.513	86.62
426.735	97.62
426.958	77.62
427.18	87.62
427.402	69.62
427.625	78.62
427.847	96.62
428.069	93.62
428.292	107.62
428.514	101.62
428.736	96.62
428.958	96.62
429.181	94.62
429.403	73.62
429.625	76.62
429.847	91.62
430.069	96.62
430.292	109.62
430.514	119.62
430.736	99.62
430.958	100.62
431.18	86.62
431.402	74.62
431.624	94.62
431.846	97.62
432.068	101.62
432.29	94.62
432.512	85.62
432.734	89.62
432.956	97.62
433.178	94.62
433.4	85.62
433.622	89.62
433.844	82.62
434.066	84.62
434.287	85.62
434.509	88.62
434.731	82.62
434.953	81.62
435.175	72.62
435.397	77.62
435.618	81.62
435.84	95.62
436.062	74.62
436.284	85.62
436.505	84.62
436.727	84.62
436.949	86.62
437.17	81.62
437.392	76.62
437.614	82.62
437.835	95.62
438.057	77.62
438.278	76.62
438.5	84.62
438.721	70.62
438.943	75.62
439.165	74.62
439.386	90.62
439.608	78.62
439.829	69.62
440.05	66.62
440.272	89.62
440.493	72.62
440.715	81.62
440.936	74.62
441.158	97.62
441.379	73.62
441.6	69.62
441.822	84.62
442.043	74.62
442.264	96.62
442.486	89.62
442.707	115.62
442.928	101.62
443.149	89.62
443.371	112.62
443.592	131.62
443.813	106.62
444.034	69.62
444.255	89.62
444.476	74.62
444.698	85.62
444.919	96.62
445.14	176.62
445.361	157.62
445.582	159.62
445.803	141.62
446.024	94.62
446.245	86.62
446.466	90.62
446.687	85.62
446.908	87.62
447.129	87.62
447.35	89.62
447.571	77.62
447.792	73.62
448.013	80.62
448.234	84.62
448.455	81.62
448.675	79.62
448.896	77.62
449.117	88.62
449.338	75.62
449.559	93.62
449.779	81.62
450	82.62
450.221	93.62
450.442	69.62
450.662	78.62
450.883	87.62
451.104	95.62
451.324	70.62
451.545	83.62
451.766	90.62
451.986	79.62
452.207	78.62
452.428	80.62
452.648	91.62
452.869	83.62
453.089	71.62
453.31	75.62
453.53	91.62
453.751	95.62
453.971	85.62
454.192	78.62
454.412	86.62
454.633	98.62
454.853	96.62
455.073	80.62
455.294	84.62
455.514	87.62
455.734	78.62
455.955	65.62
456.175	83.62
456.395	79.62
456.616	88.62
456.836	81.62
457.056	74.62
457.276	70.62
457.497	74.62
457.717	84.62
457.937	83.62
458.157	104.62
458.377	102.62
458.598	86.62
458.818	96.62
459.038	73.62
459.258	80.62
459.478	100.62
459.698	80.62
459.918	89.62
460.138	83.62
460.358	83.62
460.578	99.62
460.798	89.62
461.018	98.62
461.238	93.62
461.458	79.62
461.678	79.62
461.898	89.62
462.118	80.62
462.338	71.62
462.558	77.62
462.777	88.62
462.997	85.62
463.217	84.62
463.437	84.62
463.657	74.62
463.876	80.62
464.096	69.62
464.316	79.62
464.536	74.62
464.755	87.62
464.975	79.62
465.195	90.62
465.414	94.62
465.634	81.62
465.854	89.62
466.073	81.62
466.293	82.62
466.512	85.62
466.732	84.62
466.951	89.62
467.171	84.62
467.391	97.62
467.61	88.62
467.829	87.62
468.049	85.62
468.268	74.62
468.488	67.62
468.707	71.62
468.927	90.62
469.146	78.62
469.365	77.62
469.585	78.62
469.804	79.62
470.023	86.62
470.243	70.62
470.462	82.62
470.681	88.62
470.901	82.62
471.12	90.62
471.339	74.62
471.558	70.62
471.777	91.62
471.997	85.62
472.216	77.62
472.435	88.62
472.654	82.62
472.873	81.62
473.092	86.62
473.311	92.62
473.53	88.62
473.749	95.62
473.968	79.62
474.187	60.62
474.406	81.62
474.625	72.62
474.844	85.62
475.063	99.62
475.282	95.62
475.501	86.62
475.72	102.62
475.939	81.62
476.158	80.62
476.377	87.62
476.596	87.62
476.814	86.62
477.033	74.62
477.252	90.62
477.471	93.62
477.69	89.62
477.908	85.62
478.127	64.62
478.346	68.62
478.564	62.62
478.783	94.62
479.002	85.62
479.22	77.62
479.439	82.62
479.658	74.62
479.876	95.62
480.095	85.62
480.313	74.62
480.532	76.62
480.751	69.62
480.969	98.62
481.188	89.62
481.406	85.62
481.624	90.62
481.843	84.62
482.061	80.62
482.28	93.62
482.498	79.62
482.717	94.62
482.935	74.62
483.153	90.62
483.372	89.62
483.59	81.62
483.808	82.62
484.027	84.62
484.245	89.62
484.463	75.62
484.681	87.62
484.9	73.62
485.118	85.62
485.336	85.62
485.554	89.62
485.772	87.62
485.99	90.62
486.209	85.62
486.427	81.62
486.645	78.62
486.863	80.62
487.081	95.62
487.299	107.62
487.517	100.62
487.735	75.62
487.953	109.62
488.171	103.62
488.389	83.62
488.607	88.62
488.825	86.62
489.043	96.62
489.261	87.62
489.479	81.62
489.696	96.62
489.914	89.62
490.132	83.62
490.35	80.62
490.568	75.62
490.786	95.62
491.003	74.62
491.221	72.62
491.439	94.62
491.657	82.62
491.874	84.62
492.092	86.62
492.31	87.62
492.527	88.62
492.745	82.62
492.963	82.62
493.18	98.62
493.398	96.62
493.615	83.62
493.833	81.62
494.05	82.62
494.268	79.62
494.485	90.62
494.703	89.62
494.92	88.62
495.138	85.62
495.355	86.62
495.573	78.62
495.79	85.62
496.008	84.62
496.225	92.62
496.442	83.62
496.66	85.62
496.877	82.62
497.094	89.62
497.312	87.62
497.529	89.62
497.746	79.62
497.963	98.62
498.181	81.62
498.398	90.62
498.615	87.62
498.832	71.62
499.049	91.62
499.267	104.62
499.484	89.62
499.701	100.62
499.918	90.62
500.135	83.62
500.352	85.62
500.569	83.62
500.786	94.62
501.003	84.62
501.22	89.62
501.437	86.62
501.654	78.62
501.871	104.62
502.088	93.62
502.305	74.62
502.522	85.62
502.739	84.62
502.956	83.62
503.172	91.62
503.389	97.62
503.606	89.62
503.823	92.62
504.04	94.62
504.256	111.62
504.473	95.62
504.69	90.62
504.907	88.62
505.123	87.62
505.34	97.62
505.557	88.62
505.773	83.62
505.99	79.62
506.207	78.62
506.423	79.62
506.64	94.62
506.856	88.62
507.073	79.62
507.289	72.62
507.506	81.62
507.722	85.62
507.939	73.62
508.155	79.62
508.372	89.62
508.588	90.62
508.805	73.62
509.021	72.62
509.238	76.62
509.454	88.62
509.67	94.62
509.887	84.62
510.103	95.62
510.319	97.62
510.536	92.62
510.752	81.62
510.968	98.62
511.184	90.62
511.401	75.62
511.617	85.62
511.833	71.62
512.049	75.62
512.265	86.62
512.481	82.62
512.698	90.62
512.914	66.62
513.13	85.62
513.346	85.62
513.562	92.62
513.778	66.62
513.994	85.62
514.21	91.62
514.426	89.62
514.642	83.62
514.858	98.62
515.074	97.62
515.29	90.62
515.506	83.62
515.721	81.62
515.937	79.62
516.153	86.62
516.369	90.62
516.585	90.62
516.801	87.62
517.016	88.62
517.232	86.62
517.448	90.62
517.664	98.62
517.879	80.62
518.095	76.62
518.311	81.62
518.527	104.62
518.742	98.62
518.958	109.62
519.173	111.62
519.389	94.62
