Data from 10100_2_HRD10591_00004.txt Node
Date: Mon Jan 19 14:01:26 EST 2026
User: Yrep
Spectrometer: HR+D1059
Trigger mode: 1
Integration Time (sec): 1.000000E-1
Scans to average: 1
Electric dark correction enabled: true
Nonlinearity correction enabled: false
Boxcar width: 0
XAxis mode: Wavelengths
Number of Pixels in Spectrum: 2048
>>>>>Begin Spectral Data<<<<<
223.165	-19.94
223.4	-19.94
223.635	-19.94
223.869	-19.94
224.104	-19.94
224.338	-17.94
224.573	-14.94
224.808	-5.94
225.042	-4.94
225.277	-8.94
225.511	-6.94
225.746	-11.94
225.98	-1.94
226.215	26.06
226.449	29.06
226.683	17.06
226.918	21.06
227.152	40.06
227.387	52.06
227.621	44.06
227.856	39.06
228.09	44.06
228.324	52.06
228.559	40.06
228.793	56.06
229.027	62.06
229.262	58.06
229.496	59.06
229.73	54.06
229.964	77.06
230.199	60.06
230.433	70.06
230.667	80.06
230.901	65.06
231.136	78.06
231.37	76.06
231.604	74.06
231.838	78.06
232.072	80.06
232.306	82.06
232.541	75.06
232.775	80.06
233.009	57.06
233.243	78.06
233.477	72.06
233.711	81.06
233.945	64.06
234.179	78.06
234.413	84.06
234.647	89.06
234.881	70.06
235.115	84.06
235.349	74.06
235.583	74.06
235.817	86.06
236.051	83.06
236.285	64.06
236.519	74.06
236.753	77.06
236.987	84.06
237.221	66.06
237.455	85.06
237.689	78.06
237.922	71.06
238.156	79.06
238.39	62.06
238.624	61.06
238.858	92.06
239.091	80.06
239.325	83.06
239.559	71.06
239.793	71.06
240.027	83.06
240.26	67.06
240.494	70.06
240.728	78.06
240.961	67.06
241.195	82.06
241.429	70.06
241.662	92.06
241.896	69.06
242.13	83.06
242.363	89.06
242.597	74.06
242.83	85.06
243.064	98.06
243.298	75.06
243.531	64.06
243.765	67.06
243.998	78.06
244.232	81.06
244.465	86.06
244.699	76.06
244.932	70.06
245.166	75.06
245.399	81.06
245.633	80.06
245.866	76.06
246.099	66.06
246.333	81.06
246.566	63.06
246.8	78.06
247.033	80.06
247.266	88.06
247.5	101.06
247.733	76.06
247.966	69.06
248.2	81.06
248.433	64.06
248.666	63.06
248.899	75.06
249.133	80.06
249.366	60.06
249.599	87.06
249.832	86.06
250.066	85.06
250.299	83.06
250.532	85.06
250.765	83.06
250.998	71.06
251.231	85.06
251.465	82.06
251.698	81.06
251.931	65.06
252.164	79.06
252.397	57.06
252.63	81.06
252.863	74.06
253.096	78.06
253.329	89.06
253.562	82.06
253.795	73.06
254.028	77.06
254.261	82.06
254.494	96.06
254.727	102.06
254.96	94.06
255.193	79.06
255.426	84.06
255.659	81.06
255.892	67.06
256.124	69.06
256.357	70.06
256.59	66.06
256.823	68.06
257.056	78.06
257.289	71.06
257.521	84.06
257.754	88.06
257.987	87.06
258.22	88.06
258.452	86.06
258.685	79.06
258.918	80.06
259.151	77.06
259.383	70.06
259.616	73.06
259.849	78.06
260.081	80.06
260.314	74.06
260.547	78.06
260.779	82.06
261.012	82.06
261.244	84.06
261.477	88.06
261.71	68.06
261.942	83.06
262.175	77.06
262.407	71.06
262.64	96.06
262.872	90.06
263.105	71.06
263.337	82.06
263.57	84.06
263.802	70.06
264.035	75.06
264.267	87.06
264.499	68.06
264.732	86.06
264.964	74.06
265.197	75.06
265.429	80.06
265.661	79.06
265.894	82.06
266.126	85.06
266.358	69.06
266.591	70.06
266.823	68.06
267.055	87.06
267.287	83.06
267.52	71.06
267.752	77.06
267.984	88.06
268.216	71.06
268.448	84.06
268.681	84.06
268.913	83.06
269.145	89.06
269.377	77.06
269.609	66.06
269.841	88.06
270.073	84.06
270.306	74.06
270.538	93.06
270.77	92.06
271.002	85.06
271.234	93.06
271.466	89.06
271.698	65.06
271.93	62.06
272.162	94.06
272.394	86.06
272.626	82.06
272.858	88.06
273.09	73.06
273.322	72.06
273.553	79.06
273.785	84.06
274.017	87.06
274.249	85.06
274.481	76.06
274.713	80.06
274.945	88.06
275.176	84.06
275.408	97.06
275.64	88.06
275.872	70.06
276.104	65.06
276.335	73.06
276.567	92.06
276.799	82.06
277.031	86.06
277.262	87.06
277.494	85.06
277.726	100.06
277.957	84.06
278.189	86.06
278.421	84.06
278.652	93.06
278.884	77.06
279.115	92.06
279.347	87.06
279.579	92.06
279.81	90.06
280.042	89.06
280.273	91.06
280.505	88.06
280.736	80.06
280.968	84.06
281.199	92.06
281.431	70.06
281.662	78.06
281.894	82.06
282.125	84.06
282.356	79.06
282.588	82.06
282.819	89.06
283.051	81.06
283.282	91.06
283.513	90.06
283.745	84.06
283.976	88.06
284.207	64.06
284.439	86.06
284.67	77.06
284.901	88.06
285.132	93.06
285.364	82.06
285.595	98.06
285.826	72.06
286.057	96.06
286.288	78.06
286.52	96.06
286.751	92.06
286.982	77.06
287.213	82.06
287.444	86.06
287.675	90.06
287.906	74.06
288.138	73.06
288.369	84.06
288.6	78.06
288.831	74.06
289.062	75.06
289.293	82.06
289.524	84.06
289.755	84.06
289.986	75.06
290.217	78.06
290.448	81.06
290.679	80.06
290.91	92.06
291.141	93.06
291.371	94.06
291.602	79.06
291.833	78.06
292.064	90.06
292.295	84.06
292.526	71.06
292.757	80.06
292.987	98.06
293.218	74.06
293.449	80.06
293.68	91.06
293.91	80.06
294.141	75.06
294.372	82.06
294.603	88.06
294.833	79.06
295.064	83.06
295.295	71.06
295.525	84.06
295.756	75.06
295.987	84.06
296.217	98.06
296.448	90.06
296.679	80.06
296.909	89.06
297.14	82.06
297.37	83.06
297.601	82.06
297.831	87.06
298.062	79.06
298.292	81.06
298.523	93.06
298.753	71.06
298.984	72.06
299.214	78.06
299.445	82.06
299.675	75.06
299.905	78.06
300.136	87.06
300.366	92.06
300.597	84.06
300.827	83.06
301.057	97.06
301.288	94.06
301.518	85.06
301.748	95.06
301.979	100.06
302.209	86.06
302.439	81.06
302.669	78.06
302.9	79.06
303.13	102.06
303.36	95.06
303.59	61.06
303.82	77.06
304.051	82.06
304.281	99.06
304.511	84.06
304.741	97.06
304.971	80.06
305.201	89.06
305.431	100.06
305.661	94.06
305.891	84.06
306.121	81.06
306.352	87.06
306.582	87.06
306.812	83.06
307.042	72.06
307.272	87.06
307.502	88.06
307.731	87.06
307.961	83.06
308.191	86.06
308.421	98.06
308.651	81.06
308.881	82.06
309.111	82.06
309.341	88.06
309.571	96.06
309.8	101.06
310.03	84.06
310.26	94.06
310.49	85.06
310.72	100.06
310.949	83.06
311.179	88.06
311.409	93.06
311.639	96.06
311.868	83.06
312.098	84.06
312.328	78.06
312.557	74.06
312.787	80.06
313.017	88.06
313.246	82.06
313.476	87.06
313.706	72.06
313.935	92.06
314.165	77.06
314.394	84.06
314.624	67.06
314.853	84.06
315.083	75.06
315.312	108.06
315.542	82.06
315.771	100.06
316.001	98.06
316.23	87.06
316.46	76.06
316.689	89.06
316.919	92.06
317.148	87.06
317.377	87.06
317.607	93.06
317.836	83.06
318.065	89.06
318.295	98.06
318.524	107.06
318.753	95.06
318.983	87.06
319.212	89.06
319.441	85.06
319.67	88.06
319.9	76.06
320.129	90.06
320.358	83.06
320.587	79.06
320.816	77.06
321.046	82.06
321.275	81.06
321.504	91.06
321.733	89.06
321.962	94.06
322.191	99.06
322.42	93.06
322.649	95.06
322.878	95.06
323.108	88.06
323.337	85.06
323.566	84.06
323.795	83.06
324.024	77.06
324.253	61.06
324.482	76.06
324.71	72.06
324.939	95.06
325.168	90.06
325.397	74.06
325.626	84.06
325.855	82.06
326.084	91.06
326.313	71.06
326.542	82.06
326.77	84.06
326.999	76.06
327.228	73.06
327.457	108.06
327.686	72.06
327.914	84.06
328.143	87.06
328.372	93.06
328.6	83.06
328.829	76.06
329.058	88.06
329.287	94.06
329.515	84.06
329.744	76.06
329.972	83.06
330.201	87.06
330.43	88.06
330.658	74.06
330.887	75.06
331.115	92.06
331.344	78.06
331.572	84.06
331.801	89.06
332.03	87.06
332.258	85.06
332.486	77.06
332.715	85.06
332.943	80.06
333.172	100.06
333.4	72.06
333.629	89.06
333.857	89.06
334.085	79.06
334.314	76.06
334.542	82.06
334.771	93.06
334.999	76.06
335.227	86.06
335.455	97.06
335.684	94.06
335.912	84.06
336.14	111.06
336.369	98.06
336.597	86.06
336.825	87.06
337.053	82.06
337.281	86.06
337.51	97.06
337.738	74.06
337.966	87.06
338.194	87.06
338.422	98.06
338.65	106.06
338.878	81.06
339.106	85.06
339.334	81.06
339.562	85.06
339.79	78.06
340.018	78.06
340.246	84.06
340.474	91.06
340.702	74.06
340.93	90.06
341.158	96.06
341.386	78.06
341.614	86.06
341.842	79.06
342.07	88.06
342.298	84.06
342.526	77.06
342.754	90.06
342.981	78.06
343.209	99.06
343.437	98.06
343.665	88.06
343.893	88.06
344.12	88.06
344.348	97.06
344.576	82.06
344.804	101.06
345.031	92.06
345.259	84.06
345.487	98.06
345.714	84.06
345.942	78.06
346.17	84.06
346.397	94.06
346.625	82.06
346.853	90.06
347.08	75.06
347.308	96.06
347.535	92.06
347.763	78.06
347.99	92.06
348.218	89.06
348.445	84.06
348.673	87.06
348.9	95.06
349.128	85.06
349.355	87.06
349.583	95.06
349.81	87.06
350.037	80.06
350.265	84.06
350.492	86.06
350.72	80.06
350.947	87.06
351.174	87.06
351.402	89.06
351.629	84.06
351.856	80.06
352.083	92.06
352.311	89.06
352.538	92.06
352.765	88.06
352.992	92.06
353.22	89.06
353.447	84.06
353.674	93.06
353.901	84.06
354.128	102.06
354.355	86.06
354.583	85.06
354.81	97.06
355.037	85.06
355.264	102.06
355.491	86.06
355.718	93.06
355.945	93.06
356.172	87.06
356.399	83.06
356.626	85.06
356.853	97.06
357.08	82.06
357.307	93.06
357.534	94.06
357.761	86.06
357.988	79.06
358.215	100.06
358.441	80.06
358.668	83.06
358.895	97.06
359.122	104.06
359.349	91.06
359.576	98.06
359.802	80.06
360.029	77.06
360.256	85.06
360.483	96.06
360.709	83.06
360.936	97.06
361.163	88.06
361.39	94.06
361.616	80.06
361.843	92.06
362.07	90.06
362.296	100.06
362.523	108.06
362.749	97.06
362.976	124.06
363.203	127.06
363.429	108.06
363.656	96.06
363.882	89.06
364.109	117.06
364.335	139.06
364.562	135.06
364.788	108.06
365.015	96.06
365.241	81.06
365.468	92.06
365.694	92.06
365.92	95.06
366.147	88.06
366.373	91.06
366.599	84.06
366.826	89.06
367.052	83.06
367.278	87.06
367.505	81.06
367.731	106.06
367.957	84.06
368.184	96.06
368.41	92.06
368.636	94.06
368.862	77.06
369.089	92.06
369.315	68.06
369.541	94.06
369.767	80.06
369.993	80.06
370.219	81.06
370.445	83.06
370.672	89.06
370.898	98.06
371.124	82.06
371.35	92.06
371.576	82.06
371.802	89.06
372.028	99.06
372.254	94.06
372.48	88.06
372.706	70.06
372.932	85.06
373.158	94.06
373.384	96.06
373.61	113.06
373.835	119.06
374.061	89.06
374.287	100.06
374.513	92.06
374.739	104.06
374.965	113.06
375.191	96.06
375.416	92.06
375.642	88.06
375.868	94.06
376.094	86.06
376.319	89.06
376.545	83.06
376.771	85.06
376.997	84.06
377.222	85.06
377.448	88.06
377.674	89.06
377.899	88.06
378.125	82.06
378.35	87.06
378.576	88.06
378.802	85.06
379.027	86.06
379.253	86.06
379.478	86.06
379.704	80.06
379.929	80.06
380.155	82.06
380.38	80.06
380.606	92.06
380.831	86.06
381.057	86.06
381.282	81.06
381.507	92.06
381.733	98.06
381.958	86.06
382.184	87.06
382.409	83.06
382.634	99.06
382.86	111.06
383.085	96.06
383.31	89.06
383.535	96.06
383.761	102.06
383.986	85.06
384.211	103.06
384.436	86.06
384.662	75.06
384.887	86.06
385.112	93.06
385.337	83.06
385.562	85.06
385.787	89.06
386.013	88.06
386.238	83.06
386.463	80.06
386.688	112.06
386.913	94.06
387.138	105.06
387.363	104.06
387.588	100.06
387.813	88.06
388.038	95.06
388.263	88.06
388.488	92.06
388.713	97.06
388.938	97.06
389.163	86.06
389.387	90.06
389.612	81.06
389.837	100.06
390.062	94.06
390.287	89.06
390.512	102.06
390.736	78.06
390.961	83.06
391.186	92.06
391.411	84.06
391.636	98.06
391.86	81.06
392.085	89.06
392.31	106.06
392.534	105.06
392.759	120.06
392.984	143.06
393.208	230.06
393.433	306.06
393.658	253.06
393.882	144.06
394.107	117.06
394.331	114.06
394.556	125.06
394.78	103.06
395.005	109.06
395.229	97.06
395.454	96.06
395.678	88.06
395.903	126.06
396.127	131.06
396.352	155.06
396.576	154.06
396.801	231.06
397.025	246.06
397.249	154.06
397.474	148.06
397.698	105.06
397.922	100.06
398.147	93.06
398.371	93.06
398.595	73.06
398.82	82.06
399.044	86.06
399.268	93.06
399.492	90.06
399.717	94.06
399.941	101.06
400.165	88.06
400.389	89.06
400.613	93.06
400.837	87.06
401.062	73.06
401.286	86.06
401.51	76.06
401.734	88.06
401.958	99.06
402.182	78.06
402.406	75.06
402.63	84.06
402.854	102.06
403.078	81.06
403.302	87.06
403.526	98.06
403.75	86.06
403.974	96.06
404.198	100.06
404.422	90.06
404.645	101.06
404.869	90.06
405.093	92.06
405.317	84.06
405.541	84.06
405.765	84.06
405.988	90.06
406.212	94.06
406.436	84.06
406.66	99.06
406.883	92.06
407.107	91.06
407.331	96.06
407.555	73.06
407.778	94.06
408.002	92.06
408.226	89.06
408.449	83.06
408.673	89.06
408.896	81.06
409.12	93.06
409.344	90.06
409.567	99.06
409.791	102.06
410.014	110.06
410.238	94.06
410.461	103.06
410.685	94.06
410.908	86.06
411.132	96.06
411.355	91.06
411.578	82.06
411.802	93.06
412.025	85.06
412.249	80.06
412.472	95.06
412.695	84.06
412.919	92.06
413.142	62.06
413.365	83.06
413.589	70.06
413.812	78.06
414.035	89.06
414.258	84.06
414.482	84.06
414.705	87.06
414.928	81.06
415.151	97.06
415.374	96.06
415.597	90.06
415.821	74.06
416.044	87.06
416.267	79.06
416.49	67.06
416.713	94.06
416.936	80.06
417.159	83.06
417.382	82.06
417.605	86.06
417.828	87.06
418.051	85.06
418.274	76.06
418.497	76.06
418.72	93.06
418.943	87.06
419.166	87.06
419.389	94.06
419.611	96.06
419.834	84.06
420.057	95.06
420.28	90.06
420.503	94.06
420.726	82.06
420.948	80.06
421.171	108.06
421.394	119.06
421.617	127.06
421.839	135.06
422.062	132.06
422.285	186.06
422.507	266.06
422.73	386.06
422.953	338.06
423.175	225.06
423.398	164.06
423.621	137.06
423.843	100.06
424.066	108.06
424.288	108.06
424.511	109.06
424.733	92.06
424.956	90.06
425.178	95.06
425.401	88.06
425.623	89.06
425.846	92.06
426.068	82.06
426.291	92.06
426.513	86.06
426.735	81.06
426.958	92.06
427.18	94.06
427.402	84.06
427.625	84.06
427.847	94.06
428.069	106.06
428.292	122.06
428.514	138.06
428.736	110.06
428.958	114.06
429.181	109.06
429.403	102.06
429.625	90.06
429.847	113.06
430.069	154.06
430.292	194.06
430.514	180.06
430.736	128.06
430.958	135.06
431.18	97.06
431.402	84.06
431.624	91.06
431.846	118.06
432.068	130.06
432.29	101.06
432.512	102.06
432.734	100.06
432.956	92.06
433.178	80.06
433.4	108.06
433.622	85.06
433.844	89.06
434.066	76.06
434.287	74.06
434.509	84.06
434.731	73.06
434.953	88.06
435.175	88.06
435.397	82.06
435.618	108.06
435.84	92.06
436.062	91.06
436.284	81.06
436.505	90.06
436.727	90.06
436.949	74.06
437.17	84.06
437.392	84.06
437.614	82.06
437.835	81.06
438.057	90.06
438.278	106.06
438.5	111.06
438.721	98.06
438.943	87.06
439.165	74.06
439.386	102.06
439.608	81.06
439.829	70.06
440.05	76.06
440.272	106.06
440.493	81.06
440.715	84.06
440.936	86.06
441.158	84.06
441.379	91.06
441.6	92.06
441.822	92.06
442.043	94.06
442.264	90.06
442.486	133.06
442.707	163.06
442.928	122.06
443.149	121.06
443.371	145.06
443.592	242.06
443.813	214.06
444.034	106.06
444.255	90.06
444.476	85.06
444.698	86.06
444.919	103.06
445.14	202.06
445.361	218.06
445.582	268.06
445.803	258.06
446.024	118.06
446.245	89.06
446.466	84.06
446.687	100.06
446.908	90.06
447.129	101.06
447.35	92.06
447.571	91.06
447.792	79.06
448.013	72.06
448.234	82.06
448.455	89.06
448.675	71.06
448.896	72.06
449.117	83.06
449.338	82.06
449.559	117.06
449.779	86.06
450	66.06
450.221	78.06
450.442	90.06
450.662	96.06
450.883	85.06
451.104	95.06
451.324	88.06
451.545	80.06
451.766	96.06
451.986	74.06
452.207	80.06
452.428	80.06
452.648	101.06
452.869	111.06
453.089	90.06
453.31	88.06
453.53	87.06
453.751	104.06
453.971	78.06
454.192	84.06
454.412	80.06
454.633	84.06
454.853	81.06
455.073	72.06
455.294	85.06
455.514	82.06
455.734	100.06
455.955	87.06
456.175	83.06
456.395	90.06
456.616	86.06
456.836	87.06
457.056	89.06
457.276	90.06
457.497	85.06
457.717	92.06
457.937	104.06
458.157	143.06
458.377	152.06
458.598	136.06
458.818	152.06
459.038	91.06
459.258	88.06
459.478	85.06
459.698	71.06
459.918	96.06
460.138	85.06
460.358	81.06
460.578	91.06
460.798	119.06
461.018	122.06
461.238	82.06
461.458	75.06
461.678	80.06
461.898	76.06
462.118	75.06
462.338	84.06
462.558	93.06
462.777	96.06
462.997	90.06
463.217	74.06
463.437	99.06
463.657	104.06
463.876	81.06
464.096	103.06
464.316	87.06
464.536	82.06
464.755	85.06
464.975	83.06
465.195	101.06
465.414	88.06
465.634	84.06
465.854	88.06
466.073	89.06
466.293	90.06
466.512	89.06
466.732	82.06
466.951	95.06
467.171	80.06
467.391	74.06
467.61	84.06
467.829	98.06
468.049	82.06
468.268	88.06
468.488	96.06
468.707	93.06
468.927	88.06
469.146	100.06
469.365	88.06
469.585	80.06
469.804	63.06
470.023	93.06
470.243	86.06
470.462	97.06
470.681	89.06
470.901	89.06
471.12	92.06
471.339	90.06
471.558	72.06
471.777	83.06
471.997	86.06
472.216	78.06
472.435	96.06
472.654	79.06
472.873	101.06
473.092	83.06
473.311	83.06
473.53	96.06
473.749	74.06
473.968	92.06
474.187	77.06
474.406	87.06
474.625	94.06
474.844	86.06
475.063	85.06
475.282	85.06
475.501	77.06
475.72	90.06
475.939	85.06
476.158	87.06
476.377	80.06
476.596	98.06
476.814	91.06
477.033	88.06
477.252	83.06
477.471	83.06
477.69	87.06
477.908	98.06
478.127	90.06
478.346	89.06
478.564	77.06
478.783	96.06
479.002	85.06
479.22	83.06
479.439	81.06
479.658	88.06
479.876	88.06
480.095	74.06
480.313	82.06
480.532	91.06
480.751	76.06
480.969	93.06
481.188	94.06
481.406	108.06
481.624	89.06
481.843	95.06
482.061	88.06
482.28	97.06
482.498	93.06
482.717	94.06
482.935	88.06
483.153	90.06
483.372	78.06
483.59	94.06
483.808	96.06
484.027	99.06
484.245	95.06
484.463	80.06
484.681	97.06
484.9	112.06
485.118	93.06
485.336	97.06
485.554	78.06
485.772	108.06
485.99	102.06
486.209	103.06
486.427	98.06
486.645	91.06
486.863	81.06
487.081	90.06
487.299	104.06
487.517	104.06
487.735	122.06
487.953	181.06
488.171	173.06
488.389	88.06
488.607	88.06
488.825	95.06
489.043	77.06
489.261	85.06
489.479	97.06
489.696	81.06
489.914	89.06
490.132	100.06
490.35	100.06
490.568	90.06
490.786	93.06
491.003	88.06
491.221	89.06
491.439	80.06
491.657	96.06
491.874	95.06
492.092	101.06
492.31	96.06
492.527	96.06
492.745	103.06
492.963	80.06
493.18	92.06
493.398	80.06
493.615	97.06
493.833	104.06
494.05	79.06
494.268	95.06
494.485	92.06
494.703	94.06
494.92	98.06
495.138	93.06
495.355	93.06
495.573	92.06
495.79	82.06
496.008	100.06
496.225	86.06
496.442	97.06
496.66	100.06
496.877	96.06
497.094	99.06
497.312	107.06
497.529	84.06
497.746	90.06
497.963	77.06
498.181	100.06
498.398	110.06
498.615	89.06
498.832	102.06
499.049	87.06
499.267	100.06
499.484	101.06
499.701	87.06
499.918	103.06
500.135	96.06
500.352	93.06
500.569	100.06
500.786	100.06
501.003	98.06
501.22	105.06
501.437	88.06
501.654	103.06
501.871	84.06
502.088	96.06
502.305	79.06
502.522	96.06
502.739	95.06
502.956	94.06
503.172	89.06
503.389	90.06
503.606	87.06
503.823	110.06
504.04	112.06
504.256	164.06
504.473	149.06
504.69	111.06
504.907	94.06
505.123	100.06
505.34	85.06
505.557	96.06
505.773	95.06
505.99	99.06
506.207	94.06
506.423	98.06
506.64	105.06
506.856	88.06
507.073	89.06
507.289	93.06
507.506	81.06
507.722	89.06
507.939	89.06
508.155	97.06
508.372	90.06
508.588	108.06
508.805	87.06
509.021	96.06
509.238	97.06
509.454	88.06
509.67	84.06
509.887	87.06
510.103	84.06
510.319	85.06
510.536	115.06
510.752	92.06
510.968	97.06
511.184	79.06
511.401	84.06
511.617	89.06
511.833	79.06
512.049	95.06
512.265	89.06
512.481	82.06
512.698	85.06
512.914	88.06
513.13	82.06
513.346	86.06
513.562	104.06
513.778	84.06
513.994	92.06
514.21	87.06
514.426	88.06
514.642	91.06
514.858	88.06
515.074	88.06
515.29	88.06
515.506	95.06
515.721	93.06
515.937	90.06
516.153	93.06
516.369	98.06
516.585	80.06
516.801	101.06
517.016	104.06
517.232	86.06
517.448	101.06
