Data from 10100_2_HRD10591_00012.txt Node
Date: Mon Jan 19 14:01:30 EST 2026
User: Yrep
Spectrometer: HR+D1059
Trigger mode: 1
Integration Time (sec): 1.000000E-1
Scans to average: 1
Electric dark correction enabled: true
Nonlinearity correction enabled: false
Boxcar width: 0
XAxis mode: Wavelengths
Number of Pixels in Spectrum: 2048
>>>>>Begin Spectral Data<<<<<
223.165	-30.56
223.4	-30.56
223.635	-30.56
223.869	-27.56
224.104	-22.56
224.338	-14.56
224.573	-16.56
224.808	-9.56
225.042	-10.56
225.277	-1.56
225.511	-15.56
225.746	22.44
225.98	27.44
226.215	17.44
226.449	10.44
226.683	11.44
226.918	22.44
227.152	37.44
227.387	39.44
227.621	43.44
227.856	51.44
228.09	54.44
228.324	51.44
228.559	55.44
228.793	62.44
229.027	69.44
229.262	71.44
229.496	72.44
229.73	62.44
229.964	80.44
230.199	79.44
230.433	61.44
230.667	78.44
230.901	79.44
231.136	77.44
231.37	80.44
231.604	76.44
231.838	79.44
232.072	75.44
232.306	82.44
232.541	83.44
232.775	81.44
233.009	84.44
233.243	73.44
233.477	75.44
233.711	88.44
233.945	69.44
234.179	81.44
234.413	85.44
234.647	79.44
234.881	75.44
235.115	80.44
235.349	67.44
235.583	82.44
235.817	73.44
236.051	75.44
236.285	74.44
236.519	85.44
236.753	67.44
236.987	86.44
237.221	85.44
237.455	68.44
237.689	63.44
237.922	70.44
238.156	74.44
238.39	94.44
238.624	70.44
238.858	73.44
239.091	79.44
239.325	81.44
239.559	83.44
239.793	82.44
240.027	73.44
240.26	87.44
240.494	80.44
240.728	87.44
240.961	74.44
241.195	85.44
241.429	74.44
241.662	72.44
241.896	77.44
242.13	84.44
242.363	67.44
242.597	76.44
242.83	75.44
243.064	66.44
243.298	57.44
243.531	77.44
243.765	78.44
243.998	72.44
244.232	85.44
244.465	64.44
244.699	93.44
244.932	73.44
245.166	79.44
245.399	81.44
245.633	80.44
245.866	71.44
246.099	82.44
246.333	93.44
246.566	75.44
246.8	66.44
247.033	74.44
247.266	72.44
247.5	85.44
247.733	73.44
247.966	73.44
248.2	73.44
248.433	85.44
248.666	70.44
248.899	80.44
249.133	79.44
249.366	89.44
249.599	91.44
249.832	78.44
250.066	77.44
250.299	81.44
250.532	93.44
250.765	82.44
250.998	76.44
251.231	73.44
251.465	74.44
251.698	85.44
251.931	74.44
252.164	100.44
252.397	80.44
252.63	75.44
252.863	70.44
253.096	75.44
253.329	82.44
253.562	88.44
253.795	85.44
254.028	85.44
254.261	73.44
254.494	90.44
254.727	88.44
254.96	80.44
255.193	100.44
255.426	85.44
255.659	83.44
255.892	93.44
256.124	88.44
256.357	83.44
256.59	86.44
256.823	84.44
257.056	95.44
257.289	78.44
257.521	80.44
257.754	87.44
257.987	79.44
258.22	78.44
258.452	85.44
258.685	76.44
258.918	93.44
259.151	83.44
259.383	80.44
259.616	80.44
259.849	66.44
260.081	84.44
260.314	89.44
260.547	77.44
260.779	79.44
261.012	89.44
261.244	64.44
261.477	92.44
261.71	78.44
261.942	87.44
262.175	87.44
262.407	74.44
262.64	64.44
262.872	82.44
263.105	80.44
263.337	89.44
263.57	89.44
263.802	91.44
264.035	69.44
264.267	93.44
264.499	86.44
264.732	64.44
264.964	86.44
265.197	85.44
265.429	86.44
265.661	86.44
265.894	71.44
266.126	73.44
266.358	86.44
266.591	82.44
266.823	80.44
267.055	81.44
267.287	82.44
267.52	74.44
267.752	86.44
267.984	77.44
268.216	89.44
268.448	89.44
268.681	97.44
268.913	83.44
269.145	86.44
269.377	95.44
269.609	97.44
269.841	88.44
270.073	82.44
270.306	93.44
270.538	85.44
270.77	65.44
271.002	77.44
271.234	87.44
271.466	83.44
271.698	76.44
271.93	92.44
272.162	75.44
272.394	90.44
272.626	96.44
272.858	77.44
273.09	91.44
273.322	87.44
273.553	88.44
273.785	91.44
274.017	81.44
274.249	78.44
274.481	79.44
274.713	82.44
274.945	70.44
275.176	84.44
275.408	92.44
275.64	86.44
275.872	75.44
276.104	91.44
276.335	75.44
276.567	83.44
276.799	87.44
277.031	91.44
277.262	70.44
277.494	78.44
277.726	89.44
277.957	87.44
278.189	82.44
278.421	93.44
278.652	75.44
278.884	76.44
279.115	58.44
279.347	81.44
279.579	75.44
279.81	69.44
280.042	81.44
280.273	92.44
280.505	96.44
280.736	84.44
280.968	86.44
281.199	95.44
281.431	95.44
281.662	83.44
281.894	82.44
282.125	86.44
282.356	87.44
282.588	100.44
282.819	73.44
283.051	97.44
283.282	81.44
283.513	91.44
283.745	79.44
283.976	79.44
284.207	71.44
284.439	71.44
284.67	90.44
284.901	91.44
285.132	81.44
285.364	80.44
285.595	80.44
285.826	90.44
286.057	80.44
286.288	91.44
286.52	96.44
286.751	95.44
286.982	79.44
287.213	85.44
287.444	86.44
287.675	82.44
287.906	76.44
288.138	88.44
288.369	93.44
288.6	75.44
288.831	85.44
289.062	86.44
289.293	81.44
289.524	80.44
289.755	90.44
289.986	82.44
290.217	86.44
290.448	73.44
290.679	87.44
290.91	89.44
291.141	98.44
291.371	88.44
291.602	68.44
291.833	97.44
292.064	76.44
292.295	69.44
292.526	95.44
292.757	89.44
292.987	85.44
293.218	89.44
293.449	81.44
293.68	90.44
293.91	85.44
294.141	78.44
294.372	89.44
294.603	79.44
294.833	93.44
295.064	74.44
295.295	90.44
295.525	82.44
295.756	74.44
295.987	85.44
296.217	81.44
296.448	99.44
296.679	92.44
296.909	73.44
297.14	77.44
297.37	93.44
297.601	95.44
297.831	78.44
298.062	83.44
298.292	82.44
298.523	75.44
298.753	89.44
298.984	88.44
299.214	81.44
299.445	90.44
299.675	87.44
299.905	95.44
300.136	90.44
300.366	74.44
300.597	90.44
300.827	79.44
301.057	82.44
301.288	75.44
301.518	90.44
301.748	84.44
301.979	96.44
302.209	88.44
302.439	96.44
302.669	74.44
302.9	85.44
303.13	79.44
303.36	98.44
303.59	82.44
303.82	83.44
304.051	86.44
304.281	91.44
304.511	79.44
304.741	86.44
304.971	87.44
305.201	89.44
305.431	78.44
305.661	91.44
305.891	91.44
306.121	86.44
306.352	86.44
306.582	87.44
306.812	78.44
307.042	95.44
307.272	94.44
307.502	95.44
307.731	97.44
307.961	94.44
308.191	85.44
308.421	95.44
308.651	82.44
308.881	86.44
309.111	79.44
309.341	85.44
309.571	91.44
309.8	91.44
310.03	88.44
310.26	73.44
310.49	94.44
310.72	51.44
310.949	85.44
311.179	72.44
311.409	88.44
311.639	84.44
311.868	96.44
312.098	79.44
312.328	81.44
312.557	90.44
312.787	85.44
313.017	90.44
313.246	84.44
313.476	86.44
313.706	94.44
313.935	87.44
314.165	84.44
314.394	98.44
314.624	88.44
314.853	89.44
315.083	75.44
315.312	86.44
315.542	81.44
315.771	87.44
316.001	84.44
316.23	102.44
316.46	87.44
316.689	80.44
316.919	69.44
317.148	83.44
317.377	87.44
317.607	79.44
317.836	103.44
318.065	84.44
318.295	88.44
318.524	101.44
318.753	82.44
318.983	75.44
319.212	101.44
319.441	88.44
319.67	87.44
319.9	92.44
320.129	91.44
320.358	78.44
320.587	81.44
320.816	73.44
321.046	87.44
321.275	95.44
321.504	79.44
321.733	82.44
321.962	89.44
322.191	85.44
322.42	96.44
322.649	85.44
322.878	91.44
323.108	77.44
323.337	88.44
323.566	75.44
323.795	82.44
324.024	85.44
324.253	83.44
324.482	97.44
324.71	87.44
324.939	79.44
325.168	74.44
325.397	89.44
325.626	83.44
325.855	80.44
326.084	85.44
326.313	70.44
326.542	90.44
326.77	81.44
326.999	71.44
327.228	91.44
327.457	87.44
327.686	79.44
327.914	83.44
328.143	74.44
328.372	74.44
328.6	92.44
328.829	63.44
329.058	91.44
329.287	92.44
329.515	87.44
329.744	89.44
329.972	94.44
330.201	87.44
330.43	92.44
330.658	85.44
330.887	79.44
331.115	93.44
331.344	87.44
331.572	92.44
331.801	89.44
332.03	76.44
332.258	85.44
332.486	88.44
332.715	80.44
332.943	80.44
333.172	72.44
333.4	86.44
333.629	80.44
333.857	93.44
334.085	93.44
334.314	87.44
334.542	89.44
334.771	104.44
334.999	87.44
335.227	85.44
335.455	83.44
335.684	88.44
335.912	94.44
336.14	89.44
336.369	99.44
336.597	96.44
336.825	90.44
337.053	85.44
337.281	89.44
337.51	90.44
337.738	93.44
337.966	71.44
338.194	80.44
338.422	81.44
338.65	89.44
338.878	91.44
339.106	70.44
339.334	79.44
339.562	87.44
339.79	92.44
340.018	86.44
340.246	83.44
340.474	84.44
340.702	74.44
340.93	97.44
341.158	92.44
341.386	88.44
341.614	83.44
341.842	89.44
342.07	87.44
342.298	82.44
342.526	83.44
342.754	80.44
342.981	85.44
343.209	85.44
343.437	89.44
343.665	83.44
343.893	94.44
344.12	82.44
344.348	82.44
344.576	85.44
344.804	87.44
345.031	90.44
345.259	82.44
345.487	87.44
345.714	71.44
345.942	85.44
346.17	76.44
346.397	75.44
346.625	85.44
346.853	90.44
347.08	90.44
347.308	107.44
347.535	73.44
347.763	88.44
347.99	85.44
348.218	81.44
348.445	86.44
348.673	87.44
348.9	85.44
349.128	73.44
349.355	70.44
349.583	71.44
349.81	83.44
350.037	96.44
350.265	98.44
350.492	82.44
350.72	85.44
350.947	86.44
351.174	97.44
351.402	102.44
351.629	98.44
351.856	88.44
352.083	84.44
352.311	78.44
352.538	86.44
352.765	95.44
352.992	93.44
353.22	74.44
353.447	88.44
353.674	84.44
353.901	78.44
354.128	75.44
354.355	85.44
354.583	103.44
354.81	81.44
355.037	81.44
355.264	94.44
355.491	79.44
355.718	71.44
355.945	89.44
356.172	70.44
356.399	78.44
356.626	88.44
356.853	85.44
357.08	95.44
357.307	100.44
357.534	78.44
357.761	94.44
357.988	97.44
358.215	101.44
358.441	90.44
358.668	76.44
358.895	69.44
359.122	65.44
359.349	85.44
359.576	83.44
359.802	76.44
360.029	86.44
360.256	70.44
360.483	82.44
360.709	86.44
360.936	91.44
361.163	87.44
361.39	87.44
361.616	88.44
361.843	83.44
362.07	99.44
362.296	99.44
362.523	93.44
362.749	94.44
362.976	98.44
363.203	109.44
363.429	95.44
363.656	75.44
363.882	88.44
364.109	94.44
364.335	121.44
364.562	112.44
364.788	101.44
365.015	87.44
365.241	67.44
365.468	106.44
365.694	89.44
365.92	70.44
366.147	75.44
366.373	82.44
366.599	83.44
366.826	84.44
367.052	100.44
367.278	72.44
367.505	79.44
367.731	89.44
367.957	85.44
368.184	85.44
368.41	87.44
368.636	88.44
368.862	86.44
369.089	92.44
369.315	94.44
369.541	83.44
369.767	90.44
369.993	93.44
370.219	93.44
370.445	91.44
370.672	98.44
370.898	90.44
371.124	76.44
371.35	72.44
371.576	95.44
371.802	97.44
372.028	97.44
372.254	103.44
372.48	85.44
372.706	79.44
372.932	82.44
373.158	90.44
373.384	91.44
373.61	83.44
373.835	97.44
374.061	98.44
374.287	87.44
374.513	87.44
374.739	78.44
374.965	83.44
375.191	81.44
375.416	93.44
375.642	92.44
375.868	86.44
376.094	70.44
376.319	87.44
376.545	90.44
376.771	88.44
376.997	86.44
377.222	79.44
377.448	87.44
377.674	82.44
377.899	90.44
378.125	81.44
378.35	96.44
378.576	76.44
378.802	76.44
379.027	69.44
379.253	89.44
379.478	79.44
379.704	85.44
379.929	92.44
380.155	81.44
380.38	84.44
380.606	82.44
380.831	95.44
381.057	95.44
381.282	87.44
381.507	90.44
381.733	94.44
381.958	105.44
382.184	95.44
382.409	82.44
382.634	85.44
382.86	89.44
383.085	84.44
383.31	85.44
383.535	96.44
383.761	87.44
383.986	85.44
384.211	93.44
384.436	88.44
384.662	89.44
384.887	105.44
385.112	85.44
385.337	86.44
385.562	86.44
385.787	86.44
386.013	81.44
386.238	80.44
386.463	85.44
386.688	112.44
386.913	81.44
387.138	92.44
387.363	80.44
387.588	93.44
387.813	86.44
388.038	85.44
388.263	106.44
388.488	84.44
388.713	93.44
388.938	96.44
389.163	100.44
389.387	81.44
389.612	79.44
389.837	94.44
390.062	94.44
390.287	77.44
390.512	83.44
390.736	80.44
390.961	81.44
391.186	86.44
391.411	85.44
391.636	83.44
391.86	80.44
392.085	89.44
392.31	96.44
392.534	98.44
392.759	104.44
392.984	131.44
393.208	154.44
393.433	174.44
393.658	166.44
393.882	104.44
394.107	89.44
394.331	83.44
394.556	100.44
394.78	96.44
395.005	85.44
395.229	89.44
395.454	94.44
395.678	105.44
395.903	100.44
396.127	113.44
396.352	115.44
396.576	107.44
396.801	139.44
397.025	174.44
397.249	120.44
397.474	99.44
397.698	100.44
397.922	77.44
398.147	98.44
398.371	93.44
398.595	88.44
398.82	103.44
399.044	89.44
399.268	79.44
399.492	76.44
399.717	81.44
399.941	76.44
400.165	88.44
400.389	83.44
400.613	85.44
400.837	76.44
401.062	82.44
401.286	92.44
401.51	89.44
401.734	83.44
401.958	87.44
402.182	82.44
402.406	75.44
402.63	75.44
402.854	86.44
403.078	85.44
403.302	81.44
403.526	75.44
403.75	86.44
403.974	84.44
404.198	90.44
404.422	73.44
404.645	85.44
404.869	92.44
405.093	84.44
405.317	88.44
405.541	87.44
405.765	88.44
405.988	87.44
406.212	76.44
406.436	78.44
406.66	88.44
406.883	85.44
407.107	96.44
407.331	87.44
407.555	96.44
407.778	102.44
408.002	97.44
408.226	75.44
408.449	89.44
408.673	86.44
408.896	99.44
409.12	93.44
409.344	94.44
409.567	94.44
409.791	106.44
410.014	113.44
410.238	81.44
410.461	83.44
410.685	86.44
410.908	96.44
411.132	81.44
411.355	73.44
411.578	89.44
411.802	72.44
412.025	81.44
412.249	81.44
412.472	82.44
412.695	82.44
412.919	76.44
413.142	91.44
413.365	80.44
413.589	91.44
413.812	86.44
414.035	73.44
414.258	77.44
414.482	91.44
414.705	76.44
414.928	77.44
415.151	77.44
415.374	86.44
415.597	82.44
415.821	82.44
416.044	75.44
416.267	81.44
416.49	83.44
416.713	79.44
416.936	96.44
417.159	71.44
417.382	85.44
417.605	81.44
417.828	81.44
418.051	89.44
418.274	87.44
418.497	88.44
418.72	90.44
418.943	93.44
419.166	81.44
419.389	67.44
419.611	85.44
419.834	83.44
420.057	83.44
420.28	87.44
420.503	83.44
420.726	69.44
420.948	95.44
421.171	90.44
421.394	88.44
421.617	99.44
421.839	90.44
422.062	122.44
422.285	148.44
422.507	212.44
422.73	272.44
422.953	262.44
423.175	170.44
423.398	118.44
423.621	97.44
423.843	94.44
424.066	97.44
424.288	95.44
424.511	80.44
424.733	90.44
424.956	82.44
425.178	87.44
425.401	85.44
425.623	83.44
425.846	89.44
426.068	84.44
426.291	81.44
426.513	84.44
426.735	94.44
426.958	90.44
427.18	90.44
427.402	87.44
427.625	86.44
427.847	88.44
428.069	97.44
428.292	115.44
428.514	110.44
428.736	110.44
428.958	103.44
429.181	108.44
429.403	80.44
429.625	94.44
429.847	105.44
430.069	110.44
430.292	138.44
430.514	121.44
430.736	106.44
430.958	111.44
431.18	98.44
431.402	85.44
431.624	103.44
431.846	102.44
432.068	110.44
432.29	93.44
432.512	83.44
432.734	86.44
432.956	81.44
433.178	80.44
433.4	72.44
433.622	95.44
433.844	87.44
434.066	75.44
434.287	79.44
434.509	79.44
434.731	94.44
434.953	78.44
435.175	75.44
435.397	97.44
435.618	98.44
435.84	82.44
436.062	87.44
436.284	81.44
436.505	96.44
436.727	81.44
436.949	82.44
437.17	87.44
437.392	94.44
437.614	79.44
437.835	88.44
438.057	78.44
438.278	89.44
438.5	86.44
438.721	80.44
438.943	84.44
439.165	83.44
439.386	73.44
439.608	93.44
439.829	73.44
440.05	85.44
440.272	88.44
440.493	93.44
440.715	81.44
440.936	78.44
441.158	82.44
441.379	76.44
441.6	95.44
441.822	88.44
442.043	94.44
442.264	96.44
442.486	98.44
442.707	125.44
442.928	96.44
443.149	98.44
443.371	124.44
443.592	186.44
443.813	171.44
444.034	99.44
444.255	95.44
444.476	80.44
444.698	92.44
444.919	93.44
445.14	193.44
445.361	171.44
445.582	204.44
445.803	183.44
446.024	107.44
446.245	94.44
446.466	90.44
446.687	85.44
446.908	87.44
447.129	68.44
447.35	85.44
447.571	85.44
447.792	88.44
448.013	88.44
448.234	78.44
448.455	81.44
448.675	84.44
448.896	100.44
449.117	68.44
449.338	82.44
449.559	97.44
449.779	97.44
450	91.44
450.221	84.44
450.442	74.44
450.662	87.44
450.883	74.44
451.104	94.44
451.324	75.44
451.545	83.44
451.766	82.44
451.986	93.44
452.207	78.44
452.428	90.44
452.648	84.44
452.869	95.44
453.089	86.44
453.31	81.44
453.53	89.44
453.751	88.44
453.971	79.44
454.192	95.44
454.412	78.44
454.633	103.44
454.853	84.44
455.073	87.44
455.294	90.44
455.514	97.44
455.734	85.44
455.955	70.44
456.175	83.44
456.395	78.44
456.616	91.44
456.836	85.44
457.056	90.44
457.276	71.44
457.497	88.44
457.717	85.44
457.937	95.44
458.157	113.44
458.377	90.44
458.598	94.44
458.818	101.44
459.038	83.44
459.258	86.44
459.478	80.44
459.698	75.44
459.918	90.44
460.138	74.44
460.358	83.44
460.578	90.44
460.798	94.44
461.018	105.44
461.238	82.44
461.458	81.44
461.678	73.44
461.898	83.44
462.118	84.44
462.338	65.44
462.558	93.44
462.777	79.44
462.997	79.44
463.217	90.44
463.437	74.44
463.657	78.44
463.876	78.44
464.096	74.44
464.316	80.44
464.536	73.44
464.755	83.44
464.975	76.44
465.195	84.44
465.414	86.44
465.634	75.44
465.854	84.44
466.073	68.44
466.293	85.44
466.512	99.44
466.732	76.44
466.951	92.44
467.171	84.44
467.391	82.44
467.61	69.44
467.829	88.44
468.049	85.44
468.268	87.44
468.488	78.44
468.707	71.44
468.927	89.44
469.146	89.44
469.365	70.44
469.585	89.44
469.804	85.44
470.023	84.44
470.243	86.44
470.462	85.44
470.681	75.44
470.901	94.44
471.12	84.44
471.339	87.44
471.558	90.44
471.777	96.44
471.997	81.44
472.216	85.44
472.435	70.44
472.654	83.44
472.873	81.44
473.092	78.44
473.311	104.44
473.53	87.44
473.749	93.44
473.968	93.44
474.187	83.44
474.406	91.44
474.625	98.44
474.844	83.44
475.063	94.44
475.282	73.44
475.501	90.44
475.72	85.44
475.939	83.44
476.158	85.44
476.377	85.44
476.596	86.44
476.814	89.44
477.033	83.44
477.252	93.44
477.471	74.44
477.69	90.44
477.908	71.44
478.127	90.44
478.346	65.44
478.564	80.44
478.783	91.44
479.002	90.44
479.22	91.44
479.439	90.44
479.658	83.44
479.876	85.44
480.095	97.44
480.313	90.44
480.532	99.44
480.751	75.44
480.969	77.44
481.188	87.44
481.406	94.44
481.624	99.44
481.843	70.44
482.061	91.44
482.28	90.44
482.498	71.44
482.717	79.44
482.935	99.44
483.153	74.44
483.372	94.44
483.59	86.44
483.808	76.44
484.027	104.44
484.245	86.44
484.463	67.44
484.681	107.44
484.9	92.44
485.118	100.44
485.336	86.44
485.554	88.44
485.772	94.44
485.99	85.44
486.209	84.44
486.427	82.44
486.645	72.44
486.863	75.44
487.081	93.44
487.299	99.44
487.517	100.44
487.735	113.44
487.953	147.44
488.171	117.44
488.389	87.44
488.607	85.44
488.825	83.44
489.043	87.44
489.261	98.44
489.479	90.44
489.696	89.44
489.914	78.44
490.132	81.44
490.35	90.44
490.568	84.44
490.786	83.44
491.003	88.44
491.221	91.44
491.439	79.44
491.657	73.44
491.874	89.44
492.092	94.44
492.31	101.44
492.527	85.44
492.745	103.44
492.963	97.44
493.18	85.44
493.398	98.44
493.615	87.44
493.833	78.44
494.05	82.44
494.268	89.44
494.485	105.44
494.703	87.44
494.92	80.44
495.138	93.44
495.355	92.44
495.573	88.44
495.79	94.44
496.008	91.44
496.225	89.44
496.442	94.44
496.66	83.44
496.877	85.44
497.094	107.44
497.312	90.44
497.529	89.44
497.746	87.44
497.963	78.44
498.181	85.44
498.398	98.44
498.615	98.44
498.832	98.44
499.049	102.44
499.267	98.44
499.484	87.44
499.701	97.44
499.918	83.44
500.135	87.44
500.352	87.44
500.569	83.44
500.786	75.44
501.003	76.44
501.22	86.44
501.437	76.44
501.654	88.44
501.871	94.44
502.088	88.44
502.305	89.44
502.522	92.44
502.739	91.44
502.956	75.44
503.172	88.44
503.389	93.44
503.606	89.44
503.823	94.44
504.04	97.44
504.256	113.44
504.473	114.44
504.69	98.44
504.907	85.44
505.123	95.44
505.34	92.44
505.557	78.44
505.773	78.44
505.99	87.44
506.207	85.44
506.423	90.44
506.64	81.44
506.856	89.44
507.073	82.44
507.289	95.44
507.506	78.44
507.722	79.44
507.939	93.44
508.155	110.44
508.372	87.44
508.588	87.44
508.805	73.44
509.021	87.44
509.238	94.44
509.454	80.44
509.67	90.44
509.887	87.44
510.103	83.44
510.319	98.44
510.536	89.44
510.752	91.44
510.968	95.44
511.184	93.44
511.401	78.44
511.617	85.44
511.833	79.44
512.049	93.44
512.265	96.44
512.481	88.44
512.698	86.44
512.914	101.44
513.13	93.44
513.346	90.44
513.562	85.44
513.778	69.44
513.994	95.44
514.21	77.44
514.426	79.44
514.642	89.44
514.858	90.44
515.074	97.44
515.29	115.44
515.506	86.44
515.721	81.44
515.937	82.44
516.153	78.44
516.369	92.44
516.585	98.44
516.801	98.44
517.016	93.44
517.232	95.44
517.448	81.44
517.664	91.44
517.879	76.44
518.095	74.44
518.311	85.44
518.527	88.44
518.742	82.44
