Data from 10100_2_HRD10591_00018.txt Node
Date: Mon Jan 19 14:01:33 EST 2026
User: Yrep
Spectrometer: HR+D1059
Trigger mode: 1
Integration Time (sec): 1.000000E-1
Scans to average: 1
Electric dark correction enabled: true
Nonlinearity correction enabled: false
Boxcar width: 0
XAxis mode: Wavelengths
Number of Pixels in Spectrum: 2048
>>>>>Begin Spectral Data<<<<<
223.165	-27.12
223.4	-27.12
223.635	-27.12
223.869	-22.12
224.104	-24.12
224.338	-11.12
224.573	-5.12
224.808	-11.12
225.042	-19.12
225.277	2.88
225.511	-9.12
225.746	3.88
225.98	6.88
226.215	21.88
226.449	13.88
226.683	27.88
226.918	17.88
227.152	33.88
227.387	49.88
227.621	51.88
227.856	37.88
228.09	45.88
228.324	70.88
228.559	62.88
228.793	53.88
229.027	62.88
229.262	65.88
229.496	74.88
229.73	61.88
229.964	65.88
230.199	66.88
230.433	63.88
230.667	105.88
230.901	85.88
231.136	92.88
231.37	75.88
231.604	94.88
231.838	82.88
232.072	82.88
232.306	89.88
232.541	79.88
232.775	86.88
233.009	92.88
233.243	92.88
233.477	97.88
233.711	87.88
233.945	93.88
234.179	91.88
234.413	72.88
234.647	78.88
234.881	77.88
235.115	82.88
235.349	89.88
235.583	91.88
235.817	79.88
236.051	75.88
236.285	71.88
236.519	77.88
236.753	82.88
236.987	78.88
237.221	76.88
237.455	89.88
237.689	79.88
237.922	77.88
238.156	83.88
238.39	78.88
238.624	83.88
238.858	75.88
239.091	78.88
239.325	66.88
239.559	80.88
239.793	82.88
240.027	69.88
240.26	77.88
240.494	89.88
240.728	84.88
240.961	81.88
241.195	82.88
241.429	73.88
241.662	75.88
241.896	76.88
242.13	87.88
242.363	83.88
242.597	82.88
242.83	90.88
243.064	72.88
243.298	83.88
243.531	91.88
243.765	77.88
243.998	81.88
244.232	72.88
244.465	86.88
244.699	81.88
244.932	78.88
245.166	85.88
245.399	78.88
245.633	78.88
245.866	79.88
246.099	79.88
246.333	74.88
246.566	77.88
246.8	85.88
247.033	82.88
247.266	64.88
247.5	80.88
247.733	94.88
247.966	92.88
248.2	83.88
248.433	94.88
248.666	75.88
248.899	78.88
249.133	85.88
249.366	79.88
249.599	77.88
249.832	93.88
250.066	84.88
250.299	79.88
250.532	92.88
250.765	75.88
250.998	78.88
251.231	80.88
251.465	93.88
251.698	93.88
251.931	65.88
252.164	89.88
252.397	69.88
252.63	83.88
252.863	85.88
253.096	85.88
253.329	85.88
253.562	89.88
253.795	71.88
254.028	97.88
254.261	84.88
254.494	84.88
254.727	93.88
254.96	87.88
255.193	84.88
255.426	90.88
255.659	78.88
255.892	83.88
256.124	85.88
256.357	90.88
256.59	79.88
256.823	76.88
257.056	89.88
257.289	78.88
257.521	79.88
257.754	87.88
257.987	80.88
258.22	87.88
258.452	75.88
258.685	67.88
258.918	90.88
259.151	92.88
259.383	86.88
259.616	82.88
259.849	81.88
260.081	87.88
260.314	88.88
260.547	88.88
260.779	68.88
261.012	81.88
261.244	85.88
261.477	98.88
261.71	79.88
261.942	85.88
262.175	80.88
262.407	78.88
262.64	85.88
262.872	83.88
263.105	91.88
263.337	97.88
263.57	85.88
263.802	87.88
264.035	90.88
264.267	87.88
264.499	92.88
264.732	78.88
264.964	105.88
265.197	97.88
265.429	77.88
265.661	79.88
265.894	84.88
266.126	91.88
266.358	77.88
266.591	90.88
266.823	80.88
267.055	86.88
267.287	94.88
267.52	84.88
267.752	97.88
267.984	100.88
268.216	92.88
268.448	90.88
268.681	87.88
268.913	86.88
269.145	82.88
269.377	81.88
269.609	90.88
269.841	97.88
270.073	93.88
270.306	79.88
270.538	81.88
270.77	85.88
271.002	83.88
271.234	84.88
271.466	81.88
271.698	74.88
271.93	89.88
272.162	90.88
272.394	97.88
272.626	85.88
272.858	86.88
273.09	87.88
273.322	83.88
273.553	77.88
273.785	93.88
274.017	93.88
274.249	84.88
274.481	83.88
274.713	93.88
274.945	90.88
275.176	71.88
275.408	85.88
275.64	87.88
275.872	86.88
276.104	101.88
276.335	84.88
276.567	98.88
276.799	89.88
277.031	95.88
277.262	97.88
277.494	113.88
277.726	82.88
277.957	98.88
278.189	82.88
278.421	93.88
278.652	92.88
278.884	89.88
279.115	98.88
279.347	95.88
279.579	94.88
279.81	97.88
280.042	87.88
280.273	87.88
280.505	89.88
280.736	95.88
280.968	87.88
281.199	89.88
281.431	83.88
281.662	88.88
281.894	87.88
282.125	81.88
282.356	101.88
282.588	80.88
282.819	82.88
283.051	89.88
283.282	85.88
283.513	95.88
283.745	91.88
283.976	109.88
284.207	85.88
284.439	99.88
284.67	105.88
284.901	92.88
285.132	103.88
285.364	105.88
285.595	86.88
285.826	95.88
286.057	93.88
286.288	84.88
286.52	82.88
286.751	82.88
286.982	84.88
287.213	86.88
287.444	85.88
287.675	83.88
287.906	82.88
288.138	93.88
288.369	81.88
288.6	80.88
288.831	102.88
289.062	81.88
289.293	97.88
289.524	97.88
289.755	98.88
289.986	86.88
290.217	99.88
290.448	85.88
290.679	87.88
290.91	95.88
291.141	89.88
291.371	81.88
291.602	93.88
291.833	90.88
292.064	95.88
292.295	90.88
292.526	93.88
292.757	75.88
292.987	83.88
293.218	77.88
293.449	92.88
293.68	80.88
293.91	89.88
294.141	91.88
294.372	93.88
294.603	82.88
294.833	92.88
295.064	98.88
295.295	83.88
295.525	88.88
295.756	84.88
295.987	91.88
296.217	93.88
296.448	93.88
296.679	79.88
296.909	93.88
297.14	94.88
297.37	102.88
297.601	91.88
297.831	97.88
298.062	85.88
298.292	78.88
298.523	105.88
298.753	94.88
298.984	103.88
299.214	93.88
299.445	101.88
299.675	102.88
299.905	111.88
300.136	110.88
300.366	77.88
300.597	87.88
300.827	85.88
301.057	97.88
301.288	101.88
301.518	91.88
301.748	83.88
301.979	117.88
302.209	90.88
302.439	106.88
302.669	97.88
302.9	93.88
303.13	85.88
303.36	101.88
303.59	78.88
303.82	89.88
304.051	101.88
304.281	100.88
304.511	91.88
304.741	91.88
304.971	98.88
305.201	92.88
305.431	92.88
305.661	90.88
305.891	105.88
306.121	87.88
306.352	90.88
306.582	90.88
306.812	106.88
307.042	86.88
307.272	92.88
307.502	82.88
307.731	93.88
307.961	86.88
308.191	96.88
308.421	105.88
308.651	96.88
308.881	92.88
309.111	84.88
309.341	91.88
309.571	86.88
309.8	102.88
310.03	95.88
310.26	92.88
310.49	83.88
310.72	89.88
310.949	73.88
311.179	88.88
311.409	89.88
311.639	87.88
311.868	77.88
312.098	89.88
312.328	91.88
312.557	101.88
312.787	95.88
313.017	93.88
313.246	90.88
313.476	94.88
313.706	95.88
313.935	93.88
314.165	100.88
314.394	99.88
314.624	96.88
314.853	101.88
315.083	83.88
315.312	86.88
315.542	90.88
315.771	93.88
316.001	103.88
316.23	89.88
316.46	99.88
316.689	94.88
316.919	86.88
317.148	85.88
317.377	101.88
317.607	100.88
317.836	94.88
318.065	106.88
318.295	95.88
318.524	89.88
318.753	92.88
318.983	90.88
319.212	102.88
319.441	96.88
319.67	96.88
319.9	77.88
320.129	96.88
320.358	83.88
320.587	97.88
320.816	83.88
321.046	105.88
321.275	95.88
321.504	98.88
321.733	95.88
321.962	90.88
322.191	98.88
322.42	89.88
322.649	89.88
322.878	90.88
323.108	94.88
323.337	92.88
323.566	99.88
323.795	90.88
324.024	74.88
324.253	100.88
324.482	98.88
324.71	98.88
324.939	90.88
325.168	87.88
325.397	86.88
325.626	104.88
325.855	99.88
326.084	87.88
326.313	86.88
326.542	99.88
326.77	91.88
326.999	97.88
327.228	94.88
327.457	94.88
327.686	80.88
327.914	79.88
328.143	95.88
328.372	91.88
328.6	98.88
328.829	91.88
329.058	98.88
329.287	87.88
329.515	86.88
329.744	88.88
329.972	94.88
330.201	81.88
330.43	103.88
330.658	79.88
330.887	104.88
331.115	95.88
331.344	94.88
331.572	77.88
331.801	85.88
332.03	80.88
332.258	82.88
332.486	83.88
332.715	90.88
332.943	91.88
333.172	101.88
333.4	95.88
333.629	85.88
333.857	95.88
334.085	98.88
334.314	87.88
334.542	100.88
334.771	115.88
334.999	108.88
335.227	103.88
335.455	119.88
335.684	93.88
335.912	94.88
336.14	102.88
336.369	110.88
336.597	82.88
336.825	94.88
337.053	105.88
337.281	104.88
337.51	92.88
337.738	83.88
337.966	88.88
338.194	79.88
338.422	93.88
338.65	105.88
338.878	93.88
339.106	84.88
339.334	92.88
339.562	98.88
339.79	91.88
340.018	81.88
340.246	91.88
340.474	87.88
340.702	75.88
340.93	86.88
341.158	91.88
341.386	89.88
341.614	79.88
341.842	95.88
342.07	88.88
342.298	95.88
342.526	85.88
342.754	85.88
342.981	90.88
343.209	85.88
343.437	102.88
343.665	100.88
343.893	103.88
344.12	105.88
344.348	98.88
344.576	113.88
344.804	83.88
345.031	85.88
345.259	85.88
345.487	89.88
345.714	89.88
345.942	97.88
346.17	80.88
346.397	89.88
346.625	89.88
346.853	92.88
347.08	93.88
347.308	98.88
347.535	108.88
347.763	102.88
347.99	94.88
348.218	97.88
348.445	80.88
348.673	93.88
348.9	90.88
349.128	107.88
349.355	99.88
349.583	94.88
349.81	84.88
350.037	89.88
350.265	95.88
350.492	102.88
350.72	104.88
350.947	87.88
351.174	92.88
351.402	94.88
351.629	77.88
351.856	73.88
352.083	102.88
352.311	94.88
352.538	89.88
352.765	93.88
352.992	104.88
353.22	87.88
353.447	94.88
353.674	90.88
353.901	94.88
354.128	89.88
354.355	99.88
354.583	93.88
354.81	94.88
355.037	96.88
355.264	79.88
355.491	89.88
355.718	71.88
355.945	92.88
356.172	83.88
356.399	94.88
356.626	98.88
356.853	89.88
357.08	109.88
357.307	95.88
357.534	92.88
357.761	104.88
357.988	92.88
358.215	108.88
358.441	86.88
358.668	101.88
358.895	100.88
359.122	93.88
359.349	89.88
359.576	82.88
359.802	83.88
360.029	87.88
360.256	94.88
360.483	91.88
360.709	105.88
360.936	94.88
361.163	98.88
361.39	105.88
361.616	99.88
361.843	106.88
362.07	115.88
362.296	101.88
362.523	117.88
362.749	117.88
362.976	129.88
363.203	149.88
363.429	108.88
363.656	95.88
363.882	106.88
364.109	129.88
364.335	161.88
364.562	165.88
364.788	124.88
365.015	109.88
365.241	91.88
365.468	100.88
365.694	103.88
365.92	90.88
366.147	101.88
366.373	88.88
366.599	81.88
366.826	98.88
367.052	104.88
367.278	92.88
367.505	91.88
367.731	102.88
367.957	88.88
368.184	99.88
368.41	94.88
368.636	97.88
368.862	94.88
369.089	106.88
369.315	79.88
369.541	89.88
369.767	97.88
369.993	83.88
370.219	87.88
370.445	74.88
370.672	104.88
370.898	115.88
371.124	100.88
371.35	99.88
371.576	95.88
371.802	100.88
372.028	95.88
372.254	105.88
372.48	101.88
372.706	80.88
372.932	92.88
373.158	108.88
373.384	110.88
373.61	117.88
373.835	141.88
374.061	104.88
374.287	94.88
374.513	110.88
374.739	123.88
374.965	109.88
375.191	108.88
375.416	107.88
375.642	85.88
375.868	109.88
376.094	97.88
376.319	95.88
376.545	87.88
376.771	93.88
376.997	93.88
377.222	84.88
377.448	99.88
377.674	94.88
377.899	94.88
378.125	102.88
378.35	99.88
378.576	106.88
378.802	86.88
379.027	99.88
379.253	104.88
379.478	115.88
379.704	87.88
379.929	100.88
380.155	92.88
380.38	100.88
380.606	89.88
380.831	98.88
381.057	100.88
381.282	104.88
381.507	102.88
381.733	113.88
381.958	114.88
382.184	106.88
382.409	115.88
382.634	116.88
382.86	126.88
383.085	116.88
383.31	117.88
383.535	112.88
383.761	129.88
383.986	121.88
384.211	113.88
384.436	99.88
384.662	90.88
384.887	101.88
385.112	97.88
385.337	95.88
385.562	100.88
385.787	116.88
386.013	105.88
386.238	117.88
386.463	109.88
386.688	106.88
386.913	100.88
387.138	108.88
387.363	101.88
387.588	110.88
387.813	121.88
388.038	107.88
388.263	102.88
388.488	117.88
388.713	117.88
388.938	100.88
389.163	93.88
389.387	93.88
389.612	97.88
389.837	114.88
390.062	102.88
390.287	96.88
390.512	99.88
390.736	97.88
390.961	98.88
391.186	98.88
391.411	98.88
391.636	104.88
391.86	98.88
392.085	117.88
392.31	106.88
392.534	121.88
392.759	130.88
392.984	179.88
393.208	317.88
393.433	463.88
393.658	354.88
393.882	164.88
394.107	145.88
394.331	131.88
394.556	142.88
394.78	103.88
395.005	114.88
395.229	104.88
395.454	105.88
395.678	109.88
395.903	146.88
396.127	132.88
396.352	199.88
396.576	210.88
396.801	325.88
397.025	395.88
397.249	218.88
397.474	144.88
397.698	120.88
397.922	105.88
398.147	107.88
398.371	91.88
398.595	115.88
398.82	95.88
399.044	95.88
399.268	99.88
399.492	90.88
399.717	99.88
399.941	76.88
400.165	106.88
400.389	88.88
400.613	95.88
400.837	95.88
401.062	97.88
401.286	86.88
401.51	107.88
401.734	82.88
401.958	96.88
402.182	84.88
402.406	80.88
402.63	88.88
402.854	87.88
403.078	93.88
403.302	91.88
403.526	95.88
403.75	96.88
403.974	95.88
404.198	99.88
404.422	93.88
404.645	120.88
404.869	123.88
405.093	89.88
405.317	99.88
405.541	98.88
405.765	83.88
405.988	102.88
406.212	101.88
406.436	75.88
406.66	104.88
406.883	113.88
407.107	96.88
407.331	98.88
407.555	96.88
407.778	111.88
408.002	122.88
408.226	102.88
408.449	96.88
408.673	93.88
408.896	96.88
409.12	107.88
409.344	115.88
409.567	97.88
409.791	119.88
410.014	122.88
410.238	102.88
410.461	93.88
410.685	78.88
410.908	93.88
411.132	99.88
411.355	85.88
411.578	107.88
411.802	89.88
412.025	101.88
412.249	93.88
412.472	91.88
412.695	89.88
412.919	92.88
413.142	99.88
413.365	85.88
413.589	95.88
413.812	94.88
414.035	94.88
414.258	81.88
414.482	91.88
414.705	100.88
414.928	101.88
415.151	92.88
415.374	109.88
415.597	96.88
415.821	87.88
416.044	102.88
416.267	85.88
416.49	96.88
416.713	107.88
416.936	104.88
417.159	91.88
417.382	97.88
417.605	86.88
417.828	102.88
418.051	97.88
418.274	94.88
418.497	95.88
418.72	89.88
418.943	90.88
419.166	79.88
419.389	106.88
419.611	101.88
419.834	99.88
420.057	93.88
420.28	93.88
420.503	100.88
420.726	86.88
420.948	111.88
421.171	114.88
421.394	121.88
421.617	135.88
421.839	137.88
422.062	150.88
422.285	222.88
422.507	363.88
422.73	499.88
422.953	439.88
423.175	279.88
423.398	166.88
423.621	142.88
423.843	124.88
424.066	114.88
424.288	105.88
424.511	111.88
424.733	110.88
424.956	91.88
425.178	91.88
425.401	92.88
425.623	96.88
425.846	90.88
426.068	101.88
426.291	95.88
426.513	91.88
426.735	93.88
426.958	91.88
427.18	97.88
427.402	101.88
427.625	94.88
427.847	93.88
428.069	121.88
428.292	152.88
428.514	169.88
428.736	120.88
428.958	124.88
429.181	156.88
429.403	106.88
429.625	115.88
429.847	142.88
430.069	185.88
430.292	223.88
430.514	195.88
430.736	149.88
430.958	176.88
431.18	123.88
431.402	104.88
431.624	122.88
431.846	148.88
432.068	169.88
432.29	103.88
432.512	104.88
432.734	104.88
432.956	91.88
433.178	81.88
433.4	93.88
433.622	88.88
433.844	94.88
434.066	100.88
434.287	77.88
434.509	100.88
434.731	91.88
434.953	107.88
435.175	96.88
435.397	100.88
435.618	108.88
435.84	102.88
436.062	94.88
436.284	101.88
436.505	92.88
436.727	94.88
436.949	88.88
437.17	83.88
437.392	81.88
437.614	91.88
437.835	102.88
438.057	87.88
438.278	99.88
438.5	125.88
438.721	102.88
438.943	94.88
439.165	87.88
439.386	99.88
439.608	89.88
439.829	110.88
440.05	102.88
440.272	99.88
440.493	97.88
440.715	102.88
440.936	99.88
441.158	92.88
441.379	99.88
441.6	104.88
441.822	113.88
442.043	107.88
442.264	123.88
442.486	142.88
442.707	207.88
442.928	137.88
443.149	129.88
443.371	180.88
443.592	296.88
443.813	266.88
444.034	129.88
444.255	107.88
444.476	90.88
444.698	111.88
444.919	111.88
445.14	207.88
445.361	227.88
445.582	364.88
445.803	307.88
446.024	143.88
446.245	106.88
446.466	83.88
446.687	99.88
446.908	85.88
447.129	85.88
447.35	78.88
447.571	83.88
447.792	95.88
448.013	102.88
448.234	87.88
448.455	82.88
448.675	91.88
448.896	92.88
449.117	90.88
449.338	93.88
449.559	97.88
449.779	89.88
450	97.88
450.221	89.88
450.442	93.88
450.662	97.88
450.883	98.88
451.104	97.88
451.324	102.88
451.545	79.88
451.766	102.88
451.986	92.88
452.207	101.88
452.428	91.88
452.648	102.88
452.869	106.88
453.089	114.88
453.31	101.88
453.53	111.88
453.751	113.88
453.971	93.88
454.192	82.88
454.412	91.88
454.633	92.88
454.853	93.88
455.073	94.88
455.294	90.88
455.514	118.88
455.734	106.88
455.955	104.88
456.175	85.88
456.395	90.88
456.616	93.88
456.836	92.88
457.056	89.88
457.276	88.88
457.497	91.88
457.717	105.88
457.937	120.88
458.157	154.88
458.377	158.88
458.598	156.88
458.818	154.88
459.038	108.88
459.258	100.88
459.478	83.88
459.698	81.88
459.918	89.88
460.138	86.88
460.358	104.88
460.578	119.88
460.798	157.88
461.018	138.88
461.238	85.88
461.458	92.88
461.678	94.88
461.898	95.88
462.118	91.88
462.338	108.88
462.558	103.88
462.777	83.88
462.997	88.88
463.217	86.88
463.437	89.88
463.657	92.88
463.876	92.88
464.096	88.88
464.316	89.88
464.536	93.88
464.755	95.88
464.975	84.88
465.195	78.88
465.414	92.88
465.634	89.88
465.854	86.88
466.073	104.88
466.293	96.88
466.512	84.88
466.732	93.88
466.951	87.88
467.171	87.88
467.391	84.88
467.61	95.88
467.829	91.88
468.049	89.88
468.268	97.88
468.488	99.88
468.707	115.88
468.927	113.88
469.146	90.88
469.365	99.88
469.585	78.88
469.804	81.88
470.023	85.88
470.243	96.88
470.462	81.88
470.681	91.88
470.901	90.88
471.12	76.88
471.339	79.88
471.558	91.88
471.777	108.88
471.997	79.88
472.216	101.88
472.435	89.88
472.654	96.88
472.873	87.88
473.092	87.88
473.311	107.88
473.53	99.88
473.749	94.88
473.968	97.88
474.187	83.88
474.406	93.88
474.625	92.88
474.844	104.88
475.063	100.88
475.282	86.88
475.501	93.88
475.72	109.88
475.939	85.88
476.158	91.88
476.377	85.88
476.596	89.88
476.814	102.88
477.033	98.88
477.252	91.88
477.471	89.88
477.69	101.88
477.908	109.88
478.127	87.88
478.346	108.88
478.564	108.88
478.783	102.88
479.002	94.88
479.22	97.88
479.439	103.88
479.658	109.88
479.876	99.88
480.095	122.88
480.313	84.88
480.532	99.88
480.751	93.88
480.969	101.88
481.188	105.88
481.406	100.88
481.624	100.88
481.843	80.88
482.061	109.88
482.28	99.88
482.498	91.88
482.717	95.88
482.935	85.88
483.153	100.88
483.372	109.88
483.59	91.88
483.808	98.88
484.027	101.88
484.245	89.88
484.463	111.88
484.681	97.88
484.9	105.88
485.118	105.88
485.336	95.88
485.554	100.88
485.772	100.88
485.99	88.88
486.209	84.88
486.427	85.88
486.645	96.88
486.863	100.88
487.081	109.88
487.299	107.88
487.517	115.88
487.735	139.88
487.953	252.88
488.171	188.88
488.389	117.88
488.607	90.88
488.825	100.88
489.043	99.88
489.261	119.88
489.479	114.88
489.696	105.88
489.914	114.88
490.132	106.88
490.35	97.88
490.568	101.88
490.786	92.88
491.003	100.88
491.221	89.88
491.439	103.88
491.657	104.88
491.874	99.88
492.092	106.88
492.31	102.88
492.527	93.88
492.745	100.88
492.963	102.88
493.18	98.88
493.398	91.88
493.615	114.88
493.833	103.88
494.05	95.88
494.268	115.88
494.485	95.88
494.703	94.88
494.92	98.88
495.138	98.88
495.355	103.88
495.573	116.88
495.79	96.88
496.008	96.88
496.225	95.88
496.442	93.88
496.66	114.88
496.877	85.88
497.094	105.88
497.312	91.88
497.529	95.88
497.746	95.88
497.963	97.88
498.181	126.88
498.398	143.88
498.615	116.88
498.832	99.88
499.049	106.88
499.267	117.88
499.484	103.88
499.701	105.88
499.918	102.88
500.135	126.88
500.352	111.88
500.569	99.88
500.786	110.88
501.003	105.88
501.22	107.88
501.437	106.88
501.654	105.88
501.871	99.88
502.088	103.88
502.305	98.88
502.522	96.88
502.739	117.88
502.956	102.88
503.172	99.88
503.389	97.88
503.606	107.88
503.823	105.88
504.04	124.88
504.256	181.88
504.473	176.88
504.69	102.88
504.907	106.88
505.123	94.88
505.34	98.88
505.557	115.88
505.773	87.88
505.99	89.88
506.207	99.88
506.423	94.88
506.64	92.88
506.856	97.88
507.073	98.88
507.289	91.88
507.506	103.88
507.722	93.88
507.939	101.88
508.155	104.88
508.372	91.88
508.588	88.88
508.805	91.88
509.021	116.88
509.238	105.88
509.454	97.88
509.67	92.88
509.887	105.88
510.103	81.88
510.319	101.88
510.536	113.88
510.752	92.88
510.968	97.88
511.184	98.88
511.401	91.88
511.617	111.88
511.833	98.88
512.049	104.88
512.265	101.88
512.481	111.88
512.698	97.88
512.914	115.88
513.13	113.88
513.346	84.88
513.562	83.88
513.778	99.88
513.994	85.88
514.21	107.88
514.426	103.88
