Data from 10100_2_HRD10591_00019.txt Node
Date: Mon Jan 19 14:01:33 EST 2026
User: Yrep
Spectrometer: HR+D1059
Trigger mode: 1
Integration Time (sec): 1.000000E-1
Scans to average: 1
Electric dark correction enabled: true
Nonlinearity correction enabled: false
Boxcar width: 0
XAxis mode: Wavelengths
Number of Pixels in Spectrum: 2048
>>>>>Begin Spectral Data<<<<<
223.165	-18.25
223.4	-18.25
223.635	-18.25
223.869	-18.25
224.104	-18.25
224.338	-17.25
224.573	-21.25
224.808	-9.25
225.042	-11.25
225.277	-9.25
225.511	-5.25
225.746	4.75
225.98	6.75
226.215	11.75
226.449	25.75
226.683	21.75
226.918	23.75
227.152	33.75
227.387	58.75
227.621	40.75
227.856	49.75
228.09	39.75
228.324	35.75
228.559	42.75
228.793	68.75
229.027	64.75
229.262	68.75
229.496	60.75
229.73	64.75
229.964	78.75
230.199	54.75
230.433	73.75
230.667	70.75
230.901	74.75
231.136	63.75
231.37	83.75
231.604	77.75
231.838	70.75
232.072	77.75
232.306	71.75
232.541	76.75
232.775	83.75
233.009	72.75
233.243	85.75
233.477	82.75
233.711	77.75
233.945	70.75
234.179	80.75
234.413	68.75
234.647	84.75
234.881	81.75
235.115	72.75
235.349	68.75
235.583	72.75
235.817	60.75
236.051	76.75
236.285	66.75
236.519	79.75
236.753	78.75
236.987	73.75
237.221	78.75
237.455	72.75
237.689	76.75
237.922	70.75
238.156	58.75
238.39	62.75
238.624	76.75
238.858	76.75
239.091	83.75
239.325	86.75
239.559	76.75
239.793	73.75
240.027	66.75
240.26	80.75
240.494	74.75
240.728	79.75
240.961	72.75
241.195	78.75
241.429	80.75
241.662	68.75
241.896	76.75
242.13	58.75
242.363	68.75
242.597	79.75
242.83	72.75
243.064	76.75
243.298	76.75
243.531	70.75
243.765	66.75
243.998	71.75
244.232	68.75
244.465	81.75
244.699	62.75
244.932	89.75
245.166	76.75
245.399	78.75
245.633	64.75
245.866	67.75
246.099	63.75
246.333	55.75
246.566	62.75
246.8	77.75
247.033	64.75
247.266	74.75
247.5	99.75
247.733	75.75
247.966	72.75
248.2	75.75
248.433	74.75
248.666	82.75
248.899	67.75
249.133	66.75
249.366	83.75
249.599	64.75
249.832	66.75
250.066	94.75
250.299	70.75
250.532	85.75
250.765	77.75
250.998	83.75
251.231	71.75
251.465	84.75
251.698	96.75
251.931	85.75
252.164	72.75
252.397	71.75
252.63	78.75
252.863	72.75
253.096	70.75
253.329	86.75
253.562	74.75
253.795	72.75
254.028	71.75
254.261	83.75
254.494	67.75
254.727	76.75
254.96	79.75
255.193	65.75
255.426	94.75
255.659	82.75
255.892	76.75
256.124	78.75
256.357	88.75
256.59	77.75
256.823	83.75
257.056	70.75
257.289	80.75
257.521	82.75
257.754	84.75
257.987	77.75
258.22	84.75
258.452	81.75
258.685	78.75
258.918	74.75
259.151	79.75
259.383	73.75
259.616	89.75
259.849	71.75
260.081	64.75
260.314	70.75
260.547	88.75
260.779	88.75
261.012	69.75
261.244	70.75
261.477	83.75
261.71	68.75
261.942	65.75
262.175	84.75
262.407	80.75
262.64	70.75
262.872	82.75
263.105	80.75
263.337	81.75
263.57	73.75
263.802	81.75
264.035	76.75
264.267	71.75
264.499	80.75
264.732	81.75
264.964	70.75
265.197	88.75
265.429	75.75
265.661	79.75
265.894	93.75
266.126	73.75
266.358	69.75
266.591	82.75
266.823	80.75
267.055	70.75
267.287	84.75
267.52	78.75
267.752	69.75
267.984	84.75
268.216	92.75
268.448	82.75
268.681	80.75
268.913	82.75
269.145	79.75
269.377	81.75
269.609	84.75
269.841	82.75
270.073	80.75
270.306	75.75
270.538	77.75
270.77	83.75
271.002	93.75
271.234	82.75
271.466	82.75
271.698	85.75
271.93	85.75
272.162	79.75
272.394	90.75
272.626	76.75
272.858	82.75
273.09	91.75
273.322	91.75
273.553	64.75
273.785	72.75
274.017	87.75
274.249	91.75
274.481	95.75
274.713	81.75
274.945	77.75
275.176	91.75
275.408	86.75
275.64	77.75
275.872	77.75
276.104	79.75
276.335	94.75
276.567	77.75
276.799	68.75
277.031	78.75
277.262	80.75
277.494	83.75
277.726	64.75
277.957	82.75
278.189	62.75
278.421	74.75
278.652	75.75
278.884	70.75
279.115	87.75
279.347	82.75
279.579	79.75
279.81	71.75
280.042	66.75
280.273	72.75
280.505	86.75
280.736	88.75
280.968	79.75
281.199	90.75
281.431	89.75
281.662	78.75
281.894	85.75
282.125	87.75
282.356	77.75
282.588	76.75
282.819	76.75
283.051	92.75
283.282	84.75
283.513	88.75
283.745	78.75
283.976	73.75
284.207	80.75
284.439	92.75
284.67	100.75
284.901	86.75
285.132	76.75
285.364	86.75
285.595	80.75
285.826	88.75
286.057	82.75
286.288	84.75
286.52	73.75
286.751	75.75
286.982	80.75
287.213	84.75
287.444	83.75
287.675	79.75
287.906	80.75
288.138	83.75
288.369	82.75
288.6	71.75
288.831	90.75
289.062	78.75
289.293	78.75
289.524	74.75
289.755	90.75
289.986	88.75
290.217	76.75
290.448	97.75
290.679	74.75
290.91	84.75
291.141	78.75
291.371	76.75
291.602	86.75
291.833	76.75
292.064	93.75
292.295	72.75
292.526	86.75
292.757	75.75
292.987	82.75
293.218	86.75
293.449	84.75
293.68	79.75
293.91	63.75
294.141	82.75
294.372	72.75
294.603	70.75
294.833	79.75
295.064	80.75
295.295	71.75
295.525	90.75
295.756	91.75
295.987	89.75
296.217	70.75
296.448	85.75
296.679	78.75
296.909	102.75
297.14	82.75
297.37	87.75
297.601	71.75
297.831	84.75
298.062	80.75
298.292	91.75
298.523	92.75
298.753	67.75
298.984	75.75
299.214	93.75
299.445	88.75
299.675	90.75
299.905	83.75
300.136	81.75
300.366	83.75
300.597	79.75
300.827	85.75
301.057	87.75
301.288	81.75
301.518	104.75
301.748	88.75
301.979	101.75
302.209	74.75
302.439	82.75
302.669	89.75
302.9	80.75
303.13	79.75
303.36	83.75
303.59	73.75
303.82	78.75
304.051	86.75
304.281	78.75
304.511	71.75
304.741	80.75
304.971	66.75
305.201	90.75
305.431	78.75
305.661	72.75
305.891	70.75
306.121	86.75
306.352	93.75
306.582	80.75
306.812	94.75
307.042	72.75
307.272	76.75
307.502	73.75
307.731	76.75
307.961	72.75
308.191	90.75
308.421	87.75
308.651	76.75
308.881	100.75
309.111	86.75
309.341	88.75
309.571	90.75
309.8	77.75
310.03	87.75
310.26	74.75
310.49	95.75
310.72	89.75
310.949	84.75
311.179	98.75
311.409	72.75
311.639	75.75
311.868	92.75
312.098	84.75
312.328	89.75
312.557	72.75
312.787	89.75
313.017	88.75
313.246	83.75
313.476	67.75
313.706	80.75
313.935	82.75
314.165	76.75
314.394	83.75
314.624	92.75
314.853	91.75
315.083	81.75
315.312	83.75
315.542	95.75
315.771	100.75
316.001	78.75
316.23	96.75
316.46	77.75
316.689	70.75
316.919	79.75
317.148	93.75
317.377	74.75
317.607	76.75
317.836	91.75
318.065	73.75
318.295	74.75
318.524	82.75
318.753	78.75
318.983	82.75
319.212	80.75
319.441	72.75
319.67	90.75
319.9	79.75
320.129	76.75
320.358	79.75
320.587	92.75
320.816	84.75
321.046	76.75
321.275	90.75
321.504	87.75
321.733	92.75
321.962	82.75
322.191	84.75
322.42	83.75
322.649	79.75
322.878	99.75
323.108	84.75
323.337	99.75
323.566	87.75
323.795	89.75
324.024	86.75
324.253	60.75
324.482	97.75
324.71	88.75
324.939	80.75
325.168	95.75
325.397	87.75
325.626	83.75
325.855	94.75
326.084	76.75
326.313	77.75
326.542	72.75
326.77	72.75
326.999	95.75
327.228	80.75
327.457	91.75
327.686	83.75
327.914	84.75
328.143	87.75
328.372	86.75
328.6	75.75
328.829	76.75
329.058	71.75
329.287	93.75
329.515	94.75
329.744	87.75
329.972	78.75
330.201	85.75
330.43	70.75
330.658	91.75
330.887	72.75
331.115	86.75
331.344	69.75
331.572	82.75
331.801	99.75
332.03	78.75
332.258	92.75
332.486	78.75
332.715	75.75
332.943	78.75
333.172	75.75
333.4	94.75
333.629	64.75
333.857	95.75
334.085	84.75
334.314	103.75
334.542	94.75
334.771	79.75
334.999	83.75
335.227	84.75
335.455	91.75
335.684	81.75
335.912	85.75
336.14	104.75
336.369	82.75
336.597	82.75
336.825	78.75
337.053	90.75
337.281	87.75
337.51	88.75
337.738	87.75
337.966	77.75
338.194	79.75
338.422	78.75
338.65	94.75
338.878	101.75
339.106	87.75
339.334	98.75
339.562	80.75
339.79	73.75
340.018	66.75
340.246	79.75
340.474	72.75
340.702	73.75
340.93	74.75
341.158	77.75
341.386	75.75
341.614	84.75
341.842	94.75
342.07	89.75
342.298	86.75
342.526	104.75
342.754	90.75
342.981	80.75
343.209	77.75
343.437	95.75
343.665	84.75
343.893	90.75
344.12	87.75
344.348	85.75
344.576	88.75
344.804	89.75
345.031	79.75
345.259	83.75
345.487	76.75
345.714	75.75
345.942	84.75
346.17	93.75
346.397	84.75
346.625	90.75
346.853	76.75
347.08	85.75
347.308	90.75
347.535	102.75
347.763	84.75
347.99	83.75
348.218	80.75
348.445	100.75
348.673	81.75
348.9	83.75
349.128	90.75
349.355	62.75
349.583	84.75
349.81	84.75
350.037	87.75
350.265	85.75
350.492	79.75
350.72	85.75
350.947	97.75
351.174	81.75
351.402	89.75
351.629	73.75
351.856	92.75
352.083	95.75
352.311	80.75
352.538	87.75
352.765	90.75
352.992	92.75
353.22	81.75
353.447	97.75
353.674	92.75
353.901	78.75
354.128	83.75
354.355	71.75
354.583	77.75
354.81	82.75
355.037	89.75
355.264	74.75
355.491	75.75
355.718	74.75
355.945	74.75
356.172	74.75
356.399	94.75
356.626	91.75
356.853	93.75
357.08	89.75
357.307	91.75
357.534	72.75
357.761	92.75
357.988	108.75
358.215	101.75
358.441	98.75
358.668	83.75
358.895	85.75
359.122	82.75
359.349	90.75
359.576	94.75
359.802	90.75
360.029	95.75
360.256	96.75
360.483	99.75
360.709	89.75
360.936	109.75
361.163	96.75
361.39	77.75
361.616	83.75
361.843	102.75
362.07	88.75
362.296	96.75
362.523	107.75
362.749	106.75
362.976	115.75
363.203	122.75
363.429	98.75
363.656	86.75
363.882	94.75
364.109	102.75
364.335	127.75
364.562	139.75
364.788	119.75
365.015	95.75
365.241	92.75
365.468	80.75
365.694	80.75
365.92	100.75
366.147	82.75
366.373	77.75
366.599	90.75
366.826	87.75
367.052	75.75
367.278	90.75
367.505	94.75
367.731	101.75
367.957	94.75
368.184	99.75
368.41	79.75
368.636	86.75
368.862	85.75
369.089	67.75
369.315	95.75
369.541	99.75
369.767	87.75
369.993	87.75
370.219	86.75
370.445	91.75
370.672	106.75
370.898	93.75
371.124	91.75
371.35	79.75
371.576	90.75
371.802	84.75
372.028	96.75
372.254	90.75
372.48	78.75
372.706	85.75
372.932	92.75
373.158	102.75
373.384	117.75
373.61	110.75
373.835	99.75
374.061	93.75
374.287	101.75
374.513	101.75
374.739	98.75
374.965	103.75
375.191	94.75
375.416	92.75
375.642	92.75
375.868	99.75
376.094	86.75
376.319	81.75
376.545	83.75
376.771	104.75
376.997	92.75
377.222	88.75
377.448	77.75
377.674	82.75
377.899	81.75
378.125	81.75
378.35	81.75
378.576	92.75
378.802	87.75
379.027	84.75
379.253	94.75
379.478	88.75
379.704	89.75
379.929	84.75
380.155	90.75
380.38	92.75
380.606	94.75
380.831	99.75
381.057	95.75
381.282	83.75
381.507	80.75
381.733	90.75
381.958	111.75
382.184	105.75
382.409	98.75
382.634	106.75
382.86	90.75
383.085	91.75
383.31	104.75
383.535	121.75
383.761	107.75
383.986	115.75
384.211	106.75
384.436	86.75
384.662	79.75
384.887	86.75
385.112	91.75
385.337	81.75
385.562	91.75
385.787	91.75
386.013	108.75
386.238	104.75
386.463	94.75
386.688	106.75
386.913	88.75
387.138	96.75
387.363	84.75
387.588	96.75
387.813	103.75
388.038	99.75
388.263	94.75
388.488	96.75
388.713	90.75
388.938	86.75
389.163	96.75
389.387	78.75
389.612	92.75
389.837	82.75
390.062	90.75
390.287	98.75
390.512	78.75
390.736	94.75
390.961	76.75
391.186	87.75
391.411	115.75
391.636	98.75
391.86	86.75
392.085	100.75
392.31	82.75
392.534	83.75
392.759	123.75
392.984	184.75
393.208	266.75
393.433	370.75
393.658	287.75
393.882	134.75
394.107	101.75
394.331	131.75
394.556	117.75
394.78	95.75
395.005	106.75
395.229	93.75
395.454	92.75
395.678	104.75
395.903	107.75
396.127	128.75
396.352	140.75
396.576	168.75
396.801	267.75
397.025	314.75
397.249	154.75
397.474	124.75
397.698	105.75
397.922	78.75
398.147	103.75
398.371	98.75
398.595	90.75
398.82	85.75
399.044	71.75
399.268	88.75
399.492	93.75
399.717	94.75
399.941	84.75
400.165	96.75
400.389	78.75
400.613	92.75
400.837	84.75
401.062	69.75
401.286	93.75
401.51	85.75
401.734	86.75
401.958	102.75
402.182	80.75
402.406	88.75
402.63	83.75
402.854	92.75
403.078	93.75
403.302	91.75
403.526	91.75
403.75	81.75
403.974	70.75
404.198	93.75
404.422	98.75
404.645	98.75
404.869	85.75
405.093	84.75
405.317	78.75
405.541	95.75
405.765	78.75
405.988	85.75
406.212	94.75
406.436	92.75
406.66	91.75
406.883	90.75
407.107	87.75
407.331	91.75
407.555	101.75
407.778	102.75
408.002	111.75
408.226	92.75
408.449	81.75
408.673	76.75
408.896	82.75
409.12	100.75
409.344	99.75
409.567	109.75
409.791	98.75
410.014	92.75
410.238	93.75
410.461	72.75
410.685	96.75
410.908	98.75
411.132	72.75
411.355	80.75
411.578	89.75
411.802	88.75
412.025	88.75
412.249	91.75
412.472	83.75
412.695	105.75
412.919	97.75
413.142	87.75
413.365	76.75
413.589	75.75
413.812	88.75
414.035	84.75
414.258	80.75
414.482	79.75
414.705	88.75
414.928	79.75
415.151	78.75
415.374	76.75
415.597	82.75
415.821	84.75
416.044	91.75
416.267	83.75
416.49	73.75
416.713	85.75
416.936	88.75
417.159	84.75
417.382	71.75
417.605	74.75
417.828	94.75
418.051	86.75
418.274	100.75
418.497	80.75
418.72	72.75
418.943	76.75
419.166	82.75
419.389	101.75
419.611	91.75
419.834	100.75
420.057	114.75
420.28	99.75
420.503	90.75
420.726	92.75
420.948	82.75
421.171	89.75
421.394	104.75
421.617	125.75
421.839	124.75
422.062	138.75
422.285	172.75
422.507	282.75
422.73	420.75
422.953	387.75
423.175	208.75
423.398	145.75
423.621	119.75
423.843	100.75
424.066	111.75
424.288	103.75
424.511	92.75
424.733	93.75
424.956	101.75
425.178	86.75
425.401	97.75
425.623	91.75
425.846	85.75
426.068	86.75
426.291	92.75
426.513	93.75
426.735	82.75
426.958	78.75
427.18	101.75
427.402	94.75
427.625	96.75
427.847	95.75
428.069	107.75
428.292	123.75
428.514	136.75
428.736	104.75
428.958	129.75
429.181	124.75
429.403	95.75
429.625	95.75
429.847	133.75
430.069	154.75
430.292	178.75
430.514	169.75
430.736	134.75
430.958	144.75
431.18	99.75
431.402	86.75
431.624	98.75
431.846	127.75
432.068	146.75
432.29	84.75
432.512	90.75
432.734	106.75
432.956	88.75
433.178	85.75
433.4	80.75
433.622	82.75
433.844	101.75
434.066	97.75
434.287	85.75
434.509	95.75
434.731	98.75
434.953	77.75
435.175	86.75
435.397	105.75
435.618	88.75
435.84	102.75
436.062	84.75
436.284	90.75
436.505	79.75
436.727	81.75
436.949	84.75
437.17	77.75
437.392	82.75
437.614	67.75
437.835	84.75
438.057	79.75
438.278	90.75
438.5	101.75
438.721	95.75
438.943	83.75
439.165	88.75
439.386	92.75
439.608	73.75
439.829	84.75
440.05	101.75
440.272	92.75
440.493	83.75
440.715	100.75
440.936	96.75
441.158	90.75
441.379	78.75
441.6	69.75
441.822	92.75
442.043	98.75
442.264	102.75
442.486	119.75
442.707	143.75
442.928	120.75
443.149	104.75
443.371	143.75
443.592	239.75
443.813	218.75
444.034	118.75
444.255	82.75
444.476	77.75
444.698	86.75
444.919	92.75
445.14	185.75
445.361	195.75
445.582	279.75
445.803	264.75
446.024	121.75
446.245	92.75
446.466	82.75
446.687	88.75
446.908	86.75
447.129	90.75
447.35	82.75
447.571	85.75
447.792	96.75
448.013	87.75
448.234	87.75
448.455	87.75
448.675	87.75
448.896	86.75
449.117	85.75
449.338	88.75
449.559	64.75
449.779	90.75
450	81.75
450.221	78.75
450.442	77.75
450.662	78.75
450.883	86.75
451.104	91.75
451.324	86.75
451.545	69.75
451.766	82.75
451.986	87.75
452.207	85.75
452.428	91.75
452.648	100.75
452.869	115.75
453.089	92.75
453.31	84.75
453.53	68.75
453.751	91.75
453.971	100.75
454.192	84.75
454.412	91.75
454.633	101.75
454.853	76.75
455.073	79.75
455.294	94.75
455.514	91.75
455.734	100.75
455.955	104.75
456.175	84.75
456.395	88.75
456.616	85.75
456.836	84.75
457.056	80.75
457.276	79.75
457.497	73.75
457.717	92.75
457.937	110.75
458.157	123.75
458.377	130.75
458.598	126.75
458.818	121.75
459.038	92.75
459.258	108.75
459.478	83.75
459.698	78.75
459.918	88.75
460.138	82.75
460.358	97.75
460.578	108.75
460.798	119.75
461.018	127.75
461.238	82.75
461.458	83.75
461.678	80.75
461.898	95.75
462.118	99.75
462.338	99.75
462.558	85.75
462.777	74.75
462.997	87.75
463.217	86.75
463.437	91.75
463.657	83.75
463.876	90.75
464.096	82.75
464.316	85.75
464.536	92.75
464.755	88.75
464.975	84.75
465.195	78.75
465.414	103.75
465.634	88.75
465.854	74.75
466.073	73.75
466.293	92.75
466.512	92.75
466.732	75.75
466.951	88.75
467.171	79.75
467.391	84.75
467.61	94.75
467.829	81.75
468.049	86.75
468.268	77.75
468.488	82.75
468.707	88.75
468.927	80.75
469.146	83.75
469.365	80.75
469.585	78.75
469.804	75.75
470.023	80.75
470.243	85.75
470.462	66.75
470.681	78.75
470.901	90.75
471.12	87.75
471.339	90.75
471.558	91.75
471.777	79.75
471.997	95.75
472.216	87.75
472.435	82.75
472.654	82.75
472.873	78.75
473.092	77.75
473.311	90.75
473.53	96.75
473.749	100.75
473.968	82.75
474.187	81.75
474.406	87.75
474.625	96.75
474.844	76.75
475.063	92.75
475.282	83.75
475.501	80.75
475.72	93.75
475.939	83.75
476.158	92.75
476.377	89.75
476.596	93.75
476.814	93.75
477.033	97.75
477.252	80.75
477.471	76.75
477.69	82.75
477.908	87.75
478.127	83.75
478.346	87.75
478.564	85.75
478.783	91.75
479.002	90.75
479.22	90.75
479.439	87.75
479.658	87.75
479.876	93.75
480.095	93.75
480.313	90.75
480.532	97.75
480.751	83.75
480.969	81.75
481.188	92.75
481.406	95.75
481.624	72.75
481.843	87.75
482.061	84.75
482.28	95.75
482.498	95.75
482.717	86.75
482.935	90.75
483.153	69.75
483.372	96.75
483.59	94.75
483.808	95.75
484.027	79.75
484.245	93.75
484.463	86.75
484.681	95.75
484.9	87.75
485.118	101.75
485.336	90.75
485.554	86.75
485.772	92.75
485.99	87.75
486.209	94.75
486.427	87.75
486.645	87.75
486.863	95.75
487.081	91.75
487.299	88.75
487.517	85.75
487.735	120.75
487.953	179.75
488.171	161.75
488.389	98.75
488.607	86.75
488.825	83.75
489.043	84.75
489.261	95.75
489.479	93.75
489.696	81.75
489.914	87.75
490.132	90.75
490.35	89.75
490.568	92.75
490.786	95.75
491.003	91.75
491.221	94.75
491.439	75.75
491.657	89.75
491.874	87.75
492.092	97.75
492.31	106.75
492.527	94.75
492.745	97.75
492.963	90.75
493.18	94.75
493.398	96.75
493.615	99.75
493.833	99.75
494.05	83.75
494.268	81.75
494.485	90.75
494.703	93.75
494.92	89.75
495.138	85.75
495.355	81.75
495.573	84.75
495.79	83.75
496.008	103.75
496.225	83.75
496.442	91.75
496.66	96.75
496.877	98.75
497.094	90.75
497.312	86.75
497.529	92.75
497.746	88.75
497.963	92.75
498.181	101.75
498.398	81.75
498.615	79.75
498.832	82.75
499.049	98.75
499.267	91.75
499.484	112.75
499.701	102.75
499.918	99.75
500.135	110.75
500.352	92.75
500.569	88.75
500.786	93.75
501.003	100.75
501.22	83.75
501.437	95.75
501.654	96.75
501.871	83.75
502.088	82.75
502.305	107.75
502.522	96.75
502.739	84.75
502.956	86.75
503.172	84.75
503.389	87.75
503.606	99.75
503.823	95.75
504.04	114.75
504.256	134.75
504.473	133.75
504.69	98.75
504.907	85.75
505.123	93.75
505.34	77.75
505.557	95.75
505.773	91.75
505.99	98.75
506.207	102.75
506.423	98.75
506.64	106.75
506.856	94.75
507.073	77.75
507.289	109.75
507.506	92.75
507.722	79.75
507.939	83.75
508.155	88.75
508.372	82.75
508.588	84.75
508.805	89.75
509.021	84.75
509.238	91.75
509.454	107.75
509.67	92.75
509.887	95.75
510.103	92.75
510.319	91.75
510.536	100.75
510.752	112.75
510.968	86.75
511.184	91.75
511.401	100.75
511.617	98.75
511.833	93.75
512.049	76.75
512.265	85.75
512.481	83.75
512.698	87.75
512.914	94.75
513.13	89.75
513.346	80.75
513.562	102.75
513.778	101.75
513.994	103.75
514.21	86.75
514.426	88.75
514.642	80.75
514.858	105.75
515.074	86.75
515.29	95.75
515.506	83.75
515.721	91.75
515.937	107.75
516.153	95.75
516.369	91.75
516.585	89.75
516.801	96.75
517.016	93.75
517.232	82.75
517.448	104.75
517.664	81.75
