Data from 10100_2_HRD10591_00006.txt Node
Date: Mon Jan 19 14:01:27 EST 2026
User: Yrep
Spectrometer: HR+D1059
Trigger mode: 1
Integration Time (sec): 1.000000E-1
Scans to average: 1
Electric dark correction enabled: true
Nonlinearity correction enabled: false
Boxcar width: 0
XAxis mode: Wavelengths
Number of Pixels in Spectrum: 2048
>>>>>Begin Spectral Data<<<<<
223.165	-12
223.4	-12
223.635	-12
223.869	-26
224.104	-35
224.338	-23
224.573	-16
224.808	-17
225.042	1
225.277	-3
225.511	-10
225.746	4
225.98	12
226.215	22
226.449	21
226.683	28
226.918	21
227.152	33
227.387	35
227.621	48
227.856	40
228.09	54
228.324	34
228.559	66
228.793	57
229.027	66
229.262	50
229.496	65
229.73	48
229.964	72
230.199	63
230.433	70
230.667	83
230.901	64
231.136	69
231.37	71
231.604	74
231.838	66
232.072	75
232.306	78
232.541	77
232.775	73
233.009	66
233.243	76
233.477	74
233.711	80
233.945	82
234.179	68
234.413	77
234.647	66
234.881	74
235.115	88
235.349	81
235.583	76
235.817	78
236.051	80
236.285	65
236.519	82
236.753	89
236.987	63
237.221	64
237.455	66
237.689	61
237.922	67
238.156	61
238.39	67
238.624	74
238.858	70
239.091	69
239.325	80
239.559	62
239.793	68
240.027	81
240.26	74
240.494	69
240.728	73
240.961	78
241.195	87
241.429	52
241.662	64
241.896	72
242.13	76
242.363	58
242.597	84
242.83	90
243.064	76
243.298	68
243.531	81
243.765	74
243.998	64
244.232	76
244.465	60
244.699	71
244.932	68
245.166	68
245.399	70
245.633	62
245.866	67
246.099	64
246.333	65
246.566	67
246.8	69
247.033	78
247.266	74
247.5	77
247.733	66
247.966	72
248.2	79
248.433	75
248.666	69
248.899	76
249.133	80
249.366	64
249.599	76
249.832	74
250.066	79
250.299	78
250.532	68
250.765	69
250.998	66
251.231	78
251.465	81
251.698	61
251.931	65
252.164	77
252.397	72
252.63	60
252.863	81
253.096	75
253.329	69
253.562	70
253.795	80
254.028	74
254.261	80
254.494	69
254.727	77
254.96	76
255.193	72
255.426	82
255.659	61
255.892	76
256.124	56
256.357	79
256.59	78
256.823	84
257.056	70
257.289	92
257.521	69
257.754	72
257.987	70
258.22	80
258.452	69
258.685	74
258.918	74
259.151	82
259.383	83
259.616	75
259.849	68
260.081	78
260.314	78
260.547	62
260.779	66
261.012	77
261.244	69
261.477	82
261.71	70
261.942	68
262.175	69
262.407	65
262.64	77
262.872	87
263.105	74
263.337	106
263.57	90
263.802	78
264.035	83
264.267	60
264.499	75
264.732	80
264.964	91
265.197	88
265.429	84
265.661	82
265.894	67
266.126	80
266.358	69
266.591	65
266.823	78
267.055	71
267.287	92
267.52	85
267.752	79
267.984	82
268.216	81
268.448	81
268.681	81
268.913	95
269.145	74
269.377	79
269.609	75
269.841	68
270.073	85
270.306	78
270.538	87
270.77	77
271.002	62
271.234	78
271.466	77
271.698	84
271.93	77
272.162	86
272.394	64
272.626	75
272.858	69
273.09	72
273.322	76
273.553	89
273.785	69
274.017	62
274.249	68
274.481	83
274.713	69
274.945	58
275.176	61
275.408	76
275.64	77
275.872	88
276.104	88
276.335	78
276.567	76
276.799	81
277.031	80
277.262	75
277.494	72
277.726	75
277.957	74
278.189	66
278.421	80
278.652	86
278.884	98
279.115	86
279.347	73
279.579	74
279.81	99
280.042	76
280.273	81
280.505	95
280.736	93
280.968	81
281.199	72
281.431	84
281.662	88
281.894	69
282.125	77
282.356	93
282.588	84
282.819	62
283.051	68
283.282	88
283.513	87
283.745	65
283.976	69
284.207	81
284.439	86
284.67	80
284.901	93
285.132	80
285.364	94
285.595	86
285.826	88
286.057	73
286.288	78
286.52	98
286.751	71
286.982	73
287.213	70
287.444	76
287.675	78
287.906	81
288.138	79
288.369	90
288.6	72
288.831	74
289.062	77
289.293	66
289.524	86
289.755	70
289.986	87
290.217	88
290.448	72
290.679	82
290.91	76
291.141	82
291.371	84
291.602	85
291.833	77
292.064	74
292.295	97
292.526	84
292.757	69
292.987	80
293.218	98
293.449	84
293.68	83
293.91	81
294.141	82
294.372	82
294.603	84
294.833	78
295.064	85
295.295	84
295.525	95
295.756	78
295.987	80
296.217	62
296.448	64
296.679	70
296.909	90
297.14	71
297.37	76
297.601	72
297.831	68
298.062	72
298.292	72
298.523	85
298.753	84
298.984	80
299.214	78
299.445	80
299.675	90
299.905	89
300.136	85
300.366	83
300.597	82
300.827	73
301.057	92
301.288	83
301.518	78
301.748	69
301.979	99
302.209	83
302.439	79
302.669	83
302.9	86
303.13	76
303.36	86
303.59	83
303.82	83
304.051	80
304.281	90
304.511	80
304.741	80
304.971	83
305.201	91
305.431	80
305.661	88
305.891	83
306.121	85
306.352	88
306.582	80
306.812	75
307.042	88
307.272	90
307.502	86
307.731	89
307.961	82
308.191	102
308.421	94
308.651	79
308.881	74
309.111	91
309.341	113
309.571	108
309.8	91
310.03	92
310.26	81
310.49	76
310.72	76
310.949	71
311.179	84
311.409	72
311.639	85
311.868	90
312.098	101
312.328	108
312.557	76
312.787	75
313.017	87
313.246	81
313.476	86
313.706	85
313.935	90
314.165	84
314.394	86
314.624	81
314.853	78
315.083	92
315.312	91
315.542	80
315.771	94
316.001	102
316.23	96
316.46	92
316.689	90
316.919	79
317.148	81
317.377	82
317.607	97
317.836	97
318.065	98
318.295	109
318.524	86
318.753	87
318.983	74
319.212	80
319.441	85
319.67	77
319.9	78
320.129	76
320.358	89
320.587	79
320.816	76
321.046	80
321.275	89
321.504	86
321.733	92
321.962	89
322.191	81
322.42	81
322.649	93
322.878	97
323.108	92
323.337	71
323.566	80
323.795	88
324.024	90
324.253	89
324.482	81
324.71	95
324.939	73
325.168	78
325.397	82
325.626	79
325.855	69
326.084	89
326.313	69
326.542	92
326.77	88
326.999	100
327.228	77
327.457	101
327.686	80
327.914	66
328.143	84
328.372	67
328.6	85
328.829	92
329.058	81
329.287	79
329.515	80
329.744	79
329.972	83
330.201	84
330.43	86
330.658	87
330.887	89
331.115	92
331.344	81
331.572	68
331.801	78
332.03	94
332.258	84
332.486	74
332.715	85
332.943	78
333.172	80
333.4	81
333.629	77
333.857	86
334.085	76
334.314	98
334.542	86
334.771	92
334.999	110
335.227	97
335.455	88
335.684	82
335.912	101
336.14	112
336.369	110
336.597	102
336.825	99
337.053	90
337.281	80
337.51	91
337.738	78
337.966	87
338.194	85
338.422	85
338.65	92
338.878	91
339.106	70
339.334	77
339.562	84
339.79	81
340.018	84
340.246	80
340.474	84
340.702	85
340.93	81
341.158	97
341.386	96
341.614	74
341.842	87
342.07	83
342.298	83
342.526	91
342.754	92
342.981	94
343.209	96
343.437	90
343.665	91
343.893	78
344.12	95
344.348	82
344.576	81
344.804	95
345.031	82
345.259	71
345.487	89
345.714	88
345.942	76
346.17	78
346.397	81
346.625	70
346.853	96
347.08	104
347.308	80
347.535	102
347.763	77
347.99	84
348.218	74
348.445	92
348.673	99
348.9	95
349.128	94
349.355	82
349.583	89
349.81	82
350.037	78
350.265	77
350.492	85
350.72	78
350.947	80
351.174	79
351.402	75
351.629	77
351.856	68
352.083	64
352.311	91
352.538	95
352.765	91
352.992	95
353.22	89
353.447	87
353.674	81
353.901	88
354.128	87
354.355	86
354.583	92
354.81	66
355.037	81
355.264	75
355.491	84
355.718	97
355.945	104
356.172	100
356.399	94
356.626	100
356.853	81
357.08	92
357.307	83
357.534	95
357.761	81
357.988	96
358.215	107
358.441	91
358.668	73
358.895	88
359.122	87
359.349	100
359.576	79
359.802	88
360.029	96
360.256	92
360.483	84
360.709	90
360.936	90
361.163	90
361.39	90
361.616	87
361.843	107
362.07	100
362.296	110
362.523	112
362.749	112
362.976	137
363.203	164
363.429	120
363.656	106
363.882	107
364.109	128
364.335	158
364.562	176
364.788	123
365.015	108
365.241	78
365.468	81
365.694	78
365.92	74
366.147	83
366.373	80
366.599	84
366.826	88
367.052	88
367.278	86
367.505	62
367.731	108
367.957	102
368.184	106
368.41	78
368.636	76
368.862	84
369.089	88
369.315	94
369.541	77
369.767	93
369.993	82
370.219	82
370.445	97
370.672	98
370.898	94
371.124	77
371.35	81
371.576	85
371.802	95
372.028	94
372.254	89
372.48	91
372.706	85
372.932	93
373.158	99
373.384	117
373.61	113
373.835	116
374.061	101
374.287	87
374.513	102
374.739	106
374.965	110
375.191	98
375.416	92
375.642	89
375.868	88
376.094	106
376.319	84
376.545	94
376.771	85
376.997	94
377.222	88
377.448	85
377.674	88
377.899	87
378.125	83
378.35	85
378.576	89
378.802	81
379.027	75
379.253	76
379.478	94
379.704	92
379.929	86
380.155	102
380.38	90
380.606	94
380.831	105
381.057	88
381.282	94
381.507	83
381.733	99
381.958	97
382.184	111
382.409	106
382.634	99
382.86	124
383.085	106
383.31	98
383.535	108
383.761	92
383.986	105
384.211	120
384.436	83
384.662	84
384.887	101
385.112	81
385.337	84
385.562	94
385.787	107
386.013	102
386.238	109
386.463	85
386.688	110
386.913	97
387.138	112
387.363	100
387.588	108
387.813	105
388.038	105
388.263	93
388.488	114
388.713	114
388.938	95
389.163	84
389.387	87
389.612	96
389.837	98
390.062	95
390.287	106
390.512	89
390.736	88
390.961	102
391.186	99
391.411	91
391.636	91
391.86	95
392.085	98
392.31	110
392.534	115
392.759	140
392.984	213
393.208	390
393.433	585
393.658	428
393.882	186
394.107	140
394.331	133
394.556	157
394.78	128
395.005	109
395.229	91
395.454	104
395.678	119
395.903	162
396.127	161
396.352	198
396.576	227
396.801	393
397.025	476
397.249	247
397.474	144
397.698	117
397.922	94
398.147	84
398.371	94
398.595	76
398.82	90
399.044	96
399.268	97
399.492	97
399.717	92
399.941	101
400.165	80
400.389	80
400.613	108
400.837	92
401.062	90
401.286	82
401.51	77
401.734	86
401.958	84
402.182	77
402.406	68
402.63	82
402.854	90
403.078	94
403.302	85
403.526	93
403.75	74
403.974	79
404.198	77
404.422	99
404.645	100
404.869	93
405.093	88
405.317	86
405.541	84
405.765	76
405.988	70
406.212	93
406.436	78
406.66	93
406.883	84
407.107	86
407.331	99
407.555	105
407.778	130
408.002	112
408.226	97
408.449	76
408.673	77
408.896	90
409.12	83
409.344	84
409.567	122
409.791	105
410.014	93
410.238	117
410.461	101
410.685	108
410.908	86
411.132	92
411.355	96
411.578	91
411.802	91
412.025	77
412.249	81
412.472	88
412.695	92
412.919	97
413.142	88
413.365	87
413.589	93
413.812	76
414.035	86
414.258	89
414.482	99
414.705	101
414.928	74
415.151	89
415.374	96
415.597	90
415.821	93
416.044	77
416.267	78
416.49	66
416.713	70
416.936	98
417.159	89
417.382	87
417.605	88
417.828	93
418.051	88
418.274	87
418.497	80
418.72	83
418.943	86
419.166	105
419.389	98
419.611	89
419.834	84
420.057	96
420.28	78
420.503	102
420.726	93
420.948	97
421.171	120
421.394	130
421.617	153
421.839	164
422.062	163
422.285	248
422.507	454
422.73	675
422.953	609
423.175	342
423.398	198
423.621	149
423.843	138
424.066	121
424.288	127
424.511	89
424.733	110
424.956	80
425.178	98
425.401	106
425.623	97
425.846	93
426.068	108
426.291	83
426.513	75
426.735	96
426.958	87
427.18	101
427.402	110
427.625	100
427.847	92
428.069	127
428.292	152
428.514	181
428.736	124
428.958	165
429.181	174
429.403	114
429.625	120
429.847	137
430.069	218
430.292	258
430.514	241
430.736	178
430.958	180
431.18	127
431.402	85
431.624	106
431.846	147
432.068	180
432.29	114
432.512	82
432.734	80
432.956	91
433.178	87
433.4	89
433.622	80
433.844	80
434.066	86
434.287	82
434.509	82
434.731	85
434.953	85
435.175	96
435.397	102
435.618	111
435.84	99
436.062	96
436.284	98
436.505	78
436.727	64
436.949	67
437.17	80
437.392	96
437.614	74
437.835	91
438.057	88
438.278	88
438.5	110
438.721	91
438.943	87
439.165	81
439.386	74
439.608	104
439.829	74
440.05	80
440.272	84
440.493	86
440.715	83
440.936	84
441.158	92
441.379	93
441.6	111
441.822	85
442.043	97
442.264	100
442.486	169
442.707	263
442.928	168
443.149	122
443.371	203
443.592	375
443.813	346
444.034	136
444.255	94
444.476	89
444.698	97
444.919	97
445.14	218
445.361	260
445.582	454
445.803	393
446.024	157
446.245	99
446.466	90
446.687	108
446.908	95
447.129	95
447.35	94
447.571	81
447.792	85
448.013	95
448.234	88
448.455	76
448.675	93
448.896	86
449.117	74
449.338	80
449.559	93
449.779	80
450	84
450.221	78
450.442	77
450.662	88
450.883	93
451.104	104
451.324	101
451.545	91
451.766	93
451.986	84
452.207	86
452.428	95
452.648	93
452.869	110
453.089	100
453.31	82
453.53	96
453.751	91
453.971	86
454.192	78
454.412	79
454.633	94
454.853	84
455.073	82
455.294	84
455.514	118
455.734	92
455.955	91
456.175	73
456.395	91
456.616	79
456.836	62
457.056	88
457.276	88
457.497	94
457.717	84
457.937	130
458.157	157
458.377	174
458.598	156
458.818	160
459.038	120
459.258	105
459.478	99
459.698	80
459.918	87
460.138	80
460.358	98
460.578	106
460.798	144
461.018	144
461.238	90
461.458	98
461.678	85
461.898	91
462.118	89
462.338	67
462.558	82
462.777	72
462.997	92
463.217	95
463.437	89
463.657	91
463.876	91
464.096	77
464.316	76
464.536	89
464.755	67
464.975	68
465.195	84
465.414	77
465.634	86
465.854	84
466.073	70
466.293	92
466.512	88
466.732	80
466.951	79
467.171	79
467.391	85
467.61	75
467.829	91
468.049	92
468.268	81
468.488	86
468.707	70
468.927	67
469.146	79
469.365	84
469.585	89
469.804	85
470.023	84
470.243	85
470.462	82
470.681	83
470.901	95
471.12	89
471.339	89
471.558	88
471.777	89
471.997	81
472.216	91
472.435	81
472.654	82
472.873	83
473.092	82
473.311	99
473.53	86
473.749	90
473.968	96
474.187	95
474.406	100
474.625	89
474.844	84
475.063	80
475.282	108
475.501	81
475.72	89
475.939	89
476.158	101
476.377	90
476.596	79
476.814	84
477.033	93
477.252	99
477.471	73
477.69	90
477.908	105
478.127	80
478.346	88
478.564	82
478.783	92
479.002	90
479.22	88
479.439	102
479.658	91
479.876	78
480.095	78
480.313	78
480.532	99
480.751	91
480.969	80
481.188	80
481.406	98
481.624	85
481.843	85
482.061	99
482.28	83
482.498	81
482.717	83
482.935	84
483.153	92
483.372	93
483.59	106
483.808	80
484.027	90
484.245	100
484.463	97
484.681	95
484.9	98
485.118	104
485.336	108
485.554	90
485.772	97
485.99	95
486.209	91
486.427	93
486.645	87
486.863	95
487.081	90
487.299	95
487.517	123
487.735	149
487.953	261
488.171	211
488.389	108
488.607	84
488.825	99
489.043	90
489.261	101
489.479	93
489.696	99
489.914	101
490.132	94
490.35	92
490.568	87
490.786	86
491.003	88
491.221	90
491.439	94
491.657	89
491.874	97
492.092	109
492.31	88
492.527	82
492.745	86
492.963	110
493.18	92
493.398	105
493.615	110
493.833	87
494.05	84
494.268	86
494.485	96
494.703	87
494.92	90
495.138	78
495.355	104
495.573	94
495.79	92
496.008	101
496.225	92
496.442	99
496.66	96
496.877	90
497.094	102
497.312	104
497.529	91
497.746	95
497.963	84
498.181	111
498.398	109
498.615	112
498.832	96
499.049	76
499.267	104
499.484	105
499.701	98
499.918	102
500.135	96
500.352	96
500.569	82
500.786	88
501.003	102
501.22	100
501.437	100
501.654	104
501.871	104
502.088	98
502.305	99
502.522	85
502.739	94
502.956	99
503.172	93
503.389	102
503.606	92
503.823	98
504.04	118
504.256	189
504.473	196
504.69	114
504.907	99
505.123	108
505.34	87
505.557	76
505.773	87
505.99	101
506.207	95
506.423	85
506.64	101
506.856	108
507.073	102
507.289	96
507.506	84
507.722	88
507.939	80
508.155	101
508.372	69
508.588	94
508.805	94
509.021	96
509.238	89
509.454	84
509.67	80
509.887	82
510.103	86
510.319	79
510.536	81
510.752	101
510.968	90
511.184	98
511.401	101
511.617	99
511.833	92
512.049	96
512.265	72
512.481	89
512.698	90
512.914	91
513.13	105
513.346	93
513.562	98
513.778	102
513.994	87
514.21	109
514.426	91
514.642	98
514.858	92
515.074	88
515.29	110
515.506	101
515.721	88
515.937	92
516.153	77
516.369	97
516.585	100
516.801	105
517.016	101
517.232	96
517.448	120
517.664	110
517.879	97
518.095	96
518.311	98
518.527	123
518.742	121
518.958	220
519.173	277
519.389	133
519.605	115
519.82	105
520.036	76
520.251	78
520.467	104
520.682	95
520.898	119
521.113	94
521.329	102
521.544	85
521.76	112
521.975	96
522.19	90
522.406	92
522.621	107
522.836	93
523.052	104
523.267	114
523.482	110
523.698	101
523.913	95
524.128	94
524.343	90
524.559	98
524.774	98
524.989	89
525.204	99
525.419	104
525.634	108
525.849	110
526.064	170
526.28	349
526.495	536
526.71	536
526.925	337
527.14	457
527.355	411
527.57	139
527.785	102
527.999	92
528.214	100
528.429	101
528.644	95
528.859	105
529.074	97
529.289	101
529.503	112
529.718	101
529.933	117
530.148	125
530.363	110
530.577	106
530.792	123
531.007	106
531.221	110
531.436	124
531.651	113
531.865	102
532.08	104
532.295	110
532.509	117
532.724	113
532.938	116
533.153	114
533.367	131
533.582	120
533.796	119
534.011	117
534.225	107
534.44	117
534.654	116
534.868	142
535.083	250
535.297	213
535.511	146
535.726	123
535.94	116
536.154	105
536.369	127
536.583	108
536.797	122
537.011	118
537.225	114
537.44	131
537.654	130
537.868	110
538.082	125
538.296	115
538.51	122
538.724	122
538.938	120
539.153	113
539.367	112
539.581	108
539.795	104
540.009	118
540.222	120
540.436	115
540.65	124
540.864	112
541.078	119
541.292	105
541.506	115
541.72	123
541.934	117
542.147	130
542.361	120
542.575	110
542.789	118
543.002	117
543.216	124
543.43	125
543.644	124
543.857	124
544.071	130
544.285	131
544.498	123
544.712	127
544.925	122
545.139	126
545.352	118
545.566	118
545.779	133
545.993	132
546.206	136
546.42	135
546.633	151
546.847	181
547.06	184
547.274	197
547.487	240
547.7	280
547.914	286
548.127	285
548.34	291
548.554	307
548.767	315
548.98	333
549.193	325
549.407	301
549.62	330
549.833	354
550.046	390
550.259	416
550.473	409
550.686	442
550.899	468
551.112	540
551.325	574
551.538	592
551.751	544
551.964	544
552.177	531
552.39	532
552.603	507
552.816	513
553.029	530
553.242	526
553.455	518
553.667	584
553.88	609
554.093	603
554.306	606
554.519	617
554.732	620
554.944	596
555.157	560
555.37	566
555.583	542
555.795	506
556.008	493
556.221	480
556.433	442
556.646	399
556.859	394
557.071	353
557.284	342
557.496	332
557.709	294
557.921	298
558.134	308
558.346	381
558.559	344
558.771	292
558.984	568
559.196	666
559.409	372
559.621	539
559.833	410
560.046	493
560.258	396
560.47	418
560.683	240
560.895	184
561.107	158
561.32	171
561.532	172
561.744	153
561.956	186
562.168	141
562.381	141
562.593	139
562.805	151
563.017	116
563.229	139
563.441	137
563.653	141
563.865	138
564.077	140
564.289	137
564.501	149
564.713	128
564.925	140
565.137	112
565.349	140
565.561	140
565.773	134
565.985	138
566.197	144
566.408	122
566.62	125
566.832	125
567.044	136
567.255	129
567.467	140
567.679	145
567.891	112
568.102	112
568.314	130
568.526	141
568.737	137
568.949	129
569.161	137
569.372	125
569.584	122
569.795	121
570.007	126
570.218	120
570.43	123
570.641	131
570.853	121
571.064	122
571.276	129
571.487	144
571.698	125
571.91	108
572.121	125
572.333	135
572.544	107
572.755	122
572.966	137
573.178	118
573.389	129
573.6	134
573.811	138
574.023	116
574.234	117
574.445	124
574.656	124
574.867	113
575.078	124
575.289	118
575.501	120
575.712	115
575.923	101
576.134	110
576.345	114
576.556	118
576.767	119
576.978	112
577.188	115
577.399	112
577.61	114
577.821	114
578.032	102
578.243	114
578.454	114
578.665	120
578.875	96
579.086	97
579.297	110
579.508	101
579.718	101
579.929	112
580.14	104
580.35	114
580.561	106
580.772	122
580.982	102
581.193	111
581.403	100
581.614	98
581.825	108
