Data from 10100_2_HRD10591_00036.txt Node
Date: Mon Jan 19 14:01:42 EST 2026
User: Yrep
Spectrometer: HR+D1059
Trigger mode: 1
Integration Time (sec): 1.000000E-1
Scans to average: 1
Electric dark correction enabled: true
Nonlinearity correction enabled: false
Boxcar width: 0
XAxis mode: Wavelengths
Number of Pixels in Spectrum: 2048
>>>>>Begin Spectral Data<<<<<
223.165	-12.56
223.4	-12.56
223.635	-12.56
223.869	-13.56
224.104	-25.56
224.338	-15.56
224.573	-1.56
224.808	-16.56
225.042	-10.56
225.277	-1.56
225.511	-16.56
225.746	-0.56
225.98	10.44
226.215	17.44
226.449	7.44
226.683	14.44
226.918	21.44
227.152	43.44
227.387	50.44
227.621	28.44
227.856	31.44
228.09	53.44
228.324	57.44
228.559	55.44
228.793	50.44
229.027	62.44
229.262	52.44
229.496	57.44
229.73	73.44
229.964	82.44
230.199	72.44
230.433	73.44
230.667	77.44
230.901	86.44
231.136	85.44
231.37	103.44
231.604	80.44
231.838	76.44
232.072	81.44
232.306	73.44
232.541	76.44
232.775	89.44
233.009	77.44
233.243	87.44
233.477	72.44
233.711	93.44
233.945	72.44
234.179	72.44
234.413	95.44
234.647	82.44
234.881	87.44
235.115	67.44
235.349	80.44
235.583	80.44
235.817	68.44
236.051	81.44
236.285	71.44
236.519	67.44
236.753	95.44
236.987	69.44
237.221	82.44
237.455	76.44
237.689	80.44
237.922	68.44
238.156	75.44
238.39	73.44
238.624	66.44
238.858	58.44
239.091	79.44
239.325	74.44
239.559	70.44
239.793	78.44
240.027	72.44
240.26	76.44
240.494	81.44
240.728	89.44
240.961	78.44
241.195	64.44
241.429	76.44
241.662	76.44
241.896	72.44
242.13	62.44
242.363	76.44
242.597	77.44
242.83	72.44
243.064	94.44
243.298	72.44
243.531	89.44
243.765	86.44
243.998	78.44
244.232	81.44
244.465	91.44
244.699	74.44
244.932	85.44
245.166	81.44
245.399	73.44
245.633	76.44
245.866	91.44
246.099	69.44
246.333	86.44
246.566	88.44
246.8	76.44
247.033	69.44
247.266	71.44
247.5	76.44
247.733	86.44
247.966	83.44
248.2	75.44
248.433	80.44
248.666	81.44
248.899	74.44
249.133	84.44
249.366	84.44
249.599	79.44
249.832	77.44
250.066	94.44
250.299	74.44
250.532	91.44
250.765	67.44
250.998	79.44
251.231	85.44
251.465	87.44
251.698	84.44
251.931	83.44
252.164	77.44
252.397	78.44
252.63	90.44
252.863	68.44
253.096	76.44
253.329	75.44
253.562	65.44
253.795	87.44
254.028	76.44
254.261	86.44
254.494	82.44
254.727	74.44
254.96	74.44
255.193	81.44
255.426	88.44
255.659	73.44
255.892	82.44
256.124	67.44
256.357	71.44
256.59	92.44
256.823	84.44
257.056	71.44
257.289	84.44
257.521	72.44
257.754	68.44
257.987	86.44
258.22	87.44
258.452	93.44
258.685	73.44
258.918	74.44
259.151	76.44
259.383	83.44
259.616	91.44
259.849	74.44
260.081	69.44
260.314	72.44
260.547	80.44
260.779	80.44
261.012	82.44
261.244	91.44
261.477	90.44
261.71	80.44
261.942	83.44
262.175	80.44
262.407	88.44
262.64	82.44
262.872	93.44
263.105	76.44
263.337	79.44
263.57	80.44
263.802	86.44
264.035	80.44
264.267	74.44
264.499	81.44
264.732	90.44
264.964	72.44
265.197	78.44
265.429	84.44
265.661	89.44
265.894	66.44
266.126	82.44
266.358	74.44
266.591	80.44
266.823	65.44
267.055	80.44
267.287	91.44
267.52	76.44
267.752	95.44
267.984	86.44
268.216	68.44
268.448	88.44
268.681	80.44
268.913	76.44
269.145	82.44
269.377	76.44
269.609	94.44
269.841	76.44
270.073	76.44
270.306	73.44
270.538	83.44
270.77	84.44
271.002	87.44
271.234	66.44
271.466	62.44
271.698	85.44
271.93	78.44
272.162	81.44
272.394	87.44
272.626	68.44
272.858	76.44
273.09	96.44
273.322	98.44
273.553	84.44
273.785	77.44
274.017	78.44
274.249	79.44
274.481	99.44
274.713	67.44
274.945	71.44
275.176	66.44
275.408	88.44
275.64	82.44
275.872	88.44
276.104	87.44
276.335	86.44
276.567	83.44
276.799	65.44
277.031	84.44
277.262	81.44
277.494	82.44
277.726	71.44
277.957	74.44
278.189	83.44
278.421	75.44
278.652	74.44
278.884	90.44
279.115	87.44
279.347	95.44
279.579	68.44
279.81	75.44
280.042	80.44
280.273	100.44
280.505	87.44
280.736	84.44
280.968	81.44
281.199	86.44
281.431	92.44
281.662	77.44
281.894	76.44
282.125	80.44
282.356	82.44
282.588	87.44
282.819	88.44
283.051	63.44
283.282	86.44
283.513	79.44
283.745	72.44
283.976	66.44
284.207	92.44
284.439	70.44
284.67	82.44
284.901	75.44
285.132	105.44
285.364	91.44
285.595	84.44
285.826	94.44
286.057	84.44
286.288	98.44
286.52	88.44
286.751	82.44
286.982	78.44
287.213	76.44
287.444	82.44
287.675	79.44
287.906	74.44
288.138	80.44
288.369	78.44
288.6	79.44
288.831	77.44
289.062	79.44
289.293	78.44
289.524	87.44
289.755	97.44
289.986	93.44
290.217	80.44
290.448	84.44
290.679	93.44
290.91	79.44
291.141	78.44
291.371	89.44
291.602	83.44
291.833	79.44
292.064	84.44
292.295	94.44
292.526	75.44
292.757	78.44
292.987	100.44
293.218	88.44
293.449	89.44
293.68	85.44
293.91	96.44
294.141	77.44
294.372	76.44
294.603	84.44
294.833	98.44
295.064	95.44
295.295	88.44
295.525	90.44
295.756	79.44
295.987	82.44
296.217	76.44
296.448	90.44
296.679	75.44
296.909	87.44
297.14	84.44
297.37	74.44
297.601	82.44
297.831	92.44
298.062	89.44
298.292	83.44
298.523	93.44
298.753	71.44
298.984	88.44
299.214	91.44
299.445	78.44
299.675	77.44
299.905	86.44
300.136	82.44
300.366	74.44
300.597	86.44
300.827	84.44
301.057	89.44
301.288	89.44
301.518	85.44
301.748	84.44
301.979	103.44
302.209	92.44
302.439	75.44
302.669	74.44
302.9	88.44
303.13	82.44
303.36	79.44
303.59	77.44
303.82	87.44
304.051	88.44
304.281	86.44
304.511	94.44
304.741	75.44
304.971	79.44
305.201	81.44
305.431	83.44
305.661	88.44
305.891	81.44
306.121	93.44
306.352	77.44
306.582	82.44
306.812	78.44
307.042	73.44
307.272	84.44
307.502	90.44
307.731	75.44
307.961	94.44
308.191	92.44
308.421	83.44
308.651	85.44
308.881	86.44
309.111	84.44
309.341	93.44
309.571	76.44
309.8	91.44
310.03	73.44
310.26	85.44
310.49	96.44
310.72	80.44
310.949	79.44
311.179	71.44
311.409	81.44
311.639	92.44
311.868	86.44
312.098	89.44
312.328	83.44
312.557	86.44
312.787	74.44
313.017	82.44
313.246	75.44
313.476	75.44
313.706	87.44
313.935	81.44
314.165	83.44
314.394	81.44
314.624	81.44
314.853	97.44
315.083	95.44
315.312	92.44
315.542	74.44
315.771	91.44
316.001	82.44
316.23	87.44
316.46	85.44
316.689	85.44
316.919	71.44
317.148	94.44
317.377	86.44
317.607	83.44
317.836	98.44
318.065	90.44
318.295	60.44
318.524	90.44
318.753	96.44
318.983	76.44
319.212	73.44
319.441	82.44
319.67	82.44
319.9	82.44
320.129	84.44
320.358	87.44
320.587	104.44
320.816	81.44
321.046	82.44
321.275	73.44
321.504	83.44
321.733	104.44
321.962	100.44
322.191	85.44
322.42	86.44
322.649	96.44
322.878	94.44
323.108	88.44
323.337	80.44
323.566	81.44
323.795	78.44
324.024	91.44
324.253	86.44
324.482	82.44
324.71	88.44
324.939	85.44
325.168	80.44
325.397	74.44
325.626	94.44
325.855	87.44
326.084	99.44
326.313	77.44
326.542	81.44
326.77	93.44
326.999	74.44
327.228	87.44
327.457	82.44
327.686	95.44
327.914	92.44
328.143	88.44
328.372	84.44
328.6	71.44
328.829	76.44
329.058	80.44
329.287	80.44
329.515	82.44
329.744	92.44
329.972	93.44
330.201	88.44
330.43	74.44
330.658	79.44
330.887	85.44
331.115	71.44
331.344	98.44
331.572	86.44
331.801	75.44
332.03	80.44
332.258	87.44
332.486	76.44
332.715	87.44
332.943	81.44
333.172	92.44
333.4	91.44
333.629	83.44
333.857	80.44
334.085	84.44
334.314	84.44
334.542	91.44
334.771	93.44
334.999	89.44
335.227	87.44
335.455	83.44
335.684	83.44
335.912	77.44
336.14	73.44
336.369	93.44
336.597	84.44
336.825	96.44
337.053	84.44
337.281	82.44
337.51	91.44
337.738	87.44
337.966	87.44
338.194	85.44
338.422	92.44
338.65	85.44
338.878	83.44
339.106	89.44
339.334	85.44
339.562	82.44
339.79	75.44
340.018	78.44
340.246	80.44
340.474	74.44
340.702	78.44
340.93	81.44
341.158	80.44
341.386	76.44
341.614	75.44
341.842	83.44
342.07	80.44
342.298	83.44
342.526	92.44
342.754	76.44
342.981	73.44
343.209	83.44
343.437	84.44
343.665	80.44
343.893	90.44
344.12	91.44
344.348	77.44
344.576	80.44
344.804	91.44
345.031	82.44
345.259	72.44
345.487	85.44
345.714	80.44
345.942	82.44
346.17	79.44
346.397	89.44
346.625	76.44
346.853	81.44
347.08	82.44
347.308	89.44
347.535	82.44
347.763	87.44
347.99	104.44
348.218	90.44
348.445	83.44
348.673	76.44
348.9	87.44
349.128	94.44
349.355	90.44
349.583	88.44
349.81	87.44
350.037	80.44
350.265	91.44
350.492	69.44
350.72	95.44
350.947	94.44
351.174	87.44
351.402	89.44
351.629	86.44
351.856	95.44
352.083	107.44
352.311	79.44
352.538	79.44
352.765	86.44
352.992	90.44
353.22	86.44
353.447	89.44
353.674	89.44
353.901	83.44
354.128	98.44
354.355	84.44
354.583	85.44
354.81	75.44
355.037	88.44
355.264	77.44
355.491	79.44
355.718	79.44
355.945	104.44
356.172	85.44
356.399	79.44
356.626	86.44
356.853	79.44
357.08	82.44
357.307	90.44
357.534	77.44
357.761	76.44
357.988	78.44
358.215	79.44
358.441	90.44
358.668	92.44
358.895	76.44
359.122	82.44
359.349	75.44
359.576	86.44
359.802	88.44
360.029	94.44
360.256	77.44
360.483	83.44
360.709	70.44
360.936	90.44
361.163	91.44
361.39	91.44
361.616	81.44
361.843	77.44
362.07	77.44
362.296	100.44
362.523	87.44
362.749	87.44
362.976	87.44
363.203	86.44
363.429	76.44
363.656	90.44
363.882	81.44
364.109	91.44
364.335	88.44
364.562	82.44
364.788	90.44
365.015	95.44
365.241	84.44
365.468	88.44
365.694	65.44
365.92	84.44
366.147	97.44
366.373	83.44
366.599	82.44
366.826	90.44
367.052	77.44
367.278	83.44
367.505	93.44
367.731	96.44
367.957	95.44
368.184	92.44
368.41	98.44
368.636	92.44
368.862	79.44
369.089	91.44
369.315	81.44
369.541	85.44
369.767	81.44
369.993	102.44
370.219	78.44
370.445	90.44
370.672	77.44
370.898	82.44
371.124	86.44
371.35	82.44
371.576	80.44
371.802	87.44
372.028	96.44
372.254	87.44
372.48	99.44
372.706	76.44
372.932	73.44
373.158	80.44
373.384	86.44
373.61	108.44
373.835	89.44
374.061	91.44
374.287	91.44
374.513	90.44
374.739	99.44
374.965	98.44
375.191	70.44
375.416	86.44
375.642	93.44
375.868	89.44
376.094	81.44
376.319	80.44
376.545	80.44
376.771	96.44
376.997	95.44
377.222	71.44
377.448	78.44
377.674	78.44
377.899	85.44
378.125	73.44
378.35	83.44
378.576	84.44
378.802	77.44
379.027	94.44
379.253	91.44
379.478	83.44
379.704	65.44
379.929	80.44
380.155	90.44
380.38	71.44
380.606	75.44
380.831	83.44
381.057	80.44
381.282	76.44
381.507	70.44
381.733	88.44
381.958	93.44
382.184	91.44
382.409	82.44
382.634	81.44
382.86	92.44
383.085	89.44
383.31	71.44
383.535	85.44
383.761	99.44
383.986	94.44
384.211	77.44
384.436	91.44
384.662	79.44
384.887	97.44
385.112	82.44
385.337	88.44
385.562	81.44
385.787	64.44
386.013	79.44
386.238	92.44
386.463	83.44
386.688	87.44
386.913	78.44
387.138	82.44
387.363	69.44
387.588	84.44
387.813	86.44
388.038	79.44
388.263	80.44
388.488	80.44
388.713	74.44
388.938	90.44
389.163	94.44
389.387	81.44
389.612	94.44
389.837	81.44
390.062	87.44
390.287	74.44
390.512	98.44
390.736	83.44
390.961	86.44
391.186	82.44
391.411	83.44
391.636	84.44
391.86	79.44
392.085	87.44
392.31	87.44
392.534	92.44
392.759	94.44
392.984	103.44
393.208	160.44
393.433	212.44
393.658	166.44
393.882	79.44
394.107	87.44
394.331	88.44
394.556	75.44
394.78	84.44
395.005	80.44
395.229	75.44
395.454	88.44
395.678	97.44
395.903	82.44
396.127	84.44
396.352	103.44
396.576	122.44
396.801	164.44
397.025	174.44
397.249	118.44
397.474	102.44
397.698	90.44
397.922	62.44
398.147	89.44
398.371	80.44
398.595	76.44
398.82	82.44
399.044	82.44
399.268	95.44
399.492	80.44
399.717	87.44
399.941	91.44
400.165	98.44
400.389	89.44
400.613	80.44
400.837	76.44
401.062	80.44
401.286	82.44
401.51	92.44
401.734	84.44
401.958	84.44
402.182	83.44
402.406	70.44
402.63	86.44
402.854	74.44
403.078	82.44
403.302	74.44
403.526	90.44
403.75	95.44
403.974	90.44
404.198	80.44
404.422	73.44
404.645	101.44
404.869	103.44
405.093	82.44
405.317	84.44
405.541	93.44
405.765	77.44
405.988	68.44
406.212	86.44
406.436	85.44
406.66	87.44
406.883	81.44
407.107	87.44
407.331	83.44
407.555	93.44
407.778	83.44
408.002	89.44
408.226	84.44
408.449	90.44
408.673	78.44
408.896	80.44
409.12	87.44
409.344	94.44
409.567	88.44
409.791	93.44
410.014	80.44
410.238	99.44
410.461	76.44
410.685	77.44
410.908	86.44
411.132	85.44
411.355	89.44
411.578	83.44
411.802	81.44
412.025	84.44
412.249	95.44
412.472	90.44
412.695	95.44
412.919	80.44
413.142	88.44
413.365	91.44
413.589	82.44
413.812	78.44
414.035	86.44
414.258	79.44
414.482	94.44
414.705	78.44
414.928	71.44
415.151	79.44
415.374	86.44
415.597	68.44
415.821	82.44
416.044	85.44
416.267	82.44
416.49	83.44
416.713	83.44
416.936	84.44
417.159	75.44
417.382	71.44
417.605	86.44
417.828	76.44
418.051	73.44
418.274	90.44
418.497	91.44
418.72	88.44
418.943	91.44
419.166	71.44
419.389	81.44
419.611	86.44
419.834	87.44
420.057	79.44
420.28	89.44
420.503	74.44
420.726	74.44
420.948	77.44
421.171	87.44
421.394	87.44
421.617	95.44
421.839	87.44
422.062	79.44
422.285	89.44
422.507	104.44
422.73	169.44
422.953	149.44
423.175	96.44
423.398	86.44
423.621	92.44
423.843	74.44
424.066	87.44
424.288	92.44
424.511	78.44
424.733	77.44
424.956	82.44
425.178	100.44
425.401	78.44
425.623	83.44
425.846	74.44
426.068	84.44
426.291	82.44
426.513	77.44
426.735	76.44
426.958	89.44
427.18	90.44
427.402	84.44
427.625	90.44
427.847	78.44
428.069	82.44
428.292	85.44
428.514	70.44
428.736	81.44
428.958	99.44
429.181	102.44
429.403	88.44
429.625	82.44
429.847	94.44
430.069	105.44
430.292	87.44
430.514	103.44
430.736	87.44
430.958	105.44
431.18	64.44
431.402	79.44
431.624	82.44
431.846	98.44
432.068	92.44
432.29	70.44
432.512	70.44
432.734	72.44
432.956	76.44
433.178	73.44
433.4	76.44
433.622	89.44
433.844	94.44
434.066	83.44
434.287	78.44
434.509	83.44
434.731	90.44
434.953	86.44
435.175	92.44
435.397	94.44
435.618	82.44
435.84	90.44
436.062	73.44
436.284	90.44
436.505	72.44
436.727	76.44
436.949	85.44
437.17	82.44
437.392	97.44
437.614	87.44
437.835	82.44
438.057	81.44
438.278	84.44
438.5	84.44
438.721	78.44
438.943	89.44
439.165	82.44
439.386	97.44
439.608	87.44
439.829	71.44
440.05	92.44
440.272	83.44
440.493	86.44
440.715	89.44
440.936	83.44
441.158	81.44
441.379	86.44
441.6	79.44
441.822	76.44
442.043	83.44
442.264	83.44
442.486	85.44
442.707	103.44
442.928	72.44
443.149	85.44
443.371	102.44
443.592	104.44
443.813	103.44
444.034	86.44
444.255	75.44
444.476	83.44
444.698	82.44
444.919	83.44
445.14	164.44
445.361	131.44
445.582	121.44
445.803	100.44
446.024	84.44
446.245	86.44
446.466	77.44
446.687	82.44
446.908	92.44
447.129	68.44
447.35	91.44
447.571	79.44
447.792	101.44
448.013	82.44
448.234	89.44
448.455	76.44
448.675	90.44
448.896	64.44
449.117	88.44
449.338	91.44
449.559	98.44
449.779	77.44
450	86.44
450.221	70.44
450.442	84.44
450.662	92.44
450.883	84.44
451.104	77.44
451.324	74.44
451.545	80.44
451.766	87.44
451.986	80.44
452.207	94.44
452.428	85.44
452.648	90.44
452.869	74.44
453.089	60.44
453.31	74.44
453.53	100.44
453.751	90.44
453.971	92.44
454.192	84.44
454.412	97.44
454.633	90.44
454.853	91.44
455.073	90.44
455.294	83.44
455.514	95.44
455.734	73.44
455.955	85.44
456.175	80.44
456.395	94.44
456.616	76.44
456.836	78.44
457.056	94.44
457.276	83.44
457.497	83.44
457.717	87.44
457.937	82.44
458.157	82.44
458.377	81.44
458.598	92.44
458.818	101.44
459.038	88.44
459.258	75.44
459.478	84.44
459.698	86.44
459.918	77.44
460.138	76.44
460.358	88.44
460.578	87.44
460.798	94.44
461.018	97.44
461.238	90.44
461.458	82.44
461.678	84.44
461.898	99.44
462.118	96.44
462.338	93.44
462.558	94.44
462.777	80.44
462.997	85.44
463.217	70.44
463.437	75.44
463.657	84.44
463.876	83.44
464.096	86.44
464.316	78.44
464.536	72.44
464.755	74.44
464.975	86.44
465.195	77.44
465.414	82.44
465.634	80.44
465.854	96.44
466.073	72.44
466.293	78.44
466.512	75.44
466.732	73.44
466.951	72.44
467.171	87.44
467.391	81.44
467.61	89.44
467.829	80.44
468.049	94.44
468.268	94.44
468.488	94.44
468.707	82.44
468.927	79.44
469.146	81.44
469.365	74.44
469.585	92.44
469.804	84.44
470.023	91.44
470.243	85.44
470.462	83.44
470.681	91.44
470.901	80.44
471.12	86.44
471.339	87.44
471.558	96.44
471.777	85.44
471.997	72.44
472.216	77.44
472.435	60.44
472.654	94.44
472.873	82.44
473.092	92.44
473.311	84.44
473.53	89.44
473.749	79.44
473.968	89.44
474.187	85.44
474.406	81.44
474.625	76.44
474.844	86.44
475.063	70.44
475.282	64.44
475.501	90.44
475.72	89.44
475.939	77.44
476.158	82.44
476.377	74.44
476.596	64.44
476.814	81.44
477.033	83.44
477.252	75.44
477.471	80.44
477.69	78.44
477.908	81.44
478.127	84.44
478.346	88.44
478.564	85.44
478.783	86.44
479.002	81.44
479.22	83.44
479.439	82.44
479.658	90.44
479.876	81.44
480.095	86.44
480.313	94.44
480.532	90.44
480.751	88.44
480.969	74.44
481.188	87.44
481.406	82.44
481.624	89.44
481.843	98.44
482.061	96.44
482.28	88.44
482.498	99.44
482.717	88.44
482.935	90.44
483.153	89.44
483.372	79.44
483.59	86.44
483.808	78.44
484.027	87.44
484.245	89.44
484.463	88.44
484.681	82.44
484.9	73.44
485.118	75.44
485.336	67.44
485.554	90.44
485.772	80.44
485.99	77.44
486.209	85.44
486.427	72.44
486.645	87.44
486.863	87.44
487.081	81.44
487.299	85.44
487.517	86.44
487.735	85.44
487.953	86.44
488.171	88.44
488.389	92.44
488.607	89.44
488.825	93.44
489.043	68.44
489.261	80.44
489.479	84.44
489.696	90.44
489.914	94.44
490.132	71.44
490.35	93.44
490.568	91.44
490.786	90.44
491.003	80.44
491.221	83.44
491.439	89.44
491.657	86.44
491.874	91.44
492.092	91.44
492.31	90.44
492.527	82.44
492.745	87.44
492.963	83.44
493.18	74.44
493.398	90.44
493.615	80.44
493.833	67.44
494.05	83.44
494.268	96.44
494.485	75.44
494.703	91.44
494.92	89.44
495.138	88.44
495.355	82.44
495.573	64.44
495.79	76.44
496.008	81.44
496.225	89.44
496.442	76.44
496.66	66.44
496.877	88.44
497.094	87.44
497.312	104.44
497.529	77.44
497.746	79.44
497.963	87.44
498.181	88.44
498.398	75.44
498.615	81.44
498.832	86.44
499.049	91.44
499.267	72.44
499.484	83.44
499.701	81.44
499.918	93.44
500.135	87.44
500.352	83.44
500.569	80.44
500.786	102.44
501.003	107.44
501.22	80.44
501.437	86.44
501.654	82.44
501.871	83.44
502.088	71.44
502.305	78.44
502.522	77.44
502.739	86.44
502.956	91.44
503.172	83.44
503.389	80.44
503.606	83.44
503.823	92.44
504.04	99.44
504.256	84.44
504.473	88.44
504.69	100.44
504.907	90.44
505.123	83.44
505.34	89.44
505.557	86.44
505.773	74.44
505.99	95.44
506.207	85.44
506.423	75.44
506.64	86.44
506.856	74.44
507.073	76.44
507.289	83.44
507.506	84.44
507.722	69.44
507.939	62.44
508.155	87.44
508.372	78.44
508.588	78.44
508.805	80.44
509.021	94.44
509.238	81.44
509.454	88.44
509.67	83.44
509.887	101.44
510.103	84.44
510.319	89.44
510.536	80.44
510.752	86.44
510.968	86.44
511.184	69.44
511.401	76.44
511.617	101.44
511.833	92.44
512.049	88.44
512.265	90.44
512.481	88.44
512.698	80.44
512.914	87.44
513.13	81.44
513.346	88.44
513.562	92.44
513.778	80.44
513.994	81.44
514.21	74.44
514.426	79.44
514.642	76.44
514.858	88.44
515.074	87.44
515.29	83.44
515.506	83.44
515.721	84.44
515.937	92.44
516.153	80.44
516.369	97.44
516.585	91.44
516.801	93.44
517.016	88.44
517.232	96.44
517.448	95.44
517.664	72.44
517.879	90.44
518.095	78.44
518.311	94.44
518.527	92.44
518.742	87.44
518.958	90.44
519.173	88.44
519.389	83.44
519.605	88.44
