Data from 10100_2_HRD10591_00044.txt Node
Date: Mon Jan 19 14:01:46 EST 2026
User: Yrep
Spectrometer: HR+D1059
Trigger mode: 1
Integration Time (sec): 1.000000E-1
Scans to average: 1
Electric dark correction enabled: true
Nonlinearity correction enabled: false
Boxcar width: 0
XAxis mode: Wavelengths
Number of Pixels in Spectrum: 2048
>>>>>Begin Spectral Data<<<<<
223.165	-16.75
223.4	-16.75
223.635	-16.75
223.869	-13.75
224.104	-13.75
224.338	-10.75
224.573	-17.75
224.808	-9.75
225.042	-2.75
225.277	-1.75
225.511	-12.75
225.746	-4.75
225.98	17.25
226.215	-0.75
226.449	18.25
226.683	31.25
226.918	14.25
227.152	24.25
227.387	26.25
227.621	40.25
227.856	46.25
228.09	58.25
228.324	50.25
228.559	69.25
228.793	54.25
229.027	54.25
229.262	58.25
229.496	48.25
229.73	86.25
229.964	57.25
230.199	81.25
230.433	63.25
230.667	81.25
230.901	63.25
231.136	70.25
231.37	75.25
231.604	80.25
231.838	82.25
232.072	82.25
232.306	78.25
232.541	92.25
232.775	79.25
233.009	74.25
233.243	77.25
233.477	75.25
233.711	75.25
233.945	76.25
234.179	63.25
234.413	71.25
234.647	82.25
234.881	80.25
235.115	81.25
235.349	70.25
235.583	78.25
235.817	73.25
236.051	67.25
236.285	73.25
236.519	86.25
236.753	78.25
236.987	84.25
237.221	83.25
237.455	78.25
237.689	68.25
237.922	78.25
238.156	86.25
238.39	80.25
238.624	82.25
238.858	86.25
239.091	74.25
239.325	75.25
239.559	78.25
239.793	72.25
240.027	90.25
240.26	64.25
240.494	90.25
240.728	78.25
240.961	73.25
241.195	66.25
241.429	74.25
241.662	69.25
241.896	66.25
242.13	71.25
242.363	65.25
242.597	71.25
242.83	65.25
243.064	76.25
243.298	90.25
243.531	85.25
243.765	64.25
243.998	76.25
244.232	76.25
244.465	67.25
244.699	69.25
244.932	71.25
245.166	93.25
245.399	72.25
245.633	71.25
245.866	64.25
246.099	72.25
246.333	65.25
246.566	58.25
246.8	73.25
247.033	70.25
247.266	82.25
247.5	83.25
247.733	77.25
247.966	80.25
248.2	75.25
248.433	72.25
248.666	87.25
248.899	75.25
249.133	70.25
249.366	76.25
249.599	73.25
249.832	66.25
250.066	72.25
250.299	75.25
250.532	92.25
250.765	81.25
250.998	90.25
251.231	62.25
251.465	79.25
251.698	80.25
251.931	71.25
252.164	78.25
252.397	72.25
252.63	66.25
252.863	60.25
253.096	74.25
253.329	69.25
253.562	80.25
253.795	76.25
254.028	97.25
254.261	79.25
254.494	89.25
254.727	70.25
254.96	70.25
255.193	76.25
255.426	62.25
255.659	66.25
255.892	81.25
256.124	83.25
256.357	79.25
256.59	70.25
256.823	92.25
257.056	74.25
257.289	75.25
257.521	92.25
257.754	79.25
257.987	82.25
258.22	82.25
258.452	91.25
258.685	84.25
258.918	78.25
259.151	62.25
259.383	70.25
259.616	82.25
259.849	82.25
260.081	96.25
260.314	83.25
260.547	75.25
260.779	73.25
261.012	67.25
261.244	78.25
261.477	69.25
261.71	67.25
261.942	85.25
262.175	83.25
262.407	81.25
262.64	80.25
262.872	82.25
263.105	79.25
263.337	81.25
263.57	72.25
263.802	84.25
264.035	68.25
264.267	82.25
264.499	60.25
264.732	81.25
264.964	86.25
265.197	88.25
265.429	77.25
265.661	79.25
265.894	68.25
266.126	78.25
266.358	76.25
266.591	87.25
266.823	83.25
267.055	79.25
267.287	96.25
267.52	84.25
267.752	93.25
267.984	80.25
268.216	73.25
268.448	74.25
268.681	80.25
268.913	83.25
269.145	90.25
269.377	84.25
269.609	87.25
269.841	79.25
270.073	86.25
270.306	67.25
270.538	80.25
270.77	76.25
271.002	73.25
271.234	94.25
271.466	77.25
271.698	84.25
271.93	89.25
272.162	73.25
272.394	85.25
272.626	82.25
272.858	88.25
273.09	90.25
273.322	102.25
273.553	78.25
273.785	77.25
274.017	86.25
274.249	79.25
274.481	103.25
274.713	80.25
274.945	84.25
275.176	79.25
275.408	86.25
275.64	90.25
275.872	65.25
276.104	80.25
276.335	83.25
276.567	88.25
276.799	87.25
277.031	72.25
277.262	76.25
277.494	74.25
277.726	87.25
277.957	83.25
278.189	80.25
278.421	78.25
278.652	76.25
278.884	86.25
279.115	87.25
279.347	78.25
279.579	68.25
279.81	65.25
280.042	77.25
280.273	71.25
280.505	80.25
280.736	87.25
280.968	79.25
281.199	82.25
281.431	76.25
281.662	83.25
281.894	87.25
282.125	76.25
282.356	83.25
282.588	90.25
282.819	82.25
283.051	101.25
283.282	85.25
283.513	86.25
283.745	91.25
283.976	59.25
284.207	84.25
284.439	71.25
284.67	78.25
284.901	72.25
285.132	83.25
285.364	96.25
285.595	85.25
285.826	82.25
286.057	79.25
286.288	87.25
286.52	81.25
286.751	73.25
286.982	94.25
287.213	86.25
287.444	95.25
287.675	91.25
287.906	95.25
288.138	106.25
288.369	91.25
288.6	72.25
288.831	89.25
289.062	83.25
289.293	82.25
289.524	82.25
289.755	79.25
289.986	85.25
290.217	87.25
290.448	95.25
290.679	76.25
290.91	89.25
291.141	84.25
291.371	73.25
291.602	84.25
291.833	74.25
292.064	80.25
292.295	75.25
292.526	97.25
292.757	70.25
292.987	88.25
293.218	71.25
293.449	78.25
293.68	86.25
293.91	78.25
294.141	88.25
294.372	77.25
294.603	87.25
294.833	91.25
295.064	58.25
295.295	87.25
295.525	90.25
295.756	79.25
295.987	70.25
296.217	77.25
296.448	89.25
296.679	82.25
296.909	77.25
297.14	81.25
297.37	86.25
297.601	92.25
297.831	76.25
298.062	91.25
298.292	85.25
298.523	101.25
298.753	75.25
298.984	87.25
299.214	76.25
299.445	78.25
299.675	90.25
299.905	85.25
300.136	70.25
300.366	86.25
300.597	72.25
300.827	78.25
301.057	92.25
301.288	83.25
301.518	78.25
301.748	85.25
301.979	85.25
302.209	78.25
302.439	79.25
302.669	85.25
302.9	85.25
303.13	79.25
303.36	75.25
303.59	83.25
303.82	79.25
304.051	79.25
304.281	74.25
304.511	96.25
304.741	86.25
304.971	85.25
305.201	79.25
305.431	90.25
305.661	87.25
305.891	64.25
306.121	73.25
306.352	74.25
306.582	81.25
306.812	84.25
307.042	98.25
307.272	85.25
307.502	89.25
307.731	84.25
307.961	71.25
308.191	95.25
308.421	84.25
308.651	91.25
308.881	65.25
309.111	93.25
309.341	95.25
309.571	71.25
309.8	71.25
310.03	81.25
310.26	65.25
310.49	72.25
310.72	94.25
310.949	84.25
311.179	73.25
311.409	86.25
311.639	78.25
311.868	82.25
312.098	78.25
312.328	87.25
312.557	72.25
312.787	82.25
313.017	74.25
313.246	69.25
313.476	82.25
313.706	76.25
313.935	89.25
314.165	78.25
314.394	87.25
314.624	84.25
314.853	100.25
315.083	83.25
315.312	77.25
315.542	90.25
315.771	76.25
316.001	85.25
316.23	83.25
316.46	88.25
316.689	86.25
316.919	87.25
317.148	84.25
317.377	89.25
317.607	84.25
317.836	89.25
318.065	88.25
318.295	99.25
318.524	74.25
318.753	74.25
318.983	82.25
319.212	74.25
319.441	81.25
319.67	95.25
319.9	71.25
320.129	97.25
320.358	71.25
320.587	87.25
320.816	73.25
321.046	75.25
321.275	83.25
321.504	80.25
321.733	79.25
321.962	80.25
322.191	76.25
322.42	63.25
322.649	87.25
322.878	83.25
323.108	78.25
323.337	84.25
323.566	81.25
323.795	86.25
324.024	95.25
324.253	89.25
324.482	73.25
324.71	79.25
324.939	94.25
325.168	89.25
325.397	76.25
325.626	93.25
325.855	82.25
326.084	78.25
326.313	93.25
326.542	73.25
326.77	71.25
326.999	85.25
327.228	86.25
327.457	86.25
327.686	94.25
327.914	80.25
328.143	87.25
328.372	86.25
328.6	74.25
328.829	78.25
329.058	77.25
329.287	97.25
329.515	82.25
329.744	88.25
329.972	74.25
330.201	81.25
330.43	84.25
330.658	102.25
330.887	94.25
331.115	75.25
331.344	80.25
331.572	71.25
331.801	80.25
332.03	102.25
332.258	82.25
332.486	79.25
332.715	78.25
332.943	85.25
333.172	82.25
333.4	84.25
333.629	93.25
333.857	67.25
334.085	69.25
334.314	92.25
334.542	75.25
334.771	83.25
334.999	83.25
335.227	77.25
335.455	75.25
335.684	88.25
335.912	84.25
336.14	94.25
336.369	86.25
336.597	83.25
336.825	84.25
337.053	85.25
337.281	91.25
337.51	70.25
337.738	81.25
337.966	92.25
338.194	76.25
338.422	79.25
338.65	86.25
338.878	72.25
339.106	76.25
339.334	81.25
339.562	62.25
339.79	87.25
340.018	86.25
340.246	87.25
340.474	87.25
340.702	75.25
340.93	72.25
341.158	86.25
341.386	86.25
341.614	78.25
341.842	78.25
342.07	77.25
342.298	70.25
342.526	66.25
342.754	84.25
342.981	96.25
343.209	82.25
343.437	89.25
343.665	87.25
343.893	93.25
344.12	78.25
344.348	72.25
344.576	81.25
344.804	79.25
345.031	90.25
345.259	84.25
345.487	72.25
345.714	84.25
345.942	86.25
346.17	86.25
346.397	80.25
346.625	96.25
346.853	77.25
347.08	91.25
347.308	78.25
347.535	74.25
347.763	87.25
347.99	90.25
348.218	87.25
348.445	76.25
348.673	84.25
348.9	98.25
349.128	86.25
349.355	81.25
349.583	79.25
349.81	80.25
350.037	87.25
350.265	77.25
350.492	77.25
350.72	83.25
350.947	90.25
351.174	76.25
351.402	83.25
351.629	95.25
351.856	84.25
352.083	82.25
352.311	77.25
352.538	80.25
352.765	91.25
352.992	99.25
353.22	72.25
353.447	76.25
353.674	83.25
353.901	89.25
354.128	73.25
354.355	85.25
354.583	81.25
354.81	82.25
355.037	69.25
355.264	82.25
355.491	79.25
355.718	60.25
355.945	74.25
356.172	86.25
356.399	77.25
356.626	70.25
356.853	73.25
357.08	83.25
357.307	79.25
357.534	87.25
357.761	78.25
357.988	84.25
358.215	66.25
358.441	68.25
358.668	77.25
358.895	71.25
359.122	71.25
359.349	92.25
359.576	84.25
359.802	86.25
360.029	76.25
360.256	82.25
360.483	88.25
360.709	83.25
360.936	86.25
361.163	74.25
361.39	80.25
361.616	80.25
361.843	88.25
362.07	73.25
362.296	66.25
362.523	94.25
362.749	74.25
362.976	75.25
363.203	94.25
363.429	87.25
363.656	85.25
363.882	68.25
364.109	82.25
364.335	95.25
364.562	79.25
364.788	88.25
365.015	82.25
365.241	94.25
365.468	87.25
365.694	78.25
365.92	70.25
366.147	89.25
366.373	89.25
366.599	76.25
366.826	79.25
367.052	74.25
367.278	78.25
367.505	75.25
367.731	81.25
367.957	71.25
368.184	70.25
368.41	62.25
368.636	84.25
368.862	92.25
369.089	88.25
369.315	98.25
369.541	78.25
369.767	71.25
369.993	82.25
370.219	91.25
370.445	93.25
370.672	90.25
370.898	87.25
371.124	79.25
371.35	79.25
371.576	83.25
371.802	80.25
372.028	94.25
372.254	77.25
372.48	71.25
372.706	85.25
372.932	76.25
373.158	92.25
373.384	86.25
373.61	76.25
373.835	85.25
374.061	87.25
374.287	68.25
374.513	90.25
374.739	105.25
374.965	70.25
375.191	91.25
375.416	68.25
375.642	85.25
375.868	87.25
376.094	78.25
376.319	88.25
376.545	76.25
376.771	71.25
376.997	86.25
377.222	94.25
377.448	83.25
377.674	84.25
377.899	80.25
378.125	86.25
378.35	78.25
378.576	73.25
378.802	68.25
379.027	73.25
379.253	84.25
379.478	78.25
379.704	94.25
379.929	80.25
380.155	74.25
380.38	86.25
380.606	71.25
380.831	86.25
381.057	83.25
381.282	95.25
381.507	93.25
381.733	79.25
381.958	83.25
382.184	67.25
382.409	89.25
382.634	78.25
382.86	83.25
383.085	96.25
383.31	83.25
383.535	76.25
383.761	74.25
383.986	83.25
384.211	80.25
384.436	78.25
384.662	81.25
384.887	76.25
385.112	75.25
385.337	84.25
385.562	72.25
385.787	79.25
386.013	85.25
386.238	94.25
386.463	77.25
386.688	90.25
386.913	83.25
387.138	78.25
387.363	81.25
387.588	78.25
387.813	84.25
388.038	78.25
388.263	87.25
388.488	83.25
388.713	73.25
388.938	76.25
389.163	80.25
389.387	97.25
389.612	76.25
389.837	78.25
390.062	73.25
390.287	72.25
390.512	70.25
390.736	71.25
390.961	76.25
391.186	73.25
391.411	87.25
391.636	93.25
391.86	73.25
392.085	83.25
392.31	76.25
392.534	78.25
392.759	92.25
392.984	87.25
393.208	117.25
393.433	139.25
393.658	119.25
393.882	79.25
394.107	77.25
394.331	85.25
394.556	67.25
394.78	74.25
395.005	77.25
395.229	75.25
395.454	80.25
395.678	77.25
395.903	82.25
396.127	87.25
396.352	88.25
396.576	99.25
396.801	101.25
397.025	111.25
397.249	103.25
397.474	88.25
397.698	84.25
397.922	72.25
398.147	86.25
398.371	74.25
398.595	81.25
398.82	64.25
399.044	74.25
399.268	76.25
399.492	94.25
399.717	81.25
399.941	77.25
400.165	77.25
400.389	84.25
400.613	74.25
400.837	51.25
401.062	95.25
401.286	84.25
401.51	84.25
401.734	87.25
401.958	89.25
402.182	83.25
402.406	84.25
402.63	76.25
402.854	77.25
403.078	79.25
403.302	82.25
403.526	71.25
403.75	68.25
403.974	78.25
404.198	68.25
404.422	83.25
404.645	77.25
404.869	83.25
405.093	72.25
405.317	72.25
405.541	74.25
405.765	83.25
405.988	83.25
406.212	73.25
406.436	68.25
406.66	80.25
406.883	67.25
407.107	86.25
407.331	87.25
407.555	68.25
407.778	88.25
408.002	79.25
408.226	86.25
408.449	90.25
408.673	73.25
408.896	88.25
409.12	96.25
409.344	79.25
409.567	86.25
409.791	94.25
410.014	102.25
410.238	93.25
410.461	79.25
410.685	71.25
410.908	81.25
411.132	94.25
411.355	69.25
411.578	67.25
411.802	90.25
412.025	81.25
412.249	86.25
412.472	89.25
412.695	78.25
412.919	54.25
413.142	81.25
413.365	69.25
413.589	72.25
413.812	83.25
414.035	64.25
414.258	77.25
414.482	78.25
414.705	83.25
414.928	76.25
415.151	98.25
415.374	86.25
415.597	69.25
415.821	71.25
416.044	80.25
416.267	88.25
416.49	81.25
416.713	89.25
416.936	81.25
417.159	96.25
417.382	73.25
417.605	82.25
417.828	95.25
418.051	90.25
418.274	84.25
418.497	74.25
418.72	84.25
418.943	69.25
419.166	66.25
419.389	83.25
419.611	82.25
419.834	99.25
420.057	76.25
420.28	80.25
420.503	79.25
420.726	62.25
420.948	76.25
421.171	78.25
421.394	80.25
421.617	60.25
421.839	80.25
422.062	83.25
422.285	87.25
422.507	114.25
422.73	131.25
422.953	130.25
423.175	82.25
423.398	80.25
423.621	69.25
423.843	76.25
424.066	76.25
424.288	85.25
424.511	90.25
424.733	86.25
424.956	82.25
425.178	76.25
425.401	90.25
425.623	82.25
425.846	78.25
426.068	95.25
426.291	68.25
426.513	86.25
426.735	87.25
426.958	74.25
427.18	87.25
427.402	64.25
427.625	78.25
427.847	83.25
428.069	82.25
428.292	71.25
428.514	75.25
428.736	73.25
428.958	75.25
429.181	100.25
429.403	91.25
429.625	90.25
429.847	89.25
430.069	82.25
430.292	92.25
430.514	102.25
430.736	89.25
430.958	86.25
431.18	74.25
431.402	71.25
431.624	86.25
431.846	88.25
432.068	91.25
432.29	73.25
432.512	97.25
432.734	81.25
432.956	86.25
433.178	80.25
433.4	78.25
433.622	79.25
433.844	85.25
434.066	60.25
434.287	86.25
434.509	70.25
434.731	71.25
434.953	80.25
435.175	74.25
435.397	75.25
435.618	90.25
435.84	93.25
436.062	69.25
436.284	59.25
436.505	82.25
436.727	69.25
436.949	76.25
437.17	79.25
437.392	88.25
437.614	86.25
437.835	72.25
438.057	79.25
438.278	72.25
438.5	98.25
438.721	85.25
438.943	60.25
439.165	86.25
439.386	79.25
439.608	88.25
439.829	67.25
440.05	90.25
440.272	68.25
440.493	60.25
440.715	77.25
440.936	85.25
441.158	86.25
441.379	65.25
441.6	72.25
441.822	76.25
442.043	72.25
442.264	79.25
442.486	94.25
442.707	73.25
442.928	70.25
443.149	69.25
443.371	88.25
443.592	91.25
443.813	85.25
444.034	82.25
444.255	74.25
444.476	82.25
444.698	84.25
444.919	83.25
445.14	165.25
445.361	110.25
445.582	98.25
445.803	112.25
446.024	87.25
446.245	93.25
446.466	83.25
446.687	76.25
446.908	85.25
447.129	72.25
447.35	78.25
447.571	72.25
447.792	71.25
448.013	72.25
448.234	89.25
448.455	64.25
448.675	66.25
448.896	90.25
449.117	80.25
449.338	88.25
449.559	69.25
449.779	87.25
450	84.25
450.221	80.25
450.442	89.25
450.662	67.25
450.883	81.25
451.104	89.25
451.324	79.25
451.545	78.25
451.766	71.25
451.986	77.25
452.207	82.25
452.428	71.25
452.648	83.25
452.869	71.25
453.089	92.25
453.31	70.25
453.53	76.25
453.751	92.25
453.971	67.25
454.192	92.25
454.412	72.25
454.633	72.25
454.853	85.25
455.073	81.25
455.294	75.25
455.514	71.25
455.734	76.25
455.955	71.25
456.175	82.25
456.395	87.25
456.616	76.25
456.836	81.25
457.056	83.25
457.276	70.25
457.497	75.25
457.717	78.25
457.937	92.25
458.157	94.25
458.377	91.25
458.598	71.25
458.818	77.25
459.038	95.25
459.258	90.25
459.478	87.25
459.698	75.25
459.918	75.25
460.138	73.25
460.358	70.25
460.578	78.25
460.798	86.25
461.018	81.25
461.238	76.25
461.458	80.25
461.678	75.25
461.898	70.25
462.118	86.25
462.338	82.25
462.558	86.25
462.777	82.25
462.997	86.25
463.217	85.25
463.437	71.25
463.657	82.25
463.876	74.25
464.096	71.25
464.316	76.25
464.536	66.25
464.755	67.25
464.975	96.25
465.195	81.25
465.414	76.25
465.634	70.25
465.854	82.25
466.073	82.25
466.293	78.25
466.512	99.25
466.732	86.25
466.951	79.25
467.171	78.25
467.391	78.25
467.61	71.25
467.829	80.25
468.049	82.25
468.268	66.25
468.488	72.25
468.707	62.25
468.927	82.25
469.146	68.25
469.365	71.25
469.585	76.25
469.804	80.25
470.023	73.25
470.243	83.25
470.462	65.25
470.681	69.25
470.901	71.25
471.12	85.25
471.339	79.25
471.558	74.25
471.777	85.25
471.997	88.25
472.216	84.25
472.435	72.25
472.654	73.25
472.873	53.25
473.092	88.25
473.311	84.25
473.53	76.25
473.749	80.25
473.968	68.25
474.187	72.25
474.406	72.25
474.625	82.25
474.844	72.25
475.063	82.25
475.282	77.25
475.501	76.25
475.72	82.25
475.939	87.25
476.158	86.25
476.377	87.25
476.596	74.25
476.814	82.25
477.033	83.25
477.252	91.25
477.471	83.25
477.69	86.25
477.908	80.25
478.127	84.25
478.346	91.25
478.564	76.25
478.783	72.25
479.002	84.25
479.22	80.25
479.439	80.25
479.658	70.25
479.876	78.25
480.095	88.25
480.313	84.25
480.532	87.25
480.751	87.25
480.969	76.25
481.188	71.25
481.406	85.25
481.624	68.25
481.843	85.25
482.061	74.25
482.28	81.25
482.498	86.25
482.717	74.25
482.935	89.25
483.153	89.25
483.372	70.25
483.59	72.25
483.808	87.25
484.027	71.25
484.245	97.25
484.463	74.25
484.681	84.25
484.9	83.25
485.118	71.25
485.336	78.25
485.554	70.25
485.772	85.25
485.99	87.25
486.209	80.25
486.427	83.25
486.645	89.25
486.863	79.25
487.081	85.25
487.299	76.25
487.517	78.25
487.735	76.25
487.953	63.25
488.171	91.25
488.389	96.25
488.607	88.25
488.825	90.25
489.043	88.25
489.261	80.25
489.479	77.25
489.696	85.25
489.914	69.25
490.132	70.25
490.35	83.25
490.568	80.25
490.786	74.25
491.003	96.25
491.221	77.25
491.439	82.25
491.657	69.25
491.874	74.25
492.092	79.25
492.31	97.25
492.527	78.25
492.745	80.25
492.963	78.25
493.18	97.25
493.398	81.25
493.615	75.25
493.833	78.25
494.05	67.25
494.268	76.25
494.485	86.25
494.703	70.25
494.92	86.25
495.138	88.25
495.355	81.25
495.573	62.25
495.79	62.25
496.008	83.25
496.225	73.25
496.442	96.25
496.66	87.25
496.877	92.25
497.094	73.25
497.312	80.25
497.529	75.25
497.746	84.25
497.963	79.25
498.181	84.25
498.398	80.25
498.615	80.25
498.832	87.25
499.049	86.25
499.267	84.25
499.484	71.25
499.701	71.25
499.918	78.25
500.135	81.25
500.352	87.25
500.569	89.25
500.786	76.25
501.003	79.25
501.22	70.25
501.437	66.25
501.654	68.25
501.871	88.25
502.088	77.25
502.305	74.25
502.522	89.25
502.739	83.25
502.956	77.25
503.172	89.25
503.389	87.25
503.606	70.25
503.823	78.25
504.04	81.25
504.256	95.25
504.473	76.25
504.69	81.25
504.907	81.25
505.123	75.25
505.34	87.25
505.557	81.25
505.773	72.25
505.99	68.25
506.207	75.25
506.423	70.25
506.64	76.25
506.856	79.25
507.073	77.25
507.289	89.25
507.506	85.25
507.722	61.25
507.939	81.25
508.155	75.25
508.372	87.25
508.588	83.25
508.805	84.25
509.021	77.25
509.238	92.25
509.454	76.25
509.67	71.25
509.887	72.25
510.103	82.25
510.319	80.25
510.536	83.25
510.752	99.25
510.968	85.25
511.184	81.25
511.401	76.25
511.617	79.25
511.833	68.25
512.049	67.25
512.265	85.25
512.481	80.25
512.698	76.25
512.914	83.25
513.13	89.25
513.346	82.25
513.562	76.25
513.778	90.25
513.994	72.25
514.21	79.25
514.426	83.25
514.642	89.25
514.858	87.25
515.074	76.25
515.29	90.25
515.506	80.25
515.721	84.25
515.937	78.25
516.153	74.25
516.369	87.25
516.585	76.25
516.801	94.25
517.016	85.25
517.232	101.25
517.448	65.25
517.664	76.25
517.879	81.25
518.095	83.25
518.311	92.25
518.527	82.25
518.742	86.25
518.958	82.25
519.173	83.25
519.389	77.25
519.605	80.25
519.82	77.25
