Data from 10100_2_HRD10591_00015.txt Node
Date: Mon Jan 19 14:01:31 EST 2026
User: Yrep
Spectrometer: HR+D1059
Trigger mode: 1
Integration Time (sec): 1.000000E-1
Scans to average: 1
Electric dark correction enabled: true
Nonlinearity correction enabled: false
Boxcar width: 0
XAxis mode: Wavelengths
Number of Pixels in Spectrum: 2048
>>>>>Begin Spectral Data<<<<<
223.165	1.62
223.4	1.62
223.635	1.62
223.869	-23.38
224.104	-14.38
224.338	-14.38
224.573	-20.38
224.808	-14.38
225.042	-3.38
225.277	6.62
225.511	-5.38
225.746	-4.38
225.98	9.62
226.215	13.62
226.449	6.62
226.683	8.62
226.918	26.62
227.152	26.62
227.387	30.62
227.621	53.62
227.856	49.62
228.09	50.62
228.324	43.62
228.559	73.62
228.793	56.62
229.027	65.62
229.262	65.62
229.496	65.62
229.73	63.62
229.964	75.62
230.199	82.62
230.433	73.62
230.667	84.62
230.901	79.62
231.136	86.62
231.37	74.62
231.604	84.62
231.838	93.62
232.072	98.62
232.306	97.62
232.541	73.62
232.775	75.62
233.009	82.62
233.243	79.62
233.477	75.62
233.711	89.62
233.945	78.62
234.179	76.62
234.413	90.62
234.647	75.62
234.881	79.62
235.115	75.62
235.349	89.62
235.583	80.62
235.817	72.62
236.051	63.62
236.285	73.62
236.519	80.62
236.753	72.62
236.987	95.62
237.221	76.62
237.455	79.62
237.689	66.62
237.922	81.62
238.156	85.62
238.39	74.62
238.624	85.62
238.858	75.62
239.091	66.62
239.325	70.62
239.559	79.62
239.793	79.62
240.027	85.62
240.26	82.62
240.494	73.62
240.728	70.62
240.961	77.62
241.195	87.62
241.429	81.62
241.662	73.62
241.896	87.62
242.13	82.62
242.363	80.62
242.597	80.62
242.83	96.62
243.064	82.62
243.298	71.62
243.531	77.62
243.765	58.62
243.998	77.62
244.232	77.62
244.465	71.62
244.699	71.62
244.932	70.62
245.166	86.62
245.399	67.62
245.633	82.62
245.866	82.62
246.099	77.62
246.333	85.62
246.566	88.62
246.8	75.62
247.033	84.62
247.266	75.62
247.5	84.62
247.733	73.62
247.966	69.62
248.2	83.62
248.433	78.62
248.666	68.62
248.899	68.62
249.133	86.62
249.366	86.62
249.599	86.62
249.832	79.62
250.066	80.62
250.299	83.62
250.532	84.62
250.765	86.62
250.998	87.62
251.231	91.62
251.465	71.62
251.698	81.62
251.931	73.62
252.164	76.62
252.397	73.62
252.63	82.62
252.863	75.62
253.096	71.62
253.329	82.62
253.562	73.62
253.795	84.62
254.028	72.62
254.261	73.62
254.494	81.62
254.727	73.62
254.96	68.62
255.193	88.62
255.426	74.62
255.659	66.62
255.892	86.62
256.124	83.62
256.357	79.62
256.59	94.62
256.823	78.62
257.056	86.62
257.289	75.62
257.521	88.62
257.754	80.62
257.987	91.62
258.22	88.62
258.452	83.62
258.685	72.62
258.918	79.62
259.151	71.62
259.383	81.62
259.616	75.62
259.849	76.62
260.081	83.62
260.314	78.62
260.547	93.62
260.779	68.62
261.012	65.62
261.244	79.62
261.477	87.62
261.71	72.62
261.942	84.62
262.175	95.62
262.407	76.62
262.64	83.62
262.872	79.62
263.105	79.62
263.337	75.62
263.57	71.62
263.802	89.62
264.035	85.62
264.267	79.62
264.499	85.62
264.732	88.62
264.964	57.62
265.197	71.62
265.429	98.62
265.661	85.62
265.894	65.62
266.126	82.62
266.358	87.62
266.591	64.62
266.823	70.62
267.055	62.62
267.287	93.62
267.52	89.62
267.752	91.62
267.984	79.62
268.216	85.62
268.448	83.62
268.681	78.62
268.913	86.62
269.145	91.62
269.377	90.62
269.609	82.62
269.841	81.62
270.073	91.62
270.306	74.62
270.538	85.62
270.77	85.62
271.002	82.62
271.234	65.62
271.466	74.62
271.698	72.62
271.93	85.62
272.162	81.62
272.394	81.62
272.626	89.62
272.858	78.62
273.09	81.62
273.322	81.62
273.553	88.62
273.785	81.62
274.017	88.62
274.249	77.62
274.481	93.62
274.713	83.62
274.945	82.62
275.176	94.62
275.408	93.62
275.64	91.62
275.872	85.62
276.104	73.62
276.335	74.62
276.567	93.62
276.799	83.62
277.031	75.62
277.262	80.62
277.494	89.62
277.726	86.62
277.957	74.62
278.189	76.62
278.421	85.62
278.652	68.62
278.884	86.62
279.115	83.62
279.347	93.62
279.579	94.62
279.81	71.62
280.042	81.62
280.273	88.62
280.505	79.62
280.736	80.62
280.968	93.62
281.199	81.62
281.431	83.62
281.662	93.62
281.894	78.62
282.125	73.62
282.356	90.62
282.588	74.62
282.819	78.62
283.051	88.62
283.282	76.62
283.513	86.62
283.745	76.62
283.976	66.62
284.207	90.62
284.439	89.62
284.67	82.62
284.901	84.62
285.132	90.62
285.364	90.62
285.595	100.62
285.826	99.62
286.057	95.62
286.288	80.62
286.52	75.62
286.751	78.62
286.982	83.62
287.213	93.62
287.444	74.62
287.675	68.62
287.906	81.62
288.138	69.62
288.369	87.62
288.6	84.62
288.831	87.62
289.062	77.62
289.293	75.62
289.524	87.62
289.755	85.62
289.986	87.62
290.217	85.62
290.448	90.62
290.679	88.62
290.91	89.62
291.141	96.62
291.371	89.62
291.602	85.62
291.833	80.62
292.064	83.62
292.295	82.62
292.526	82.62
292.757	91.62
292.987	76.62
293.218	85.62
293.449	89.62
293.68	94.62
293.91	83.62
294.141	97.62
294.372	92.62
294.603	94.62
294.833	85.62
295.064	81.62
295.295	90.62
295.525	75.62
295.756	89.62
295.987	73.62
296.217	84.62
296.448	79.62
296.679	113.62
296.909	94.62
297.14	89.62
297.37	83.62
297.601	81.62
297.831	97.62
298.062	73.62
298.292	74.62
298.523	86.62
298.753	89.62
298.984	71.62
299.214	85.62
299.445	84.62
299.675	93.62
299.905	94.62
300.136	83.62
300.366	87.62
300.597	100.62
300.827	70.62
301.057	81.62
301.288	77.62
301.518	80.62
301.748	89.62
301.979	90.62
302.209	85.62
302.439	83.62
302.669	90.62
302.9	96.62
303.13	75.62
303.36	85.62
303.59	71.62
303.82	89.62
304.051	89.62
304.281	96.62
304.511	75.62
304.741	91.62
304.971	81.62
305.201	88.62
305.431	90.62
305.661	87.62
305.891	80.62
306.121	83.62
306.352	82.62
306.582	82.62
306.812	87.62
307.042	88.62
307.272	87.62
307.502	82.62
307.731	77.62
307.961	83.62
308.191	97.62
308.421	84.62
308.651	94.62
308.881	91.62
309.111	79.62
309.341	88.62
309.571	76.62
309.8	85.62
310.03	96.62
310.26	77.62
310.49	88.62
310.72	73.62
310.949	71.62
311.179	81.62
311.409	82.62
311.639	63.62
311.868	100.62
312.098	88.62
312.328	97.62
312.557	93.62
312.787	82.62
313.017	85.62
313.246	84.62
313.476	81.62
313.706	69.62
313.935	73.62
314.165	78.62
314.394	81.62
314.624	91.62
314.853	92.62
315.083	90.62
315.312	91.62
315.542	73.62
315.771	103.62
316.001	85.62
316.23	87.62
316.46	82.62
316.689	75.62
316.919	86.62
317.148	93.62
317.377	93.62
317.607	102.62
317.836	73.62
318.065	103.62
318.295	87.62
318.524	79.62
318.753	91.62
318.983	91.62
319.212	81.62
319.441	82.62
319.67	88.62
319.9	76.62
320.129	78.62
320.358	93.62
320.587	93.62
320.816	87.62
321.046	87.62
321.275	88.62
321.504	81.62
321.733	74.62
321.962	81.62
322.191	78.62
322.42	90.62
322.649	90.62
322.878	85.62
323.108	96.62
323.337	83.62
323.566	78.62
323.795	85.62
324.024	79.62
324.253	93.62
324.482	84.62
324.71	89.62
324.939	77.62
325.168	84.62
325.397	89.62
325.626	75.62
325.855	70.62
326.084	96.62
326.313	91.62
326.542	98.62
326.77	98.62
326.999	92.62
327.228	96.62
327.457	91.62
327.686	81.62
327.914	82.62
328.143	82.62
328.372	90.62
328.6	84.62
328.829	75.62
329.058	83.62
329.287	91.62
329.515	76.62
329.744	79.62
329.972	69.62
330.201	80.62
330.43	67.62
330.658	91.62
330.887	86.62
331.115	81.62
331.344	85.62
331.572	93.62
331.801	79.62
332.03	94.62
332.258	87.62
332.486	87.62
332.715	90.62
332.943	93.62
333.172	100.62
333.4	78.62
333.629	76.62
333.857	88.62
334.085	75.62
334.314	79.62
334.542	86.62
334.771	102.62
334.999	91.62
335.227	93.62
335.455	93.62
335.684	87.62
335.912	77.62
336.14	85.62
336.369	91.62
336.597	100.62
336.825	82.62
337.053	85.62
337.281	85.62
337.51	82.62
337.738	74.62
337.966	78.62
338.194	77.62
338.422	66.62
338.65	86.62
338.878	96.62
339.106	96.62
339.334	102.62
339.562	94.62
339.79	83.62
340.018	75.62
340.246	80.62
340.474	86.62
340.702	79.62
340.93	79.62
341.158	98.62
341.386	85.62
341.614	85.62
341.842	102.62
342.07	88.62
342.298	98.62
342.526	76.62
342.754	82.62
342.981	88.62
343.209	78.62
343.437	88.62
343.665	85.62
343.893	93.62
344.12	90.62
344.348	78.62
344.576	81.62
344.804	69.62
345.031	85.62
345.259	95.62
345.487	88.62
345.714	93.62
345.942	81.62
346.17	89.62
346.397	99.62
346.625	91.62
346.853	78.62
347.08	86.62
347.308	96.62
347.535	87.62
347.763	87.62
347.99	98.62
348.218	90.62
348.445	87.62
348.673	76.62
348.9	95.62
349.128	91.62
349.355	83.62
349.583	86.62
349.81	91.62
350.037	89.62
350.265	83.62
350.492	84.62
350.72	77.62
350.947	78.62
351.174	97.62
351.402	81.62
351.629	92.62
351.856	86.62
352.083	91.62
352.311	94.62
352.538	75.62
352.765	99.62
352.992	89.62
353.22	76.62
353.447	97.62
353.674	90.62
353.901	89.62
354.128	77.62
354.355	86.62
354.583	85.62
354.81	79.62
355.037	79.62
355.264	98.62
355.491	63.62
355.718	91.62
355.945	95.62
356.172	85.62
356.399	93.62
356.626	85.62
356.853	90.62
357.08	81.62
357.307	81.62
357.534	80.62
357.761	93.62
357.988	99.62
358.215	93.62
358.441	95.62
358.668	81.62
358.895	91.62
359.122	83.62
359.349	85.62
359.576	80.62
359.802	86.62
360.029	99.62
360.256	94.62
360.483	83.62
360.709	80.62
360.936	107.62
361.163	87.62
361.39	87.62
361.616	86.62
361.843	79.62
362.07	84.62
362.296	88.62
362.523	92.62
362.749	106.62
362.976	86.62
363.203	83.62
363.429	85.62
363.656	85.62
363.882	91.62
364.109	94.62
364.335	103.62
364.562	94.62
364.788	106.62
365.015	95.62
365.241	93.62
365.468	96.62
365.694	79.62
365.92	85.62
366.147	80.62
366.373	78.62
366.599	91.62
366.826	86.62
367.052	87.62
367.278	80.62
367.505	85.62
367.731	85.62
367.957	74.62
368.184	75.62
368.41	81.62
368.636	85.62
368.862	86.62
369.089	91.62
369.315	75.62
369.541	77.62
369.767	65.62
369.993	84.62
370.219	72.62
370.445	90.62
370.672	89.62
370.898	93.62
371.124	84.62
371.35	79.62
371.576	77.62
371.802	63.62
372.028	81.62
372.254	97.62
372.48	85.62
372.706	81.62
372.932	85.62
373.158	86.62
373.384	87.62
373.61	79.62
373.835	103.62
374.061	89.62
374.287	95.62
374.513	93.62
374.739	89.62
374.965	88.62
375.191	94.62
375.416	92.62
375.642	93.62
375.868	85.62
376.094	83.62
376.319	87.62
376.545	83.62
376.771	91.62
376.997	81.62
377.222	84.62
377.448	85.62
377.674	75.62
377.899	84.62
378.125	77.62
378.35	75.62
378.576	83.62
378.802	88.62
379.027	78.62
379.253	92.62
379.478	85.62
379.704	91.62
379.929	95.62
380.155	102.62
380.38	91.62
380.606	78.62
380.831	103.62
381.057	80.62
381.282	90.62
381.507	88.62
381.733	86.62
381.958	103.62
382.184	79.62
382.409	83.62
382.634	99.62
382.86	87.62
383.085	80.62
383.31	93.62
383.535	89.62
383.761	86.62
383.986	83.62
384.211	83.62
384.436	91.62
384.662	83.62
384.887	87.62
385.112	83.62
385.337	69.62
385.562	84.62
385.787	89.62
386.013	101.62
386.238	89.62
386.463	86.62
386.688	88.62
386.913	87.62
387.138	94.62
387.363	70.62
387.588	85.62
387.813	99.62
388.038	74.62
388.263	85.62
388.488	94.62
388.713	98.62
388.938	75.62
389.163	99.62
389.387	77.62
389.612	83.62
389.837	84.62
390.062	76.62
390.287	83.62
390.512	90.62
390.736	79.62
390.961	81.62
391.186	87.62
391.411	96.62
391.636	89.62
391.86	85.62
392.085	82.62
392.31	91.62
392.534	88.62
392.759	86.62
392.984	113.62
393.208	185.62
393.433	208.62
393.658	165.62
393.882	89.62
394.107	76.62
394.331	94.62
394.556	95.62
394.78	82.62
395.005	95.62
395.229	76.62
395.454	100.62
395.678	93.62
395.903	87.62
396.127	101.62
396.352	118.62
396.576	122.62
396.801	176.62
397.025	186.62
397.249	120.62
397.474	100.62
397.698	97.62
397.922	93.62
398.147	86.62
398.371	79.62
398.595	88.62
398.82	87.62
399.044	81.62
399.268	71.62
399.492	97.62
399.717	82.62
399.941	82.62
400.165	92.62
400.389	82.62
400.613	85.62
400.837	101.62
401.062	82.62
401.286	81.62
401.51	71.62
401.734	87.62
401.958	85.62
402.182	87.62
402.406	78.62
402.63	69.62
402.854	94.62
403.078	91.62
403.302	98.62
403.526	85.62
403.75	83.62
403.974	83.62
404.198	83.62
404.422	87.62
404.645	95.62
404.869	101.62
405.093	81.62
405.317	91.62
405.541	85.62
405.765	93.62
405.988	76.62
406.212	95.62
406.436	86.62
406.66	77.62
406.883	76.62
407.107	95.62
407.331	84.62
407.555	87.62
407.778	106.62
408.002	96.62
408.226	78.62
408.449	79.62
408.673	67.62
408.896	83.62
409.12	82.62
409.344	96.62
409.567	86.62
409.791	87.62
410.014	68.62
410.238	81.62
410.461	68.62
410.685	80.62
410.908	96.62
411.132	75.62
411.355	68.62
411.578	88.62
411.802	90.62
412.025	89.62
412.249	92.62
412.472	87.62
412.695	85.62
412.919	85.62
413.142	95.62
413.365	83.62
413.589	82.62
413.812	94.62
414.035	80.62
414.258	96.62
414.482	80.62
414.705	93.62
414.928	90.62
415.151	81.62
415.374	85.62
415.597	79.62
415.821	72.62
416.044	77.62
416.267	78.62
416.49	84.62
416.713	83.62
416.936	75.62
417.159	79.62
417.382	81.62
417.605	85.62
417.828	84.62
418.051	75.62
418.274	77.62
418.497	87.62
418.72	77.62
418.943	79.62
419.166	83.62
419.389	81.62
419.611	81.62
419.834	85.62
420.057	76.62
420.28	79.62
420.503	98.62
420.726	71.62
420.948	84.62
421.171	91.62
421.394	95.62
421.617	77.62
421.839	102.62
422.062	99.62
422.285	110.62
422.507	151.62
422.73	213.62
422.953	202.62
423.175	118.62
423.398	105.62
423.621	76.62
423.843	74.62
424.066	87.62
424.288	67.62
424.511	93.62
424.733	76.62
424.956	98.62
425.178	95.62
425.401	83.62
425.623	81.62
425.846	83.62
426.068	86.62
426.291	78.62
426.513	83.62
426.735	83.62
426.958	78.62
427.18	81.62
427.402	84.62
427.625	80.62
427.847	76.62
428.069	86.62
428.292	97.62
428.514	105.62
428.736	85.62
428.958	97.62
429.181	107.62
429.403	94.62
429.625	81.62
429.847	103.62
430.069	104.62
430.292	128.62
430.514	119.62
430.736	83.62
430.958	104.62
431.18	76.62
431.402	95.62
431.624	83.62
431.846	101.62
432.068	99.62
432.29	96.62
432.512	97.62
432.734	87.62
432.956	88.62
433.178	93.62
433.4	86.62
433.622	86.62
433.844	83.62
434.066	77.62
434.287	79.62
434.509	81.62
434.731	81.62
434.953	83.62
435.175	90.62
435.397	82.62
435.618	79.62
435.84	98.62
436.062	85.62
436.284	79.62
436.505	80.62
436.727	79.62
436.949	86.62
437.17	75.62
437.392	76.62
437.614	91.62
437.835	70.62
438.057	75.62
438.278	78.62
438.5	86.62
438.721	75.62
438.943	70.62
439.165	96.62
439.386	76.62
439.608	74.62
439.829	95.62
440.05	89.62
440.272	89.62
440.493	86.62
440.715	81.62
440.936	76.62
441.158	78.62
441.379	95.62
441.6	90.62
441.822	79.62
442.043	79.62
442.264	95.62
442.486	101.62
442.707	104.62
442.928	93.62
443.149	87.62
443.371	105.62
443.592	122.62
443.813	138.62
444.034	98.62
444.255	73.62
444.476	83.62
444.698	94.62
444.919	91.62
445.14	173.62
445.361	141.62
445.582	150.62
445.803	137.62
446.024	83.62
446.245	84.62
446.466	87.62
446.687	84.62
446.908	95.62
447.129	85.62
447.35	95.62
447.571	90.62
447.792	97.62
448.013	68.62
448.234	94.62
448.455	84.62
448.675	73.62
448.896	80.62
449.117	75.62
449.338	79.62
449.559	83.62
449.779	87.62
450	83.62
450.221	81.62
450.442	76.62
450.662	72.62
450.883	91.62
451.104	89.62
451.324	73.62
451.545	81.62
451.766	82.62
451.986	86.62
452.207	89.62
452.428	90.62
452.648	78.62
452.869	81.62
453.089	76.62
453.31	80.62
453.53	76.62
453.751	85.62
453.971	76.62
454.192	66.62
454.412	91.62
454.633	92.62
454.853	74.62
455.073	90.62
455.294	82.62
455.514	85.62
455.734	94.62
455.955	87.62
456.175	85.62
456.395	89.62
456.616	80.62
456.836	91.62
457.056	84.62
457.276	79.62
457.497	75.62
457.717	77.62
457.937	88.62
458.157	106.62
458.377	103.62
458.598	83.62
458.818	99.62
459.038	88.62
459.258	79.62
459.478	76.62
459.698	86.62
459.918	97.62
460.138	90.62
460.358	83.62
460.578	75.62
460.798	89.62
461.018	92.62
461.238	99.62
461.458	94.62
461.678	78.62
461.898	89.62
462.118	86.62
462.338	91.62
462.558	93.62
462.777	76.62
462.997	92.62
463.217	98.62
463.437	91.62
463.657	87.62
463.876	84.62
464.096	87.62
464.316	81.62
464.536	90.62
464.755	91.62
464.975	75.62
465.195	78.62
465.414	75.62
465.634	79.62
465.854	90.62
466.073	87.62
466.293	96.62
466.512	81.62
466.732	76.62
466.951	64.62
467.171	75.62
467.391	76.62
467.61	89.62
467.829	80.62
468.049	97.62
468.268	81.62
468.488	81.62
468.707	73.62
468.927	74.62
469.146	82.62
469.365	83.62
469.585	80.62
469.804	95.62
470.023	91.62
470.243	92.62
470.462	80.62
470.681	80.62
470.901	76.62
471.12	65.62
471.339	87.62
471.558	93.62
471.777	75.62
471.997	88.62
472.216	85.62
472.435	74.62
472.654	101.62
472.873	95.62
473.092	78.62
473.311	77.62
473.53	89.62
473.749	88.62
473.968	90.62
474.187	96.62
474.406	92.62
474.625	83.62
474.844	84.62
475.063	91.62
475.282	80.62
475.501	81.62
475.72	78.62
475.939	90.62
476.158	83.62
476.377	96.62
476.596	90.62
476.814	95.62
477.033	92.62
477.252	86.62
477.471	84.62
477.69	76.62
477.908	87.62
478.127	83.62
478.346	83.62
478.564	78.62
478.783	80.62
479.002	72.62
479.22	83.62
479.439	81.62
479.658	82.62
479.876	80.62
480.095	82.62
480.313	85.62
480.532	78.62
480.751	77.62
480.969	95.62
481.188	84.62
481.406	79.62
481.624	94.62
481.843	80.62
482.061	93.62
482.28	86.62
482.498	82.62
482.717	91.62
482.935	76.62
483.153	84.62
483.372	83.62
483.59	88.62
483.808	89.62
484.027	86.62
484.245	84.62
484.463	97.62
484.681	87.62
484.9	83.62
485.118	93.62
485.336	101.62
485.554	79.62
485.772	68.62
485.99	86.62
486.209	82.62
486.427	90.62
486.645	81.62
486.863	88.62
487.081	89.62
487.299	88.62
487.517	84.62
487.735	89.62
487.953	96.62
488.171	94.62
488.389	92.62
488.607	89.62
488.825	78.62
489.043	79.62
489.261	90.62
489.479	72.62
489.696	83.62
489.914	98.62
490.132	90.62
490.35	83.62
490.568	97.62
490.786	80.62
491.003	77.62
491.221	75.62
491.439	85.62
491.657	91.62
491.874	83.62
492.092	85.62
492.31	90.62
492.527	90.62
492.745	82.62
492.963	71.62
493.18	89.62
493.398	86.62
493.615	76.62
493.833	86.62
494.05	88.62
494.268	77.62
494.485	86.62
494.703	93.62
494.92	88.62
495.138	79.62
495.355	99.62
495.573	76.62
495.79	77.62
496.008	96.62
496.225	76.62
496.442	77.62
496.66	91.62
496.877	93.62
497.094	90.62
497.312	85.62
497.529	97.62
497.746	97.62
497.963	95.62
498.181	75.62
498.398	87.62
498.615	79.62
498.832	75.62
499.049	90.62
499.267	91.62
499.484	78.62
499.701	94.62
499.918	85.62
500.135	84.62
500.352	91.62
500.569	89.62
500.786	68.62
501.003	83.62
501.22	71.62
501.437	79.62
501.654	74.62
501.871	77.62
502.088	87.62
502.305	93.62
502.522	85.62
502.739	81.62
502.956	88.62
503.172	99.62
503.389	88.62
503.606	87.62
503.823	99.62
504.04	72.62
504.256	98.62
504.473	99.62
504.69	83.62
504.907	89.62
505.123	78.62
505.34	82.62
505.557	86.62
505.773	86.62
505.99	85.62
506.207	94.62
506.423	87.62
506.64	89.62
506.856	95.62
507.073	102.62
507.289	89.62
507.506	102.62
507.722	95.62
507.939	75.62
508.155	81.62
508.372	82.62
508.588	66.62
508.805	94.62
509.021	93.62
509.238	91.62
509.454	85.62
509.67	79.62
509.887	88.62
510.103	90.62
510.319	88.62
510.536	76.62
510.752	82.62
510.968	78.62
511.184	82.62
511.401	89.62
511.617	91.62
511.833	82.62
512.049	102.62
512.265	86.62
512.481	71.62
512.698	81.62
512.914	89.62
513.13	75.62
513.346	93.62
513.562	74.62
513.778	73.62
513.994	89.62
514.21	83.62
514.426	71.62
514.642	84.62
514.858	81.62
515.074	87.62
515.29	92.62
515.506	75.62
515.721	92.62
515.937	89.62
516.153	75.62
516.369	70.62
516.585	80.62
516.801	84.62
517.016	81.62
517.232	84.62
517.448	94.62
517.664	87.62
517.879	91.62
518.095	85.62
518.311	90.62
518.527	84.62
518.742	92.62
518.958	104.62
519.173	114.62
519.389	90.62
