Data from 10100_2_HRD10591_00042.txt Node
Date: Mon Jan 19 14:01:45 EST 2026
User: Yrep
Spectrometer: HR+D1059
Trigger mode: 1
Integration Time (sec): 1.000000E-1
Scans to average: 1
Electric dark correction enabled: true
Nonlinearity correction enabled: false
Boxcar width: 0
XAxis mode: Wavelengths
Number of Pixels in Spectrum: 2048
>>>>>Begin Spectral Data<<<<<
223.165	-19.5
223.4	-19.5
223.635	-19.5
223.869	-18.5
224.104	-19.5
224.338	-1.5
224.573	-18.5
224.808	-19.5
225.042	-17.5
225.277	-5.5
225.511	3.5
225.746	-2.5
225.98	7.5
226.215	8.5
226.449	10.5
226.683	31.5
226.918	27.5
227.152	33.5
227.387	31.5
227.621	34.5
227.856	48.5
228.09	40.5
228.324	56.5
228.559	56.5
228.793	70.5
229.027	50.5
229.262	62.5
229.496	77.5
229.73	74.5
229.964	83.5
230.199	75.5
230.433	87.5
230.667	76.5
230.901	74.5
231.136	75.5
231.37	78.5
231.604	71.5
231.838	100.5
232.072	83.5
232.306	91.5
232.541	85.5
232.775	84.5
233.009	86.5
233.243	87.5
233.477	82.5
233.711	85.5
233.945	83.5
234.179	88.5
234.413	81.5
234.647	81.5
234.881	78.5
235.115	82.5
235.349	96.5
235.583	75.5
235.817	80.5
236.051	92.5
236.285	78.5
236.519	74.5
236.753	77.5
236.987	71.5
237.221	86.5
237.455	80.5
237.689	74.5
237.922	69.5
238.156	69.5
238.39	72.5
238.624	86.5
238.858	80.5
239.091	89.5
239.325	69.5
239.559	87.5
239.793	80.5
240.027	75.5
240.26	96.5
240.494	84.5
240.728	93.5
240.961	84.5
241.195	75.5
241.429	78.5
241.662	70.5
241.896	84.5
242.13	72.5
242.363	76.5
242.597	65.5
242.83	79.5
243.064	70.5
243.298	81.5
243.531	78.5
243.765	76.5
243.998	75.5
244.232	85.5
244.465	74.5
244.699	78.5
244.932	76.5
245.166	76.5
245.399	76.5
245.633	62.5
245.866	76.5
246.099	64.5
246.333	77.5
246.566	86.5
246.8	81.5
247.033	86.5
247.266	83.5
247.5	62.5
247.733	83.5
247.966	77.5
248.2	75.5
248.433	82.5
248.666	68.5
248.899	85.5
249.133	98.5
249.366	83.5
249.599	93.5
249.832	73.5
250.066	77.5
250.299	81.5
250.532	88.5
250.765	80.5
250.998	72.5
251.231	76.5
251.465	89.5
251.698	88.5
251.931	74.5
252.164	79.5
252.397	70.5
252.63	98.5
252.863	105.5
253.096	81.5
253.329	88.5
253.562	86.5
253.795	83.5
254.028	93.5
254.261	78.5
254.494	84.5
254.727	74.5
254.96	91.5
255.193	76.5
255.426	78.5
255.659	88.5
255.892	87.5
256.124	90.5
256.357	76.5
256.59	79.5
256.823	94.5
257.056	93.5
257.289	87.5
257.521	81.5
257.754	76.5
257.987	68.5
258.22	85.5
258.452	74.5
258.685	78.5
258.918	77.5
259.151	72.5
259.383	72.5
259.616	86.5
259.849	85.5
260.081	90.5
260.314	70.5
260.547	82.5
260.779	75.5
261.012	80.5
261.244	88.5
261.477	102.5
261.71	98.5
261.942	100.5
262.175	70.5
262.407	79.5
262.64	80.5
262.872	92.5
263.105	97.5
263.337	97.5
263.57	69.5
263.802	76.5
264.035	86.5
264.267	86.5
264.499	78.5
264.732	80.5
264.964	75.5
265.197	92.5
265.429	75.5
265.661	85.5
265.894	92.5
266.126	86.5
266.358	89.5
266.591	86.5
266.823	92.5
267.055	79.5
267.287	78.5
267.52	70.5
267.752	85.5
267.984	78.5
268.216	82.5
268.448	84.5
268.681	87.5
268.913	89.5
269.145	86.5
269.377	83.5
269.609	89.5
269.841	86.5
270.073	86.5
270.306	84.5
270.538	94.5
270.77	86.5
271.002	83.5
271.234	97.5
271.466	95.5
271.698	77.5
271.93	86.5
272.162	93.5
272.394	77.5
272.626	80.5
272.858	84.5
273.09	90.5
273.322	71.5
273.553	96.5
273.785	107.5
274.017	90.5
274.249	75.5
274.481	83.5
274.713	72.5
274.945	93.5
275.176	68.5
275.408	90.5
275.64	82.5
275.872	88.5
276.104	76.5
276.335	95.5
276.567	84.5
276.799	77.5
277.031	72.5
277.262	86.5
277.494	88.5
277.726	92.5
277.957	77.5
278.189	93.5
278.421	93.5
278.652	85.5
278.884	84.5
279.115	88.5
279.347	83.5
279.579	89.5
279.81	85.5
280.042	89.5
280.273	88.5
280.505	102.5
280.736	81.5
280.968	77.5
281.199	103.5
281.431	85.5
281.662	89.5
281.894	93.5
282.125	91.5
282.356	70.5
282.588	93.5
282.819	79.5
283.051	97.5
283.282	77.5
283.513	99.5
283.745	86.5
283.976	68.5
284.207	86.5
284.439	80.5
284.67	94.5
284.901	105.5
285.132	91.5
285.364	73.5
285.595	82.5
285.826	68.5
286.057	84.5
286.288	86.5
286.52	73.5
286.751	82.5
286.982	94.5
287.213	83.5
287.444	76.5
287.675	74.5
287.906	78.5
288.138	86.5
288.369	94.5
288.6	96.5
288.831	78.5
289.062	86.5
289.293	96.5
289.524	83.5
289.755	84.5
289.986	87.5
290.217	86.5
290.448	79.5
290.679	84.5
290.91	98.5
291.141	88.5
291.371	79.5
291.602	68.5
291.833	90.5
292.064	92.5
292.295	92.5
292.526	90.5
292.757	106.5
292.987	98.5
293.218	92.5
293.449	84.5
293.68	89.5
293.91	85.5
294.141	91.5
294.372	82.5
294.603	78.5
294.833	86.5
295.064	84.5
295.295	95.5
295.525	92.5
295.756	84.5
295.987	81.5
296.217	82.5
296.448	86.5
296.679	82.5
296.909	89.5
297.14	95.5
297.37	83.5
297.601	105.5
297.831	84.5
298.062	90.5
298.292	101.5
298.523	88.5
298.753	82.5
298.984	89.5
299.214	77.5
299.445	72.5
299.675	87.5
299.905	78.5
300.136	82.5
300.366	80.5
300.597	87.5
300.827	97.5
301.057	92.5
301.288	87.5
301.518	108.5
301.748	101.5
301.979	99.5
302.209	90.5
302.439	91.5
302.669	94.5
302.9	89.5
303.13	78.5
303.36	76.5
303.59	90.5
303.82	99.5
304.051	81.5
304.281	90.5
304.511	92.5
304.741	98.5
304.971	91.5
305.201	98.5
305.431	89.5
305.661	84.5
305.891	84.5
306.121	92.5
306.352	97.5
306.582	99.5
306.812	98.5
307.042	93.5
307.272	93.5
307.502	67.5
307.731	94.5
307.961	102.5
308.191	88.5
308.421	95.5
308.651	96.5
308.881	87.5
309.111	85.5
309.341	87.5
309.571	84.5
309.8	81.5
310.03	97.5
310.26	86.5
310.49	91.5
310.72	96.5
310.949	96.5
311.179	79.5
311.409	94.5
311.639	91.5
311.868	95.5
312.098	93.5
312.328	93.5
312.557	89.5
312.787	100.5
313.017	76.5
313.246	78.5
313.476	100.5
313.706	85.5
313.935	85.5
314.165	85.5
314.394	101.5
314.624	87.5
314.853	80.5
315.083	86.5
315.312	73.5
315.542	96.5
315.771	87.5
316.001	82.5
316.23	89.5
316.46	84.5
316.689	84.5
316.919	93.5
317.148	62.5
317.377	94.5
317.607	79.5
317.836	74.5
318.065	97.5
318.295	89.5
318.524	90.5
318.753	92.5
318.983	80.5
319.212	74.5
319.441	88.5
319.67	90.5
319.9	77.5
320.129	85.5
320.358	78.5
320.587	83.5
320.816	86.5
321.046	97.5
321.275	82.5
321.504	88.5
321.733	90.5
321.962	89.5
322.191	86.5
322.42	88.5
322.649	101.5
322.878	84.5
323.108	89.5
323.337	88.5
323.566	97.5
323.795	84.5
324.024	79.5
324.253	89.5
324.482	85.5
324.71	84.5
324.939	94.5
325.168	88.5
325.397	85.5
325.626	88.5
325.855	80.5
326.084	93.5
326.313	89.5
326.542	85.5
326.77	92.5
326.999	88.5
327.228	98.5
327.457	94.5
327.686	90.5
327.914	88.5
328.143	85.5
328.372	100.5
328.6	92.5
328.829	87.5
329.058	90.5
329.287	89.5
329.515	90.5
329.744	76.5
329.972	88.5
330.201	76.5
330.43	84.5
330.658	85.5
330.887	104.5
331.115	91.5
331.344	92.5
331.572	90.5
331.801	85.5
332.03	89.5
332.258	89.5
332.486	92.5
332.715	82.5
332.943	92.5
333.172	93.5
333.4	80.5
333.629	73.5
333.857	76.5
334.085	75.5
334.314	78.5
334.542	89.5
334.771	101.5
334.999	92.5
335.227	93.5
335.455	84.5
335.684	99.5
335.912	90.5
336.14	75.5
336.369	95.5
336.597	83.5
336.825	96.5
337.053	85.5
337.281	103.5
337.51	88.5
337.738	86.5
337.966	85.5
338.194	84.5
338.422	80.5
338.65	72.5
338.878	98.5
339.106	86.5
339.334	89.5
339.562	84.5
339.79	68.5
340.018	83.5
340.246	87.5
340.474	83.5
340.702	71.5
340.93	75.5
341.158	88.5
341.386	99.5
341.614	88.5
341.842	86.5
342.07	85.5
342.298	91.5
342.526	91.5
342.754	70.5
342.981	79.5
343.209	86.5
343.437	98.5
343.665	78.5
343.893	82.5
344.12	84.5
344.348	95.5
344.576	96.5
344.804	83.5
345.031	90.5
345.259	84.5
345.487	91.5
345.714	71.5
345.942	88.5
346.17	96.5
346.397	79.5
346.625	98.5
346.853	84.5
347.08	83.5
347.308	103.5
347.535	98.5
347.763	87.5
347.99	86.5
348.218	85.5
348.445	83.5
348.673	82.5
348.9	89.5
349.128	81.5
349.355	78.5
349.583	98.5
349.81	87.5
350.037	71.5
350.265	89.5
350.492	87.5
350.72	69.5
350.947	90.5
351.174	92.5
351.402	82.5
351.629	82.5
351.856	94.5
352.083	79.5
352.311	88.5
352.538	75.5
352.765	77.5
352.992	99.5
353.22	82.5
353.447	76.5
353.674	82.5
353.901	82.5
354.128	85.5
354.355	83.5
354.583	84.5
354.81	92.5
355.037	85.5
355.264	77.5
355.491	85.5
355.718	91.5
355.945	87.5
356.172	91.5
356.399	94.5
356.626	97.5
356.853	81.5
357.08	88.5
357.307	92.5
357.534	93.5
357.761	89.5
357.988	89.5
358.215	91.5
358.441	75.5
358.668	72.5
358.895	89.5
359.122	104.5
359.349	91.5
359.576	107.5
359.802	90.5
360.029	94.5
360.256	83.5
360.483	91.5
360.709	94.5
360.936	85.5
361.163	91.5
361.39	77.5
361.616	82.5
361.843	92.5
362.07	87.5
362.296	89.5
362.523	89.5
362.749	96.5
362.976	101.5
363.203	101.5
363.429	100.5
363.656	102.5
363.882	89.5
364.109	97.5
364.335	93.5
364.562	116.5
364.788	98.5
365.015	101.5
365.241	91.5
365.468	88.5
365.694	100.5
365.92	94.5
366.147	77.5
366.373	83.5
366.599	82.5
366.826	84.5
367.052	92.5
367.278	91.5
367.505	88.5
367.731	107.5
367.957	86.5
368.184	88.5
368.41	100.5
368.636	94.5
368.862	88.5
369.089	90.5
369.315	86.5
369.541	81.5
369.767	88.5
369.993	97.5
370.219	74.5
370.445	90.5
370.672	94.5
370.898	87.5
371.124	86.5
371.35	90.5
371.576	87.5
371.802	96.5
372.028	98.5
372.254	86.5
372.48	86.5
372.706	88.5
372.932	99.5
373.158	96.5
373.384	94.5
373.61	107.5
373.835	110.5
374.061	93.5
374.287	96.5
374.513	104.5
374.739	96.5
374.965	92.5
375.191	85.5
375.416	82.5
375.642	85.5
375.868	78.5
376.094	86.5
376.319	94.5
376.545	87.5
376.771	93.5
376.997	92.5
377.222	87.5
377.448	90.5
377.674	83.5
377.899	97.5
378.125	90.5
378.35	86.5
378.576	86.5
378.802	85.5
379.027	74.5
379.253	91.5
379.478	88.5
379.704	86.5
379.929	77.5
380.155	93.5
380.38	110.5
380.606	83.5
380.831	78.5
381.057	92.5
381.282	84.5
381.507	84.5
381.733	102.5
381.958	93.5
382.184	92.5
382.409	76.5
382.634	102.5
382.86	91.5
383.085	98.5
383.31	100.5
383.535	90.5
383.761	105.5
383.986	95.5
384.211	93.5
384.436	104.5
384.662	88.5
384.887	89.5
385.112	93.5
385.337	80.5
385.562	92.5
385.787	100.5
386.013	109.5
386.238	79.5
386.463	84.5
386.688	99.5
386.913	85.5
387.138	83.5
387.363	86.5
387.588	81.5
387.813	86.5
388.038	100.5
388.263	87.5
388.488	82.5
388.713	94.5
388.938	84.5
389.163	88.5
389.387	85.5
389.612	80.5
389.837	73.5
390.062	87.5
390.287	92.5
390.512	77.5
390.736	94.5
390.961	95.5
391.186	95.5
391.411	84.5
391.636	79.5
391.86	91.5
392.085	85.5
392.31	82.5
392.534	86.5
392.759	86.5
392.984	118.5
393.208	180.5
393.433	232.5
393.658	176.5
393.882	125.5
394.107	100.5
394.331	105.5
394.556	112.5
394.78	92.5
395.005	86.5
395.229	93.5
395.454	94.5
395.678	94.5
395.903	97.5
396.127	102.5
396.352	124.5
396.576	120.5
396.801	187.5
397.025	178.5
397.249	117.5
397.474	100.5
397.698	92.5
397.922	91.5
398.147	78.5
398.371	88.5
398.595	84.5
398.82	89.5
399.044	85.5
399.268	82.5
399.492	102.5
399.717	91.5
399.941	88.5
400.165	82.5
400.389	80.5
400.613	60.5
400.837	91.5
401.062	79.5
401.286	84.5
401.51	85.5
401.734	86.5
401.958	84.5
402.182	92.5
402.406	90.5
402.63	77.5
402.854	91.5
403.078	108.5
403.302	89.5
403.526	84.5
403.75	77.5
403.974	88.5
404.198	74.5
404.422	83.5
404.645	96.5
404.869	88.5
405.093	89.5
405.317	91.5
405.541	67.5
405.765	82.5
405.988	83.5
406.212	82.5
406.436	84.5
406.66	95.5
406.883	94.5
407.107	90.5
407.331	85.5
407.555	83.5
407.778	88.5
408.002	98.5
408.226	79.5
408.449	83.5
408.673	99.5
408.896	89.5
409.12	93.5
409.344	94.5
409.567	70.5
409.791	77.5
410.014	87.5
410.238	96.5
410.461	80.5
410.685	84.5
410.908	89.5
411.132	92.5
411.355	92.5
411.578	88.5
411.802	72.5
412.025	87.5
412.249	95.5
412.472	92.5
412.695	98.5
412.919	84.5
413.142	87.5
413.365	88.5
413.589	78.5
413.812	84.5
414.035	94.5
414.258	82.5
414.482	92.5
414.705	85.5
414.928	72.5
415.151	83.5
415.374	70.5
415.597	81.5
415.821	83.5
416.044	90.5
416.267	98.5
416.49	80.5
416.713	89.5
416.936	90.5
417.159	85.5
417.382	84.5
417.605	87.5
417.828	82.5
418.051	83.5
418.274	88.5
418.497	84.5
418.72	90.5
418.943	85.5
419.166	85.5
419.389	90.5
419.611	84.5
419.834	82.5
420.057	83.5
420.28	83.5
420.503	89.5
420.726	94.5
420.948	80.5
421.171	86.5
421.394	90.5
421.617	94.5
421.839	90.5
422.062	95.5
422.285	118.5
422.507	168.5
422.73	244.5
422.953	235.5
423.175	137.5
423.398	100.5
423.621	101.5
423.843	81.5
424.066	105.5
424.288	88.5
424.511	80.5
424.733	91.5
424.956	96.5
425.178	85.5
425.401	101.5
425.623	82.5
425.846	75.5
426.068	76.5
426.291	76.5
426.513	91.5
426.735	79.5
426.958	97.5
427.18	98.5
427.402	79.5
427.625	104.5
427.847	92.5
428.069	97.5
428.292	96.5
428.514	106.5
428.736	105.5
428.958	120.5
429.181	124.5
429.403	89.5
429.625	101.5
429.847	110.5
430.069	108.5
430.292	129.5
430.514	109.5
430.736	116.5
430.958	108.5
431.18	89.5
431.402	85.5
431.624	84.5
431.846	99.5
432.068	109.5
432.29	96.5
432.512	85.5
432.734	82.5
432.956	90.5
433.178	97.5
433.4	97.5
433.622	96.5
433.844	84.5
434.066	79.5
434.287	81.5
434.509	85.5
434.731	86.5
434.953	77.5
435.175	82.5
435.397	88.5
435.618	85.5
435.84	82.5
436.062	95.5
436.284	89.5
436.505	69.5
436.727	79.5
436.949	86.5
437.17	106.5
437.392	91.5
437.614	79.5
437.835	89.5
438.057	90.5
438.278	82.5
438.5	77.5
438.721	86.5
438.943	92.5
439.165	86.5
439.386	88.5
439.608	82.5
439.829	76.5
440.05	80.5
440.272	78.5
440.493	65.5
440.715	94.5
440.936	103.5
441.158	84.5
441.379	84.5
441.6	91.5
441.822	80.5
442.043	96.5
442.264	92.5
442.486	106.5
442.707	132.5
442.928	98.5
443.149	82.5
443.371	113.5
443.592	156.5
443.813	136.5
444.034	107.5
444.255	92.5
444.476	86.5
444.698	79.5
444.919	78.5
445.14	181.5
445.361	142.5
445.582	172.5
445.803	154.5
446.024	90.5
446.245	91.5
446.466	83.5
446.687	98.5
446.908	79.5
447.129	92.5
447.35	86.5
447.571	69.5
447.792	94.5
448.013	86.5
448.234	75.5
448.455	84.5
448.675	83.5
448.896	93.5
449.117	99.5
449.338	97.5
449.559	91.5
449.779	86.5
450	81.5
450.221	82.5
450.442	96.5
450.662	67.5
450.883	90.5
451.104	90.5
451.324	92.5
451.545	78.5
451.766	78.5
451.986	97.5
452.207	80.5
452.428	78.5
452.648	101.5
452.869	104.5
453.089	103.5
453.31	91.5
453.53	86.5
453.751	98.5
453.971	85.5
454.192	89.5
454.412	83.5
454.633	84.5
454.853	87.5
455.073	87.5
455.294	88.5
455.514	78.5
455.734	76.5
455.955	84.5
456.175	92.5
456.395	91.5
456.616	100.5
456.836	88.5
457.056	86.5
457.276	86.5
457.497	84.5
457.717	99.5
457.937	98.5
458.157	88.5
458.377	118.5
458.598	101.5
458.818	105.5
459.038	101.5
459.258	91.5
459.478	76.5
459.698	78.5
459.918	84.5
460.138	104.5
460.358	105.5
460.578	93.5
460.798	105.5
461.018	104.5
461.238	75.5
461.458	86.5
461.678	87.5
461.898	91.5
462.118	78.5
462.338	84.5
462.558	84.5
462.777	76.5
462.997	84.5
463.217	86.5
463.437	96.5
463.657	86.5
463.876	73.5
464.096	79.5
464.316	98.5
464.536	94.5
464.755	78.5
464.975	84.5
465.195	84.5
465.414	89.5
465.634	85.5
465.854	86.5
466.073	72.5
466.293	90.5
466.512	81.5
466.732	86.5
466.951	89.5
467.171	87.5
467.391	93.5
467.61	95.5
467.829	79.5
468.049	85.5
468.268	82.5
468.488	87.5
468.707	103.5
468.927	72.5
469.146	98.5
469.365	73.5
469.585	78.5
469.804	92.5
470.023	89.5
470.243	88.5
470.462	76.5
470.681	100.5
470.901	79.5
471.12	82.5
471.339	86.5
471.558	73.5
471.777	105.5
471.997	101.5
472.216	89.5
472.435	82.5
472.654	88.5
472.873	89.5
473.092	85.5
473.311	93.5
473.53	80.5
473.749	90.5
473.968	96.5
474.187	93.5
474.406	86.5
474.625	80.5
474.844	80.5
475.063	89.5
475.282	87.5
475.501	78.5
475.72	75.5
475.939	75.5
476.158	89.5
476.377	76.5
476.596	88.5
476.814	98.5
477.033	93.5
477.252	97.5
477.471	77.5
477.69	101.5
477.908	95.5
478.127	89.5
478.346	94.5
478.564	77.5
478.783	83.5
479.002	92.5
479.22	88.5
479.439	80.5
479.658	81.5
479.876	84.5
480.095	80.5
480.313	84.5
480.532	105.5
480.751	82.5
480.969	94.5
481.188	83.5
481.406	82.5
481.624	94.5
481.843	78.5
482.061	85.5
482.28	96.5
482.498	94.5
482.717	87.5
482.935	84.5
483.153	84.5
483.372	89.5
483.59	93.5
483.808	78.5
484.027	85.5
484.245	96.5
484.463	93.5
484.681	92.5
484.9	85.5
485.118	88.5
485.336	90.5
485.554	86.5
485.772	91.5
485.99	101.5
486.209	100.5
486.427	81.5
486.645	84.5
486.863	84.5
487.081	77.5
487.299	90.5
487.517	86.5
487.735	102.5
487.953	122.5
488.171	107.5
488.389	79.5
488.607	86.5
488.825	84.5
489.043	93.5
489.261	89.5
489.479	93.5
489.696	89.5
489.914	75.5
490.132	101.5
490.35	92.5
490.568	70.5
490.786	89.5
491.003	86.5
491.221	82.5
491.439	96.5
491.657	74.5
491.874	94.5
492.092	96.5
492.31	83.5
492.527	82.5
492.745	75.5
492.963	112.5
493.18	95.5
493.398	94.5
493.615	89.5
493.833	86.5
494.05	76.5
494.268	78.5
494.485	85.5
494.703	73.5
494.92	101.5
495.138	94.5
495.355	102.5
495.573	81.5
495.79	84.5
496.008	93.5
496.225	83.5
496.442	94.5
496.66	86.5
496.877	93.5
497.094	84.5
497.312	89.5
497.529	97.5
497.746	94.5
497.963	93.5
498.181	88.5
498.398	84.5
498.615	89.5
498.832	86.5
499.049	84.5
499.267	78.5
499.484	88.5
499.701	89.5
499.918	101.5
500.135	85.5
500.352	98.5
500.569	84.5
500.786	96.5
501.003	93.5
501.22	93.5
501.437	82.5
501.654	94.5
501.871	101.5
502.088	81.5
502.305	90.5
502.522	94.5
502.739	84.5
502.956	72.5
503.172	83.5
503.389	80.5
503.606	104.5
503.823	88.5
504.04	90.5
504.256	113.5
504.473	116.5
504.69	94.5
504.907	82.5
505.123	87.5
505.34	91.5
505.557	99.5
505.773	100.5
505.99	85.5
506.207	88.5
506.423	88.5
506.64	97.5
506.856	85.5
507.073	85.5
507.289	73.5
507.506	84.5
507.722	92.5
507.939	93.5
508.155	100.5
508.372	95.5
508.588	92.5
508.805	95.5
509.021	70.5
509.238	76.5
509.454	94.5
509.67	89.5
509.887	97.5
510.103	84.5
510.319	80.5
510.536	75.5
510.752	98.5
510.968	82.5
511.184	90.5
511.401	90.5
511.617	99.5
511.833	93.5
512.049	92.5
512.265	97.5
512.481	78.5
512.698	81.5
512.914	69.5
513.13	83.5
513.346	91.5
513.562	75.5
513.778	84.5
513.994	89.5
514.21	103.5
514.426	85.5
514.642	72.5
514.858	85.5
515.074	85.5
515.29	102.5
515.506	88.5
515.721	86.5
515.937	99.5
516.153	88.5
516.369	84.5
516.585	75.5
516.801	83.5
517.016	85.5
517.232	109.5
517.448	96.5
517.664	84.5
517.879	93.5
518.095	90.5
518.311	87.5
518.527	98.5
518.742	112.5
518.958	112.5
519.173	129.5
519.389	107.5
519.605	98.5
519.82	93.5
520.036	84.5
520.251	84.5
520.467	103.5
520.682	98.5
520.898	92.5
521.113	100.5
521.329	91.5
521.544	94.5
521.76	87.5
521.975	69.5
522.19	94.5
522.406	78.5
522.621	80.5
522.836	98.5
523.052	87.5
523.267	88.5
523.482	93.5
523.698	92.5
523.913	94.5
524.128	85.5
524.343	93.5
524.559	93.5
524.774	93.5
524.989	85.5
525.204	92.5
525.419	85.5
525.634	98.5
525.849	97.5
526.064	112.5
526.28	142.5
526.495	191.5
526.71	208.5
526.925	137.5
527.14	163.5
527.355	156.5
527.57	110.5
527.785	92.5
527.999	87.5
528.214	98.5
528.429	85.5
528.644	85.5
528.859	75.5
529.074	93.5
529.289	87.5
529.503	92.5
529.718	93.5
529.933	101.5
530.148	85.5
530.363	98.5
530.577	86.5
530.792	82.5
531.007	90.5
531.221	78.5
531.436	92.5
531.651	94.5
531.865	82.5
532.08	88.5
532.295	88.5
532.509	83.5
532.724	101.5
532.938	92.5
533.153	93.5
533.367	93.5
533.582	89.5
533.796	84.5
534.011	86.5
534.225	88.5
534.44	96.5
534.654	100.5
534.868	99.5
535.083	109.5
535.297	102.5
535.511	90.5
535.726	93.5
535.94	91.5
536.154	93.5
536.369	98.5
536.583	88.5
536.797	94.5
537.011	96.5
537.225	105.5
537.44	91.5
537.654	96.5
537.868	96.5
538.082	101.5
538.296	99.5
