Data from 10100_2_HRD10591_00020.txt Node
Date: Mon Jan 19 14:01:34 EST 2026
User: Yrep
Spectrometer: HR+D1059
Trigger mode: 1
Integration Time (sec): 1.000000E-1
Scans to average: 1
Electric dark correction enabled: true
Nonlinearity correction enabled: false
Boxcar width: 0
XAxis mode: Wavelengths
Number of Pixels in Spectrum: 2048
>>>>>Begin Spectral Data<<<<<
223.165	-6.69
223.4	-6.69
223.635	-6.69
223.869	-27.69
224.104	2.31
224.338	-16.69
224.573	-15.69
224.808	-23.69
225.042	-7.69
225.277	-2.69
225.511	2.31
225.746	4.31
225.98	-5.69
226.215	3.31
226.449	16.31
226.683	20.31
226.918	32.31
227.152	25.31
227.387	43.31
227.621	29.31
227.856	43.31
228.09	43.31
228.324	46.31
228.559	59.31
228.793	66.31
229.027	58.31
229.262	62.31
229.496	61.31
229.73	64.31
229.964	58.31
230.199	77.31
230.433	74.31
230.667	71.31
230.901	78.31
231.136	83.31
231.37	80.31
231.604	96.31
231.838	74.31
232.072	69.31
232.306	81.31
232.541	63.31
232.775	61.31
233.009	82.31
233.243	75.31
233.477	67.31
233.711	83.31
233.945	83.31
234.179	89.31
234.413	79.31
234.647	81.31
234.881	71.31
235.115	86.31
235.349	83.31
235.583	83.31
235.817	69.31
236.051	83.31
236.285	82.31
236.519	82.31
236.753	88.31
236.987	77.31
237.221	82.31
237.455	72.31
237.689	62.31
237.922	69.31
238.156	75.31
238.39	76.31
238.624	72.31
238.858	77.31
239.091	76.31
239.325	66.31
239.559	67.31
239.793	83.31
240.027	80.31
240.26	82.31
240.494	84.31
240.728	84.31
240.961	68.31
241.195	86.31
241.429	75.31
241.662	69.31
241.896	84.31
242.13	76.31
242.363	79.31
242.597	89.31
242.83	85.31
243.064	72.31
243.298	74.31
243.531	86.31
243.765	82.31
243.998	89.31
244.232	84.31
244.465	75.31
244.699	70.31
244.932	87.31
245.166	97.31
245.399	67.31
245.633	87.31
245.866	72.31
246.099	80.31
246.333	85.31
246.566	83.31
246.8	82.31
247.033	72.31
247.266	64.31
247.5	80.31
247.733	76.31
247.966	88.31
248.2	77.31
248.433	77.31
248.666	73.31
248.899	78.31
249.133	92.31
249.366	86.31
249.599	73.31
249.832	87.31
250.066	71.31
250.299	87.31
250.532	90.31
250.765	83.31
250.998	83.31
251.231	79.31
251.465	79.31
251.698	84.31
251.931	82.31
252.164	85.31
252.397	73.31
252.63	86.31
252.863	80.31
253.096	66.31
253.329	82.31
253.562	91.31
253.795	86.31
254.028	71.31
254.261	72.31
254.494	68.31
254.727	66.31
254.96	83.31
255.193	75.31
255.426	78.31
255.659	99.31
255.892	92.31
256.124	66.31
256.357	86.31
256.59	79.31
256.823	86.31
257.056	86.31
257.289	93.31
257.521	67.31
257.754	88.31
257.987	93.31
258.22	77.31
258.452	80.31
258.685	80.31
258.918	67.31
259.151	72.31
259.383	74.31
259.616	86.31
259.849	79.31
260.081	80.31
260.314	92.31
260.547	69.31
260.779	82.31
261.012	70.31
261.244	83.31
261.477	76.31
261.71	83.31
261.942	77.31
262.175	70.31
262.407	87.31
262.64	80.31
262.872	87.31
263.105	67.31
263.337	83.31
263.57	83.31
263.802	75.31
264.035	77.31
264.267	76.31
264.499	84.31
264.732	90.31
264.964	84.31
265.197	59.31
265.429	75.31
265.661	82.31
265.894	81.31
266.126	96.31
266.358	92.31
266.591	91.31
266.823	95.31
267.055	67.31
267.287	80.31
267.52	84.31
267.752	87.31
267.984	84.31
268.216	86.31
268.448	73.31
268.681	70.31
268.913	92.31
269.145	91.31
269.377	68.31
269.609	73.31
269.841	84.31
270.073	94.31
270.306	81.31
270.538	83.31
270.77	61.31
271.002	86.31
271.234	71.31
271.466	88.31
271.698	81.31
271.93	92.31
272.162	86.31
272.394	86.31
272.626	92.31
272.858	72.31
273.09	73.31
273.322	89.31
273.553	88.31
273.785	92.31
274.017	86.31
274.249	83.31
274.481	82.31
274.713	77.31
274.945	86.31
275.176	84.31
275.408	79.31
275.64	73.31
275.872	89.31
276.104	87.31
276.335	98.31
276.567	86.31
276.799	80.31
277.031	80.31
277.262	76.31
277.494	87.31
277.726	69.31
277.957	82.31
278.189	90.31
278.421	86.31
278.652	84.31
278.884	82.31
279.115	94.31
279.347	84.31
279.579	91.31
279.81	80.31
280.042	97.31
280.273	91.31
280.505	89.31
280.736	84.31
280.968	87.31
281.199	80.31
281.431	90.31
281.662	85.31
281.894	97.31
282.125	96.31
282.356	70.31
282.588	90.31
282.819	92.31
283.051	87.31
283.282	76.31
283.513	84.31
283.745	84.31
283.976	87.31
284.207	90.31
284.439	86.31
284.67	84.31
284.901	82.31
285.132	87.31
285.364	92.31
285.595	93.31
285.826	76.31
286.057	76.31
286.288	85.31
286.52	80.31
286.751	84.31
286.982	78.31
287.213	84.31
287.444	99.31
287.675	82.31
287.906	74.31
288.138	87.31
288.369	83.31
288.6	71.31
288.831	86.31
289.062	80.31
289.293	85.31
289.524	85.31
289.755	80.31
289.986	80.31
290.217	96.31
290.448	85.31
290.679	84.31
290.91	80.31
291.141	90.31
291.371	95.31
291.602	87.31
291.833	91.31
292.064	75.31
292.295	75.31
292.526	91.31
292.757	94.31
292.987	80.31
293.218	84.31
293.449	90.31
293.68	71.31
293.91	93.31
294.141	97.31
294.372	96.31
294.603	104.31
294.833	87.31
295.064	100.31
295.295	63.31
295.525	86.31
295.756	74.31
295.987	84.31
296.217	81.31
296.448	91.31
296.679	88.31
296.909	86.31
297.14	97.31
297.37	91.31
297.601	76.31
297.831	91.31
298.062	94.31
298.292	84.31
298.523	80.31
298.753	84.31
298.984	92.31
299.214	92.31
299.445	97.31
299.675	81.31
299.905	91.31
300.136	90.31
300.366	89.31
300.597	89.31
300.827	76.31
301.057	84.31
301.288	88.31
301.518	95.31
301.748	87.31
301.979	107.31
302.209	81.31
302.439	86.31
302.669	85.31
302.9	96.31
303.13	86.31
303.36	80.31
303.59	83.31
303.82	84.31
304.051	109.31
304.281	82.31
304.511	76.31
304.741	99.31
304.971	95.31
305.201	73.31
305.431	87.31
305.661	97.31
305.891	96.31
306.121	87.31
306.352	99.31
306.582	82.31
306.812	81.31
307.042	83.31
307.272	68.31
307.502	84.31
307.731	92.31
307.961	79.31
308.191	79.31
308.421	81.31
308.651	83.31
308.881	82.31
309.111	88.31
309.341	92.31
309.571	93.31
309.8	78.31
310.03	78.31
310.26	95.31
310.49	96.31
310.72	80.31
310.949	87.31
311.179	82.31
311.409	69.31
311.639	75.31
311.868	75.31
312.098	96.31
312.328	90.31
312.557	89.31
312.787	71.31
313.017	90.31
313.246	83.31
313.476	83.31
313.706	88.31
313.935	96.31
314.165	98.31
314.394	97.31
314.624	76.31
314.853	77.31
315.083	98.31
315.312	95.31
315.542	69.31
315.771	94.31
316.001	106.31
316.23	84.31
316.46	78.31
316.689	86.31
316.919	93.31
317.148	91.31
317.377	94.31
317.607	84.31
317.836	87.31
318.065	91.31
318.295	93.31
318.524	70.31
318.753	73.31
318.983	77.31
319.212	80.31
319.441	88.31
319.67	94.31
319.9	84.31
320.129	79.31
320.358	96.31
320.587	87.31
320.816	83.31
321.046	91.31
321.275	88.31
321.504	78.31
321.733	94.31
321.962	94.31
322.191	94.31
322.42	89.31
322.649	81.31
322.878	97.31
323.108	97.31
323.337	87.31
323.566	83.31
323.795	82.31
324.024	97.31
324.253	79.31
324.482	90.31
324.71	80.31
324.939	86.31
325.168	94.31
325.397	88.31
325.626	69.31
325.855	96.31
326.084	88.31
326.313	100.31
326.542	88.31
326.77	76.31
326.999	80.31
327.228	92.31
327.457	89.31
327.686	91.31
327.914	95.31
328.143	69.31
328.372	89.31
328.6	96.31
328.829	75.31
329.058	87.31
329.287	76.31
329.515	76.31
329.744	90.31
329.972	86.31
330.201	82.31
330.43	87.31
330.658	86.31
330.887	73.31
331.115	90.31
331.344	74.31
331.572	91.31
331.801	80.31
332.03	85.31
332.258	83.31
332.486	82.31
332.715	89.31
332.943	91.31
333.172	83.31
333.4	83.31
333.629	81.31
333.857	94.31
334.085	85.31
334.314	91.31
334.542	92.31
334.771	95.31
334.999	89.31
335.227	94.31
335.455	81.31
335.684	91.31
335.912	94.31
336.14	93.31
336.369	98.31
336.597	89.31
336.825	82.31
337.053	79.31
337.281	84.31
337.51	88.31
337.738	102.31
337.966	83.31
338.194	82.31
338.422	105.31
338.65	87.31
338.878	82.31
339.106	84.31
339.334	94.31
339.562	80.31
339.79	74.31
340.018	96.31
340.246	108.31
340.474	90.31
340.702	86.31
340.93	77.31
341.158	84.31
341.386	81.31
341.614	92.31
341.842	87.31
342.07	69.31
342.298	88.31
342.526	94.31
342.754	88.31
342.981	90.31
343.209	75.31
343.437	87.31
343.665	79.31
343.893	86.31
344.12	95.31
344.348	83.31
344.576	89.31
344.804	82.31
345.031	91.31
345.259	80.31
345.487	79.31
345.714	93.31
345.942	90.31
346.17	95.31
346.397	103.31
346.625	80.31
346.853	94.31
347.08	87.31
347.308	78.31
347.535	95.31
347.763	91.31
347.99	90.31
348.218	94.31
348.445	89.31
348.673	78.31
348.9	82.31
349.128	88.31
349.355	85.31
349.583	87.31
349.81	98.31
350.037	93.31
350.265	81.31
350.492	74.31
350.72	84.31
350.947	83.31
351.174	84.31
351.402	81.31
351.629	88.31
351.856	88.31
352.083	98.31
352.311	93.31
352.538	72.31
352.765	94.31
352.992	81.31
353.22	86.31
353.447	86.31
353.674	91.31
353.901	94.31
354.128	77.31
354.355	75.31
354.583	77.31
354.81	94.31
355.037	72.31
355.264	85.31
355.491	90.31
355.718	87.31
355.945	88.31
356.172	91.31
356.399	84.31
356.626	99.31
356.853	95.31
357.08	96.31
357.307	72.31
357.534	90.31
357.761	90.31
357.988	93.31
358.215	85.31
358.441	87.31
358.668	81.31
358.895	101.31
359.122	96.31
359.349	86.31
359.576	91.31
359.802	105.31
360.029	89.31
360.256	104.31
360.483	97.31
360.709	96.31
360.936	96.31
361.163	95.31
361.39	93.31
361.616	91.31
361.843	87.31
362.07	100.31
362.296	102.31
362.523	110.31
362.749	90.31
362.976	104.31
363.203	112.31
363.429	102.31
363.656	81.31
363.882	81.31
364.109	123.31
364.335	132.31
364.562	129.31
364.788	100.31
365.015	94.31
365.241	99.31
365.468	92.31
365.694	98.31
365.92	74.31
366.147	88.31
366.373	71.31
366.599	99.31
366.826	72.31
367.052	77.31
367.278	94.31
367.505	77.31
367.731	74.31
367.957	82.31
368.184	84.31
368.41	99.31
368.636	81.31
368.862	94.31
369.089	90.31
369.315	93.31
369.541	82.31
369.767	95.31
369.993	86.31
370.219	80.31
370.445	81.31
370.672	76.31
370.898	87.31
371.124	84.31
371.35	90.31
371.576	96.31
371.802	78.31
372.028	92.31
372.254	78.31
372.48	88.31
372.706	84.31
372.932	87.31
373.158	102.31
373.384	86.31
373.61	111.31
373.835	93.31
374.061	90.31
374.287	96.31
374.513	82.31
374.739	102.31
374.965	102.31
375.191	99.31
375.416	97.31
375.642	89.31
375.868	87.31
376.094	95.31
376.319	87.31
376.545	78.31
376.771	100.31
376.997	80.31
377.222	76.31
377.448	85.31
377.674	89.31
377.899	85.31
378.125	101.31
378.35	91.31
378.576	89.31
378.802	90.31
379.027	90.31
379.253	90.31
379.478	96.31
379.704	76.31
379.929	79.31
380.155	91.31
380.38	89.31
380.606	94.31
380.831	75.31
381.057	91.31
381.282	83.31
381.507	85.31
381.733	72.31
381.958	83.31
382.184	89.31
382.409	97.31
382.634	96.31
382.86	86.31
383.085	91.31
383.31	92.31
383.535	90.31
383.761	90.31
383.986	85.31
384.211	87.31
384.436	79.31
384.662	80.31
384.887	87.31
385.112	81.31
385.337	95.31
385.562	77.31
385.787	81.31
386.013	96.31
386.238	86.31
386.463	95.31
386.688	102.31
386.913	71.31
387.138	118.31
387.363	105.31
387.588	108.31
387.813	89.31
388.038	95.31
388.263	88.31
388.488	95.31
388.713	104.31
388.938	98.31
389.163	99.31
389.387	83.31
389.612	89.31
389.837	88.31
390.062	88.31
390.287	106.31
390.512	97.31
390.736	95.31
390.961	90.31
391.186	87.31
391.411	92.31
391.636	90.31
391.86	87.31
392.085	89.31
392.31	95.31
392.534	101.31
392.759	110.31
392.984	139.31
393.208	207.31
393.433	271.31
393.658	238.31
393.882	122.31
394.107	97.31
394.331	112.31
394.556	92.31
394.78	100.31
395.005	100.31
395.229	82.31
395.454	84.31
395.678	105.31
395.903	104.31
396.127	132.31
396.352	131.31
396.576	159.31
396.801	211.31
397.025	227.31
397.249	135.31
397.474	110.31
397.698	103.31
397.922	92.31
398.147	82.31
398.371	79.31
398.595	85.31
398.82	83.31
399.044	86.31
399.268	88.31
399.492	99.31
399.717	92.31
399.941	86.31
400.165	96.31
400.389	87.31
400.613	89.31
400.837	84.31
401.062	75.31
401.286	86.31
401.51	93.31
401.734	87.31
401.958	81.31
402.182	88.31
402.406	84.31
402.63	90.31
402.854	74.31
403.078	70.31
403.302	83.31
403.526	94.31
403.75	82.31
403.974	82.31
404.198	89.31
404.422	94.31
404.645	78.31
404.869	92.31
405.093	79.31
405.317	80.31
405.541	85.31
405.765	91.31
405.988	82.31
406.212	84.31
406.436	87.31
406.66	81.31
406.883	73.31
407.107	99.31
407.331	81.31
407.555	107.31
407.778	90.31
408.002	94.31
408.226	82.31
408.449	93.31
408.673	92.31
408.896	82.31
409.12	104.31
409.344	101.31
409.567	99.31
409.791	96.31
410.014	96.31
410.238	97.31
410.461	84.31
410.685	86.31
410.908	95.31
411.132	100.31
411.355	90.31
411.578	81.31
411.802	88.31
412.025	86.31
412.249	83.31
412.472	67.31
412.695	85.31
412.919	89.31
413.142	77.31
413.365	85.31
413.589	84.31
413.812	97.31
414.035	96.31
414.258	99.31
414.482	79.31
414.705	95.31
414.928	76.31
415.151	80.31
415.374	88.31
415.597	76.31
415.821	93.31
416.044	83.31
416.267	96.31
416.49	95.31
416.713	66.31
416.936	88.31
417.159	94.31
417.382	92.31
417.605	88.31
417.828	95.31
418.051	96.31
418.274	105.31
418.497	82.31
418.72	91.31
418.943	91.31
419.166	88.31
419.389	95.31
419.611	70.31
419.834	87.31
420.057	87.31
420.28	85.31
420.503	86.31
420.726	94.31
420.948	98.31
421.171	92.31
421.394	102.31
421.617	98.31
421.839	100.31
422.062	107.31
422.285	166.31
422.507	245.31
422.73	375.31
422.953	333.31
423.175	186.31
423.398	118.31
423.621	108.31
423.843	105.31
424.066	98.31
424.288	90.31
424.511	92.31
424.733	84.31
424.956	101.31
425.178	94.31
425.401	102.31
425.623	90.31
425.846	94.31
426.068	85.31
426.291	96.31
426.513	83.31
426.735	102.31
426.958	78.31
427.18	110.31
427.402	93.31
427.625	82.31
427.847	87.31
428.069	104.31
428.292	130.31
428.514	130.31
428.736	104.31
428.958	116.31
429.181	114.31
429.403	90.31
429.625	107.31
429.847	111.31
430.069	141.31
430.292	156.31
430.514	138.31
430.736	118.31
430.958	131.31
431.18	103.31
431.402	94.31
431.624	89.31
431.846	104.31
432.068	119.31
432.29	94.31
432.512	92.31
432.734	99.31
432.956	89.31
433.178	81.31
433.4	81.31
433.622	85.31
433.844	94.31
434.066	95.31
434.287	97.31
434.509	85.31
434.731	92.31
434.953	81.31
435.175	90.31
435.397	90.31
435.618	99.31
435.84	88.31
436.062	95.31
436.284	107.31
436.505	86.31
436.727	88.31
436.949	83.31
437.17	79.31
437.392	76.31
437.614	88.31
437.835	67.31
438.057	88.31
438.278	98.31
438.5	103.31
438.721	97.31
438.943	90.31
439.165	77.31
439.386	89.31
439.608	83.31
439.829	83.31
440.05	91.31
440.272	82.31
440.493	96.31
440.715	96.31
440.936	98.31
441.158	93.31
441.379	89.31
441.6	88.31
441.822	92.31
442.043	94.31
442.264	84.31
442.486	132.31
442.707	146.31
442.928	120.31
443.149	107.31
443.371	153.31
443.592	217.31
443.813	182.31
444.034	107.31
444.255	97.31
444.476	92.31
444.698	86.31
444.919	88.31
445.14	187.31
445.361	182.31
445.582	240.31
445.803	202.31
446.024	98.31
446.245	90.31
446.466	82.31
446.687	81.31
446.908	85.31
447.129	84.31
447.35	81.31
447.571	68.31
447.792	86.31
448.013	78.31
448.234	91.31
448.455	74.31
448.675	96.31
448.896	79.31
449.117	88.31
449.338	85.31
449.559	90.31
449.779	72.31
450	94.31
450.221	95.31
450.442	94.31
450.662	83.31
450.883	79.31
451.104	84.31
451.324	94.31
451.545	81.31
451.766	84.31
451.986	94.31
452.207	94.31
452.428	73.31
452.648	98.31
452.869	102.31
453.089	106.31
453.31	89.31
453.53	90.31
453.751	92.31
453.971	88.31
454.192	85.31
454.412	81.31
454.633	86.31
454.853	82.31
455.073	84.31
455.294	83.31
455.514	94.31
455.734	82.31
455.955	87.31
456.175	91.31
456.395	84.31
456.616	69.31
456.836	86.31
457.056	96.31
457.276	98.31
457.497	89.31
457.717	78.31
457.937	117.31
458.157	122.31
458.377	113.31
458.598	111.31
458.818	126.31
459.038	104.31
459.258	81.31
459.478	72.31
459.698	80.31
459.918	82.31
460.138	89.31
460.358	95.31
460.578	101.31
460.798	112.31
461.018	116.31
461.238	90.31
461.458	82.31
461.678	91.31
461.898	96.31
462.118	80.31
462.338	83.31
462.558	85.31
462.777	89.31
462.997	82.31
463.217	85.31
463.437	79.31
463.657	86.31
463.876	93.31
464.096	79.31
464.316	90.31
464.536	87.31
464.755	90.31
464.975	85.31
465.195	70.31
465.414	96.31
465.634	95.31
465.854	99.31
466.073	83.31
466.293	83.31
466.512	94.31
466.732	91.31
466.951	87.31
467.171	94.31
467.391	79.31
467.61	70.31
467.829	82.31
468.049	97.31
468.268	100.31
468.488	85.31
468.707	102.31
468.927	84.31
469.146	88.31
469.365	95.31
469.585	87.31
469.804	86.31
470.023	88.31
470.243	82.31
470.462	95.31
470.681	88.31
470.901	87.31
471.12	85.31
471.339	83.31
471.558	85.31
471.777	80.31
471.997	86.31
472.216	100.31
472.435	94.31
472.654	81.31
472.873	91.31
473.092	81.31
473.311	85.31
473.53	86.31
473.749	90.31
473.968	80.31
474.187	86.31
474.406	86.31
474.625	90.31
474.844	79.31
475.063	77.31
475.282	86.31
475.501	83.31
475.72	88.31
475.939	97.31
476.158	89.31
476.377	84.31
476.596	77.31
476.814	76.31
477.033	80.31
477.252	82.31
477.471	74.31
477.69	88.31
477.908	82.31
478.127	92.31
478.346	99.31
478.564	79.31
478.783	86.31
479.002	80.31
479.22	87.31
479.439	74.31
479.658	81.31
479.876	68.31
480.095	95.31
480.313	81.31
480.532	98.31
480.751	94.31
480.969	77.31
481.188	94.31
481.406	95.31
481.624	94.31
481.843	82.31
482.061	99.31
482.28	91.31
482.498	85.31
482.717	100.31
482.935	86.31
483.153	91.31
483.372	91.31
483.59	96.31
483.808	94.31
484.027	91.31
484.245	91.31
484.463	98.31
484.681	94.31
484.9	100.31
485.118	95.31
485.336	78.31
485.554	82.31
485.772	106.31
485.99	95.31
486.209	94.31
486.427	90.31
486.645	90.31
486.863	103.31
487.081	91.31
487.299	96.31
487.517	89.31
487.735	116.31
487.953	165.31
488.171	136.31
488.389	91.31
488.607	81.31
488.825	69.31
489.043	91.31
489.261	75.31
489.479	88.31
489.696	98.31
489.914	90.31
490.132	95.31
490.35	100.31
490.568	97.31
490.786	90.31
491.003	85.31
491.221	94.31
491.439	91.31
491.657	78.31
491.874	96.31
492.092	84.31
492.31	87.31
492.527	85.31
492.745	74.31
492.963	99.31
493.18	94.31
493.398	76.31
493.615	85.31
493.833	94.31
494.05	95.31
494.268	84.31
494.485	81.31
494.703	80.31
494.92	95.31
495.138	97.31
495.355	82.31
495.573	89.31
495.79	96.31
496.008	86.31
496.225	92.31
496.442	106.31
496.66	91.31
496.877	96.31
497.094	92.31
497.312	84.31
497.529	85.31
497.746	94.31
497.963	82.31
498.181	86.31
498.398	80.31
498.615	79.31
498.832	87.31
499.049	99.31
499.267	98.31
499.484	89.31
499.701	92.31
499.918	93.31
500.135	103.31
500.352	104.31
500.569	98.31
500.786	86.31
501.003	92.31
501.22	99.31
501.437	81.31
501.654	95.31
501.871	92.31
502.088	102.31
502.305	95.31
502.522	103.31
502.739	99.31
502.956	87.31
503.172	95.31
503.389	100.31
503.606	86.31
503.823	94.31
504.04	109.31
504.256	119.31
504.473	135.31
504.69	106.31
504.907	82.31
505.123	89.31
505.34	91.31
505.557	85.31
505.773	95.31
505.99	84.31
506.207	98.31
506.423	96.31
506.64	102.31
506.856	81.31
507.073	90.31
507.289	88.31
507.506	91.31
507.722	95.31
507.939	91.31
508.155	104.31
508.372	88.31
508.588	86.31
508.805	93.31
509.021	96.31
509.238	88.31
509.454	90.31
509.67	98.31
509.887	89.31
510.103	95.31
510.319	93.31
510.536	90.31
510.752	102.31
510.968	77.31
511.184	83.31
511.401	77.31
511.617	98.31
511.833	71.31
512.049	86.31
512.265	92.31
512.481	99.31
512.698	88.31
512.914	104.31
513.13	100.31
513.346	105.31
513.562	86.31
513.778	91.31
513.994	95.31
514.21	94.31
514.426	98.31
514.642	96.31
514.858	92.31
515.074	85.31
515.29	99.31
515.506	97.31
515.721	83.31
515.937	99.31
516.153	91.31
516.369	83.31
516.585	91.31
516.801	86.31
517.016	94.31
517.232	92.31
517.448	100.31
517.664	89.31
517.879	78.31
518.095	90.31
518.311	88.31
