Data from 10100_2_HRD10591_00017.txt Node
Date: Mon Jan 19 14:01:32 EST 2026
User: Yrep
Spectrometer: HR+D1059
Trigger mode: 1
Integration Time (sec): 1.000000E-1
Scans to average: 1
Electric dark correction enabled: true
Nonlinearity correction enabled: false
Boxcar width: 0
XAxis mode: Wavelengths
Number of Pixels in Spectrum: 2048
>>>>>Begin Spectral Data<<<<<
223.165	-21.88
223.4	-21.88
223.635	-21.88
223.869	-10.88
224.104	-18.88
224.338	-9.88
224.573	-14.88
224.808	-16.88
225.042	-9.88
225.277	-8.88
225.511	-12.88
225.746	17.12
225.98	-2.88
226.215	19.12
226.449	11.12
226.683	35.12
226.918	30.12
227.152	15.12
227.387	42.12
227.621	28.12
227.856	36.12
228.09	37.12
228.324	59.12
228.559	61.12
228.793	55.12
229.027	58.12
229.262	55.12
229.496	69.12
229.73	64.12
229.964	80.12
230.199	57.12
230.433	69.12
230.667	70.12
230.901	83.12
231.136	72.12
231.37	73.12
231.604	69.12
231.838	65.12
232.072	71.12
232.306	83.12
232.541	98.12
232.775	87.12
233.009	83.12
233.243	78.12
233.477	75.12
233.711	71.12
233.945	75.12
234.179	86.12
234.413	91.12
234.647	79.12
234.881	73.12
235.115	71.12
235.349	73.12
235.583	87.12
235.817	63.12
236.051	84.12
236.285	83.12
236.519	77.12
236.753	83.12
236.987	85.12
237.221	77.12
237.455	67.12
237.689	71.12
237.922	89.12
238.156	74.12
238.39	65.12
238.624	79.12
238.858	61.12
239.091	67.12
239.325	74.12
239.559	65.12
239.793	60.12
240.027	67.12
240.26	65.12
240.494	69.12
240.728	82.12
240.961	73.12
241.195	83.12
241.429	81.12
241.662	80.12
241.896	69.12
242.13	68.12
242.363	64.12
242.597	76.12
242.83	75.12
243.064	72.12
243.298	67.12
243.531	78.12
243.765	89.12
243.998	57.12
244.232	82.12
244.465	59.12
244.699	71.12
244.932	80.12
245.166	91.12
245.399	59.12
245.633	67.12
245.866	74.12
246.099	81.12
246.333	77.12
246.566	77.12
246.8	65.12
247.033	66.12
247.266	83.12
247.5	79.12
247.733	80.12
247.966	66.12
248.2	85.12
248.433	75.12
248.666	77.12
248.899	83.12
249.133	66.12
249.366	86.12
249.599	80.12
249.832	87.12
250.066	72.12
250.299	75.12
250.532	81.12
250.765	77.12
250.998	82.12
251.231	79.12
251.465	80.12
251.698	87.12
251.931	65.12
252.164	77.12
252.397	77.12
252.63	81.12
252.863	91.12
253.096	63.12
253.329	88.12
253.562	69.12
253.795	84.12
254.028	81.12
254.261	62.12
254.494	78.12
254.727	71.12
254.96	85.12
255.193	75.12
255.426	79.12
255.659	78.12
255.892	86.12
256.124	76.12
256.357	91.12
256.59	89.12
256.823	77.12
257.056	73.12
257.289	62.12
257.521	79.12
257.754	77.12
257.987	66.12
258.22	78.12
258.452	63.12
258.685	80.12
258.918	78.12
259.151	72.12
259.383	93.12
259.616	70.12
259.849	79.12
260.081	62.12
260.314	72.12
260.547	72.12
260.779	78.12
261.012	93.12
261.244	78.12
261.477	71.12
261.71	78.12
261.942	79.12
262.175	70.12
262.407	75.12
262.64	77.12
262.872	82.12
263.105	73.12
263.337	79.12
263.57	90.12
263.802	66.12
264.035	64.12
264.267	72.12
264.499	82.12
264.732	83.12
264.964	84.12
265.197	81.12
265.429	79.12
265.661	81.12
265.894	76.12
266.126	81.12
266.358	95.12
266.591	69.12
266.823	77.12
267.055	85.12
267.287	77.12
267.52	87.12
267.752	78.12
267.984	81.12
268.216	72.12
268.448	78.12
268.681	99.12
268.913	78.12
269.145	84.12
269.377	78.12
269.609	69.12
269.841	101.12
270.073	77.12
270.306	83.12
270.538	80.12
270.77	74.12
271.002	84.12
271.234	90.12
271.466	89.12
271.698	67.12
271.93	80.12
272.162	66.12
272.394	69.12
272.626	96.12
272.858	80.12
273.09	97.12
273.322	81.12
273.553	87.12
273.785	78.12
274.017	67.12
274.249	85.12
274.481	93.12
274.713	87.12
274.945	77.12
275.176	61.12
275.408	93.12
275.64	76.12
275.872	77.12
276.104	87.12
276.335	73.12
276.567	90.12
276.799	72.12
277.031	79.12
277.262	81.12
277.494	88.12
277.726	83.12
277.957	66.12
278.189	74.12
278.421	88.12
278.652	81.12
278.884	77.12
279.115	86.12
279.347	73.12
279.579	96.12
279.81	70.12
280.042	85.12
280.273	84.12
280.505	75.12
280.736	77.12
280.968	76.12
281.199	77.12
281.431	78.12
281.662	84.12
281.894	78.12
282.125	82.12
282.356	70.12
282.588	81.12
282.819	83.12
283.051	84.12
283.282	83.12
283.513	85.12
283.745	69.12
283.976	75.12
284.207	81.12
284.439	79.12
284.67	61.12
284.901	79.12
285.132	77.12
285.364	83.12
285.595	85.12
285.826	77.12
286.057	73.12
286.288	75.12
286.52	93.12
286.751	73.12
286.982	84.12
287.213	86.12
287.444	78.12
287.675	91.12
287.906	81.12
288.138	79.12
288.369	88.12
288.6	81.12
288.831	86.12
289.062	85.12
289.293	88.12
289.524	88.12
289.755	87.12
289.986	78.12
290.217	74.12
290.448	70.12
290.679	89.12
290.91	77.12
291.141	86.12
291.371	69.12
291.602	81.12
291.833	88.12
292.064	83.12
292.295	77.12
292.526	88.12
292.757	80.12
292.987	82.12
293.218	77.12
293.449	86.12
293.68	86.12
293.91	81.12
294.141	77.12
294.372	85.12
294.603	98.12
294.833	92.12
295.064	75.12
295.295	79.12
295.525	84.12
295.756	95.12
295.987	76.12
296.217	69.12
296.448	79.12
296.679	77.12
296.909	86.12
297.14	93.12
297.37	65.12
297.601	83.12
297.831	80.12
298.062	78.12
298.292	90.12
298.523	76.12
298.753	101.12
298.984	89.12
299.214	77.12
299.445	89.12
299.675	87.12
299.905	84.12
300.136	86.12
300.366	78.12
300.597	90.12
300.827	77.12
301.057	89.12
301.288	79.12
301.518	79.12
301.748	64.12
301.979	81.12
302.209	91.12
302.439	91.12
302.669	81.12
302.9	74.12
303.13	87.12
303.36	87.12
303.59	88.12
303.82	88.12
304.051	71.12
304.281	85.12
304.511	85.12
304.741	92.12
304.971	80.12
305.201	81.12
305.431	87.12
305.661	79.12
305.891	88.12
306.121	75.12
306.352	71.12
306.582	79.12
306.812	87.12
307.042	77.12
307.272	68.12
307.502	76.12
307.731	85.12
307.961	85.12
308.191	80.12
308.421	85.12
308.651	79.12
308.881	74.12
309.111	70.12
309.341	91.12
309.571	91.12
309.8	82.12
310.03	84.12
310.26	71.12
310.49	81.12
310.72	82.12
310.949	79.12
311.179	78.12
311.409	77.12
311.639	84.12
311.868	78.12
312.098	77.12
312.328	88.12
312.557	81.12
312.787	75.12
313.017	76.12
313.246	81.12
313.476	88.12
313.706	93.12
313.935	82.12
314.165	94.12
314.394	93.12
314.624	79.12
314.853	80.12
315.083	79.12
315.312	96.12
315.542	93.12
315.771	85.12
316.001	77.12
316.23	65.12
316.46	101.12
316.689	79.12
316.919	85.12
317.148	86.12
317.377	102.12
317.607	83.12
317.836	84.12
318.065	89.12
318.295	79.12
318.524	72.12
318.753	95.12
318.983	83.12
319.212	86.12
319.441	87.12
319.67	70.12
319.9	86.12
320.129	68.12
320.358	66.12
320.587	86.12
320.816	90.12
321.046	87.12
321.275	67.12
321.504	91.12
321.733	78.12
321.962	86.12
322.191	77.12
322.42	83.12
322.649	82.12
322.878	78.12
323.108	75.12
323.337	72.12
323.566	102.12
323.795	84.12
324.024	86.12
324.253	78.12
324.482	94.12
324.71	94.12
324.939	74.12
325.168	87.12
325.397	78.12
325.626	80.12
325.855	75.12
326.084	90.12
326.313	81.12
326.542	89.12
326.77	79.12
326.999	76.12
327.228	87.12
327.457	97.12
327.686	75.12
327.914	93.12
328.143	86.12
328.372	79.12
328.6	89.12
328.829	90.12
329.058	70.12
329.287	81.12
329.515	81.12
329.744	91.12
329.972	87.12
330.201	83.12
330.43	87.12
330.658	76.12
330.887	82.12
331.115	97.12
331.344	82.12
331.572	85.12
331.801	79.12
332.03	86.12
332.258	77.12
332.486	77.12
332.715	87.12
332.943	85.12
333.172	85.12
333.4	86.12
333.629	96.12
333.857	91.12
334.085	86.12
334.314	89.12
334.542	86.12
334.771	86.12
334.999	76.12
335.227	79.12
335.455	93.12
335.684	97.12
335.912	88.12
336.14	86.12
336.369	105.12
336.597	85.12
336.825	68.12
337.053	74.12
337.281	91.12
337.51	72.12
337.738	92.12
337.966	83.12
338.194	67.12
338.422	73.12
338.65	81.12
338.878	75.12
339.106	87.12
339.334	77.12
339.562	65.12
339.79	85.12
340.018	83.12
340.246	87.12
340.474	95.12
340.702	71.12
340.93	79.12
341.158	78.12
341.386	78.12
341.614	75.12
341.842	77.12
342.07	90.12
342.298	79.12
342.526	89.12
342.754	82.12
342.981	71.12
343.209	87.12
343.437	98.12
343.665	83.12
343.893	86.12
344.12	85.12
344.348	83.12
344.576	80.12
344.804	80.12
345.031	82.12
345.259	86.12
345.487	81.12
345.714	88.12
345.942	80.12
346.17	89.12
346.397	81.12
346.625	86.12
346.853	86.12
347.08	82.12
347.308	71.12
347.535	71.12
347.763	86.12
347.99	71.12
348.218	90.12
348.445	77.12
348.673	88.12
348.9	87.12
349.128	82.12
349.355	83.12
349.583	69.12
349.81	79.12
350.037	76.12
350.265	91.12
350.492	87.12
350.72	71.12
350.947	87.12
351.174	93.12
351.402	91.12
351.629	87.12
351.856	78.12
352.083	70.12
352.311	87.12
352.538	77.12
352.765	76.12
352.992	77.12
353.22	80.12
353.447	75.12
353.674	84.12
353.901	79.12
354.128	73.12
354.355	78.12
354.583	73.12
354.81	69.12
355.037	77.12
355.264	88.12
355.491	77.12
355.718	90.12
355.945	79.12
356.172	77.12
356.399	82.12
356.626	79.12
356.853	59.12
357.08	67.12
357.307	84.12
357.534	67.12
357.761	92.12
357.988	91.12
358.215	91.12
358.441	84.12
358.668	81.12
358.895	89.12
359.122	81.12
359.349	92.12
359.576	83.12
359.802	77.12
360.029	93.12
360.256	88.12
360.483	65.12
360.709	74.12
360.936	93.12
361.163	80.12
361.39	93.12
361.616	81.12
361.843	70.12
362.07	85.12
362.296	92.12
362.523	85.12
362.749	87.12
362.976	80.12
363.203	111.12
363.429	81.12
363.656	81.12
363.882	94.12
364.109	87.12
364.335	110.12
364.562	109.12
364.788	93.12
365.015	99.12
365.241	96.12
365.468	96.12
365.694	74.12
365.92	85.12
366.147	77.12
366.373	90.12
366.599	82.12
366.826	94.12
367.052	89.12
367.278	83.12
367.505	88.12
367.731	75.12
367.957	85.12
368.184	81.12
368.41	61.12
368.636	90.12
368.862	99.12
369.089	85.12
369.315	92.12
369.541	87.12
369.767	92.12
369.993	85.12
370.219	84.12
370.445	78.12
370.672	77.12
370.898	91.12
371.124	82.12
371.35	95.12
371.576	90.12
371.802	73.12
372.028	82.12
372.254	84.12
372.48	82.12
372.706	93.12
372.932	80.12
373.158	77.12
373.384	85.12
373.61	91.12
373.835	86.12
374.061	79.12
374.287	81.12
374.513	99.12
374.739	82.12
374.965	84.12
375.191	75.12
375.416	90.12
375.642	79.12
375.868	79.12
376.094	82.12
376.319	84.12
376.545	70.12
376.771	79.12
376.997	94.12
377.222	74.12
377.448	91.12
377.674	77.12
377.899	85.12
378.125	71.12
378.35	78.12
378.576	79.12
378.802	76.12
379.027	81.12
379.253	70.12
379.478	99.12
379.704	84.12
379.929	82.12
380.155	80.12
380.38	94.12
380.606	97.12
380.831	90.12
381.057	93.12
381.282	81.12
381.507	87.12
381.733	76.12
381.958	96.12
382.184	95.12
382.409	73.12
382.634	69.12
382.86	75.12
383.085	84.12
383.31	88.12
383.535	94.12
383.761	84.12
383.986	89.12
384.211	73.12
384.436	81.12
384.662	83.12
384.887	75.12
385.112	76.12
385.337	73.12
385.562	81.12
385.787	81.12
386.013	81.12
386.238	69.12
386.463	90.12
386.688	85.12
386.913	84.12
387.138	74.12
387.363	87.12
387.588	71.12
387.813	92.12
388.038	85.12
388.263	75.12
388.488	76.12
388.713	85.12
388.938	82.12
389.163	87.12
389.387	79.12
389.612	90.12
389.837	78.12
390.062	81.12
390.287	83.12
390.512	85.12
390.736	87.12
390.961	62.12
391.186	78.12
391.411	67.12
391.636	87.12
391.86	81.12
392.085	78.12
392.31	86.12
392.534	77.12
392.759	91.12
392.984	113.12
393.208	143.12
393.433	164.12
393.658	152.12
393.882	104.12
394.107	85.12
394.331	101.12
394.556	90.12
394.78	83.12
395.005	87.12
395.229	77.12
395.454	88.12
395.678	83.12
395.903	100.12
396.127	112.12
396.352	105.12
396.576	120.12
396.801	139.12
397.025	151.12
397.249	112.12
397.474	86.12
397.698	88.12
397.922	94.12
398.147	80.12
398.371	73.12
398.595	89.12
398.82	81.12
399.044	79.12
399.268	87.12
399.492	85.12
399.717	85.12
399.941	90.12
400.165	83.12
400.389	86.12
400.613	92.12
400.837	84.12
401.062	91.12
401.286	96.12
401.51	70.12
401.734	74.12
401.958	78.12
402.182	77.12
402.406	89.12
402.63	72.12
402.854	77.12
403.078	88.12
403.302	79.12
403.526	74.12
403.75	98.12
403.974	79.12
404.198	75.12
404.422	69.12
404.645	77.12
404.869	79.12
405.093	81.12
405.317	75.12
405.541	79.12
405.765	81.12
405.988	72.12
406.212	92.12
406.436	86.12
406.66	73.12
406.883	80.12
407.107	87.12
407.331	80.12
407.555	65.12
407.778	91.12
408.002	102.12
408.226	81.12
408.449	85.12
408.673	83.12
408.896	78.12
409.12	79.12
409.344	69.12
409.567	91.12
409.791	89.12
410.014	87.12
410.238	98.12
410.461	95.12
410.685	93.12
410.908	77.12
411.132	87.12
411.355	98.12
411.578	82.12
411.802	80.12
412.025	90.12
412.249	84.12
412.472	83.12
412.695	71.12
412.919	79.12
413.142	81.12
413.365	68.12
413.589	84.12
413.812	70.12
414.035	83.12
414.258	87.12
414.482	81.12
414.705	77.12
414.928	87.12
415.151	90.12
415.374	65.12
415.597	79.12
415.821	79.12
416.044	83.12
416.267	78.12
416.49	81.12
416.713	69.12
416.936	77.12
417.159	80.12
417.382	66.12
417.605	75.12
417.828	71.12
418.051	84.12
418.274	83.12
418.497	79.12
418.72	90.12
418.943	89.12
419.166	87.12
419.389	70.12
419.611	84.12
419.834	79.12
420.057	89.12
420.28	81.12
420.503	91.12
420.726	75.12
420.948	88.12
421.171	75.12
421.394	96.12
421.617	92.12
421.839	97.12
422.062	118.12
422.285	112.12
422.507	197.12
422.73	245.12
422.953	207.12
423.175	139.12
423.398	111.12
423.621	94.12
423.843	100.12
424.066	98.12
424.288	93.12
424.511	89.12
424.733	77.12
424.956	83.12
425.178	76.12
425.401	96.12
425.623	67.12
425.846	87.12
426.068	65.12
426.291	85.12
426.513	66.12
426.735	75.12
426.958	77.12
427.18	93.12
427.402	96.12
427.625	85.12
427.847	77.12
428.069	81.12
428.292	95.12
428.514	101.12
428.736	80.12
428.958	91.12
429.181	101.12
429.403	75.12
429.625	77.12
429.847	89.12
430.069	117.12
430.292	125.12
430.514	111.12
430.736	106.12
430.958	114.12
431.18	90.12
431.402	86.12
431.624	96.12
431.846	88.12
432.068	101.12
432.29	96.12
432.512	85.12
432.734	85.12
432.956	73.12
433.178	91.12
433.4	84.12
433.622	83.12
433.844	90.12
434.066	93.12
434.287	86.12
434.509	86.12
434.731	79.12
434.953	80.12
435.175	78.12
435.397	76.12
435.618	97.12
435.84	80.12
436.062	74.12
436.284	86.12
436.505	91.12
436.727	93.12
436.949	102.12
437.17	83.12
437.392	78.12
437.614	72.12
437.835	71.12
438.057	70.12
438.278	86.12
438.5	93.12
438.721	90.12
438.943	82.12
439.165	89.12
439.386	77.12
439.608	89.12
439.829	88.12
440.05	74.12
440.272	71.12
440.493	83.12
440.715	78.12
440.936	77.12
441.158	77.12
441.379	78.12
441.6	75.12
441.822	78.12
442.043	89.12
442.264	81.12
442.486	106.12
442.707	122.12
442.928	94.12
443.149	102.12
443.371	117.12
443.592	169.12
443.813	132.12
444.034	95.12
444.255	93.12
444.476	94.12
444.698	67.12
444.919	64.12
445.14	178.12
445.361	156.12
445.582	174.12
445.803	155.12
446.024	98.12
446.245	81.12
446.466	81.12
446.687	82.12
446.908	85.12
447.129	77.12
447.35	70.12
447.571	68.12
447.792	66.12
448.013	79.12
448.234	86.12
448.455	67.12
448.675	83.12
448.896	77.12
449.117	81.12
449.338	91.12
449.559	79.12
449.779	70.12
450	88.12
450.221	77.12
450.442	69.12
450.662	78.12
450.883	101.12
451.104	96.12
451.324	83.12
451.545	87.12
451.766	60.12
451.986	69.12
452.207	63.12
452.428	81.12
452.648	84.12
452.869	83.12
453.089	61.12
453.31	79.12
453.53	75.12
453.751	92.12
453.971	77.12
454.192	75.12
454.412	84.12
454.633	86.12
454.853	86.12
455.073	84.12
455.294	79.12
455.514	90.12
455.734	82.12
455.955	76.12
456.175	87.12
456.395	83.12
456.616	84.12
456.836	77.12
457.056	89.12
457.276	84.12
457.497	75.12
457.717	97.12
457.937	86.12
458.157	95.12
458.377	89.12
458.598	84.12
458.818	92.12
459.038	94.12
459.258	84.12
459.478	60.12
459.698	67.12
459.918	87.12
460.138	74.12
460.358	83.12
460.578	81.12
460.798	114.12
461.018	101.12
461.238	83.12
461.458	78.12
461.678	89.12
461.898	78.12
462.118	81.12
462.338	81.12
462.558	94.12
462.777	97.12
462.997	81.12
463.217	84.12
463.437	83.12
463.657	73.12
463.876	71.12
464.096	75.12
464.316	77.12
464.536	65.12
464.755	67.12
464.975	94.12
465.195	78.12
465.414	67.12
465.634	77.12
465.854	71.12
466.073	87.12
466.293	68.12
466.512	71.12
466.732	77.12
466.951	83.12
467.171	78.12
467.391	76.12
467.61	73.12
467.829	81.12
468.049	97.12
468.268	103.12
468.488	92.12
468.707	94.12
468.927	74.12
469.146	84.12
469.365	77.12
469.585	76.12
469.804	77.12
470.023	74.12
470.243	70.12
470.462	70.12
470.681	67.12
470.901	91.12
471.12	65.12
471.339	83.12
471.558	56.12
471.777	77.12
471.997	79.12
472.216	77.12
472.435	68.12
472.654	73.12
472.873	72.12
473.092	89.12
473.311	82.12
473.53	93.12
473.749	79.12
473.968	94.12
474.187	81.12
474.406	87.12
474.625	82.12
474.844	85.12
475.063	78.12
475.282	85.12
475.501	81.12
475.72	83.12
475.939	72.12
476.158	94.12
476.377	81.12
476.596	77.12
476.814	86.12
477.033	95.12
477.252	95.12
477.471	76.12
477.69	70.12
477.908	71.12
478.127	94.12
478.346	72.12
478.564	83.12
478.783	78.12
479.002	70.12
479.22	85.12
479.439	85.12
479.658	71.12
479.876	85.12
480.095	65.12
480.313	73.12
480.532	79.12
480.751	71.12
480.969	81.12
481.188	83.12
481.406	79.12
481.624	83.12
481.843	79.12
482.061	72.12
482.28	87.12
482.498	86.12
482.717	70.12
482.935	71.12
483.153	74.12
483.372	73.12
483.59	92.12
483.808	83.12
484.027	86.12
484.245	77.12
484.463	73.12
484.681	89.12
484.9	81.12
485.118	93.12
485.336	77.12
485.554	83.12
485.772	70.12
485.99	75.12
486.209	72.12
486.427	78.12
486.645	85.12
486.863	85.12
487.081	83.12
487.299	92.12
487.517	82.12
487.735	98.12
487.953	123.12
488.171	106.12
488.389	87.12
488.607	91.12
488.825	97.12
489.043	82.12
489.261	99.12
489.479	93.12
489.696	89.12
489.914	84.12
490.132	83.12
490.35	90.12
490.568	83.12
490.786	80.12
491.003	89.12
491.221	76.12
491.439	81.12
491.657	79.12
491.874	98.12
492.092	81.12
492.31	75.12
492.527	83.12
492.745	73.12
492.963	91.12
493.18	85.12
493.398	88.12
493.615	85.12
493.833	77.12
494.05	71.12
494.268	79.12
494.485	94.12
494.703	93.12
494.92	93.12
495.138	83.12
495.355	83.12
495.573	85.12
495.79	77.12
496.008	90.12
496.225	84.12
496.442	98.12
496.66	86.12
496.877	91.12
497.094	82.12
497.312	74.12
497.529	78.12
497.746	80.12
497.963	83.12
498.181	96.12
498.398	89.12
498.615	81.12
498.832	69.12
499.049	72.12
499.267	91.12
499.484	85.12
499.701	85.12
499.918	81.12
500.135	84.12
500.352	73.12
500.569	78.12
500.786	78.12
501.003	83.12
501.22	86.12
501.437	79.12
501.654	79.12
501.871	85.12
502.088	84.12
502.305	89.12
502.522	77.12
502.739	78.12
502.956	86.12
503.172	81.12
503.389	70.12
503.606	75.12
503.823	100.12
504.04	88.12
504.256	108.12
504.473	119.12
504.69	91.12
504.907	87.12
505.123	86.12
505.34	93.12
505.557	87.12
505.773	81.12
505.99	66.12
506.207	93.12
506.423	69.12
506.64	82.12
506.856	93.12
507.073	80.12
507.289	78.12
507.506	90.12
507.722	81.12
507.939	78.12
508.155	81.12
508.372	69.12
508.588	74.12
508.805	77.12
509.021	91.12
509.238	84.12
509.454	75.12
509.67	73.12
509.887	88.12
510.103	93.12
510.319	81.12
510.536	89.12
510.752	95.12
510.968	85.12
511.184	79.12
511.401	83.12
511.617	79.12
511.833	86.12
512.049	70.12
512.265	75.12
512.481	85.12
512.698	99.12
512.914	77.12
513.13	70.12
513.346	91.12
513.562	85.12
513.778	87.12
513.994	87.12
514.21	98.12
514.426	71.12
514.642	60.12
514.858	88.12
515.074	91.12
515.29	95.12
515.506	79.12
515.721	88.12
515.937	81.12
516.153	81.12
516.369	88.12
516.585	87.12
516.801	85.12
517.016	65.12
517.232	82.12
517.448	100.12
517.664	95.12
517.879	78.12
518.095	76.12
518.311	81.12
518.527	101.12
518.742	95.12
518.958	114.12
519.173	129.12
519.389	76.12
