Data from 10100_2_HRD10591_00030.txt Node
Date: Mon Jan 19 14:01:39 EST 2026
User: Yrep
Spectrometer: HR+D1059
Trigger mode: 1
Integration Time (sec): 1.000000E-1
Scans to average: 1
Electric dark correction enabled: true
Nonlinearity correction enabled: false
Boxcar width: 0
XAxis mode: Wavelengths
Number of Pixels in Spectrum: 2048
>>>>>Begin Spectral Data<<<<<
223.165	-27.06
223.4	-27.06
223.635	-27.06
223.869	-20.06
224.104	-25.06
224.338	-5.06
224.573	-15.06
224.808	-10.06
225.042	-18.06
225.277	-8.06
225.511	-12.06
225.746	-3.06
225.98	17.94
226.215	17.94
226.449	17.94
226.683	23.94
226.918	26.94
227.152	38.94
227.387	32.94
227.621	40.94
227.856	50.94
228.09	56.94
228.324	42.94
228.559	65.94
228.793	67.94
229.027	46.94
229.262	57.94
229.496	58.94
229.73	64.94
229.964	72.94
230.199	71.94
230.433	85.94
230.667	75.94
230.901	86.94
231.136	75.94
231.37	76.94
231.604	84.94
231.838	75.94
232.072	82.94
232.306	85.94
232.541	85.94
232.775	102.94
233.009	79.94
233.243	74.94
233.477	90.94
233.711	58.94
233.945	63.94
234.179	88.94
234.413	73.94
234.647	70.94
234.881	89.94
235.115	80.94
235.349	70.94
235.583	85.94
235.817	80.94
236.051	79.94
236.285	75.94
236.519	66.94
236.753	77.94
236.987	70.94
237.221	81.94
237.455	78.94
237.689	79.94
237.922	54.94
238.156	69.94
238.39	67.94
238.624	79.94
238.858	80.94
239.091	95.94
239.325	91.94
239.559	83.94
239.793	65.94
240.027	77.94
240.26	71.94
240.494	68.94
240.728	74.94
240.961	71.94
241.195	84.94
241.429	76.94
241.662	78.94
241.896	84.94
242.13	66.94
242.363	74.94
242.597	75.94
242.83	75.94
243.064	63.94
243.298	69.94
243.531	83.94
243.765	90.94
243.998	78.94
244.232	81.94
244.465	68.94
244.699	78.94
244.932	79.94
245.166	74.94
245.399	64.94
245.633	76.94
245.866	72.94
246.099	89.94
246.333	82.94
246.566	78.94
246.8	79.94
247.033	95.94
247.266	80.94
247.5	67.94
247.733	80.94
247.966	80.94
248.2	98.94
248.433	75.94
248.666	83.94
248.899	75.94
249.133	80.94
249.366	82.94
249.599	84.94
249.832	73.94
250.066	80.94
250.299	74.94
250.532	78.94
250.765	73.94
250.998	77.94
251.231	79.94
251.465	71.94
251.698	77.94
251.931	74.94
252.164	77.94
252.397	82.94
252.63	86.94
252.863	83.94
253.096	78.94
253.329	75.94
253.562	80.94
253.795	83.94
254.028	84.94
254.261	78.94
254.494	83.94
254.727	80.94
254.96	74.94
255.193	83.94
255.426	94.94
255.659	73.94
255.892	82.94
256.124	76.94
256.357	62.94
256.59	85.94
256.823	75.94
257.056	76.94
257.289	81.94
257.521	83.94
257.754	81.94
257.987	92.94
258.22	71.94
258.452	86.94
258.685	87.94
258.918	79.94
259.151	83.94
259.383	90.94
259.616	76.94
259.849	83.94
260.081	80.94
260.314	71.94
260.547	78.94
260.779	83.94
261.012	73.94
261.244	84.94
261.477	84.94
261.71	68.94
261.942	70.94
262.175	88.94
262.407	77.94
262.64	86.94
262.872	73.94
263.105	82.94
263.337	79.94
263.57	63.94
263.802	81.94
264.035	88.94
264.267	89.94
264.499	84.94
264.732	79.94
264.964	85.94
265.197	76.94
265.429	89.94
265.661	90.94
265.894	68.94
266.126	83.94
266.358	75.94
266.591	86.94
266.823	94.94
267.055	73.94
267.287	78.94
267.52	93.94
267.752	98.94
267.984	89.94
268.216	82.94
268.448	95.94
268.681	74.94
268.913	87.94
269.145	80.94
269.377	89.94
269.609	88.94
269.841	82.94
270.073	76.94
270.306	87.94
270.538	82.94
270.77	78.94
271.002	78.94
271.234	78.94
271.466	64.94
271.698	84.94
271.93	86.94
272.162	87.94
272.394	90.94
272.626	87.94
272.858	84.94
273.09	72.94
273.322	91.94
273.553	89.94
273.785	83.94
274.017	90.94
274.249	82.94
274.481	83.94
274.713	91.94
274.945	82.94
275.176	91.94
275.408	75.94
275.64	72.94
275.872	93.94
276.104	78.94
276.335	84.94
276.567	99.94
276.799	95.94
277.031	77.94
277.262	75.94
277.494	84.94
277.726	88.94
277.957	88.94
278.189	77.94
278.421	76.94
278.652	97.94
278.884	80.94
279.115	80.94
279.347	73.94
279.579	86.94
279.81	88.94
280.042	87.94
280.273	72.94
280.505	83.94
280.736	68.94
280.968	83.94
281.199	88.94
281.431	79.94
281.662	91.94
281.894	93.94
282.125	86.94
282.356	93.94
282.588	74.94
282.819	82.94
283.051	81.94
283.282	89.94
283.513	91.94
283.745	77.94
283.976	82.94
284.207	83.94
284.439	76.94
284.67	91.94
284.901	93.94
285.132	74.94
285.364	74.94
285.595	89.94
285.826	98.94
286.057	88.94
286.288	79.94
286.52	71.94
286.751	75.94
286.982	74.94
287.213	89.94
287.444	71.94
287.675	74.94
287.906	93.94
288.138	86.94
288.369	87.94
288.6	85.94
288.831	83.94
289.062	86.94
289.293	85.94
289.524	79.94
289.755	90.94
289.986	76.94
290.217	88.94
290.448	86.94
290.679	83.94
290.91	85.94
291.141	84.94
291.371	75.94
291.602	88.94
291.833	79.94
292.064	74.94
292.295	95.94
292.526	97.94
292.757	94.94
292.987	84.94
293.218	76.94
293.449	74.94
293.68	84.94
293.91	97.94
294.141	103.94
294.372	85.94
294.603	92.94
294.833	86.94
295.064	90.94
295.295	83.94
295.525	87.94
295.756	91.94
295.987	97.94
296.217	86.94
296.448	82.94
296.679	76.94
296.909	81.94
297.14	82.94
297.37	67.94
297.601	91.94
297.831	71.94
298.062	96.94
298.292	88.94
298.523	94.94
298.753	84.94
298.984	76.94
299.214	78.94
299.445	89.94
299.675	104.94
299.905	76.94
300.136	82.94
300.366	88.94
300.597	87.94
300.827	83.94
301.057	89.94
301.288	91.94
301.518	85.94
301.748	90.94
301.979	102.94
302.209	86.94
302.439	85.94
302.669	89.94
302.9	81.94
303.13	69.94
303.36	88.94
303.59	86.94
303.82	84.94
304.051	80.94
304.281	97.94
304.511	93.94
304.741	82.94
304.971	91.94
305.201	92.94
305.431	81.94
305.661	83.94
305.891	77.94
306.121	90.94
306.352	91.94
306.582	94.94
306.812	102.94
307.042	81.94
307.272	68.94
307.502	76.94
307.731	97.94
307.961	90.94
308.191	91.94
308.421	98.94
308.651	90.94
308.881	84.94
309.111	97.94
309.341	80.94
309.571	83.94
309.8	82.94
310.03	73.94
310.26	86.94
310.49	90.94
310.72	83.94
310.949	86.94
311.179	88.94
311.409	95.94
311.639	88.94
311.868	75.94
312.098	80.94
312.328	74.94
312.557	83.94
312.787	81.94
313.017	84.94
313.246	84.94
313.476	79.94
313.706	82.94
313.935	82.94
314.165	89.94
314.394	92.94
314.624	87.94
314.853	91.94
315.083	97.94
315.312	94.94
315.542	89.94
315.771	85.94
316.001	89.94
316.23	79.94
316.46	92.94
316.689	90.94
316.919	88.94
317.148	109.94
317.377	96.94
317.607	84.94
317.836	105.94
318.065	83.94
318.295	89.94
318.524	98.94
318.753	84.94
318.983	85.94
319.212	82.94
319.441	76.94
319.67	79.94
319.9	87.94
320.129	88.94
320.358	89.94
320.587	97.94
320.816	99.94
321.046	86.94
321.275	95.94
321.504	88.94
321.733	102.94
321.962	84.94
322.191	90.94
322.42	86.94
322.649	102.94
322.878	90.94
323.108	85.94
323.337	75.94
323.566	93.94
323.795	91.94
324.024	81.94
324.253	87.94
324.482	82.94
324.71	89.94
324.939	104.94
325.168	96.94
325.397	82.94
325.626	90.94
325.855	92.94
326.084	92.94
326.313	74.94
326.542	81.94
326.77	86.94
326.999	86.94
327.228	94.94
327.457	98.94
327.686	95.94
327.914	85.94
328.143	82.94
328.372	87.94
328.6	78.94
328.829	83.94
329.058	76.94
329.287	78.94
329.515	75.94
329.744	90.94
329.972	86.94
330.201	94.94
330.43	88.94
330.658	86.94
330.887	89.94
331.115	82.94
331.344	87.94
331.572	97.94
331.801	82.94
332.03	94.94
332.258	87.94
332.486	82.94
332.715	88.94
332.943	94.94
333.172	85.94
333.4	71.94
333.629	86.94
333.857	68.94
334.085	97.94
334.314	84.94
334.542	98.94
334.771	104.94
334.999	89.94
335.227	94.94
335.455	98.94
335.684	92.94
335.912	92.94
336.14	85.94
336.369	89.94
336.597	75.94
336.825	94.94
337.053	93.94
337.281	96.94
337.51	86.94
337.738	95.94
337.966	86.94
338.194	84.94
338.422	97.94
338.65	85.94
338.878	89.94
339.106	74.94
339.334	78.94
339.562	86.94
339.79	81.94
340.018	84.94
340.246	106.94
340.474	88.94
340.702	95.94
340.93	94.94
341.158	83.94
341.386	81.94
341.614	88.94
341.842	80.94
342.07	72.94
342.298	89.94
342.526	89.94
342.754	74.94
342.981	90.94
343.209	94.94
343.437	103.94
343.665	97.94
343.893	98.94
344.12	93.94
344.348	116.94
344.576	94.94
344.804	95.94
345.031	86.94
345.259	86.94
345.487	108.94
345.714	79.94
345.942	88.94
346.17	89.94
346.397	81.94
346.625	97.94
346.853	95.94
347.08	82.94
347.308	82.94
347.535	86.94
347.763	90.94
347.99	83.94
348.218	85.94
348.445	79.94
348.673	95.94
348.9	86.94
349.128	84.94
349.355	92.94
349.583	83.94
349.81	96.94
350.037	79.94
350.265	88.94
350.492	86.94
350.72	85.94
350.947	75.94
351.174	91.94
351.402	94.94
351.629	90.94
351.856	84.94
352.083	89.94
352.311	92.94
352.538	102.94
352.765	74.94
352.992	104.94
353.22	93.94
353.447	84.94
353.674	76.94
353.901	94.94
354.128	94.94
354.355	84.94
354.583	94.94
354.81	82.94
355.037	88.94
355.264	84.94
355.491	83.94
355.718	94.94
355.945	89.94
356.172	98.94
356.399	90.94
356.626	87.94
356.853	87.94
357.08	89.94
357.307	88.94
357.534	79.94
357.761	81.94
357.988	99.94
358.215	103.94
358.441	94.94
358.668	84.94
358.895	85.94
359.122	85.94
359.349	88.94
359.576	84.94
359.802	82.94
360.029	89.94
360.256	86.94
360.483	95.94
360.709	88.94
360.936	111.94
361.163	100.94
361.39	102.94
361.616	93.94
361.843	88.94
362.07	99.94
362.296	78.94
362.523	96.94
362.749	86.94
362.976	102.94
363.203	117.94
363.429	96.94
363.656	95.94
363.882	82.94
364.109	111.94
364.335	121.94
364.562	122.94
364.788	119.94
365.015	96.94
365.241	84.94
365.468	96.94
365.694	87.94
365.92	82.94
366.147	83.94
366.373	84.94
366.599	99.94
366.826	92.94
367.052	78.94
367.278	84.94
367.505	86.94
367.731	94.94
367.957	91.94
368.184	80.94
368.41	84.94
368.636	76.94
368.862	89.94
369.089	91.94
369.315	80.94
369.541	92.94
369.767	102.94
369.993	91.94
370.219	96.94
370.445	101.94
370.672	94.94
370.898	100.94
371.124	92.94
371.35	87.94
371.576	86.94
371.802	91.94
372.028	91.94
372.254	96.94
372.48	88.94
372.706	88.94
372.932	76.94
373.158	91.94
373.384	92.94
373.61	116.94
373.835	101.94
374.061	94.94
374.287	88.94
374.513	96.94
374.739	99.94
374.965	104.94
375.191	91.94
375.416	110.94
375.642	93.94
375.868	97.94
376.094	95.94
376.319	85.94
376.545	99.94
376.771	88.94
376.997	100.94
377.222	96.94
377.448	85.94
377.674	94.94
377.899	89.94
378.125	99.94
378.35	105.94
378.576	99.94
378.802	89.94
379.027	88.94
379.253	80.94
379.478	97.94
379.704	107.94
379.929	77.94
380.155	87.94
380.38	82.94
380.606	83.94
380.831	71.94
381.057	78.94
381.282	100.94
381.507	96.94
381.733	103.94
381.958	105.94
382.184	99.94
382.409	105.94
382.634	88.94
382.86	86.94
383.085	90.94
383.31	94.94
383.535	106.94
383.761	100.94
383.986	98.94
384.211	106.94
384.436	88.94
384.662	87.94
384.887	97.94
385.112	105.94
385.337	98.94
385.562	91.94
385.787	91.94
386.013	87.94
386.238	103.94
386.463	94.94
386.688	103.94
386.913	81.94
387.138	88.94
387.363	92.94
387.588	104.94
387.813	104.94
388.038	90.94
388.263	98.94
388.488	95.94
388.713	88.94
388.938	91.94
389.163	101.94
389.387	100.94
389.612	94.94
389.837	88.94
390.062	84.94
390.287	93.94
390.512	101.94
390.736	85.94
390.961	106.94
391.186	94.94
391.411	93.94
391.636	97.94
391.86	100.94
392.085	92.94
392.31	90.94
392.534	86.94
392.759	121.94
392.984	153.94
393.208	271.94
393.433	412.94
393.658	332.94
393.882	160.94
394.107	108.94
394.331	115.94
394.556	129.94
394.78	94.94
395.005	101.94
395.229	88.94
395.454	102.94
395.678	95.94
395.903	100.94
396.127	139.94
396.352	158.94
396.576	180.94
396.801	295.94
397.025	341.94
397.249	190.94
397.474	128.94
397.698	102.94
397.922	96.94
398.147	101.94
398.371	79.94
398.595	96.94
398.82	75.94
399.044	90.94
399.268	99.94
399.492	88.94
399.717	101.94
399.941	87.94
400.165	78.94
400.389	81.94
400.613	73.94
400.837	101.94
401.062	86.94
401.286	81.94
401.51	84.94
401.734	88.94
401.958	90.94
402.182	81.94
402.406	72.94
402.63	76.94
402.854	87.94
403.078	91.94
403.302	91.94
403.526	93.94
403.75	86.94
403.974	88.94
404.198	88.94
404.422	84.94
404.645	89.94
404.869	83.94
405.093	106.94
405.317	92.94
405.541	87.94
405.765	80.94
405.988	77.94
406.212	91.94
406.436	81.94
406.66	90.94
406.883	83.94
407.107	91.94
407.331	83.94
407.555	91.94
407.778	102.94
408.002	119.94
408.226	82.94
408.449	94.94
408.673	83.94
408.896	87.94
409.12	99.94
409.344	102.94
409.567	97.94
409.791	95.94
410.014	102.94
410.238	87.94
410.461	100.94
410.685	95.94
410.908	103.94
411.132	87.94
411.355	85.94
411.578	97.94
411.802	77.94
412.025	80.94
412.249	85.94
412.472	80.94
412.695	66.94
412.919	88.94
413.142	86.94
413.365	91.94
413.589	101.94
413.812	80.94
414.035	87.94
414.258	94.94
414.482	86.94
414.705	90.94
414.928	87.94
415.151	89.94
415.374	93.94
415.597	85.94
415.821	91.94
416.044	95.94
416.267	76.94
416.49	86.94
416.713	76.94
416.936	86.94
417.159	73.94
417.382	80.94
417.605	82.94
417.828	91.94
418.051	83.94
418.274	91.94
418.497	93.94
418.72	80.94
418.943	84.94
419.166	74.94
419.389	76.94
419.611	86.94
419.834	92.94
420.057	88.94
420.28	73.94
420.503	94.94
420.726	84.94
420.948	81.94
421.171	92.94
421.394	108.94
421.617	133.94
421.839	122.94
422.062	121.94
422.285	157.94
422.507	303.94
422.73	478.94
422.953	425.94
423.175	182.94
423.398	118.94
423.621	103.94
423.843	97.94
424.066	91.94
424.288	104.94
424.511	106.94
424.733	99.94
424.956	90.94
425.178	80.94
425.401	88.94
425.623	95.94
425.846	93.94
426.068	87.94
426.291	92.94
426.513	89.94
426.735	66.94
426.958	84.94
427.18	79.94
427.402	81.94
427.625	91.94
427.847	100.94
428.069	104.94
428.292	129.94
428.514	137.94
428.736	107.94
428.958	122.94
429.181	139.94
429.403	102.94
429.625	99.94
429.847	110.94
430.069	168.94
430.292	195.94
430.514	178.94
430.736	129.94
430.958	143.94
431.18	99.94
431.402	83.94
431.624	103.94
431.846	119.94
432.068	137.94
432.29	95.94
432.512	96.94
432.734	90.94
432.956	100.94
433.178	82.94
433.4	88.94
433.622	99.94
433.844	98.94
434.066	73.94
434.287	100.94
434.509	100.94
434.731	85.94
434.953	80.94
435.175	90.94
435.397	92.94
435.618	84.94
435.84	89.94
436.062	99.94
436.284	92.94
436.505	90.94
436.727	85.94
436.949	78.94
437.17	76.94
437.392	86.94
437.614	84.94
437.835	98.94
438.057	86.94
438.278	106.94
438.5	89.94
438.721	99.94
438.943	93.94
439.165	82.94
439.386	80.94
439.608	98.94
439.829	80.94
440.05	77.94
440.272	96.94
440.493	92.94
440.715	94.94
440.936	81.94
441.158	95.94
441.379	76.94
441.6	85.94
441.822	89.94
442.043	96.94
442.264	102.94
442.486	129.94
442.707	165.94
442.928	121.94
443.149	111.94
443.371	144.94
443.592	255.94
443.813	204.94
444.034	102.94
444.255	92.94
444.476	96.94
444.698	91.94
444.919	96.94
445.14	200.94
445.361	208.94
445.582	291.94
445.803	259.94
446.024	114.94
446.245	97.94
446.466	80.94
446.687	91.94
446.908	78.94
447.129	77.94
447.35	93.94
447.571	76.94
447.792	71.94
448.013	76.94
448.234	91.94
448.455	78.94
448.675	82.94
448.896	79.94
449.117	78.94
449.338	83.94
449.559	92.94
449.779	88.94
450	92.94
450.221	100.94
450.442	83.94
450.662	90.94
450.883	85.94
451.104	76.94
451.324	87.94
451.545	98.94
451.766	80.94
451.986	85.94
452.207	92.94
452.428	74.94
452.648	94.94
452.869	98.94
453.089	93.94
453.31	94.94
453.53	86.94
453.751	90.94
453.971	83.94
454.192	63.94
454.412	85.94
454.633	84.94
454.853	96.94
455.073	70.94
455.294	91.94
455.514	89.94
455.734	85.94
455.955	87.94
456.175	87.94
456.395	76.94
456.616	99.94
456.836	71.94
457.056	74.94
457.276	82.94
457.497	92.94
457.717	95.94
457.937	90.94
458.157	118.94
458.377	126.94
458.598	122.94
458.818	126.94
459.038	102.94
459.258	87.94
459.478	84.94
459.698	80.94
459.918	95.94
460.138	81.94
460.358	89.94
460.578	100.94
460.798	123.94
461.018	125.94
461.238	90.94
461.458	80.94
461.678	91.94
461.898	106.94
462.118	83.94
462.338	93.94
462.558	96.94
462.777	82.94
462.997	104.94
463.217	95.94
463.437	75.94
463.657	86.94
463.876	96.94
464.096	82.94
464.316	77.94
464.536	96.94
464.755	110.94
464.975	96.94
465.195	89.94
465.414	67.94
465.634	79.94
465.854	76.94
466.073	91.94
466.293	92.94
466.512	85.94
466.732	89.94
466.951	90.94
467.171	95.94
467.391	82.94
467.61	88.94
467.829	82.94
468.049	80.94
468.268	86.94
468.488	82.94
468.707	85.94
468.927	88.94
469.146	77.94
469.365	73.94
469.585	84.94
469.804	84.94
470.023	84.94
470.243	99.94
470.462	101.94
470.681	94.94
470.901	73.94
471.12	87.94
471.339	90.94
471.558	89.94
471.777	83.94
471.997	94.94
472.216	94.94
472.435	97.94
472.654	85.94
472.873	89.94
473.092	98.94
473.311	91.94
473.53	84.94
473.749	88.94
473.968	84.94
474.187	88.94
474.406	90.94
474.625	94.94
474.844	90.94
475.063	88.94
475.282	77.94
475.501	98.94
475.72	97.94
475.939	86.94
476.158	77.94
476.377	88.94
476.596	94.94
476.814	97.94
477.033	90.94
477.252	80.94
477.471	109.94
477.69	95.94
477.908	79.94
478.127	104.94
478.346	92.94
478.564	81.94
478.783	95.94
479.002	89.94
479.22	96.94
479.439	88.94
479.658	95.94
479.876	81.94
480.095	93.94
480.313	94.94
480.532	91.94
480.751	93.94
480.969	91.94
481.188	74.94
481.406	91.94
481.624	87.94
481.843	89.94
482.061	99.94
482.28	99.94
482.498	105.94
482.717	86.94
482.935	80.94
483.153	90.94
483.372	82.94
483.59	99.94
483.808	87.94
484.027	96.94
484.245	105.94
484.463	101.94
484.681	88.94
484.9	91.94
485.118	87.94
485.336	76.94
485.554	89.94
485.772	96.94
485.99	95.94
486.209	98.94
486.427	67.94
486.645	96.94
486.863	80.94
487.081	94.94
487.299	80.94
487.517	110.94
487.735	110.94
487.953	159.94
488.171	126.94
488.389	84.94
488.607	82.94
488.825	91.94
489.043	72.94
489.261	94.94
489.479	89.94
489.696	82.94
489.914	95.94
490.132	84.94
490.35	96.94
490.568	78.94
490.786	94.94
491.003	87.94
491.221	97.94
491.439	98.94
491.657	101.94
491.874	76.94
492.092	98.94
492.31	90.94
492.527	97.94
492.745	84.94
492.963	100.94
493.18	89.94
493.398	87.94
493.615	99.94
493.833	95.94
494.05	94.94
494.268	72.94
494.485	99.94
494.703	88.94
494.92	77.94
495.138	93.94
495.355	83.94
495.573	95.94
495.79	98.94
496.008	90.94
496.225	104.94
496.442	106.94
496.66	92.94
496.877	95.94
497.094	97.94
497.312	92.94
497.529	88.94
497.746	105.94
497.963	87.94
498.181	76.94
498.398	98.94
498.615	86.94
498.832	96.94
499.049	92.94
499.267	98.94
499.484	73.94
499.701	84.94
499.918	86.94
500.135	81.94
500.352	84.94
500.569	98.94
500.786	94.94
501.003	99.94
501.22	88.94
501.437	76.94
501.654	99.94
501.871	96.94
502.088	86.94
502.305	110.94
502.522	98.94
502.739	95.94
502.956	94.94
503.172	98.94
503.389	90.94
503.606	90.94
503.823	98.94
504.04	105.94
504.256	128.94
504.473	129.94
504.69	90.94
504.907	94.94
505.123	99.94
505.34	83.94
505.557	75.94
505.773	78.94
505.99	86.94
506.207	88.94
506.423	89.94
506.64	94.94
506.856	107.94
507.073	84.94
507.289	99.94
507.506	76.94
507.722	87.94
507.939	88.94
508.155	99.94
508.372	82.94
508.588	82.94
508.805	76.94
509.021	82.94
509.238	77.94
509.454	91.94
509.67	104.94
509.887	81.94
510.103	99.94
510.319	100.94
510.536	98.94
510.752	85.94
510.968	86.94
511.184	79.94
511.401	76.94
511.617	97.94
511.833	90.94
512.049	93.94
512.265	89.94
512.481	88.94
512.698	77.94
512.914	86.94
513.13	98.94
513.346	93.94
513.562	70.94
513.778	86.94
513.994	94.94
514.21	98.94
514.426	102.94
514.642	96.94
514.858	79.94
515.074	83.94
515.29	88.94
515.506	84.94
515.721	84.94
515.937	107.94
516.153	86.94
516.369	84.94
516.585	77.94
516.801	94.94
517.016	92.94
517.232	102.94
517.448	93.94
517.664	95.94
517.879	102.94
