Data from Circ_1990_H10_HRD10591_00082.txt Node
Date: Wed Jan 03 11:55:20 EST 2024
User: Yrep
Spectrometer: HR+D1059
Trigger mode: 1
Integration Time (sec): 1.000000E-1
Scans to average: 1
Electric dark correction enabled: true
Nonlinearity correction enabled: false
Boxcar width: 0
XAxis mode: Wavelengths
Number of Pixels in Spectrum: 2048
>>>>>Begin Spectral Data<<<<<
223.165	-25.94
223.4	-25.94
223.635	-25.94
223.869	-19.94
224.104	-20.94
224.338	-20.94
224.573	-16.94
224.808	-19.94
225.042	-1.94
225.277	-1.94
225.511	-2.94
225.746	1.06
225.98	16.06
226.215	4.06
226.449	30.06
226.683	22.06
226.918	22.06
227.152	36.06
227.387	48.06
227.621	40.06
227.856	44.06
228.09	52.06
228.324	48.06
228.559	59.06
228.793	73.06
229.027	75.06
229.262	62.06
229.496	79.06
229.73	78.06
229.964	83.06
230.199	75.06
230.433	67.06
230.667	92.06
230.901	72.06
231.136	83.06
231.37	83.06
231.604	86.06
231.838	78.06
232.072	90.06
232.306	86.06
232.541	82.06
232.775	76.06
233.009	87.06
233.243	71.06
233.477	81.06
233.711	78.06
233.945	75.06
234.179	86.06
234.413	83.06
234.647	87.06
234.881	79.06
235.115	94.06
235.349	72.06
235.583	83.06
235.817	73.06
236.051	77.06
236.285	87.06
236.519	78.06
236.753	88.06
236.987	94.06
237.221	95.06
237.455	73.06
237.689	90.06
237.922	98.06
238.156	73.06
238.39	75.06
238.624	72.06
238.858	85.06
239.091	89.06
239.325	84.06
239.559	99.06
239.793	94.06
240.027	80.06
240.26	84.06
240.494	81.06
240.728	81.06
240.961	86.06
241.195	88.06
241.429	79.06
241.662	91.06
241.896	81.06
242.13	76.06
242.363	72.06
242.597	84.06
242.83	67.06
243.064	84.06
243.298	80.06
243.531	72.06
243.765	94.06
243.998	76.06
244.232	91.06
244.465	86.06
244.699	82.06
244.932	78.06
245.166	69.06
245.399	90.06
245.633	66.06
245.866	84.06
246.099	89.06
246.333	99.06
246.566	79.06
246.8	87.06
247.033	78.06
247.266	73.06
247.5	86.06
247.733	84.06
247.966	82.06
248.2	90.06
248.433	85.06
248.666	89.06
248.899	97.06
249.133	73.06
249.366	82.06
249.599	91.06
249.832	76.06
250.066	81.06
250.299	88.06
250.532	92.06
250.765	89.06
250.998	78.06
251.231	91.06
251.465	86.06
251.698	86.06
251.931	79.06
252.164	78.06
252.397	75.06
252.63	84.06
252.863	83.06
253.096	75.06
253.329	89.06
253.562	99.06
253.795	76.06
254.028	82.06
254.261	88.06
254.494	73.06
254.727	92.06
254.96	90.06
255.193	85.06
255.426	80.06
255.659	81.06
255.892	81.06
256.124	80.06
256.357	88.06
256.59	74.06
256.823	89.06
257.056	86.06
257.289	81.06
257.521	96.06
257.754	81.06
257.987	76.06
258.22	87.06
258.452	97.06
258.685	89.06
258.918	83.06
259.151	94.06
259.383	93.06
259.616	87.06
259.849	69.06
260.081	107.06
260.314	79.06
260.547	91.06
260.779	81.06
261.012	88.06
261.244	79.06
261.477	88.06
261.71	89.06
261.942	115.06
262.175	113.06
262.407	102.06
262.64	89.06
262.872	84.06
263.105	84.06
263.337	91.06
263.57	75.06
263.802	96.06
264.035	87.06
264.267	70.06
264.499	88.06
264.732	83.06
264.964	76.06
265.197	79.06
265.429	82.06
265.661	74.06
265.894	76.06
266.126	87.06
266.358	83.06
266.591	97.06
266.823	89.06
267.055	76.06
267.287	74.06
267.52	96.06
267.752	88.06
267.984	81.06
268.216	101.06
268.448	97.06
268.681	84.06
268.913	90.06
269.145	84.06
269.377	93.06
269.609	90.06
269.841	88.06
270.073	97.06
270.306	86.06
270.538	88.06
270.77	80.06
271.002	82.06
271.234	85.06
271.466	99.06
271.698	100.06
271.93	84.06
272.162	90.06
272.394	83.06
272.626	97.06
272.858	99.06
273.09	78.06
273.322	74.06
273.553	89.06
273.785	86.06
274.017	90.06
274.249	86.06
274.481	88.06
274.713	81.06
274.945	90.06
275.176	82.06
275.408	95.06
275.64	84.06
275.872	82.06
276.104	97.06
276.335	81.06
276.567	95.06
276.799	108.06
277.031	122.06
277.262	105.06
277.494	93.06
277.726	91.06
277.957	90.06
278.189	85.06
278.421	85.06
278.652	101.06
278.884	92.06
279.115	85.06
279.347	82.06
279.579	93.06
279.81	116.06
280.042	130.06
280.273	145.06
280.505	116.06
280.736	99.06
280.968	95.06
281.199	84.06
281.431	96.06
281.662	82.06
281.894	83.06
282.125	98.06
282.356	109.06
282.588	139.06
282.819	105.06
283.051	86.06
283.282	92.06
283.513	88.06
283.745	95.06
283.976	82.06
284.207	97.06
284.439	89.06
284.67	103.06
284.901	94.06
285.132	96.06
285.364	98.06
285.595	90.06
285.826	91.06
286.057	87.06
286.288	87.06
286.52	87.06
286.751	95.06
286.982	107.06
287.213	95.06
287.444	91.06
287.675	113.06
287.906	91.06
288.138	87.06
288.369	91.06
288.6	97.06
288.831	86.06
289.062	76.06
289.293	85.06
289.524	96.06
289.755	92.06
289.986	96.06
290.217	94.06
290.448	92.06
290.679	90.06
290.91	94.06
291.141	93.06
291.371	79.06
291.602	84.06
291.833	95.06
292.064	84.06
292.295	83.06
292.526	82.06
292.757	93.06
292.987	99.06
293.218	90.06
293.449	107.06
293.68	94.06
293.91	90.06
294.141	98.06
294.372	103.06
294.603	94.06
294.833	83.06
295.064	87.06
295.295	97.06
295.525	80.06
295.756	96.06
295.987	118.06
296.217	130.06
296.448	116.06
296.679	103.06
296.909	100.06
297.14	90.06
297.37	90.06
297.601	96.06
297.831	102.06
298.062	96.06
298.292	100.06
298.523	92.06
298.753	81.06
298.984	97.06
299.214	90.06
299.445	101.06
299.675	100.06
299.905	90.06
300.136	94.06
300.366	88.06
300.597	94.06
300.827	89.06
301.057	110.06
301.288	105.06
301.518	95.06
301.748	96.06
301.979	101.06
302.209	92.06
302.439	90.06
302.669	108.06
302.9	89.06
303.13	78.06
303.36	91.06
303.59	108.06
303.82	108.06
304.051	101.06
304.281	79.06
304.511	102.06
304.741	91.06
304.971	104.06
305.201	106.06
305.431	97.06
305.661	97.06
305.891	94.06
306.121	99.06
306.352	96.06
306.582	104.06
306.812	103.06
307.042	91.06
307.272	107.06
307.502	137.06
307.731	134.06
307.961	116.06
308.191	95.06
308.421	103.06
308.651	79.06
308.881	98.06
309.111	108.06
309.341	105.06
309.571	98.06
309.8	96.06
310.03	94.06
310.26	96.06
310.49	91.06
310.72	95.06
310.949	107.06
311.179	110.06
311.409	97.06
311.639	94.06
311.868	105.06
312.098	90.06
312.328	100.06
312.557	112.06
312.787	114.06
313.017	106.06
313.246	99.06
313.476	86.06
313.706	100.06
313.935	94.06
314.165	100.06
314.394	108.06
314.624	89.06
314.853	106.06
315.083	97.06
315.312	96.06
315.542	89.06
315.771	93.06
316.001	110.06
316.23	90.06
316.46	94.06
316.689	97.06
316.919	85.06
317.148	89.06
317.377	103.06
317.607	90.06
317.836	108.06
318.065	102.06
318.295	93.06
318.524	105.06
318.753	103.06
318.983	106.06
319.212	117.06
319.441	110.06
319.67	104.06
319.9	94.06
320.129	91.06
320.358	108.06
320.587	100.06
320.816	100.06
321.046	99.06
321.275	97.06
321.504	100.06
321.733	127.06
321.962	106.06
322.191	105.06
322.42	102.06
322.649	117.06
322.878	106.06
323.108	114.06
323.337	122.06
323.566	146.06
323.795	166.06
324.024	199.06
324.253	386.06
324.482	800.06
324.71	1650.06
324.939	2146.06
325.168	794.06
325.397	236.06
325.626	137.06
325.855	129.06
326.084	125.06
326.313	133.06
326.542	148.06
326.77	227.06
326.999	457.06
327.228	889.06
327.457	1650.06
327.686	1343.06
327.914	387.06
328.143	289.06
328.372	298.06
328.6	202.06
328.829	123.06
329.058	136.06
329.287	138.06
329.515	116.06
329.744	153.06
329.972	242.06
330.201	376.06
330.43	535.06
330.658	281.06
330.887	175.06
331.115	131.06
331.344	103.06
331.572	113.06
331.801	104.06
332.03	104.06
332.258	98.06
332.486	97.06
332.715	105.06
332.943	110.06
333.172	113.06
333.4	104.06
333.629	116.06
333.857	159.06
334.085	219.06
334.314	395.06
334.542	661.06
334.771	631.06
334.999	222.06
335.227	122.06
335.455	102.06
335.684	108.06
335.912	109.06
336.14	99.06
336.369	98.06
336.597	98.06
336.825	112.06
337.053	108.06
337.281	106.06
337.51	103.06
337.738	84.06
337.966	106.06
338.194	109.06
338.422	94.06
338.65	104.06
338.878	105.06
339.106	84.06
339.334	93.06
339.562	97.06
339.79	94.06
340.018	96.06
340.246	102.06
340.474	92.06
340.702	99.06
340.93	98.06
341.158	100.06
341.386	104.06
341.614	106.06
341.842	94.06
342.07	86.06
342.298	110.06
342.526	83.06
342.754	97.06
342.981	102.06
343.209	94.06
343.437	94.06
343.665	83.06
343.893	100.06
344.12	103.06
344.348	83.06
344.576	82.06
344.804	88.06
345.031	88.06
345.259	92.06
345.487	93.06
345.714	107.06
345.942	109.06
346.17	95.06
346.397	109.06
346.625	98.06
346.853	93.06
347.08	103.06
347.308	99.06
347.535	91.06
347.763	106.06
347.99	98.06
348.218	112.06
348.445	116.06
348.673	108.06
348.9	91.06
349.128	94.06
349.355	86.06
349.583	107.06
349.81	91.06
350.037	111.06
350.265	94.06
350.492	99.06
350.72	97.06
350.947	115.06
351.174	118.06
351.402	105.06
351.629	94.06
351.856	92.06
352.083	102.06
352.311	118.06
352.538	123.06
352.765	120.06
352.992	107.06
353.22	112.06
353.447	100.06
353.674	94.06
353.901	99.06
354.128	98.06
354.355	95.06
354.583	94.06
354.81	110.06
355.037	95.06
355.264	87.06
355.491	86.06
355.718	91.06
355.945	102.06
356.172	95.06
356.399	102.06
356.626	107.06
356.853	88.06
357.08	101.06
357.307	76.06
357.534	94.06
357.761	88.06
357.988	88.06
358.215	100.06
358.441	97.06
358.668	101.06
358.895	92.06
359.122	100.06
359.349	100.06
359.576	89.06
359.802	95.06
360.029	125.06
360.256	126.06
360.483	109.06
360.709	93.06
360.936	112.06
361.163	99.06
361.39	103.06
361.616	103.06
361.843	95.06
362.07	87.06
362.296	105.06
362.523	92.06
362.749	91.06
362.976	91.06
363.203	98.06
363.429	87.06
363.656	107.06
363.882	90.06
364.109	85.06
364.335	106.06
364.562	99.06
364.788	103.06
365.015	96.06
365.241	107.06
365.468	115.06
365.694	98.06
365.92	102.06
366.147	100.06
366.373	75.06
366.599	99.06
366.826	100.06
367.052	96.06
367.278	97.06
367.505	92.06
367.731	98.06
367.957	90.06
368.184	94.06
368.41	100.06
368.636	113.06
368.862	116.06
369.089	114.06
369.315	105.06
369.541	107.06
369.767	90.06
369.993	99.06
370.219	94.06
370.445	94.06
370.672	103.06
370.898	99.06
371.124	87.06
371.35	89.06
371.576	99.06
371.802	95.06
372.028	95.06
372.254	79.06
372.48	96.06
372.706	97.06
372.932	97.06
373.158	92.06
373.384	112.06
373.61	98.06
373.835	95.06
374.061	91.06
374.287	86.06
374.513	94.06
374.739	95.06
374.965	88.06
375.191	87.06
375.416	89.06
375.642	91.06
375.868	97.06
376.094	99.06
376.319	96.06
376.545	95.06
376.771	98.06
376.997	96.06
377.222	85.06
377.448	97.06
377.674	94.06
377.899	88.06
378.125	111.06
378.35	94.06
378.576	98.06
378.802	100.06
379.027	98.06
379.253	94.06
379.478	100.06
379.704	100.06
379.929	91.06
380.155	107.06
380.38	86.06
380.606	104.06
380.831	91.06
381.057	101.06
381.282	103.06
381.507	92.06
381.733	99.06
381.958	91.06
382.184	96.06
382.409	99.06
382.634	110.06
382.86	114.06
383.085	103.06
383.31	108.06
383.535	115.06
383.761	101.06
383.986	112.06
384.211	103.06
384.436	108.06
384.662	84.06
384.887	118.06
385.112	102.06
385.337	109.06
385.562	123.06
385.787	101.06
386.013	120.06
386.238	135.06
386.463	106.06
386.688	108.06
386.913	111.06
387.138	110.06
387.363	107.06
387.588	105.06
387.813	98.06
388.038	106.06
388.263	114.06
388.488	112.06
388.713	97.06
388.938	116.06
389.163	101.06
389.387	98.06
389.612	87.06
389.837	101.06
390.062	105.06
390.287	106.06
390.512	105.06
390.736	91.06
390.961	98.06
391.186	96.06
391.411	98.06
391.636	96.06
391.86	100.06
392.085	100.06
392.31	87.06
392.534	74.06
392.759	84.06
392.984	97.06
393.208	88.06
393.433	102.06
393.658	89.06
393.882	94.06
394.107	90.06
394.331	105.06
394.556	106.06
394.78	83.06
395.005	96.06
395.229	105.06
395.454	96.06
395.678	87.06
395.903	106.06
396.127	96.06
396.352	106.06
396.576	74.06
396.801	94.06
397.025	94.06
397.249	89.06
397.474	89.06
397.698	75.06
397.922	106.06
398.147	95.06
398.371	90.06
398.595	89.06
398.82	84.06
399.044	86.06
399.268	96.06
399.492	92.06
399.717	94.06
399.941	90.06
400.165	102.06
400.389	95.06
400.613	87.06
400.837	93.06
401.062	86.06
401.286	107.06
401.51	99.06
401.734	81.06
401.958	114.06
402.182	129.06
402.406	162.06
402.63	114.06
402.854	90.06
403.078	108.06
403.302	99.06
403.526	83.06
403.75	99.06
403.974	96.06
404.198	77.06
404.422	98.06
404.645	90.06
404.869	90.06
405.093	97.06
405.317	118.06
405.541	100.06
405.765	98.06
405.988	116.06
406.212	165.06
406.436	240.06
406.66	152.06
406.883	100.06
407.107	96.06
407.331	95.06
407.555	95.06
407.778	81.06
408.002	98.06
408.226	88.06
408.449	96.06
408.673	101.06
408.896	97.06
409.12	115.06
409.344	88.06
409.567	86.06
409.791	97.06
410.014	109.06
410.238	81.06
410.461	88.06
410.685	92.06
410.908	88.06
411.132	115.06
411.355	113.06
411.578	84.06
411.802	90.06
412.025	102.06
412.249	94.06
412.472	101.06
412.695	108.06
412.919	108.06
413.142	84.06
413.365	93.06
413.589	86.06
413.812	76.06
414.035	79.06
414.258	96.06
414.482	84.06
414.705	97.06
414.928	83.06
415.151	96.06
415.374	99.06
415.597	89.06
415.821	78.06
416.044	87.06
416.267	108.06
416.49	97.06
416.713	87.06
416.936	107.06
417.159	90.06
417.382	89.06
417.605	103.06
417.828	93.06
418.051	81.06
418.274	91.06
418.497	97.06
418.72	94.06
418.943	91.06
419.166	76.06
419.389	90.06
419.611	103.06
419.834	90.06
420.057	104.06
420.28	101.06
420.503	74.06
420.726	86.06
420.948	101.06
421.171	100.06
421.394	83.06
421.617	86.06
421.839	99.06
422.062	85.06
422.285	102.06
422.507	97.06
422.73	110.06
422.953	97.06
423.175	99.06
423.398	84.06
423.621	87.06
423.843	93.06
424.066	102.06
424.288	73.06
424.511	96.06
424.733	107.06
424.956	110.06
425.178	110.06
425.401	98.06
425.623	99.06
425.846	96.06
426.068	102.06
426.291	91.06
426.513	96.06
426.735	95.06
426.958	103.06
427.18	107.06
427.402	147.06
427.625	206.06
427.847	158.06
428.069	165.06
428.292	117.06
428.514	97.06
428.736	107.06
428.958	98.06
429.181	86.06
429.403	74.06
429.625	89.06
429.847	98.06
430.069	108.06
430.292	88.06
430.514	88.06
430.736	97.06
430.958	94.06
431.18	83.06
431.402	84.06
431.624	97.06
431.846	94.06
432.068	92.06
432.29	84.06
432.512	94.06
432.734	74.06
432.956	103.06
433.178	102.06
433.4	100.06
433.622	96.06
433.844	82.06
434.066	99.06
434.287	100.06
434.509	104.06
434.731	95.06
434.953	96.06
435.175	99.06
435.397	84.06
435.618	105.06
435.84	101.06
436.062	136.06
436.284	123.06
436.505	102.06
436.727	89.06
436.949	91.06
437.17	89.06
437.392	89.06
437.614	96.06
437.835	100.06
438.057	126.06
438.278	110.06
438.5	127.06
438.721	124.06
438.943	108.06
439.165	77.06
439.386	80.06
439.608	99.06
439.829	114.06
440.05	122.06
440.272	144.06
440.493	110.06
440.715	89.06
440.936	81.06
441.158	88.06
441.379	86.06
441.6	98.06
441.822	84.06
442.043	93.06
442.264	113.06
442.486	99.06
442.707	85.06
442.928	100.06
443.149	124.06
443.371	145.06
443.592	115.06
443.813	120.06
444.034	117.06
444.255	86.06
444.476	107.06
444.698	93.06
444.919	76.06
445.14	148.06
445.361	132.06
445.582	126.06
445.803	143.06
446.024	158.06
446.245	132.06
446.466	119.06
446.687	117.06
446.908	84.06
447.129	94.06
447.35	98.06
447.571	94.06
447.792	85.06
448.013	106.06
448.234	114.06
448.455	104.06
448.675	109.06
448.896	127.06
449.117	99.06
449.338	113.06
449.559	140.06
449.779	127.06
450	100.06
450.221	88.06
450.442	102.06
450.662	101.06
450.883	95.06
451.104	120.06
451.324	92.06
451.545	83.06
451.766	90.06
451.986	78.06
452.207	89.06
452.428	97.06
452.648	92.06
452.869	112.06
453.089	122.06
453.31	106.06
453.53	79.06
453.751	88.06
453.971	96.06
454.192	106.06
454.412	92.06
454.633	90.06
454.853	99.06
455.073	74.06
455.294	91.06
455.514	96.06
455.734	103.06
455.955	89.06
456.175	73.06
456.395	82.06
456.616	95.06
456.836	81.06
457.056	92.06
457.276	85.06
457.497	92.06
457.717	89.06
457.937	100.06
458.157	87.06
458.377	85.06
458.598	96.06
458.818	143.06
459.038	170.06
459.258	122.06
459.478	98.06
459.698	86.06
459.918	103.06
460.138	84.06
460.358	80.06
460.578	95.06
460.798	94.06
461.018	82.06
461.238	90.06
461.458	93.06
461.678	85.06
461.898	78.06
462.118	84.06
462.338	98.06
462.558	93.06
462.777	98.06
462.997	80.06
463.217	103.06
463.437	101.06
463.657	99.06
463.876	88.06
464.096	90.06
464.316	86.06
464.536	108.06
464.755	90.06
464.975	101.06
465.195	149.06
465.414	164.06
465.634	105.06
465.854	94.06
466.073	96.06
466.293	80.06
466.512	97.06
466.732	81.06
466.951	96.06
467.171	108.06
467.391	107.06
467.61	120.06
467.829	127.06
468.049	247.06
468.268	328.06
468.488	143.06
468.707	91.06
468.927	88.06
469.146	84.06
469.365	88.06
469.585	75.06
469.804	98.06
470.023	104.06
470.243	86.06
470.462	105.06
470.681	115.06
470.901	91.06
471.12	86.06
471.339	94.06
471.558	108.06
471.777	122.06
471.997	172.06
472.216	443.06
472.435	908.06
472.654	270.06
472.873	103.06
473.092	98.06
473.311	89.06
473.53	99.06
473.749	94.06
473.968	92.06
474.187	110.06
474.406	110.06
474.625	104.06
474.844	97.06
475.063	105.06
475.282	89.06
475.501	89.06
475.72	91.06
475.939	100.06
476.158	107.06
476.377	85.06
476.596	89.06
476.814	87.06
477.033	98.06
477.252	105.06
477.471	100.06
477.69	95.06
477.908	107.06
478.127	86.06
478.346	112.06
478.564	109.06
478.783	113.06
479.002	105.06
479.22	113.06
479.439	112.06
479.658	112.06
479.876	105.06
480.095	99.06
480.313	103.06
480.532	126.06
480.751	171.06
480.969	440.06
481.188	1586.06
481.406	952.06
481.624	182.06
481.843	111.06
482.061	96.06
482.28	92.06
482.498	89.06
482.717	101.06
482.935	88.06
483.153	80.06
483.372	84.06
483.59	97.06
483.808	100.06
484.027	83.06
484.245	103.06
484.463	77.06
484.681	110.06
484.9	103.06
485.118	94.06
485.336	84.06
485.554	99.06
485.772	107.06
485.99	111.06
486.209	110.06
486.427	116.06
486.645	113.06
486.863	119.06
487.081	104.06
487.299	107.06
487.517	105.06
487.735	101.06
487.953	94.06
488.171	97.06
488.389	101.06
488.607	108.06
488.825	100.06
489.043	97.06
489.261	99.06
489.479	82.06
489.696	96.06
489.914	106.06
490.132	88.06
490.35	102.06
490.568	87.06
490.786	82.06
491.003	86.06
491.221	96.06
491.439	83.06
491.657	114.06
491.874	100.06
492.092	85.06
492.31	103.06
492.527	97.06
492.745	96.06
492.963	94.06
493.18	103.06
493.398	105.06
493.615	95.06
493.833	96.06
494.05	87.06
494.268	94.06
494.485	100.06
494.703	84.06
494.92	94.06
495.138	94.06
495.355	93.06
495.573	111.06
495.79	98.06
496.008	87.06
496.225	106.06
496.442	90.06
496.66	87.06
496.877	92.06
497.094	86.06
497.312	83.06
497.529	95.06
497.746	88.06
497.963	101.06
498.181	90.06
498.398	107.06
498.615	114.06
498.832	105.06
499.049	89.06
499.267	79.06
499.484	103.06
499.701	91.06
499.918	100.06
500.135	83.06
500.352	105.06
500.569	104.06
500.786	100.06
501.003	104.06
501.22	78.06
501.437	95.06
501.654	100.06
501.871	98.06
502.088	83.06
502.305	100.06
502.522	99.06
502.739	82.06
502.956	94.06
503.172	107.06
503.389	88.06
503.606	106.06
503.823	111.06
504.04	90.06
504.256	100.06
504.473	102.06
504.69	101.06
504.907	107.06
505.123	105.06
505.34	99.06
505.557	96.06
505.773	104.06
505.99	89.06
506.207	106.06
506.423	98.06
506.64	112.06
506.856	98.06
507.073	108.06
507.289	107.06
507.506	104.06
507.722	111.06
507.939	109.06
508.155	97.06
508.372	96.06
508.588	102.06
508.805	103.06
509.021	100.06
509.238	106.06
509.454	105.06
509.67	101.06
509.887	112.06
510.103	136.06
510.319	210.06
510.536	673.06
510.752	2120.06
510.968	598.06
511.184	144.06
511.401	102.06
511.617	106.06
511.833	87.06
512.049	96.06
512.265	97.06
512.481	98.06
512.698	87.06
512.914	100.06
513.13	84.06
