Data from Circ_1990_H10_HRD10591_00060.txt Node
Date: Wed Jan 03 11:55:16 EST 2024
User: Yrep
Spectrometer: HR+D1059
Trigger mode: 1
Integration Time (sec): 1.000000E-1
Scans to average: 1
Electric dark correction enabled: true
Nonlinearity correction enabled: false
Boxcar width: 0
XAxis mode: Wavelengths
Number of Pixels in Spectrum: 2048
>>>>>Begin Spectral Data<<<<<
223.165	-27.94
223.4	-27.94
223.635	-27.94
223.869	-8.94
224.104	-25.94
224.338	-16.94
224.573	-20.94
224.808	-15.94
225.042	-3.94
225.277	-3.94
225.511	0.06
225.746	-2.94
225.98	14.06
226.215	7.06
226.449	22.06
226.683	14.06
226.918	35.06
227.152	35.06
227.387	34.06
227.621	37.06
227.856	35.06
228.09	46.06
228.324	55.06
228.559	55.06
228.793	50.06
229.027	52.06
229.262	59.06
229.496	70.06
229.73	89.06
229.964	89.06
230.199	77.06
230.433	74.06
230.667	72.06
230.901	68.06
231.136	89.06
231.37	79.06
231.604	80.06
231.838	82.06
232.072	103.06
232.306	78.06
232.541	81.06
232.775	85.06
233.009	85.06
233.243	81.06
233.477	78.06
233.711	69.06
233.945	73.06
234.179	73.06
234.413	80.06
234.647	68.06
234.881	82.06
235.115	79.06
235.349	71.06
235.583	59.06
235.817	75.06
236.051	79.06
236.285	94.06
236.519	75.06
236.753	77.06
236.987	80.06
237.221	87.06
237.455	84.06
237.689	84.06
237.922	72.06
238.156	79.06
238.39	70.06
238.624	82.06
238.858	62.06
239.091	83.06
239.325	83.06
239.559	71.06
239.793	75.06
240.027	83.06
240.26	80.06
240.494	81.06
240.728	73.06
240.961	87.06
241.195	81.06
241.429	84.06
241.662	81.06
241.896	92.06
242.13	72.06
242.363	89.06
242.597	80.06
242.83	83.06
243.064	59.06
243.298	69.06
243.531	77.06
243.765	78.06
243.998	78.06
244.232	71.06
244.465	91.06
244.699	79.06
244.932	86.06
245.166	78.06
245.399	82.06
245.633	79.06
245.866	73.06
246.099	81.06
246.333	78.06
246.566	94.06
246.8	85.06
247.033	67.06
247.266	70.06
247.5	73.06
247.733	81.06
247.966	92.06
248.2	85.06
248.433	78.06
248.666	79.06
248.899	77.06
249.133	88.06
249.366	92.06
249.599	90.06
249.832	79.06
250.066	79.06
250.299	92.06
250.532	83.06
250.765	99.06
250.998	99.06
251.231	77.06
251.465	79.06
251.698	68.06
251.931	88.06
252.164	79.06
252.397	81.06
252.63	75.06
252.863	87.06
253.096	80.06
253.329	69.06
253.562	79.06
253.795	71.06
254.028	90.06
254.261	83.06
254.494	80.06
254.727	80.06
254.96	72.06
255.193	90.06
255.426	82.06
255.659	89.06
255.892	85.06
256.124	101.06
256.357	86.06
256.59	92.06
256.823	67.06
257.056	92.06
257.289	99.06
257.521	77.06
257.754	87.06
257.987	81.06
258.22	81.06
258.452	84.06
258.685	92.06
258.918	88.06
259.151	83.06
259.383	95.06
259.616	77.06
259.849	66.06
260.081	78.06
260.314	85.06
260.547	73.06
260.779	96.06
261.012	85.06
261.244	92.06
261.477	87.06
261.71	95.06
261.942	100.06
262.175	129.06
262.407	99.06
262.64	82.06
262.872	89.06
263.105	81.06
263.337	83.06
263.57	87.06
263.802	99.06
264.035	92.06
264.267	71.06
264.499	85.06
264.732	84.06
264.964	81.06
265.197	68.06
265.429	73.06
265.661	82.06
265.894	87.06
266.126	84.06
266.358	80.06
266.591	84.06
266.823	85.06
267.055	71.06
267.287	75.06
267.52	86.06
267.752	93.06
267.984	91.06
268.216	88.06
268.448	90.06
268.681	87.06
268.913	93.06
269.145	89.06
269.377	81.06
269.609	82.06
269.841	79.06
270.073	75.06
270.306	93.06
270.538	95.06
270.77	91.06
271.002	84.06
271.234	87.06
271.466	92.06
271.698	91.06
271.93	83.06
272.162	96.06
272.394	92.06
272.626	92.06
272.858	80.06
273.09	95.06
273.322	78.06
273.553	79.06
273.785	94.06
274.017	78.06
274.249	95.06
274.481	76.06
274.713	95.06
274.945	95.06
275.176	96.06
275.408	96.06
275.64	102.06
275.872	121.06
276.104	94.06
276.335	88.06
276.567	111.06
276.799	115.06
277.031	121.06
277.262	128.06
277.494	113.06
277.726	95.06
277.957	96.06
278.189	80.06
278.421	96.06
278.652	92.06
278.884	98.06
279.115	89.06
279.347	89.06
279.579	98.06
279.81	100.06
280.042	121.06
280.273	139.06
280.505	118.06
280.736	93.06
280.968	86.06
281.199	95.06
281.431	100.06
281.662	96.06
281.894	103.06
282.125	103.06
282.356	120.06
282.588	146.06
282.819	107.06
283.051	85.06
283.282	96.06
283.513	64.06
283.745	81.06
283.976	81.06
284.207	84.06
284.439	100.06
284.67	98.06
284.901	87.06
285.132	87.06
285.364	79.06
285.595	87.06
285.826	91.06
286.057	81.06
286.288	76.06
286.52	85.06
286.751	87.06
286.982	76.06
287.213	95.06
287.444	97.06
287.675	93.06
287.906	91.06
288.138	75.06
288.369	101.06
288.6	95.06
288.831	78.06
289.062	106.06
289.293	88.06
289.524	95.06
289.755	98.06
289.986	86.06
290.217	85.06
290.448	86.06
290.679	88.06
290.91	100.06
291.141	86.06
291.371	92.06
291.602	87.06
291.833	78.06
292.064	93.06
292.295	98.06
292.526	90.06
292.757	85.06
292.987	96.06
293.218	92.06
293.449	91.06
293.68	77.06
293.91	85.06
294.141	84.06
294.372	93.06
294.603	98.06
294.833	88.06
295.064	92.06
295.295	82.06
295.525	96.06
295.756	91.06
295.987	111.06
296.217	126.06
296.448	131.06
296.679	95.06
296.909	90.06
297.14	83.06
297.37	91.06
297.601	97.06
297.831	91.06
298.062	87.06
298.292	100.06
298.523	97.06
298.753	96.06
298.984	81.06
299.214	93.06
299.445	91.06
299.675	100.06
299.905	88.06
300.136	75.06
300.366	97.06
300.597	91.06
300.827	90.06
301.057	107.06
301.288	115.06
301.518	97.06
301.748	104.06
301.979	101.06
302.209	92.06
302.439	95.06
302.669	93.06
302.9	96.06
303.13	75.06
303.36	92.06
303.59	112.06
303.82	108.06
304.051	93.06
304.281	102.06
304.511	85.06
304.741	77.06
304.971	84.06
305.201	88.06
305.431	89.06
305.661	87.06
305.891	93.06
306.121	88.06
306.352	97.06
306.582	121.06
306.812	110.06
307.042	98.06
307.272	109.06
307.502	122.06
307.731	134.06
307.961	113.06
308.191	104.06
308.421	95.06
308.651	92.06
308.881	91.06
309.111	100.06
309.341	102.06
309.571	89.06
309.8	110.06
310.03	92.06
310.26	87.06
310.49	95.06
310.72	110.06
310.949	104.06
311.179	107.06
311.409	105.06
311.639	102.06
311.868	99.06
312.098	93.06
312.328	105.06
312.557	102.06
312.787	131.06
313.017	118.06
313.246	100.06
313.476	95.06
313.706	90.06
313.935	89.06
314.165	105.06
314.394	108.06
314.624	106.06
314.853	88.06
315.083	85.06
315.312	98.06
315.542	109.06
315.771	97.06
316.001	91.06
316.23	100.06
316.46	90.06
316.689	95.06
316.919	101.06
317.148	98.06
317.377	105.06
317.607	93.06
317.836	99.06
318.065	80.06
318.295	73.06
318.524	85.06
318.753	101.06
318.983	98.06
319.212	108.06
319.441	119.06
319.67	104.06
319.9	93.06
320.129	86.06
320.358	86.06
320.587	89.06
320.816	112.06
321.046	106.06
321.275	111.06
321.504	88.06
321.733	99.06
321.962	88.06
322.191	103.06
322.42	106.06
322.649	123.06
322.878	118.06
323.108	121.06
323.337	121.06
323.566	135.06
323.795	165.06
324.024	224.06
324.253	425.06
324.482	910.06
324.71	1905.06
324.939	2546.06
325.168	921.06
325.397	270.06
325.626	158.06
325.855	143.06
326.084	136.06
326.313	133.06
326.542	163.06
326.77	263.06
326.999	501.06
327.228	1067.06
327.457	1947.06
327.686	1569.06
327.914	451.06
328.143	311.06
328.372	332.06
328.6	225.06
328.829	135.06
329.058	163.06
329.287	157.06
329.515	143.06
329.744	155.06
329.972	265.06
330.201	475.06
330.43	640.06
330.658	333.06
330.887	206.06
331.115	147.06
331.344	109.06
331.572	117.06
331.801	99.06
332.03	102.06
332.258	112.06
332.486	100.06
332.715	111.06
332.943	102.06
333.172	114.06
333.4	110.06
333.629	131.06
333.857	169.06
334.085	243.06
334.314	450.06
334.542	801.06
334.771	762.06
334.999	225.06
335.227	144.06
335.455	94.06
335.684	117.06
335.912	102.06
336.14	100.06
336.369	104.06
336.597	113.06
336.825	109.06
337.053	107.06
337.281	95.06
337.51	80.06
337.738	108.06
337.966	105.06
338.194	92.06
338.422	97.06
338.65	103.06
338.878	114.06
339.106	96.06
339.334	88.06
339.562	93.06
339.79	87.06
340.018	103.06
340.246	91.06
340.474	88.06
340.702	87.06
340.93	106.06
341.158	101.06
341.386	93.06
341.614	89.06
341.842	101.06
342.07	96.06
342.298	88.06
342.526	78.06
342.754	90.06
342.981	88.06
343.209	83.06
343.437	84.06
343.665	86.06
343.893	84.06
344.12	96.06
344.348	104.06
344.576	95.06
344.804	93.06
345.031	76.06
345.259	93.06
345.487	110.06
345.714	85.06
345.942	93.06
346.17	98.06
346.397	92.06
346.625	100.06
346.853	96.06
347.08	97.06
347.308	102.06
347.535	98.06
347.763	105.06
347.99	94.06
348.218	104.06
348.445	101.06
348.673	95.06
348.9	102.06
349.128	101.06
349.355	81.06
349.583	100.06
349.81	97.06
350.037	91.06
350.265	92.06
350.492	110.06
350.72	99.06
350.947	104.06
351.174	109.06
351.402	112.06
351.629	92.06
351.856	101.06
352.083	108.06
352.311	112.06
352.538	94.06
352.765	127.06
352.992	111.06
353.22	109.06
353.447	96.06
353.674	118.06
353.901	105.06
354.128	104.06
354.355	94.06
354.583	97.06
354.81	96.06
355.037	105.06
355.264	105.06
355.491	96.06
355.718	96.06
355.945	87.06
356.172	91.06
356.399	97.06
356.626	97.06
356.853	82.06
357.08	100.06
357.307	97.06
357.534	100.06
357.761	104.06
357.988	92.06
358.215	92.06
358.441	98.06
358.668	98.06
358.895	97.06
359.122	91.06
359.349	101.06
359.576	92.06
359.802	110.06
360.029	116.06
360.256	116.06
360.483	113.06
360.709	91.06
360.936	94.06
361.163	103.06
361.39	103.06
361.616	98.06
361.843	84.06
362.07	109.06
362.296	96.06
362.523	111.06
362.749	90.06
362.976	106.06
363.203	105.06
363.429	89.06
363.656	90.06
363.882	89.06
364.109	81.06
364.335	97.06
364.562	93.06
364.788	109.06
365.015	106.06
365.241	94.06
365.468	89.06
365.694	111.06
365.92	104.06
366.147	103.06
366.373	91.06
366.599	74.06
366.826	83.06
367.052	81.06
367.278	96.06
367.505	97.06
367.731	96.06
367.957	85.06
368.184	93.06
368.41	107.06
368.636	132.06
368.862	121.06
369.089	114.06
369.315	94.06
369.541	105.06
369.767	98.06
369.993	98.06
370.219	99.06
370.445	92.06
370.672	82.06
370.898	104.06
371.124	90.06
371.35	72.06
371.576	89.06
371.802	96.06
372.028	87.06
372.254	93.06
372.48	94.06
372.706	83.06
372.932	86.06
373.158	102.06
373.384	85.06
373.61	102.06
373.835	109.06
374.061	99.06
374.287	107.06
374.513	87.06
374.739	88.06
374.965	87.06
375.191	99.06
375.416	92.06
375.642	92.06
375.868	96.06
376.094	94.06
376.319	97.06
376.545	86.06
376.771	86.06
376.997	98.06
377.222	110.06
377.448	90.06
377.674	84.06
377.899	96.06
378.125	93.06
378.35	99.06
378.576	84.06
378.802	85.06
379.027	94.06
379.253	105.06
379.478	101.06
379.704	98.06
379.929	93.06
380.155	89.06
380.38	104.06
380.606	111.06
380.831	100.06
381.057	103.06
381.282	103.06
381.507	103.06
381.733	83.06
381.958	98.06
382.184	102.06
382.409	104.06
382.634	94.06
382.86	91.06
383.085	110.06
383.31	117.06
383.535	108.06
383.761	106.06
383.986	110.06
384.211	103.06
384.436	105.06
384.662	108.06
384.887	115.06
385.112	118.06
385.337	112.06
385.562	109.06
385.787	105.06
386.013	134.06
386.238	126.06
386.463	104.06
386.688	118.06
386.913	107.06
387.138	118.06
387.363	113.06
387.588	105.06
387.813	102.06
388.038	113.06
388.263	117.06
388.488	117.06
388.713	114.06
388.938	94.06
389.163	94.06
389.387	82.06
389.612	98.06
389.837	99.06
390.062	88.06
390.287	97.06
390.512	103.06
390.736	90.06
390.961	98.06
391.186	86.06
391.411	81.06
391.636	100.06
391.86	77.06
392.085	101.06
392.31	83.06
392.534	91.06
392.759	104.06
392.984	94.06
393.208	82.06
393.433	79.06
393.658	89.06
393.882	79.06
394.107	96.06
394.331	82.06
394.556	79.06
394.78	88.06
395.005	101.06
395.229	80.06
395.454	91.06
395.678	81.06
395.903	109.06
396.127	94.06
396.352	83.06
396.576	84.06
396.801	84.06
397.025	83.06
397.249	84.06
397.474	91.06
397.698	86.06
397.922	86.06
398.147	78.06
398.371	85.06
398.595	64.06
398.82	86.06
399.044	90.06
399.268	81.06
399.492	96.06
399.717	101.06
399.941	97.06
400.165	122.06
400.389	96.06
400.613	89.06
400.837	96.06
401.062	101.06
401.286	108.06
401.51	96.06
401.734	88.06
401.958	125.06
402.182	124.06
402.406	175.06
402.63	130.06
402.854	99.06
403.078	102.06
403.302	101.06
403.526	83.06
403.75	81.06
403.974	91.06
404.198	88.06
404.422	110.06
404.645	88.06
404.869	93.06
405.093	94.06
405.317	121.06
405.541	123.06
405.765	114.06
405.988	128.06
406.212	193.06
406.436	253.06
406.66	175.06
406.883	103.06
407.107	94.06
407.331	82.06
407.555	118.06
407.778	95.06
408.002	102.06
408.226	105.06
408.449	97.06
408.673	81.06
408.896	84.06
409.12	89.06
409.344	97.06
409.567	85.06
409.791	89.06
410.014	95.06
410.238	95.06
410.461	97.06
410.685	90.06
410.908	116.06
411.132	98.06
411.355	108.06
411.578	97.06
411.802	95.06
412.025	96.06
412.249	89.06
412.472	110.06
412.695	119.06
412.919	103.06
413.142	88.06
413.365	96.06
413.589	77.06
413.812	101.06
414.035	84.06
414.258	92.06
414.482	93.06
414.705	89.06
414.928	93.06
415.151	99.06
415.374	85.06
415.597	78.06
415.821	93.06
416.044	99.06
416.267	95.06
416.49	79.06
416.713	102.06
416.936	93.06
417.159	87.06
417.382	93.06
417.605	100.06
417.828	100.06
418.051	87.06
418.274	106.06
418.497	92.06
418.72	98.06
418.943	93.06
419.166	93.06
419.389	100.06
419.611	95.06
419.834	85.06
420.057	89.06
420.28	82.06
420.503	80.06
420.726	101.06
420.948	104.06
421.171	91.06
421.394	78.06
421.617	98.06
421.839	92.06
422.062	93.06
422.285	86.06
422.507	101.06
422.73	118.06
422.953	113.06
423.175	87.06
423.398	83.06
423.621	86.06
423.843	93.06
424.066	91.06
424.288	79.06
424.511	89.06
424.733	95.06
424.956	103.06
425.178	88.06
425.401	98.06
425.623	105.06
425.846	99.06
426.068	110.06
426.291	84.06
426.513	92.06
426.735	89.06
426.958	97.06
427.18	94.06
427.402	160.06
427.625	208.06
427.847	185.06
428.069	166.06
428.292	111.06
428.514	93.06
428.736	91.06
428.958	75.06
429.181	77.06
429.403	95.06
429.625	100.06
429.847	98.06
430.069	117.06
430.292	93.06
430.514	96.06
430.736	84.06
430.958	86.06
431.18	75.06
431.402	97.06
431.624	98.06
431.846	72.06
432.068	86.06
432.29	93.06
432.512	100.06
432.734	100.06
432.956	113.06
433.178	102.06
433.4	95.06
433.622	102.06
433.844	98.06
434.066	108.06
434.287	98.06
434.509	105.06
434.731	97.06
434.953	87.06
435.175	91.06
435.397	102.06
435.618	111.06
435.84	111.06
436.062	125.06
436.284	118.06
436.505	113.06
436.727	105.06
436.949	108.06
437.17	109.06
437.392	100.06
437.614	101.06
437.835	111.06
438.057	126.06
438.278	131.06
438.5	104.06
438.721	120.06
438.943	106.06
439.165	93.06
439.386	86.06
439.608	105.06
439.829	108.06
440.05	153.06
440.272	175.06
440.493	105.06
440.715	92.06
440.936	94.06
441.158	96.06
441.379	92.06
441.6	102.06
441.822	108.06
442.043	93.06
442.264	110.06
442.486	95.06
442.707	93.06
442.928	120.06
443.149	144.06
443.371	146.06
443.592	128.06
443.813	127.06
444.034	112.06
444.255	104.06
444.476	79.06
444.698	83.06
444.919	87.06
445.14	127.06
445.361	115.06
445.582	122.06
445.803	147.06
446.024	141.06
446.245	169.06
446.466	115.06
446.687	85.06
446.908	96.06
447.129	98.06
447.35	97.06
447.571	95.06
447.792	101.06
448.013	103.06
448.234	109.06
448.455	92.06
448.675	111.06
448.896	131.06
449.117	104.06
449.338	104.06
449.559	133.06
449.779	147.06
450	98.06
450.221	92.06
450.442	86.06
450.662	102.06
450.883	99.06
451.104	129.06
451.324	88.06
451.545	103.06
451.766	94.06
451.986	81.06
452.207	91.06
452.428	91.06
452.648	100.06
452.869	119.06
453.089	110.06
453.31	120.06
453.53	104.06
453.751	98.06
453.971	104.06
454.192	105.06
454.412	105.06
454.633	94.06
454.853	93.06
455.073	93.06
455.294	89.06
455.514	104.06
455.734	107.06
455.955	88.06
456.175	80.06
456.395	75.06
456.616	95.06
456.836	79.06
457.056	85.06
457.276	81.06
457.497	89.06
457.717	90.06
457.937	87.06
458.157	83.06
458.377	107.06
458.598	99.06
458.818	182.06
459.038	197.06
459.258	130.06
459.478	102.06
459.698	100.06
459.918	95.06
460.138	92.06
460.358	99.06
460.578	89.06
460.798	91.06
461.018	102.06
461.238	96.06
461.458	92.06
461.678	73.06
461.898	68.06
462.118	87.06
462.338	85.06
462.558	91.06
462.777	92.06
462.997	96.06
463.217	91.06
463.437	98.06
463.657	88.06
463.876	97.06
464.096	94.06
464.316	90.06
464.536	91.06
464.755	104.06
464.975	117.06
465.195	196.06
465.414	184.06
465.634	119.06
465.854	96.06
466.073	75.06
466.293	82.06
466.512	75.06
466.732	92.06
466.951	97.06
467.171	88.06
467.391	102.06
467.61	118.06
467.829	147.06
468.049	249.06
468.268	385.06
468.488	135.06
468.707	103.06
468.927	85.06
469.146	88.06
469.365	92.06
469.585	84.06
469.804	104.06
470.023	95.06
470.243	89.06
470.462	120.06
470.681	118.06
470.901	93.06
471.12	88.06
471.339	95.06
471.558	88.06
471.777	111.06
471.997	161.06
472.216	527.06
472.435	1055.06
472.654	294.06
472.873	129.06
473.092	90.06
473.311	101.06
473.53	101.06
473.749	95.06
473.968	104.06
474.187	124.06
474.406	101.06
474.625	93.06
474.844	80.06
475.063	92.06
475.282	76.06
475.501	85.06
475.72	90.06
475.939	94.06
476.158	84.06
476.377	88.06
476.596	91.06
476.814	101.06
477.033	113.06
477.252	91.06
477.471	91.06
477.69	82.06
477.908	93.06
478.127	98.06
478.346	94.06
478.564	88.06
478.783	107.06
479.002	99.06
479.22	91.06
479.439	109.06
479.658	125.06
479.876	110.06
480.095	104.06
480.313	107.06
480.532	132.06
480.751	189.06
480.969	498.06
481.188	1877.06
481.406	1088.06
481.624	219.06
481.843	115.06
482.061	101.06
482.28	96.06
482.498	99.06
482.717	91.06
482.935	101.06
483.153	88.06
483.372	89.06
483.59	81.06
483.808	85.06
484.027	101.06
484.245	92.06
484.463	100.06
484.681	91.06
484.9	97.06
485.118	89.06
485.336	86.06
485.554	100.06
485.772	99.06
485.99	107.06
486.209	105.06
486.427	119.06
486.645	126.06
486.863	114.06
487.081	110.06
487.299	96.06
487.517	101.06
487.735	87.06
487.953	97.06
488.171	101.06
488.389	105.06
488.607	90.06
488.825	90.06
489.043	88.06
489.261	86.06
489.479	88.06
489.696	96.06
489.914	92.06
490.132	91.06
490.35	83.06
490.568	101.06
490.786	85.06
491.003	105.06
491.221	75.06
491.439	77.06
491.657	100.06
491.874	79.06
492.092	89.06
492.31	94.06
492.527	81.06
492.745	87.06
492.963	99.06
493.18	101.06
493.398	84.06
493.615	84.06
493.833	88.06
494.05	87.06
494.268	97.06
494.485	90.06
494.703	104.06
494.92	84.06
495.138	103.06
495.355	86.06
495.573	86.06
495.79	90.06
496.008	98.06
496.225	80.06
496.442	87.06
496.66	77.06
496.877	92.06
497.094	97.06
497.312	95.06
497.529	92.06
497.746	81.06
497.963	99.06
498.181	90.06
498.398	107.06
498.615	115.06
498.832	104.06
499.049	88.06
499.267	104.06
499.484	76.06
499.701	93.06
499.918	94.06
500.135	90.06
500.352	90.06
500.569	85.06
500.786	91.06
501.003	91.06
501.22	82.06
501.437	100.06
501.654	95.06
501.871	103.06
502.088	99.06
502.305	89.06
502.522	86.06
502.739	106.06
502.956	96.06
503.172	105.06
503.389	90.06
503.606	117.06
503.823	116.06
504.04	95.06
504.256	101.06
504.473	104.06
504.69	96.06
504.907	102.06
505.123	82.06
505.34	100.06
505.557	93.06
505.773	87.06
505.99	92.06
506.207	98.06
506.423	89.06
506.64	93.06
506.856	95.06
507.073	85.06
507.289	98.06
507.506	90.06
507.722	113.06
507.939	112.06
508.155	101.06
508.372	100.06
508.588	98.06
508.805	82.06
509.021	95.06
509.238	108.06
509.454	94.06
509.67	95.06
509.887	105.06
510.103	116.06
510.319	227.06
510.536	748.06
510.752	2381.06
510.968	664.06
511.184	153.06
511.401	113.06
511.617	110.06
511.833	97.06
512.049	94.06
512.265	87.06
512.481	94.06
512.698	92.06
512.914	90.06
513.13	90.06
513.346	94.06
513.562	102.06
