Data from Circ_1990_H10_HRD10591_00036.txt Node
Date: Wed Jan 03 11:55:11 EST 2024
User: Yrep
Spectrometer: HR+D1059
Trigger mode: 1
Integration Time (sec): 1.000000E-1
Scans to average: 1
Electric dark correction enabled: true
Nonlinearity correction enabled: false
Boxcar width: 0
XAxis mode: Wavelengths
Number of Pixels in Spectrum: 2048
>>>>>Begin Spectral Data<<<<<
223.165	-27.5
223.4	-27.5
223.635	-27.5
223.869	-29.5
224.104	-7.5
224.338	-18.5
224.573	-20.5
224.808	-15.5
225.042	1.5
225.277	-5.5
225.511	-9.5
225.746	3.5
225.98	19.5
226.215	0.5
226.449	21.5
226.683	18.5
226.918	26.5
227.152	42.5
227.387	27.5
227.621	28.5
227.856	44.5
228.09	39.5
228.324	55.5
228.559	56.5
228.793	56.5
229.027	63.5
229.262	74.5
229.496	82.5
229.73	94.5
229.964	75.5
230.199	76.5
230.433	70.5
230.667	64.5
230.901	81.5
231.136	74.5
231.37	67.5
231.604	74.5
231.838	94.5
232.072	80.5
232.306	67.5
232.541	69.5
232.775	92.5
233.009	84.5
233.243	74.5
233.477	83.5
233.711	71.5
233.945	76.5
234.179	86.5
234.413	68.5
234.647	92.5
234.881	90.5
235.115	75.5
235.349	70.5
235.583	74.5
235.817	78.5
236.051	76.5
236.285	90.5
236.519	84.5
236.753	76.5
236.987	58.5
237.221	81.5
237.455	69.5
237.689	71.5
237.922	69.5
238.156	75.5
238.39	62.5
238.624	80.5
238.858	67.5
239.091	82.5
239.325	76.5
239.559	80.5
239.793	64.5
240.027	74.5
240.26	67.5
240.494	86.5
240.728	88.5
240.961	66.5
241.195	74.5
241.429	71.5
241.662	75.5
241.896	72.5
242.13	84.5
242.363	69.5
242.597	80.5
242.83	85.5
243.064	89.5
243.298	68.5
243.531	80.5
243.765	82.5
243.998	72.5
244.232	70.5
244.465	77.5
244.699	78.5
244.932	80.5
245.166	79.5
245.399	67.5
245.633	81.5
245.866	71.5
246.099	70.5
246.333	90.5
246.566	75.5
246.8	85.5
247.033	90.5
247.266	82.5
247.5	88.5
247.733	80.5
247.966	80.5
248.2	76.5
248.433	74.5
248.666	69.5
248.899	78.5
249.133	77.5
249.366	99.5
249.599	102.5
249.832	74.5
250.066	82.5
250.299	91.5
250.532	84.5
250.765	83.5
250.998	95.5
251.231	73.5
251.465	70.5
251.698	79.5
251.931	80.5
252.164	92.5
252.397	75.5
252.63	79.5
252.863	74.5
253.096	84.5
253.329	80.5
253.562	96.5
253.795	89.5
254.028	85.5
254.261	84.5
254.494	81.5
254.727	83.5
254.96	91.5
255.193	80.5
255.426	71.5
255.659	84.5
255.892	85.5
256.124	80.5
256.357	87.5
256.59	82.5
256.823	83.5
257.056	88.5
257.289	92.5
257.521	78.5
257.754	76.5
257.987	87.5
258.22	90.5
258.452	84.5
258.685	80.5
258.918	85.5
259.151	87.5
259.383	84.5
259.616	89.5
259.849	80.5
260.081	103.5
260.314	86.5
260.547	71.5
260.779	76.5
261.012	89.5
261.244	79.5
261.477	74.5
261.71	90.5
261.942	110.5
262.175	107.5
262.407	86.5
262.64	98.5
262.872	84.5
263.105	75.5
263.337	88.5
263.57	97.5
263.802	77.5
264.035	93.5
264.267	83.5
264.499	92.5
264.732	90.5
264.964	83.5
265.197	85.5
265.429	79.5
265.661	82.5
265.894	89.5
266.126	71.5
266.358	79.5
266.591	81.5
266.823	83.5
267.055	81.5
267.287	95.5
267.52	87.5
267.752	85.5
267.984	79.5
268.216	82.5
268.448	91.5
268.681	82.5
268.913	86.5
269.145	87.5
269.377	94.5
269.609	82.5
269.841	95.5
270.073	82.5
270.306	71.5
270.538	100.5
270.77	88.5
271.002	86.5
271.234	85.5
271.466	79.5
271.698	90.5
271.93	92.5
272.162	94.5
272.394	70.5
272.626	86.5
272.858	83.5
273.09	75.5
273.322	84.5
273.553	91.5
273.785	96.5
274.017	75.5
274.249	96.5
274.481	74.5
274.713	85.5
274.945	84.5
275.176	87.5
275.408	87.5
275.64	80.5
275.872	99.5
276.104	99.5
276.335	91.5
276.567	81.5
276.799	98.5
277.031	102.5
277.262	101.5
277.494	91.5
277.726	96.5
277.957	85.5
278.189	92.5
278.421	81.5
278.652	85.5
278.884	73.5
279.115	76.5
279.347	68.5
279.579	76.5
279.81	103.5
280.042	107.5
280.273	100.5
280.505	90.5
280.736	82.5
280.968	73.5
281.199	80.5
281.431	85.5
281.662	83.5
281.894	85.5
282.125	91.5
282.356	103.5
282.588	118.5
282.819	105.5
283.051	101.5
283.282	107.5
283.513	94.5
283.745	91.5
283.976	69.5
284.207	75.5
284.439	93.5
284.67	95.5
284.901	71.5
285.132	95.5
285.364	87.5
285.595	91.5
285.826	101.5
286.057	104.5
286.288	89.5
286.52	82.5
286.751	82.5
286.982	98.5
287.213	112.5
287.444	84.5
287.675	85.5
287.906	96.5
288.138	98.5
288.369	101.5
288.6	61.5
288.831	87.5
289.062	84.5
289.293	87.5
289.524	79.5
289.755	91.5
289.986	92.5
290.217	93.5
290.448	90.5
290.679	80.5
290.91	80.5
291.141	91.5
291.371	78.5
291.602	78.5
291.833	83.5
292.064	91.5
292.295	87.5
292.526	91.5
292.757	75.5
292.987	93.5
293.218	88.5
293.449	75.5
293.68	98.5
293.91	82.5
294.141	97.5
294.372	95.5
294.603	85.5
294.833	103.5
295.064	99.5
295.295	92.5
295.525	94.5
295.756	96.5
295.987	102.5
296.217	126.5
296.448	119.5
296.679	86.5
296.909	93.5
297.14	93.5
297.37	107.5
297.601	81.5
297.831	83.5
298.062	88.5
298.292	94.5
298.523	94.5
298.753	99.5
298.984	84.5
299.214	73.5
299.445	91.5
299.675	93.5
299.905	86.5
300.136	88.5
300.366	93.5
300.597	104.5
300.827	93.5
301.057	76.5
301.288	94.5
301.518	94.5
301.748	91.5
301.979	114.5
302.209	95.5
302.439	101.5
302.669	95.5
302.9	88.5
303.13	90.5
303.36	72.5
303.59	105.5
303.82	102.5
304.051	96.5
304.281	98.5
304.511	84.5
304.741	93.5
304.971	100.5
305.201	94.5
305.431	94.5
305.661	82.5
305.891	76.5
306.121	98.5
306.352	86.5
306.582	109.5
306.812	81.5
307.042	95.5
307.272	92.5
307.502	99.5
307.731	104.5
307.961	106.5
308.191	91.5
308.421	100.5
308.651	81.5
308.881	94.5
309.111	76.5
309.341	98.5
309.571	95.5
309.8	91.5
310.03	91.5
310.26	93.5
310.49	97.5
310.72	98.5
310.949	102.5
311.179	97.5
311.409	92.5
311.639	84.5
311.868	93.5
312.098	100.5
312.328	109.5
312.557	94.5
312.787	98.5
313.017	96.5
313.246	94.5
313.476	99.5
313.706	84.5
313.935	105.5
314.165	89.5
314.394	106.5
314.624	100.5
314.853	104.5
315.083	87.5
315.312	84.5
315.542	92.5
315.771	82.5
316.001	93.5
316.23	97.5
316.46	100.5
316.689	86.5
316.919	105.5
317.148	83.5
317.377	88.5
317.607	87.5
317.836	92.5
318.065	95.5
318.295	91.5
318.524	94.5
318.753	83.5
318.983	94.5
319.212	91.5
319.441	115.5
319.67	95.5
319.9	94.5
320.129	97.5
320.358	86.5
320.587	83.5
320.816	95.5
321.046	105.5
321.275	101.5
321.504	86.5
321.733	93.5
321.962	96.5
322.191	102.5
322.42	94.5
322.649	100.5
322.878	111.5
323.108	111.5
323.337	118.5
323.566	110.5
323.795	137.5
324.024	171.5
324.253	310.5
324.482	621.5
324.71	1229.5
324.939	1638.5
325.168	608.5
325.397	197.5
325.626	134.5
325.855	128.5
326.084	129.5
326.313	124.5
326.542	131.5
326.77	195.5
326.999	360.5
327.228	712.5
327.457	1257.5
327.686	1021.5
327.914	297.5
328.143	197.5
328.372	193.5
328.6	138.5
328.829	115.5
329.058	113.5
329.287	115.5
329.515	106.5
329.744	131.5
329.972	159.5
330.201	208.5
330.43	274.5
330.658	163.5
330.887	121.5
331.115	112.5
331.344	96.5
331.572	102.5
331.801	98.5
332.03	99.5
332.258	106.5
332.486	86.5
332.715	81.5
332.943	103.5
333.172	103.5
333.4	86.5
333.629	103.5
333.857	121.5
334.085	152.5
334.314	218.5
334.542	342.5
334.771	284.5
334.999	141.5
335.227	114.5
335.455	82.5
335.684	108.5
335.912	101.5
336.14	114.5
336.369	101.5
336.597	92.5
336.825	100.5
337.053	98.5
337.281	95.5
337.51	88.5
337.738	103.5
337.966	90.5
338.194	80.5
338.422	90.5
338.65	85.5
338.878	87.5
339.106	89.5
339.334	100.5
339.562	93.5
339.79	97.5
340.018	86.5
340.246	96.5
340.474	90.5
340.702	88.5
340.93	89.5
341.158	102.5
341.386	86.5
341.614	87.5
341.842	95.5
342.07	95.5
342.298	93.5
342.526	83.5
342.754	89.5
342.981	94.5
343.209	93.5
343.437	86.5
343.665	102.5
343.893	87.5
344.12	81.5
344.348	95.5
344.576	82.5
344.804	87.5
345.031	78.5
345.259	87.5
345.487	93.5
345.714	98.5
345.942	93.5
346.17	94.5
346.397	94.5
346.625	92.5
346.853	95.5
347.08	91.5
347.308	91.5
347.535	100.5
347.763	88.5
347.99	97.5
348.218	99.5
348.445	89.5
348.673	107.5
348.9	102.5
349.128	97.5
349.355	85.5
349.583	101.5
349.81	87.5
350.037	100.5
350.265	100.5
350.492	103.5
350.72	87.5
350.947	102.5
351.174	112.5
351.402	102.5
351.629	103.5
351.856	102.5
352.083	102.5
352.311	110.5
352.538	104.5
352.765	109.5
352.992	109.5
353.22	103.5
353.447	96.5
353.674	105.5
353.901	89.5
354.128	94.5
354.355	90.5
354.583	100.5
354.81	94.5
355.037	106.5
355.264	95.5
355.491	87.5
355.718	105.5
355.945	102.5
356.172	82.5
356.399	101.5
356.626	106.5
356.853	101.5
357.08	98.5
357.307	87.5
357.534	92.5
357.761	94.5
357.988	97.5
358.215	92.5
358.441	95.5
358.668	111.5
358.895	107.5
359.122	97.5
359.349	97.5
359.576	93.5
359.802	99.5
360.029	108.5
360.256	97.5
360.483	96.5
360.709	91.5
360.936	90.5
361.163	97.5
361.39	104.5
361.616	110.5
361.843	97.5
362.07	110.5
362.296	95.5
362.523	107.5
362.749	82.5
362.976	80.5
363.203	81.5
363.429	85.5
363.656	89.5
363.882	80.5
364.109	91.5
364.335	106.5
364.562	103.5
364.788	99.5
365.015	88.5
365.241	100.5
365.468	102.5
365.694	91.5
365.92	102.5
366.147	92.5
366.373	85.5
366.599	90.5
366.826	95.5
367.052	101.5
367.278	91.5
367.505	87.5
367.731	106.5
367.957	84.5
368.184	92.5
368.41	82.5
368.636	104.5
368.862	112.5
369.089	119.5
369.315	82.5
369.541	100.5
369.767	78.5
369.993	90.5
370.219	94.5
370.445	108.5
370.672	86.5
370.898	95.5
371.124	81.5
371.35	79.5
371.576	94.5
371.802	94.5
372.028	76.5
372.254	89.5
372.48	88.5
372.706	100.5
372.932	75.5
373.158	100.5
373.384	88.5
373.61	92.5
373.835	88.5
374.061	80.5
374.287	94.5
374.513	103.5
374.739	100.5
374.965	87.5
375.191	101.5
375.416	82.5
375.642	89.5
375.868	87.5
376.094	97.5
376.319	89.5
376.545	93.5
376.771	92.5
376.997	106.5
377.222	75.5
377.448	89.5
377.674	106.5
377.899	93.5
378.125	108.5
378.35	78.5
378.576	83.5
378.802	110.5
379.027	104.5
379.253	102.5
379.478	98.5
379.704	102.5
379.929	99.5
380.155	86.5
380.38	95.5
380.606	92.5
380.831	76.5
381.057	84.5
381.282	85.5
381.507	100.5
381.733	98.5
381.958	110.5
382.184	109.5
382.409	117.5
382.634	113.5
382.86	103.5
383.085	103.5
383.31	113.5
383.535	109.5
383.761	114.5
383.986	113.5
384.211	109.5
384.436	105.5
384.662	114.5
384.887	119.5
385.112	127.5
385.337	117.5
385.562	119.5
385.787	116.5
386.013	120.5
386.238	128.5
386.463	119.5
386.688	124.5
386.913	123.5
387.138	107.5
387.363	110.5
387.588	115.5
387.813	109.5
388.038	111.5
388.263	135.5
388.488	137.5
388.713	101.5
388.938	101.5
389.163	102.5
389.387	87.5
389.612	70.5
389.837	97.5
390.062	94.5
390.287	89.5
390.512	86.5
390.736	94.5
390.961	80.5
391.186	98.5
391.411	76.5
391.636	83.5
391.86	84.5
392.085	94.5
392.31	92.5
392.534	90.5
392.759	84.5
392.984	88.5
393.208	86.5
393.433	96.5
393.658	90.5
393.882	85.5
394.107	76.5
394.331	99.5
394.556	88.5
394.78	85.5
395.005	94.5
395.229	79.5
395.454	86.5
395.678	83.5
395.903	98.5
396.127	82.5
396.352	79.5
396.576	102.5
396.801	100.5
397.025	92.5
397.249	78.5
397.474	74.5
397.698	84.5
397.922	85.5
398.147	86.5
398.371	95.5
398.595	83.5
398.82	100.5
399.044	86.5
399.268	88.5
399.492	91.5
399.717	83.5
399.941	83.5
400.165	96.5
400.389	80.5
400.613	92.5
400.837	71.5
401.062	92.5
401.286	90.5
401.51	85.5
401.734	76.5
401.958	92.5
402.182	121.5
402.406	129.5
402.63	98.5
402.854	84.5
403.078	87.5
403.302	93.5
403.526	101.5
403.75	90.5
403.974	72.5
404.198	84.5
404.422	87.5
404.645	82.5
404.869	89.5
405.093	111.5
405.317	88.5
405.541	99.5
405.765	88.5
405.988	97.5
406.212	138.5
406.436	179.5
406.66	114.5
406.883	93.5
407.107	97.5
407.331	93.5
407.555	83.5
407.778	91.5
408.002	97.5
408.226	74.5
408.449	83.5
408.673	78.5
408.896	94.5
409.12	82.5
409.344	93.5
409.567	100.5
409.791	84.5
410.014	97.5
410.238	81.5
410.461	102.5
410.685	96.5
410.908	90.5
411.132	107.5
411.355	79.5
411.578	76.5
411.802	95.5
412.025	104.5
412.249	85.5
412.472	84.5
412.695	101.5
412.919	100.5
413.142	74.5
413.365	59.5
413.589	95.5
413.812	72.5
414.035	85.5
414.258	93.5
414.482	82.5
414.705	89.5
414.928	72.5
415.151	98.5
415.374	97.5
415.597	86.5
415.821	84.5
416.044	91.5
416.267	80.5
416.49	87.5
416.713	112.5
416.936	100.5
417.159	88.5
417.382	103.5
417.605	104.5
417.828	111.5
418.051	105.5
418.274	94.5
418.497	88.5
418.72	87.5
418.943	82.5
419.166	86.5
419.389	93.5
419.611	100.5
419.834	86.5
420.057	81.5
420.28	84.5
420.503	95.5
420.726	87.5
420.948	87.5
421.171	104.5
421.394	86.5
421.617	92.5
421.839	94.5
422.062	92.5
422.285	93.5
422.507	97.5
422.73	95.5
422.953	78.5
423.175	85.5
423.398	68.5
423.621	99.5
423.843	96.5
424.066	79.5
424.288	84.5
424.511	87.5
424.733	88.5
424.956	96.5
425.178	98.5
425.401	88.5
425.623	82.5
425.846	99.5
426.068	97.5
426.291	86.5
426.513	79.5
426.735	104.5
426.958	92.5
427.18	110.5
427.402	109.5
427.625	132.5
427.847	112.5
428.069	120.5
428.292	93.5
428.514	104.5
428.736	87.5
428.958	89.5
429.181	95.5
429.403	96.5
429.625	77.5
429.847	96.5
430.069	81.5
430.292	93.5
430.514	83.5
430.736	87.5
430.958	67.5
431.18	96.5
431.402	85.5
431.624	83.5
431.846	84.5
432.068	99.5
432.29	98.5
432.512	79.5
432.734	95.5
432.956	84.5
433.178	103.5
433.4	92.5
433.622	100.5
433.844	98.5
434.066	91.5
434.287	87.5
434.509	93.5
434.731	86.5
434.953	88.5
435.175	79.5
435.397	82.5
435.618	88.5
435.84	105.5
436.062	103.5
436.284	102.5
436.505	93.5
436.727	90.5
436.949	88.5
437.17	92.5
437.392	90.5
437.614	86.5
437.835	96.5
438.057	97.5
438.278	99.5
438.5	111.5
438.721	112.5
438.943	103.5
439.165	79.5
439.386	87.5
439.608	81.5
439.829	102.5
440.05	104.5
440.272	117.5
440.493	96.5
440.715	78.5
440.936	90.5
441.158	99.5
441.379	78.5
441.6	92.5
441.822	94.5
442.043	88.5
442.264	99.5
442.486	101.5
442.707	96.5
442.928	88.5
443.149	109.5
443.371	102.5
443.592	91.5
443.813	99.5
444.034	99.5
444.255	87.5
444.476	78.5
444.698	92.5
444.919	95.5
445.14	136.5
445.361	111.5
445.582	111.5
445.803	123.5
446.024	115.5
446.245	107.5
446.466	102.5
446.687	90.5
446.908	91.5
447.129	93.5
447.35	92.5
447.571	93.5
447.792	96.5
448.013	94.5
448.234	112.5
448.455	93.5
448.675	96.5
448.896	103.5
449.117	115.5
449.338	105.5
449.559	113.5
449.779	104.5
450	70.5
450.221	94.5
450.442	82.5
450.662	96.5
450.883	108.5
451.104	106.5
451.324	72.5
451.545	86.5
451.766	82.5
451.986	84.5
452.207	99.5
452.428	85.5
452.648	96.5
452.869	104.5
453.089	107.5
453.31	103.5
453.53	99.5
453.751	95.5
453.971	87.5
454.192	86.5
454.412	90.5
454.633	80.5
454.853	72.5
455.073	80.5
455.294	79.5
455.514	107.5
455.734	77.5
455.955	72.5
456.175	86.5
456.395	88.5
456.616	80.5
456.836	71.5
457.056	82.5
457.276	85.5
457.497	85.5
457.717	80.5
457.937	74.5
458.157	74.5
458.377	100.5
458.598	87.5
458.818	124.5
459.038	136.5
459.258	104.5
459.478	95.5
459.698	79.5
459.918	80.5
460.138	86.5
460.358	86.5
460.578	92.5
460.798	90.5
461.018	90.5
461.238	87.5
461.458	82.5
461.678	85.5
461.898	91.5
462.118	84.5
462.338	83.5
462.558	93.5
462.777	88.5
462.997	83.5
463.217	107.5
463.437	82.5
463.657	75.5
463.876	86.5
464.096	76.5
464.316	90.5
464.536	88.5
464.755	90.5
464.975	101.5
465.195	145.5
465.414	135.5
465.634	97.5
465.854	85.5
466.073	69.5
466.293	79.5
466.512	83.5
466.732	95.5
466.951	108.5
467.171	87.5
467.391	98.5
467.61	104.5
467.829	108.5
468.049	156.5
468.268	183.5
468.488	92.5
468.707	99.5
468.927	99.5
469.146	81.5
469.365	82.5
469.585	92.5
469.804	97.5
470.023	90.5
470.243	102.5
470.462	93.5
470.681	95.5
470.901	87.5
471.12	84.5
471.339	87.5
471.558	87.5
471.777	90.5
471.997	105.5
472.216	248.5
472.435	438.5
472.654	160.5
472.873	99.5
473.092	98.5
473.311	71.5
473.53	93.5
473.749	93.5
473.968	81.5
474.187	92.5
474.406	92.5
474.625	83.5
474.844	88.5
475.063	91.5
475.282	71.5
475.501	93.5
475.72	94.5
475.939	79.5
476.158	76.5
476.377	84.5
476.596	75.5
476.814	93.5
477.033	93.5
477.252	83.5
477.471	78.5
477.69	83.5
477.908	76.5
478.127	88.5
478.346	100.5
478.564	92.5
478.783	92.5
479.002	98.5
479.22	89.5
479.439	104.5
479.658	92.5
479.876	98.5
480.095	99.5
480.313	97.5
480.532	87.5
480.751	119.5
480.969	240.5
481.188	736.5
481.406	455.5
481.624	150.5
481.843	95.5
482.061	90.5
482.28	95.5
482.498	90.5
482.717	92.5
482.935	103.5
483.153	86.5
483.372	86.5
483.59	88.5
483.808	96.5
484.027	99.5
484.245	93.5
484.463	92.5
484.681	103.5
484.9	93.5
485.118	85.5
485.336	96.5
485.554	99.5
485.772	103.5
485.99	100.5
486.209	95.5
486.427	105.5
486.645	111.5
486.863	104.5
487.081	99.5
487.299	101.5
487.517	96.5
487.735	110.5
487.953	93.5
488.171	84.5
488.389	99.5
488.607	95.5
488.825	102.5
489.043	102.5
489.261	93.5
489.479	92.5
489.696	81.5
489.914	98.5
490.132	102.5
490.35	91.5
490.568	100.5
490.786	91.5
491.003	86.5
491.221	82.5
491.439	107.5
491.657	88.5
491.874	98.5
492.092	95.5
492.31	96.5
492.527	80.5
492.745	97.5
492.963	90.5
493.18	97.5
493.398	91.5
493.615	101.5
493.833	99.5
494.05	99.5
494.268	94.5
494.485	70.5
494.703	82.5
494.92	79.5
495.138	91.5
495.355	90.5
495.573	92.5
495.79	104.5
496.008	111.5
496.225	86.5
496.442	95.5
496.66	81.5
496.877	93.5
497.094	95.5
497.312	83.5
497.529	80.5
497.746	90.5
497.963	90.5
498.181	99.5
498.398	93.5
498.615	90.5
498.832	103.5
499.049	83.5
499.267	91.5
499.484	87.5
499.701	107.5
499.918	112.5
500.135	99.5
500.352	80.5
500.569	78.5
500.786	95.5
501.003	82.5
501.22	100.5
501.437	102.5
501.654	99.5
501.871	106.5
502.088	104.5
502.305	86.5
502.522	78.5
502.739	98.5
502.956	94.5
503.172	93.5
503.389	100.5
503.606	99.5
503.823	94.5
504.04	95.5
504.256	84.5
504.473	87.5
504.69	95.5
504.907	96.5
505.123	94.5
505.34	86.5
505.557	79.5
505.773	100.5
505.99	92.5
506.207	92.5
506.423	95.5
506.64	100.5
506.856	103.5
507.073	85.5
507.289	99.5
507.506	86.5
507.722	108.5
507.939	106.5
508.155	101.5
508.372	87.5
508.588	85.5
508.805	83.5
509.021	94.5
509.238	82.5
509.454	90.5
509.67	108.5
509.887	101.5
510.103	117.5
510.319	186.5
510.536	559.5
510.752	1703.5
510.968	493.5
511.184	118.5
511.401	109.5
511.617	98.5
511.833	90.5
512.049	100.5
512.265	97.5
512.481	91.5
512.698	92.5
512.914	105.5
513.13	89.5
513.346	101.5
513.562	71.5
513.778	101.5
513.994	96.5
514.21	88.5
514.426	103.5
514.642	116.5
514.858	111.5
515.074	128.5
515.29	333.5
515.506	1006.5
515.721	383.5
515.937	127.5
516.153	95.5
516.369	102.5
516.585	82.5
516.801	90.5
517.016	83.5
517.232	101.5
517.448	95.5
517.664	104.5
517.879	72.5
518.095	89.5
518.311	105.5
518.527	104.5
518.742	87.5
518.958	84.5
519.173	86.5
519.389	94.5
519.605	84.5
519.82	96.5
520.036	97.5
520.251	107.5
520.467	112.5
520.682	102.5
520.898	108.5
521.113	103.5
521.329	125.5
521.544	168.5
521.76	374.5
521.975	1635.5
522.19	991.5
522.406	238.5
522.621	111.5
522.836	90.5
523.052	82.5
523.267	86.5
523.482	98.5
523.698	96.5
523.913	129.5
524.128	94.5
524.343	90.5
524.559	76.5
524.774	91.5
524.989	93.5
525.204	108.5
525.419	81.5
525.634	94.5
525.849	76.5
526.064	72.5
526.28	76.5
526.495	84.5
526.71	71.5
526.925	90.5
527.14	78.5
527.355	85.5
527.57	105.5
527.785	97.5
527.999	86.5
528.214	97.5
528.429	90.5
528.644	88.5
528.859	93.5
529.074	87.5
529.289	104.5
529.503	146.5
529.718	108.5
529.933	106.5
530.148	101.5
530.363	87.5
530.577	63.5
530.792	98.5
531.007	87.5
531.221	89.5
531.436	96.5
531.651	85.5
531.865	87.5
532.08	98.5
532.295	90.5
532.509	94.5
532.724	107.5
532.938	84.5
533.153	89.5
533.367	81.5
533.582	93.5
533.796	92.5
534.011	92.5
534.225	104.5
534.44	92.5
534.654	101.5
534.868	88.5
