Data from Circ_1990_H10_HRD10591_00047.txt Node
Date: Wed Jan 03 11:55:13 EST 2024
User: Yrep
Spectrometer: HR+D1059
Trigger mode: 1
Integration Time (sec): 1.000000E-1
Scans to average: 1
Electric dark correction enabled: true
Nonlinearity correction enabled: false
Boxcar width: 0
XAxis mode: Wavelengths
Number of Pixels in Spectrum: 2048
>>>>>Begin Spectral Data<<<<<
223.165	-17.06
223.4	-17.06
223.635	-17.06
223.869	-34.06
224.104	-30.06
224.338	-19.06
224.573	-15.06
224.808	-4.06
225.042	-1.06
225.277	-7.06
225.511	-5.06
225.746	16.94
225.98	-0.06
226.215	20.94
226.449	14.94
226.683	25.94
226.918	20.94
227.152	32.94
227.387	35.94
227.621	37.94
227.856	48.94
228.09	52.94
228.324	49.94
228.559	56.94
228.793	52.94
229.027	60.94
229.262	71.94
229.496	60.94
229.73	76.94
229.964	71.94
230.199	68.94
230.433	72.94
230.667	79.94
230.901	75.94
231.136	68.94
231.37	75.94
231.604	91.94
231.838	70.94
232.072	84.94
232.306	81.94
232.541	56.94
232.775	77.94
233.009	72.94
233.243	75.94
233.477	88.94
233.711	85.94
233.945	85.94
234.179	85.94
234.413	88.94
234.647	77.94
234.881	86.94
235.115	76.94
235.349	73.94
235.583	70.94
235.817	80.94
236.051	82.94
236.285	70.94
236.519	88.94
236.753	66.94
236.987	77.94
237.221	78.94
237.455	74.94
237.689	81.94
237.922	77.94
238.156	80.94
238.39	62.94
238.624	76.94
238.858	70.94
239.091	93.94
239.325	60.94
239.559	75.94
239.793	69.94
240.027	78.94
240.26	76.94
240.494	88.94
240.728	84.94
240.961	87.94
241.195	66.94
241.429	75.94
241.662	82.94
241.896	60.94
242.13	66.94
242.363	82.94
242.597	85.94
242.83	74.94
243.064	77.94
243.298	81.94
243.531	78.94
243.765	74.94
243.998	71.94
244.232	74.94
244.465	75.94
244.699	94.94
244.932	77.94
245.166	87.94
245.399	85.94
245.633	87.94
245.866	69.94
246.099	85.94
246.333	77.94
246.566	74.94
246.8	86.94
247.033	84.94
247.266	68.94
247.5	81.94
247.733	83.94
247.966	68.94
248.2	78.94
248.433	88.94
248.666	69.94
248.899	70.94
249.133	81.94
249.366	82.94
249.599	92.94
249.832	80.94
250.066	86.94
250.299	99.94
250.532	66.94
250.765	77.94
250.998	58.94
251.231	80.94
251.465	97.94
251.698	79.94
251.931	79.94
252.164	79.94
252.397	76.94
252.63	85.94
252.863	75.94
253.096	66.94
253.329	82.94
253.562	73.94
253.795	81.94
254.028	72.94
254.261	81.94
254.494	63.94
254.727	79.94
254.96	91.94
255.193	78.94
255.426	82.94
255.659	88.94
255.892	86.94
256.124	82.94
256.357	85.94
256.59	72.94
256.823	85.94
257.056	72.94
257.289	87.94
257.521	66.94
257.754	86.94
257.987	79.94
258.22	70.94
258.452	92.94
258.685	83.94
258.918	82.94
259.151	83.94
259.383	82.94
259.616	85.94
259.849	83.94
260.081	95.94
260.314	95.94
260.547	85.94
260.779	74.94
261.012	84.94
261.244	77.94
261.477	78.94
261.71	84.94
261.942	103.94
262.175	105.94
262.407	93.94
262.64	83.94
262.872	88.94
263.105	81.94
263.337	104.94
263.57	76.94
263.802	66.94
264.035	92.94
264.267	78.94
264.499	78.94
264.732	82.94
264.964	68.94
265.197	74.94
265.429	78.94
265.661	86.94
265.894	91.94
266.126	72.94
266.358	77.94
266.591	78.94
266.823	85.94
267.055	72.94
267.287	90.94
267.52	77.94
267.752	80.94
267.984	89.94
268.216	85.94
268.448	69.94
268.681	75.94
268.913	83.94
269.145	80.94
269.377	78.94
269.609	97.94
269.841	82.94
270.073	85.94
270.306	87.94
270.538	85.94
270.77	91.94
271.002	83.94
271.234	90.94
271.466	90.94
271.698	78.94
271.93	91.94
272.162	87.94
272.394	101.94
272.626	92.94
272.858	77.94
273.09	90.94
273.322	94.94
273.553	79.94
273.785	78.94
274.017	90.94
274.249	80.94
274.481	88.94
274.713	78.94
274.945	93.94
275.176	76.94
275.408	87.94
275.64	94.94
275.872	94.94
276.104	89.94
276.335	83.94
276.567	78.94
276.799	106.94
277.031	96.94
277.262	100.94
277.494	87.94
277.726	86.94
277.957	90.94
278.189	95.94
278.421	100.94
278.652	87.94
278.884	90.94
279.115	75.94
279.347	76.94
279.579	93.94
279.81	88.94
280.042	112.94
280.273	97.94
280.505	106.94
280.736	101.94
280.968	90.94
281.199	84.94
281.431	87.94
281.662	83.94
281.894	88.94
282.125	87.94
282.356	114.94
282.588	106.94
282.819	93.94
283.051	96.94
283.282	81.94
283.513	89.94
283.745	85.94
283.976	91.94
284.207	96.94
284.439	92.94
284.67	83.94
284.901	64.94
285.132	72.94
285.364	84.94
285.595	88.94
285.826	80.94
286.057	78.94
286.288	74.94
286.52	89.94
286.751	82.94
286.982	76.94
287.213	83.94
287.444	77.94
287.675	78.94
287.906	92.94
288.138	87.94
288.369	88.94
288.6	86.94
288.831	82.94
289.062	92.94
289.293	96.94
289.524	74.94
289.755	78.94
289.986	85.94
290.217	82.94
290.448	75.94
290.679	78.94
290.91	78.94
291.141	93.94
291.371	86.94
291.602	77.94
291.833	69.94
292.064	83.94
292.295	87.94
292.526	86.94
292.757	86.94
292.987	85.94
293.218	78.94
293.449	89.94
293.68	96.94
293.91	88.94
294.141	80.94
294.372	91.94
294.603	85.94
294.833	72.94
295.064	82.94
295.295	98.94
295.525	84.94
295.756	82.94
295.987	84.94
296.217	115.94
296.448	112.94
296.679	100.94
296.909	88.94
297.14	91.94
297.37	88.94
297.601	84.94
297.831	83.94
298.062	83.94
298.292	89.94
298.523	96.94
298.753	84.94
298.984	93.94
299.214	100.94
299.445	84.94
299.675	102.94
299.905	100.94
300.136	91.94
300.366	82.94
300.597	68.94
300.827	101.94
301.057	101.94
301.288	87.94
301.518	86.94
301.748	104.94
301.979	89.94
302.209	78.94
302.439	79.94
302.669	74.94
302.9	82.94
303.13	81.94
303.36	96.94
303.59	108.94
303.82	103.94
304.051	90.94
304.281	90.94
304.511	91.94
304.741	96.94
304.971	98.94
305.201	97.94
305.431	114.94
305.661	90.94
305.891	82.94
306.121	110.94
306.352	76.94
306.582	111.94
306.812	85.94
307.042	92.94
307.272	106.94
307.502	105.94
307.731	101.94
307.961	101.94
308.191	77.94
308.421	96.94
308.651	104.94
308.881	80.94
309.111	92.94
309.341	87.94
309.571	97.94
309.8	83.94
310.03	89.94
310.26	96.94
310.49	83.94
310.72	108.94
310.949	95.94
311.179	95.94
311.409	96.94
311.639	97.94
311.868	84.94
312.098	104.94
312.328	89.94
312.557	92.94
312.787	101.94
313.017	96.94
313.246	95.94
313.476	89.94
313.706	89.94
313.935	100.94
314.165	85.94
314.394	96.94
314.624	98.94
314.853	92.94
315.083	94.94
315.312	93.94
315.542	89.94
315.771	83.94
316.001	77.94
316.23	91.94
316.46	91.94
316.689	94.94
316.919	88.94
317.148	82.94
317.377	93.94
317.607	88.94
317.836	95.94
318.065	89.94
318.295	79.94
318.524	84.94
318.753	90.94
318.983	100.94
319.212	96.94
319.441	98.94
319.67	95.94
319.9	98.94
320.129	92.94
320.358	84.94
320.587	97.94
320.816	94.94
321.046	97.94
321.275	86.94
321.504	96.94
321.733	105.94
321.962	106.94
322.191	93.94
322.42	106.94
322.649	111.94
322.878	130.94
323.108	108.94
323.337	120.94
323.566	126.94
323.795	131.94
324.024	172.94
324.253	323.94
324.482	656.94
324.71	1324.94
324.939	1802.94
325.168	676.94
325.397	211.94
325.626	136.94
325.855	124.94
326.084	126.94
326.313	108.94
326.542	140.94
326.77	184.94
326.999	389.94
327.228	771.94
327.457	1361.94
327.686	1120.94
327.914	338.94
328.143	219.94
328.372	210.94
328.6	137.94
328.829	96.94
329.058	116.94
329.287	110.94
329.515	116.94
329.744	110.94
329.972	154.94
330.201	257.94
330.43	317.94
330.658	202.94
330.887	146.94
331.115	111.94
331.344	102.94
331.572	90.94
331.801	99.94
332.03	96.94
332.258	96.94
332.486	106.94
332.715	92.94
332.943	95.94
333.172	108.94
333.4	107.94
333.629	101.94
333.857	119.94
334.085	170.94
334.314	266.94
334.542	407.94
334.771	394.94
334.999	154.94
335.227	110.94
335.455	108.94
335.684	93.94
335.912	94.94
336.14	85.94
336.369	102.94
336.597	102.94
336.825	88.94
337.053	92.94
337.281	88.94
337.51	90.94
337.738	88.94
337.966	81.94
338.194	102.94
338.422	102.94
338.65	97.94
338.878	92.94
339.106	92.94
339.334	95.94
339.562	108.94
339.79	98.94
340.018	97.94
340.246	95.94
340.474	84.94
340.702	101.94
340.93	96.94
341.158	93.94
341.386	88.94
341.614	88.94
341.842	92.94
342.07	78.94
342.298	92.94
342.526	96.94
342.754	81.94
342.981	84.94
343.209	85.94
343.437	98.94
343.665	86.94
343.893	82.94
344.12	98.94
344.348	92.94
344.576	104.94
344.804	98.94
345.031	89.94
345.259	102.94
345.487	83.94
345.714	83.94
345.942	89.94
346.17	93.94
346.397	85.94
346.625	77.94
346.853	77.94
347.08	97.94
347.308	100.94
347.535	89.94
347.763	81.94
347.99	107.94
348.218	86.94
348.445	92.94
348.673	83.94
348.9	98.94
349.128	93.94
349.355	85.94
349.583	85.94
349.81	79.94
350.037	93.94
350.265	86.94
350.492	84.94
350.72	91.94
350.947	81.94
351.174	100.94
351.402	113.94
351.629	100.94
351.856	82.94
352.083	92.94
352.311	87.94
352.538	121.94
352.765	109.94
352.992	84.94
353.22	93.94
353.447	97.94
353.674	102.94
353.901	85.94
354.128	99.94
354.355	93.94
354.583	97.94
354.81	84.94
355.037	98.94
355.264	103.94
355.491	106.94
355.718	85.94
355.945	86.94
356.172	87.94
356.399	81.94
356.626	90.94
356.853	99.94
357.08	94.94
357.307	88.94
357.534	83.94
357.761	97.94
357.988	94.94
358.215	99.94
358.441	102.94
358.668	99.94
358.895	97.94
359.122	88.94
359.349	98.94
359.576	94.94
359.802	97.94
360.029	98.94
360.256	95.94
360.483	102.94
360.709	107.94
360.936	92.94
361.163	86.94
361.39	68.94
361.616	85.94
361.843	78.94
362.07	79.94
362.296	84.94
362.523	101.94
362.749	74.94
362.976	85.94
363.203	87.94
363.429	86.94
363.656	85.94
363.882	82.94
364.109	84.94
364.335	81.94
364.562	101.94
364.788	98.94
365.015	97.94
365.241	96.94
365.468	109.94
365.694	103.94
365.92	103.94
366.147	87.94
366.373	83.94
366.599	82.94
366.826	82.94
367.052	78.94
367.278	85.94
367.505	83.94
367.731	87.94
367.957	94.94
368.184	82.94
368.41	89.94
368.636	104.94
368.862	102.94
369.089	101.94
369.315	90.94
369.541	88.94
369.767	94.94
369.993	96.94
370.219	80.94
370.445	93.94
370.672	97.94
370.898	90.94
371.124	97.94
371.35	95.94
371.576	82.94
371.802	95.94
372.028	101.94
372.254	71.94
372.48	79.94
372.706	78.94
372.932	95.94
373.158	86.94
373.384	98.94
373.61	86.94
373.835	86.94
374.061	85.94
374.287	77.94
374.513	94.94
374.739	82.94
374.965	99.94
375.191	76.94
375.416	94.94
375.642	90.94
375.868	90.94
376.094	99.94
376.319	92.94
376.545	96.94
376.771	91.94
376.997	89.94
377.222	93.94
377.448	92.94
377.674	86.94
377.899	81.94
378.125	87.94
378.35	94.94
378.576	96.94
378.802	91.94
379.027	89.94
379.253	79.94
379.478	85.94
379.704	93.94
379.929	82.94
380.155	105.94
380.38	89.94
380.606	89.94
380.831	99.94
381.057	99.94
381.282	88.94
381.507	95.94
381.733	102.94
381.958	91.94
382.184	108.94
382.409	89.94
382.634	109.94
382.86	112.94
383.085	108.94
383.31	100.94
383.535	94.94
383.761	99.94
383.986	90.94
384.211	94.94
384.436	96.94
384.662	95.94
384.887	112.94
385.112	121.94
385.337	120.94
385.562	115.94
385.787	115.94
386.013	104.94
386.238	110.94
386.463	105.94
386.688	107.94
386.913	100.94
387.138	128.94
387.363	107.94
387.588	93.94
387.813	93.94
388.038	106.94
388.263	106.94
388.488	112.94
388.713	93.94
388.938	94.94
389.163	88.94
389.387	95.94
389.612	92.94
389.837	93.94
390.062	87.94
390.287	88.94
390.512	100.94
390.736	84.94
390.961	80.94
391.186	89.94
391.411	81.94
391.636	82.94
391.86	92.94
392.085	72.94
392.31	72.94
392.534	77.94
392.759	89.94
392.984	76.94
393.208	81.94
393.433	73.94
393.658	85.94
393.882	84.94
394.107	81.94
394.331	85.94
394.556	92.94
394.78	91.94
395.005	83.94
395.229	90.94
395.454	88.94
395.678	58.94
395.903	88.94
396.127	81.94
396.352	84.94
396.576	80.94
396.801	89.94
397.025	86.94
397.249	82.94
397.474	91.94
397.698	86.94
397.922	81.94
398.147	86.94
398.371	85.94
398.595	80.94
398.82	83.94
399.044	92.94
399.268	86.94
399.492	89.94
399.717	76.94
399.941	87.94
400.165	89.94
400.389	74.94
400.613	94.94
400.837	92.94
401.062	90.94
401.286	104.94
401.51	76.94
401.734	66.94
401.958	94.94
402.182	119.94
402.406	116.94
402.63	113.94
402.854	87.94
403.078	100.94
403.302	89.94
403.526	80.94
403.75	71.94
403.974	82.94
404.198	85.94
404.422	82.94
404.645	94.94
404.869	85.94
405.093	95.94
405.317	100.94
405.541	109.94
405.765	90.94
405.988	93.94
406.212	138.94
406.436	181.94
406.66	137.94
406.883	92.94
407.107	69.94
407.331	92.94
407.555	74.94
407.778	77.94
408.002	77.94
408.226	85.94
408.449	84.94
408.673	88.94
408.896	85.94
409.12	88.94
409.344	89.94
409.567	83.94
409.791	96.94
410.014	96.94
410.238	91.94
410.461	82.94
410.685	85.94
410.908	96.94
411.132	98.94
411.355	92.94
411.578	89.94
411.802	88.94
412.025	75.94
412.249	88.94
412.472	95.94
412.695	99.94
412.919	96.94
413.142	80.94
413.365	74.94
413.589	92.94
413.812	73.94
414.035	89.94
414.258	96.94
414.482	94.94
414.705	78.94
414.928	84.94
415.151	103.94
415.374	97.94
415.597	99.94
415.821	85.94
416.044	95.94
416.267	83.94
416.49	89.94
416.713	89.94
416.936	96.94
417.159	91.94
417.382	67.94
417.605	96.94
417.828	87.94
418.051	97.94
418.274	93.94
418.497	85.94
418.72	91.94
418.943	101.94
419.166	90.94
419.389	82.94
419.611	95.94
419.834	92.94
420.057	96.94
420.28	91.94
420.503	81.94
420.726	80.94
420.948	79.94
421.171	76.94
421.394	80.94
421.617	75.94
421.839	74.94
422.062	86.94
422.285	91.94
422.507	98.94
422.73	88.94
422.953	91.94
423.175	75.94
423.398	77.94
423.621	75.94
423.843	75.94
424.066	81.94
424.288	82.94
424.511	70.94
424.733	111.94
424.956	91.94
425.178	102.94
425.401	94.94
425.623	90.94
425.846	78.94
426.068	91.94
426.291	84.94
426.513	89.94
426.735	74.94
426.958	97.94
427.18	95.94
427.402	121.94
427.625	150.94
427.847	144.94
428.069	134.94
428.292	76.94
428.514	89.94
428.736	90.94
428.958	81.94
429.181	92.94
429.403	80.94
429.625	82.94
429.847	97.94
430.069	91.94
430.292	92.94
430.514	81.94
430.736	83.94
430.958	67.94
431.18	88.94
431.402	67.94
431.624	78.94
431.846	84.94
432.068	80.94
432.29	96.94
432.512	73.94
432.734	82.94
432.956	80.94
433.178	82.94
433.4	97.94
433.622	89.94
433.844	97.94
434.066	104.94
434.287	101.94
434.509	85.94
434.731	76.94
434.953	78.94
435.175	74.94
435.397	87.94
435.618	89.94
435.84	120.94
436.062	107.94
436.284	99.94
436.505	96.94
436.727	105.94
436.949	101.94
437.17	79.94
437.392	88.94
437.614	78.94
437.835	96.94
438.057	98.94
438.278	106.94
438.5	106.94
438.721	101.94
438.943	108.94
439.165	86.94
439.386	76.94
439.608	83.94
439.829	84.94
440.05	101.94
440.272	122.94
440.493	76.94
440.715	87.94
440.936	85.94
441.158	80.94
441.379	89.94
441.6	80.94
441.822	81.94
442.043	84.94
442.264	90.94
442.486	86.94
442.707	95.94
442.928	95.94
443.149	122.94
443.371	113.94
443.592	107.94
443.813	102.94
444.034	98.94
444.255	73.94
444.476	76.94
444.698	93.94
444.919	76.94
445.14	137.94
445.361	121.94
445.582	111.94
445.803	116.94
446.024	127.94
446.245	105.94
446.466	107.94
446.687	92.94
446.908	87.94
447.129	93.94
447.35	97.94
447.571	84.94
447.792	96.94
448.013	85.94
448.234	100.94
448.455	97.94
448.675	106.94
448.896	113.94
449.117	100.94
449.338	110.94
449.559	110.94
449.779	107.94
450	83.94
450.221	94.94
450.442	85.94
450.662	77.94
450.883	92.94
451.104	93.94
451.324	77.94
451.545	77.94
451.766	95.94
451.986	74.94
452.207	81.94
452.428	77.94
452.648	100.94
452.869	92.94
453.089	113.94
453.31	109.94
453.53	97.94
453.751	107.94
453.971	91.94
454.192	97.94
454.412	86.94
454.633	77.94
454.853	88.94
455.073	88.94
455.294	85.94
455.514	89.94
455.734	86.94
455.955	88.94
456.175	87.94
456.395	76.94
456.616	93.94
456.836	74.94
457.056	83.94
457.276	80.94
457.497	85.94
457.717	90.94
457.937	82.94
458.157	74.94
458.377	76.94
458.598	104.94
458.818	139.94
459.038	120.94
459.258	109.94
459.478	85.94
459.698	88.94
459.918	98.94
460.138	85.94
460.358	78.94
460.578	87.94
460.798	78.94
461.018	86.94
461.238	91.94
461.458	99.94
461.678	89.94
461.898	94.94
462.118	84.94
462.338	83.94
462.558	88.94
462.777	83.94
462.997	76.94
463.217	81.94
463.437	77.94
463.657	82.94
463.876	84.94
464.096	100.94
464.316	96.94
464.536	99.94
464.755	84.94
464.975	100.94
465.195	160.94
465.414	140.94
465.634	91.94
465.854	84.94
466.073	88.94
466.293	91.94
466.512	86.94
466.732	78.94
466.951	93.94
467.171	75.94
467.391	68.94
467.61	88.94
467.829	115.94
468.049	179.94
468.268	228.94
468.488	108.94
468.707	85.94
468.927	98.94
469.146	87.94
469.365	82.94
469.585	90.94
469.804	88.94
470.023	85.94
470.243	80.94
470.462	90.94
470.681	97.94
470.901	73.94
471.12	90.94
471.339	88.94
471.558	88.94
471.777	109.94
471.997	115.94
472.216	295.94
472.435	570.94
472.654	202.94
472.873	96.94
473.092	86.94
473.311	94.94
473.53	89.94
473.749	84.94
473.968	93.94
474.187	99.94
474.406	84.94
474.625	89.94
474.844	100.94
475.063	94.94
475.282	79.94
475.501	77.94
475.72	78.94
475.939	79.94
476.158	79.94
476.377	88.94
476.596	87.94
476.814	92.94
477.033	94.94
477.252	99.94
477.471	83.94
477.69	80.94
477.908	83.94
478.127	97.94
478.346	80.94
478.564	86.94
478.783	88.94
479.002	88.94
479.22	75.94
479.439	88.94
479.658	105.94
479.876	89.94
480.095	90.94
480.313	93.94
480.532	95.94
480.751	124.94
480.969	301.94
481.188	976.94
481.406	570.94
481.624	137.94
481.843	85.94
482.061	81.94
482.28	102.94
482.498	91.94
482.717	101.94
482.935	81.94
483.153	82.94
483.372	99.94
483.59	85.94
483.808	97.94
484.027	84.94
484.245	100.94
484.463	83.94
484.681	93.94
484.9	86.94
485.118	89.94
485.336	84.94
485.554	78.94
485.772	102.94
485.99	102.94
486.209	105.94
486.427	103.94
486.645	84.94
486.863	110.94
487.081	88.94
487.299	91.94
487.517	94.94
487.735	75.94
487.953	82.94
488.171	75.94
488.389	72.94
488.607	92.94
488.825	96.94
489.043	76.94
489.261	90.94
489.479	85.94
489.696	72.94
489.914	84.94
490.132	87.94
490.35	94.94
490.568	93.94
490.786	83.94
491.003	77.94
491.221	83.94
491.439	92.94
491.657	93.94
491.874	81.94
492.092	93.94
492.31	92.94
492.527	80.94
492.745	99.94
492.963	92.94
493.18	94.94
493.398	88.94
493.615	82.94
493.833	81.94
494.05	106.94
494.268	102.94
494.485	77.94
494.703	82.94
494.92	84.94
495.138	85.94
495.355	81.94
495.573	95.94
495.79	90.94
496.008	97.94
496.225	102.94
496.442	78.94
496.66	80.94
496.877	92.94
497.094	91.94
497.312	85.94
497.529	72.94
497.746	82.94
497.963	94.94
498.181	88.94
498.398	86.94
498.615	85.94
498.832	99.94
499.049	83.94
499.267	97.94
499.484	87.94
499.701	93.94
499.918	93.94
500.135	102.94
500.352	85.94
500.569	75.94
500.786	91.94
501.003	82.94
501.22	94.94
501.437	89.94
501.654	87.94
501.871	110.94
502.088	88.94
502.305	99.94
502.522	88.94
502.739	93.94
502.956	89.94
503.172	96.94
503.389	94.94
503.606	99.94
503.823	85.94
504.04	98.94
504.256	74.94
504.473	75.94
504.69	86.94
504.907	82.94
505.123	89.94
505.34	84.94
505.557	82.94
505.773	82.94
505.99	73.94
506.207	74.94
506.423	91.94
506.64	88.94
506.856	77.94
507.073	92.94
507.289	80.94
507.506	101.94
507.722	109.94
507.939	105.94
508.155	85.94
508.372	97.94
508.588	85.94
508.805	87.94
509.021	94.94
509.238	99.94
509.454	89.94
509.67	79.94
509.887	95.94
510.103	117.94
510.319	186.94
510.536	605.94
510.752	1785.94
510.968	502.94
511.184	138.94
511.401	97.94
511.617	105.94
511.833	76.94
512.049	82.94
512.265	101.94
512.481	87.94
512.698	85.94
512.914	89.94
513.13	73.94
513.346	98.94
513.562	86.94
513.778	86.94
513.994	102.94
514.21	99.94
514.426	103.94
514.642	113.94
514.858	110.94
515.074	130.94
515.29	367.94
515.506	1144.94
515.721	416.94
515.937	118.94
516.153	95.94
516.369	95.94
516.585	94.94
