Data from Circ_1990_H10_HRD10591_00092.txt Node
Date: Wed Jan 03 11:55:22 EST 2024
User: Yrep
Spectrometer: HR+D1059
Trigger mode: 1
Integration Time (sec): 1.000000E-1
Scans to average: 1
Electric dark correction enabled: true
Nonlinearity correction enabled: false
Boxcar width: 0
XAxis mode: Wavelengths
Number of Pixels in Spectrum: 2048
>>>>>Begin Spectral Data<<<<<
223.165	-24.69
223.4	-24.69
223.635	-24.69
223.869	-19.69
224.104	-18.69
224.338	-18.69
224.573	-11.69
224.808	-16.69
225.042	-5.69
225.277	-12.69
225.511	1.31
225.746	-3.69
225.98	8.31
226.215	18.31
226.449	13.31
226.683	22.31
226.918	34.31
227.152	34.31
227.387	44.31
227.621	45.31
227.856	57.31
228.09	54.31
228.324	44.31
228.559	63.31
228.793	149.31
229.027	438.31
229.262	530.31
229.496	593.31
229.73	797.31
229.964	812.31
230.199	563.31
230.433	489.31
230.667	483.31
230.901	483.31
231.136	454.31
231.37	457.31
231.604	455.31
231.838	458.31
232.072	470.31
232.306	503.31
232.541	480.31
232.775	467.31
233.009	482.31
233.243	479.31
233.477	488.31
233.711	502.31
233.945	513.31
234.179	506.31
234.413	526.31
234.647	509.31
234.881	523.31
235.115	562.31
235.349	570.31
235.583	564.31
235.817	606.31
236.051	646.31
236.285	629.31
236.519	625.31
236.753	689.31
236.987	915.31
237.221	1344.31
237.455	1455.31
237.689	859.31
237.922	732.31
238.156	729.31
238.39	692.31
238.624	711.31
238.858	682.31
239.091	672.31
239.325	701.31
239.559	674.31
239.793	731.31
240.027	788.31
240.26	941.31
240.494	974.31
240.728	991.31
240.961	926.31
241.195	810.31
241.429	832.31
241.662	794.31
241.896	814.31
242.13	827.31
242.363	836.31
242.597	844.31
242.83	879.31
243.064	904.31
243.298	897.31
243.531	902.31
243.765	925.31
243.998	914.31
244.232	919.31
244.465	940.31
244.699	976.31
244.932	963.31
245.166	978.31
245.399	976.31
245.633	961.31
245.866	991.31
246.099	1000.31
246.333	990.31
246.566	999.31
246.8	1020.31
247.033	1048.31
247.266	1103.31
247.5	1136.31
247.733	1238.31
247.966	1214.31
248.2	1196.31
248.433	1234.31
248.666	1282.31
248.899	1420.31
249.133	1490.31
249.366	1518.31
249.599	1451.31
249.832	1434.31
250.066	1578.31
250.299	1962.31
250.532	2517.31
250.765	2501.31
250.998	2215.31
251.231	1948.31
251.465	1679.31
251.698	1578.31
251.931	1556.31
252.164	1525.31
252.397	1516.31
252.63	1569.31
252.863	1637.31
253.096	1723.31
253.329	1770.31
253.562	1715.31
253.795	1641.31
254.028	1631.31
254.261	1727.31
254.494	1907.31
254.727	2224.31
254.96	2304.31
255.193	2130.31
255.426	2139.31
255.659	2451.31
255.892	3382.31
256.124	4362.31
256.357	3648.31
256.59	2732.31
256.823	2258.31
257.056	2068.31
257.289	1955.31
257.521	1861.31
257.754	1866.31
257.987	1754.31
258.22	1756.31
258.452	1722.31
258.685	1724.31
258.918	1732.31
259.151	1775.31
259.383	1822.31
259.616	1822.31
259.849	1858.31
260.081	2026.31
260.314	2129.31
260.547	2024.31
260.779	1917.31
261.012	1944.31
261.244	1802.31
261.477	1783.31
261.71	1781.31
261.942	1835.31
262.175	1866.31
262.407	1838.31
262.64	1767.31
262.872	1783.31
263.105	1727.31
263.337	1762.31
263.57	1780.31
263.802	1749.31
264.035	1757.31
264.267	1754.31
264.499	1715.31
264.732	1770.31
264.964	1820.31
265.197	1795.31
265.429	1822.31
265.661	1802.31
265.894	1849.31
266.126	1882.31
266.358	1887.31
266.591	1853.31
266.823	2003.31
267.055	1998.31
267.287	1957.31
267.52	1898.31
267.752	1911.31
267.984	1939.31
268.216	1999.31
268.448	2038.31
268.681	2117.31
268.913	2160.31
269.145	2375.31
269.377	2381.31
269.609	2293.31
269.841	2258.31
270.073	2366.31
270.306	2623.31
270.538	2743.31
270.77	2614.31
271.002	2475.31
271.234	2453.31
271.466	2624.31
271.698	2717.31
271.93	2708.31
272.162	2733.31
272.394	2676.31
272.626	2546.31
272.858	2405.31
273.09	2372.31
273.322	2348.31
273.553	2334.31
273.785	2299.31
274.017	2353.31
274.249	2399.31
274.481	2375.31
274.713	2362.31
274.945	2443.31
275.176	2435.31
275.408	2458.31
275.64	2490.31
275.872	2519.31
276.104	2500.31
276.335	2565.31
276.567	2636.31
276.799	2791.31
277.031	3095.31
277.262	3269.31
277.494	3073.31
277.726	2854.31
277.957	2755.31
278.189	2653.31
278.421	2625.31
278.652	2551.31
278.884	2604.31
279.115	2552.31
279.347	2628.31
279.579	2655.31
279.81	2716.31
280.042	2843.31
280.273	2990.31
280.505	2894.31
280.736	2691.31
280.968	2704.31
281.199	2626.31
281.431	2712.31
281.662	2703.31
281.894	2626.31
282.125	2728.31
282.356	2839.31
282.588	2994.31
282.819	2809.31
283.051	2734.31
283.282	2690.31
283.513	2685.31
283.745	2751.31
283.976	2811.31
284.207	2788.31
284.439	2774.31
284.67	2722.31
284.901	2714.31
285.132	2748.31
285.364	2754.31
285.595	2792.31
285.826	2784.31
286.057	2851.31
286.288	2815.31
286.52	2808.31
286.751	2791.31
286.982	2889.31
287.213	2839.31
287.444	2845.31
287.675	2946.31
287.906	3050.31
288.138	3083.31
288.369	3040.31
288.6	3042.31
288.831	2990.31
289.062	2959.31
289.293	2989.31
289.524	2966.31
289.755	2948.31
289.986	2913.31
290.217	2952.31
290.448	2957.31
290.679	2862.31
290.91	2882.31
291.141	2951.31
291.371	2941.31
291.602	2898.31
291.833	2898.31
292.064	2913.31
292.295	2937.31
292.526	2936.31
292.757	2931.31
292.987	2855.31
293.218	2894.31
293.449	2929.31
293.68	2911.31
293.91	2954.31
294.141	2929.31
294.372	2914.31
294.603	2962.31
294.833	3000.31
295.064	2947.31
295.295	2952.31
295.525	2933.31
295.756	3046.31
295.987	3118.31
296.217	3350.31
296.448	3189.31
296.679	3097.31
296.909	3055.31
297.14	3052.31
297.37	3151.31
297.601	3171.31
297.831	3152.31
298.062	3137.31
298.292	3197.31
298.523	3215.31
298.753	3204.31
298.984	3195.31
299.214	3186.31
299.445	3199.31
299.675	3191.31
299.905	3278.31
300.136	3214.31
300.366	3239.31
300.597	3277.31
300.827	3320.31
301.057	3404.31
301.288	3454.31
301.518	3412.31
301.748	3472.31
301.979	3511.31
302.209	3494.31
302.439	3473.31
302.669	3441.31
302.9	3432.31
303.13	3431.31
303.36	3444.31
303.59	3507.31
303.82	3625.31
304.051	3514.31
304.281	3392.31
304.511	3369.31
304.741	3414.31
304.971	3372.31
305.201	3372.31
305.431	3422.31
305.661	3394.31
305.891	3422.31
306.121	3383.31
306.352	3466.31
306.582	3418.31
306.812	3385.31
307.042	3411.31
307.272	3571.31
307.502	3641.31
307.731	3542.31
307.961	3522.31
308.191	3458.31
308.421	3449.31
308.651	3423.31
308.881	3406.31
309.111	3494.31
309.341	3495.31
309.571	3576.31
309.8	3659.31
310.03	3660.31
310.26	3729.31
310.49	3717.31
310.72	3845.31
310.949	3904.31
311.179	3856.31
311.409	3757.31
311.639	3710.31
311.868	3791.31
312.098	3783.31
312.328	3840.31
312.557	3996.31
312.787	4130.31
313.017	3986.31
313.246	3920.31
313.476	3835.31
313.706	3864.31
313.935	3972.31
314.165	4114.31
314.394	4075.31
314.624	4032.31
314.853	3860.31
315.083	3878.31
315.312	3872.31
315.542	3845.31
315.771	3769.31
316.001	3770.31
316.23	3854.31
316.46	3841.31
316.689	3884.31
316.919	3950.31
317.148	3995.31
317.377	3914.31
317.607	3908.31
317.836	3855.31
318.065	3842.31
318.295	3862.31
318.524	3839.31
318.753	3840.31
318.983	3862.31
319.212	3796.31
319.441	3932.31
319.67	3907.31
319.9	3874.31
320.129	3874.31
320.358	3882.31
320.587	3877.31
320.816	3932.31
321.046	3988.31
321.275	4011.31
321.504	3985.31
321.733	4106.31
321.962	4107.31
322.191	4150.31
322.42	4310.31
322.649	4395.31
322.878	4434.31
323.108	4532.31
323.337	4831.31
323.566	4960.31
323.795	5226.31
324.024	5756.31
324.253	7592.31
324.482	11374.31
324.71	15533.31
324.939	15624.31
325.168	13334.31
325.397	6813.31
325.626	5537.31
325.855	5148.31
326.084	5152.31
326.313	5163.31
326.542	5308.31
326.77	6028.31
326.999	7592.31
327.228	11004.31
327.457	14893.31
327.686	14326.31
327.914	8719.31
328.143	8077.31
328.372	8373.31
328.6	7175.31
328.829	6432.31
329.058	6545.31
329.287	6651.31
329.515	6618.31
329.744	7136.31
329.972	8650.31
330.201	11011.31
330.43	12042.31
330.658	9184.31
330.887	7694.31
331.115	6695.31
331.344	5943.31
331.572	5797.31
331.801	5807.31
332.03	5829.31
332.258	5788.31
332.486	5830.31
332.715	5918.31
332.943	6227.31
333.172	6442.31
333.4	6942.31
333.629	7505.31
333.857	8356.31
334.085	9930.31
334.314	12550.31
334.542	14612.31
334.771	13810.31
334.999	9141.31
335.227	7283.31
335.455	6527.31
335.684	6094.31
335.912	5861.31
336.14	5678.31
336.369	5552.31
336.597	5528.31
336.825	5466.31
337.053	5309.31
337.281	5210.31
337.51	5023.31
337.738	5103.31
337.966	5008.31
338.194	5051.31
338.422	4953.31
338.65	4833.31
338.878	4786.31
339.106	4738.31
339.334	4705.31
339.562	4675.31
339.79	4621.31
340.018	4623.31
340.246	4579.31
340.474	4604.31
340.702	4594.31
340.93	4589.31
341.158	4578.31
341.386	4550.31
341.614	4536.31
341.842	4508.31
342.07	4531.31
342.298	4442.31
342.526	4460.31
342.754	4410.31
342.981	4372.31
343.209	4464.31
343.437	4712.31
343.665	5014.31
343.893	5224.31
344.12	5229.31
344.348	5031.31
344.576	4876.31
344.804	4846.31
345.031	4785.31
345.259	4696.31
345.487	4590.31
345.714	4488.31
345.942	4346.31
346.17	4360.31
346.397	4287.31
346.625	4325.31
346.853	4260.31
347.08	4234.31
347.308	4327.31
347.535	4446.31
347.763	4450.31
347.99	4342.31
348.218	4403.31
348.445	4424.31
348.673	4283.31
348.9	4306.31
349.128	4222.31
349.355	4155.31
349.583	4251.31
349.81	4201.31
350.037	4193.31
350.265	4139.31
350.492	4192.31
350.72	4154.31
350.947	4203.31
351.174	4291.31
351.402	4238.31
351.629	4278.31
351.856	4251.31
352.083	4349.31
352.311	4311.31
352.538	4294.31
352.765	4334.31
352.992	4270.31
353.22	4172.31
353.447	4219.31
353.674	4165.31
353.901	4035.31
354.128	4106.31
354.355	4020.31
354.583	4091.31
354.81	4079.31
355.037	4012.31
355.264	3972.31
355.491	4019.31
355.718	4084.31
355.945	4042.31
356.172	4045.31
356.399	4064.31
356.626	4061.31
356.853	4047.31
357.08	4026.31
357.307	3955.31
357.534	4011.31
357.761	4054.31
357.988	4090.31
358.215	4028.31
358.441	4098.31
358.668	4064.31
358.895	4118.31
359.122	4109.31
359.349	4136.31
359.576	4342.31
359.802	4618.31
360.029	4705.31
360.256	4670.31
360.483	4483.31
360.709	4268.31
360.936	4254.31
361.163	4225.31
361.39	4314.31
361.616	4355.31
361.843	4238.31
362.07	4272.31
362.296	4291.31
362.523	4245.31
362.749	4259.31
362.976	4155.31
363.203	4172.31
363.429	4099.31
363.656	4213.31
363.882	4160.31
364.109	4096.31
364.335	4133.31
364.562	4062.31
364.788	4095.31
365.015	4213.31
365.241	4114.31
365.468	4158.31
365.694	4166.31
365.92	4187.31
366.147	4166.31
366.373	4156.31
366.599	4185.31
366.826	4158.31
367.052	4142.31
367.278	4136.31
367.505	4169.31
367.731	4208.31
367.957	4158.31
368.184	4218.31
368.41	4262.31
368.636	4305.31
368.862	4310.31
369.089	4247.31
369.315	4245.31
369.541	4205.31
369.767	4259.31
369.993	4267.31
370.219	4328.31
370.445	4255.31
370.672	4298.31
370.898	4300.31
371.124	4386.31
371.35	4404.31
371.576	4366.31
371.802	4335.31
372.028	4332.31
372.254	4390.31
372.48	4450.31
372.706	4461.31
372.932	4522.31
373.158	4494.31
373.384	4467.31
373.61	4431.31
373.835	4454.31
374.061	4479.31
374.287	4533.31
374.513	4586.31
374.739	4642.31
374.965	4799.31
375.191	4784.31
375.416	4725.31
375.642	4533.31
375.868	4534.31
376.094	4478.31
376.319	4416.31
376.545	4399.31
376.771	4358.31
376.997	4374.31
377.222	4415.31
377.448	4375.31
377.674	4295.31
377.899	4266.31
378.125	4245.31
378.35	4259.31
378.576	4314.31
378.802	4292.31
379.027	4314.31
379.253	4340.31
379.478	4284.31
379.704	4287.31
379.929	4375.31
380.155	4418.31
380.38	4317.31
380.606	4404.31
380.831	4316.31
381.057	4420.31
381.282	4341.31
381.507	4390.31
381.733	4445.31
381.958	4452.31
382.184	4498.31
382.409	4532.31
382.634	4561.31
382.86	4602.31
383.085	4670.31
383.31	4702.31
383.535	4778.31
383.761	4830.31
383.986	4916.31
384.211	5006.31
384.436	5084.31
384.662	5167.31
384.887	5182.31
385.112	5158.31
385.337	5189.31
385.562	5245.31
385.787	5205.31
386.013	5299.31
386.238	5362.31
386.463	5342.31
386.688	5298.31
386.913	5164.31
387.138	5218.31
387.363	5195.31
387.588	5154.31
387.813	5111.31
388.038	5189.31
388.263	5198.31
388.488	5231.31
388.713	5179.31
388.938	5225.31
389.163	5143.31
389.387	5150.31
389.612	5123.31
389.837	5064.31
390.062	5068.31
390.287	5118.31
390.512	5145.31
390.736	5214.31
390.961	5297.31
391.186	5339.31
391.411	5442.31
391.636	5646.31
391.86	5783.31
392.085	5888.31
392.31	5679.31
392.534	5606.31
392.759	5566.31
392.984	5440.31
393.208	5367.31
393.433	5376.31
393.658	5355.31
393.882	5336.31
394.107	5424.31
394.331	5434.31
394.556	5415.31
394.78	5566.31
395.005	5560.31
395.229	5510.31
395.454	5690.31
395.678	5855.31
395.903	5920.31
396.127	5880.31
396.352	5700.31
396.576	5569.31
396.801	5553.31
397.025	5628.31
397.249	5729.31
397.474	5870.31
397.698	5857.31
397.922	5983.31
398.147	6051.31
398.371	6172.31
398.595	6366.31
398.82	6627.31
399.044	7096.31
399.268	7808.31
399.492	8844.31
399.717	9498.31
399.941	9356.31
400.165	8611.31
400.389	8061.31
400.613	7233.31
400.837	6859.31
401.062	6778.31
401.286	6600.31
401.51	6503.31
401.734	6514.31
401.958	6746.31
402.182	6733.31
402.406	6868.31
402.63	6923.31
402.854	7023.31
403.078	7101.31
403.302	7268.31
403.526	7362.31
403.75	7401.31
403.974	7520.31
404.198	7630.31
404.422	7776.31
404.645	7745.31
404.869	7998.31
405.093	8629.31
405.317	9283.31
405.541	9109.31
405.765	8100.31
405.988	7771.31
406.212	7766.31
406.436	7834.31
406.66	7834.31
406.883	7731.31
407.107	8346.31
407.331	8839.31
407.555	9360.31
407.778	9095.31
408.002	8360.31
408.226	7909.31
408.449	7834.31
408.673	7755.31
408.896	7803.31
409.12	8000.31
409.344	7608.31
409.567	7237.31
409.791	7287.31
410.014	7110.31
410.238	7074.31
410.461	7143.31
410.685	7138.31
410.908	7267.31
411.132	7481.31
411.355	7517.31
411.578	7118.31
411.802	7139.31
412.025	7324.31
412.249	7751.31
412.472	8399.31
412.695	8953.31
412.919	8209.31
413.142	7674.31
413.365	7330.31
413.589	7041.31
413.812	6920.31
414.035	6665.31
414.258	6719.31
414.482	6780.31
414.705	6812.31
414.928	6615.31
415.151	6597.31
415.374	6652.31
415.597	6455.31
415.821	6407.31
416.044	6592.31
416.267	6420.31
416.49	6361.31
416.713	6284.31
416.936	6503.31
417.159	6522.31
417.382	6627.31
417.605	6818.31
417.828	6863.31
418.051	6810.31
418.274	6666.31
418.497	6557.31
418.72	6710.31
418.943	6652.31
419.166	7106.31
419.389	7421.31
419.611	7538.31
419.834	7395.31
420.057	7525.31
420.28	7905.31
420.503	7634.31
420.726	7404.31
420.948	7299.31
421.171	7536.31
421.394	7271.31
421.617	6871.31
421.839	6733.31
422.062	6750.31
422.285	6948.31
422.507	7488.31
422.73	8086.31
422.953	7446.31
423.175	7023.31
423.398	7086.31
423.621	7098.31
423.843	7316.31
424.066	7215.31
424.288	7135.31
424.511	7355.31
424.733	7856.31
424.956	8256.31
425.178	7747.31
425.401	7931.31
425.623	7749.31
425.846	6800.31
426.068	6648.31
426.291	6527.31
426.513	6627.31
426.735	6709.31
426.958	7179.31
427.18	8033.31
427.402	9221.31
427.625	9636.31
427.847	8880.31
428.069	8538.31
428.292	7279.31
428.514	6467.31
428.736	6168.31
428.958	6170.31
429.181	6002.31
429.403	5913.31
429.625	6056.31
429.847	6437.31
430.069	6882.31
430.292	6437.31
430.514	5964.31
430.736	5910.31
430.958	5822.31
431.18	5724.31
431.402	5696.31
431.624	5744.31
431.846	5809.31
432.068	5763.31
432.29	5934.31
432.512	5727.31
432.734	5855.31
432.956	5780.31
433.178	5843.31
433.4	5899.31
433.622	5800.31
433.844	5858.31
434.066	5815.31
434.287	5932.31
434.509	6172.31
434.731	6405.31
434.953	6490.31
435.175	6602.31
435.397	6720.31
435.618	6673.31
435.84	7005.31
436.062	7836.31
436.284	7748.31
436.505	6565.31
436.727	6282.31
436.949	6056.31
437.17	5868.31
437.392	5778.31
437.614	6014.31
437.835	6380.31
438.057	7412.31
438.278	8059.31
438.5	7902.31
438.721	8708.31
438.943	7596.31
439.165	6433.31
439.386	6256.31
439.608	6254.31
439.829	6472.31
440.05	6818.31
440.272	7158.31
440.493	6481.31
440.715	6182.31
440.936	6124.31
441.158	6158.31
441.379	6286.31
441.6	6654.31
441.822	6746.31
442.043	7218.31
442.264	8021.31
442.486	7778.31
442.707	6917.31
442.928	6748.31
443.149	7025.31
443.371	7208.31
443.592	7687.31
443.813	8726.31
444.034	8568.31
444.255	7438.31
444.476	7254.31
444.698	7512.31
444.919	7556.31
445.14	7531.31
445.361	7362.31
445.582	7481.31
445.803	8152.31
446.024	8863.31
446.245	8383.31
446.466	7442.31
446.687	6486.31
446.908	6167.31
447.129	5860.31
447.35	5666.31
447.571	5701.31
447.792	5593.31
448.013	5648.31
448.234	5857.31
448.455	6529.31
448.675	7723.31
448.896	8175.31
449.117	6743.31
449.338	6941.31
449.559	8233.31
449.779	8429.31
450	6387.31
450.221	5790.31
450.442	5595.31
450.662	5537.31
450.883	5633.31
451.104	5773.31
451.324	5505.31
451.545	5379.31
451.766	5274.31
451.986	5142.31
452.207	5120.31
452.428	5152.31
452.648	5062.31
452.869	5140.31
453.089	5224.31
453.31	5334.31
453.53	5181.31
453.751	5036.31
453.971	5132.31
454.192	5255.31
454.412	5013.31
454.633	4962.31
454.853	4976.31
455.073	5044.31
455.294	5364.31
455.514	5948.31
455.734	5365.31
455.955	4873.31
456.175	4744.31
456.395	4769.31
456.616	4677.31
456.836	4691.31
457.056	4765.31
457.276	4626.31
457.497	4826.31
457.717	4817.31
457.937	4926.31
458.157	4954.31
458.377	5040.31
458.598	5398.31
458.818	6088.31
459.038	6884.31
459.258	6698.31
459.478	6000.31
459.698	5802.31
459.918	5933.31
460.138	6124.31
460.358	6306.31
460.578	6435.31
460.798	6404.31
461.018	6419.31
461.238	6279.31
461.458	6243.31
461.678	6268.31
461.898	6444.31
462.118	6423.31
462.338	6779.31
462.558	6861.31
462.777	7136.31
462.997	7742.31
463.217	8080.31
463.437	7952.31
463.657	7423.31
463.876	7229.31
464.096	7258.31
464.316	7311.31
464.536	7293.31
464.755	7074.31
464.975	6917.31
465.195	7206.31
465.414	7272.31
465.634	6345.31
465.854	5991.31
466.073	5782.31
466.293	5582.31
466.512	5480.31
466.732	5379.31
466.951	5378.31
467.171	5410.31
467.391	5415.31
467.61	5578.31
467.829	5821.31
468.049	6397.31
468.268	7065.31
468.488	6015.31
468.707	5575.31
468.927	5380.31
469.146	5336.31
469.365	5380.31
469.585	5307.31
469.804	5481.31
470.023	5599.31
470.243	5652.31
470.462	5834.31
470.681	5885.31
470.901	5693.31
471.12	5608.31
471.339	5673.31
471.558	5587.31
471.777	5748.31
471.997	5995.31
472.216	7952.31
472.435	11424.31
472.654	8635.31
472.873	6714.31
473.092	6150.31
473.311	5844.31
473.53	5704.31
473.749	5757.31
473.968	6155.31
474.187	7151.31
474.406	6524.31
474.625	5634.31
474.844	5396.31
475.063	5368.31
475.282	5310.31
475.501	5418.31
475.72	5424.31
475.939	5351.31
476.158	5419.31
476.377	5483.31
476.596	5454.31
476.814	5624.31
477.033	5602.31
477.252	5763.31
477.471	5801.31
477.69	5942.31
477.908	6016.31
478.127	6170.31
478.346	6268.31
478.564	6331.31
478.783	6412.31
479.002	6569.31
479.22	6684.31
479.439	6731.31
479.658	6924.31
479.876	7002.31
480.095	7218.31
480.313	7728.31
480.532	7813.31
480.751	8073.31
480.969	9927.31
481.188	14980.31
481.406	14878.31
481.624	10475.31
481.843	8724.31
482.061	8010.31
482.28	7427.31
482.498	7128.31
482.717	6888.31
482.935	6700.31
483.153	6555.31
483.372	6576.31
483.59	6448.31
483.808	6444.31
484.027	6427.31
484.245	6386.31
484.463	6526.31
484.681	6567.31
484.9	6609.31
485.118	6599.31
485.336	6584.31
485.554	6662.31
485.772	6667.31
485.99	6734.31
486.209	6782.31
486.427	6789.31
486.645	6773.31
486.863	6991.31
487.081	6891.31
487.299	6799.31
487.517	6812.31
487.735	6741.31
