Data from Circ_1990_H10_HRD10591_00046.txt Node
Date: Wed Jan 03 11:55:13 EST 2024
User: Yrep
Spectrometer: HR+D1059
Trigger mode: 1
Integration Time (sec): 1.000000E-1
Scans to average: 1
Electric dark correction enabled: true
Nonlinearity correction enabled: false
Boxcar width: 0
XAxis mode: Wavelengths
Number of Pixels in Spectrum: 2048
>>>>>Begin Spectral Data<<<<<
223.165	-16.25
223.4	-16.25
223.635	-16.25
223.869	-20.25
224.104	-26.25
224.338	-15.25
224.573	-7.25
224.808	-6.25
225.042	-2.25
225.277	-3.25
225.511	2.75
225.746	-7.25
225.98	4.75
226.215	1.75
226.449	17.75
226.683	13.75
226.918	32.75
227.152	30.75
227.387	31.75
227.621	54.75
227.856	27.75
228.09	35.75
228.324	51.75
228.559	52.75
228.793	59.75
229.027	59.75
229.262	76.75
229.496	65.75
229.73	92.75
229.964	94.75
230.199	72.75
230.433	72.75
230.667	89.75
230.901	70.75
231.136	84.75
231.37	83.75
231.604	82.75
231.838	94.75
232.072	86.75
232.306	75.75
232.541	75.75
232.775	78.75
233.009	72.75
233.243	75.75
233.477	91.75
233.711	63.75
233.945	83.75
234.179	83.75
234.413	69.75
234.647	82.75
234.881	82.75
235.115	67.75
235.349	78.75
235.583	78.75
235.817	77.75
236.051	93.75
236.285	80.75
236.519	78.75
236.753	82.75
236.987	96.75
237.221	81.75
237.455	91.75
237.689	100.75
237.922	72.75
238.156	84.75
238.39	64.75
238.624	75.75
238.858	87.75
239.091	80.75
239.325	87.75
239.559	105.75
239.793	93.75
240.027	85.75
240.26	72.75
240.494	77.75
240.728	59.75
240.961	84.75
241.195	79.75
241.429	77.75
241.662	69.75
241.896	78.75
242.13	77.75
242.363	79.75
242.597	69.75
242.83	72.75
243.064	91.75
243.298	83.75
243.531	79.75
243.765	81.75
243.998	89.75
244.232	78.75
244.465	84.75
244.699	75.75
244.932	62.75
245.166	75.75
245.399	83.75
245.633	86.75
245.866	80.75
246.099	77.75
246.333	62.75
246.566	70.75
246.8	82.75
247.033	88.75
247.266	84.75
247.5	73.75
247.733	95.75
247.966	68.75
248.2	80.75
248.433	81.75
248.666	89.75
248.899	89.75
249.133	98.75
249.366	107.75
249.599	107.75
249.832	92.75
250.066	105.75
250.299	90.75
250.532	96.75
250.765	92.75
250.998	88.75
251.231	83.75
251.465	81.75
251.698	68.75
251.931	71.75
252.164	80.75
252.397	79.75
252.63	81.75
252.863	89.75
253.096	87.75
253.329	77.75
253.562	82.75
253.795	82.75
254.028	82.75
254.261	69.75
254.494	67.75
254.727	87.75
254.96	75.75
255.193	79.75
255.426	91.75
255.659	70.75
255.892	92.75
256.124	88.75
256.357	78.75
256.59	80.75
256.823	100.75
257.056	88.75
257.289	103.75
257.521	98.75
257.754	85.75
257.987	92.75
258.22	77.75
258.452	86.75
258.685	80.75
258.918	87.75
259.151	75.75
259.383	82.75
259.616	83.75
259.849	88.75
260.081	79.75
260.314	71.75
260.547	84.75
260.779	83.75
261.012	90.75
261.244	99.75
261.477	91.75
261.71	110.75
261.942	135.75
262.175	114.75
262.407	105.75
262.64	88.75
262.872	78.75
263.105	80.75
263.337	93.75
263.57	81.75
263.802	79.75
264.035	94.75
264.267	75.75
264.499	83.75
264.732	86.75
264.964	87.75
265.197	82.75
265.429	77.75
265.661	92.75
265.894	81.75
266.126	80.75
266.358	84.75
266.591	87.75
266.823	84.75
267.055	81.75
267.287	68.75
267.52	81.75
267.752	83.75
267.984	93.75
268.216	72.75
268.448	101.75
268.681	81.75
268.913	67.75
269.145	91.75
269.377	79.75
269.609	89.75
269.841	84.75
270.073	81.75
270.306	91.75
270.538	80.75
270.77	89.75
271.002	81.75
271.234	101.75
271.466	88.75
271.698	100.75
271.93	86.75
272.162	92.75
272.394	78.75
272.626	83.75
272.858	80.75
273.09	84.75
273.322	92.75
273.553	90.75
273.785	92.75
274.017	92.75
274.249	89.75
274.481	81.75
274.713	76.75
274.945	97.75
275.176	109.75
275.408	99.75
275.64	107.75
275.872	96.75
276.104	93.75
276.335	102.75
276.567	105.75
276.799	125.75
277.031	140.75
277.262	139.75
277.494	117.75
277.726	80.75
277.957	84.75
278.189	84.75
278.421	83.75
278.652	81.75
278.884	82.75
279.115	89.75
279.347	86.75
279.579	99.75
279.81	114.75
280.042	150.75
280.273	171.75
280.505	123.75
280.736	93.75
280.968	103.75
281.199	89.75
281.431	94.75
281.662	91.75
281.894	95.75
282.125	90.75
282.356	123.75
282.588	153.75
282.819	129.75
283.051	96.75
283.282	86.75
283.513	88.75
283.745	89.75
283.976	91.75
284.207	91.75
284.439	88.75
284.67	93.75
284.901	107.75
285.132	93.75
285.364	89.75
285.595	91.75
285.826	90.75
286.057	92.75
286.288	87.75
286.52	89.75
286.751	92.75
286.982	101.75
287.213	89.75
287.444	78.75
287.675	93.75
287.906	92.75
288.138	93.75
288.369	103.75
288.6	99.75
288.831	83.75
289.062	87.75
289.293	87.75
289.524	92.75
289.755	93.75
289.986	97.75
290.217	84.75
290.448	97.75
290.679	84.75
290.91	91.75
291.141	90.75
291.371	97.75
291.602	83.75
291.833	89.75
292.064	98.75
292.295	89.75
292.526	101.75
292.757	83.75
292.987	88.75
293.218	96.75
293.449	90.75
293.68	92.75
293.91	100.75
294.141	99.75
294.372	83.75
294.603	95.75
294.833	95.75
295.064	92.75
295.295	92.75
295.525	87.75
295.756	101.75
295.987	139.75
296.217	152.75
296.448	134.75
296.679	98.75
296.909	95.75
297.14	85.75
297.37	103.75
297.601	94.75
297.831	81.75
298.062	97.75
298.292	87.75
298.523	81.75
298.753	78.75
298.984	76.75
299.214	87.75
299.445	105.75
299.675	100.75
299.905	103.75
300.136	95.75
300.366	85.75
300.597	85.75
300.827	91.75
301.057	111.75
301.288	103.75
301.518	108.75
301.748	80.75
301.979	95.75
302.209	99.75
302.439	96.75
302.669	99.75
302.9	80.75
303.13	101.75
303.36	111.75
303.59	112.75
303.82	112.75
304.051	100.75
304.281	100.75
304.511	109.75
304.741	92.75
304.971	92.75
305.201	96.75
305.431	99.75
305.661	93.75
305.891	95.75
306.121	93.75
306.352	120.75
306.582	107.75
306.812	93.75
307.042	116.75
307.272	122.75
307.502	135.75
307.731	125.75
307.961	106.75
308.191	87.75
308.421	91.75
308.651	95.75
308.881	91.75
309.111	106.75
309.341	109.75
309.571	107.75
309.8	96.75
310.03	96.75
310.26	126.75
310.49	112.75
310.72	116.75
310.949	114.75
311.179	118.75
311.409	102.75
311.639	100.75
311.868	108.75
312.098	105.75
312.328	103.75
312.557	109.75
312.787	125.75
313.017	113.75
313.246	116.75
313.476	95.75
313.706	92.75
313.935	105.75
314.165	108.75
314.394	125.75
314.624	119.75
314.853	114.75
315.083	105.75
315.312	87.75
315.542	97.75
315.771	105.75
316.001	101.75
316.23	95.75
316.46	99.75
316.689	86.75
316.919	84.75
317.148	109.75
317.377	103.75
317.607	95.75
317.836	85.75
318.065	87.75
318.295	80.75
318.524	82.75
318.753	97.75
318.983	111.75
319.212	100.75
319.441	112.75
319.67	105.75
319.9	108.75
320.129	100.75
320.358	105.75
320.587	94.75
320.816	107.75
321.046	109.75
321.275	113.75
321.504	107.75
321.733	84.75
321.962	99.75
322.191	123.75
322.42	101.75
322.649	120.75
322.878	136.75
323.108	135.75
323.337	134.75
323.566	156.75
323.795	199.75
324.024	228.75
324.253	464.75
324.482	965.75
324.71	1992.75
324.939	2678.75
325.168	966.75
325.397	297.75
325.626	155.75
325.855	140.75
326.084	150.75
326.313	161.75
326.542	156.75
326.77	245.75
326.999	508.75
327.228	1055.75
327.457	1952.75
327.686	1575.75
327.914	513.75
328.143	362.75
328.372	407.75
328.6	264.75
328.829	168.75
329.058	181.75
329.287	171.75
329.515	151.75
329.744	190.75
329.972	284.75
330.201	532.75
330.43	792.75
330.658	384.75
330.887	239.75
331.115	158.75
331.344	114.75
331.572	115.75
331.801	124.75
332.03	130.75
332.258	107.75
332.486	105.75
332.715	112.75
332.943	103.75
333.172	97.75
333.4	105.75
333.629	139.75
333.857	165.75
334.085	258.75
334.314	521.75
334.542	968.75
334.771	925.75
334.999	277.75
335.227	136.75
335.455	104.75
335.684	114.75
335.912	102.75
336.14	106.75
336.369	102.75
336.597	114.75
336.825	116.75
337.053	102.75
337.281	92.75
337.51	98.75
337.738	103.75
337.966	112.75
338.194	115.75
338.422	107.75
338.65	104.75
338.878	103.75
339.106	73.75
339.334	96.75
339.562	95.75
339.79	97.75
340.018	100.75
340.246	108.75
340.474	111.75
340.702	110.75
340.93	101.75
341.158	95.75
341.386	103.75
341.614	100.75
341.842	105.75
342.07	96.75
342.298	100.75
342.526	92.75
342.754	88.75
342.981	98.75
343.209	98.75
343.437	106.75
343.665	88.75
343.893	105.75
344.12	112.75
344.348	97.75
344.576	89.75
344.804	94.75
345.031	106.75
345.259	101.75
345.487	99.75
345.714	87.75
345.942	91.75
346.17	95.75
346.397	88.75
346.625	102.75
346.853	98.75
347.08	92.75
347.308	92.75
347.535	113.75
347.763	108.75
347.99	110.75
348.218	116.75
348.445	118.75
348.673	113.75
348.9	101.75
349.128	94.75
349.355	103.75
349.583	115.75
349.81	107.75
350.037	100.75
350.265	110.75
350.492	115.75
350.72	96.75
350.947	101.75
351.174	116.75
351.402	107.75
351.629	102.75
351.856	117.75
352.083	105.75
352.311	116.75
352.538	128.75
352.765	128.75
352.992	110.75
353.22	119.75
353.447	116.75
353.674	105.75
353.901	97.75
354.128	103.75
354.355	103.75
354.583	104.75
354.81	99.75
355.037	95.75
355.264	104.75
355.491	107.75
355.718	98.75
355.945	103.75
356.172	87.75
356.399	98.75
356.626	85.75
356.853	89.75
357.08	102.75
357.307	103.75
357.534	91.75
357.761	102.75
357.988	109.75
358.215	96.75
358.441	92.75
358.668	92.75
358.895	101.75
359.122	111.75
359.349	89.75
359.576	106.75
359.802	104.75
360.029	139.75
360.256	133.75
360.483	105.75
360.709	87.75
360.936	97.75
361.163	105.75
361.39	104.75
361.616	116.75
361.843	104.75
362.07	108.75
362.296	105.75
362.523	112.75
362.749	95.75
362.976	107.75
363.203	102.75
363.429	84.75
363.656	89.75
363.882	93.75
364.109	93.75
364.335	91.75
364.562	99.75
364.788	101.75
365.015	100.75
365.241	104.75
365.468	117.75
365.694	116.75
365.92	111.75
366.147	115.75
366.373	81.75
366.599	89.75
366.826	105.75
367.052	97.75
367.278	97.75
367.505	106.75
367.731	97.75
367.957	102.75
368.184	104.75
368.41	118.75
368.636	140.75
368.862	144.75
369.089	132.75
369.315	107.75
369.541	109.75
369.767	97.75
369.993	103.75
370.219	92.75
370.445	84.75
370.672	93.75
370.898	93.75
371.124	97.75
371.35	80.75
371.576	96.75
371.802	91.75
372.028	91.75
372.254	85.75
372.48	86.75
372.706	91.75
372.932	84.75
373.158	99.75
373.384	98.75
373.61	88.75
373.835	92.75
374.061	87.75
374.287	81.75
374.513	88.75
374.739	89.75
374.965	84.75
375.191	83.75
375.416	82.75
375.642	105.75
375.868	93.75
376.094	93.75
376.319	91.75
376.545	87.75
376.771	93.75
376.997	76.75
377.222	105.75
377.448	93.75
377.674	87.75
377.899	102.75
378.125	100.75
378.35	100.75
378.576	93.75
378.802	82.75
379.027	93.75
379.253	108.75
379.478	108.75
379.704	96.75
379.929	104.75
380.155	101.75
380.38	103.75
380.606	91.75
380.831	104.75
381.057	105.75
381.282	103.75
381.507	89.75
381.733	112.75
381.958	100.75
382.184	93.75
382.409	109.75
382.634	118.75
382.86	118.75
383.085	119.75
383.31	94.75
383.535	114.75
383.761	102.75
383.986	109.75
384.211	103.75
384.436	108.75
384.662	118.75
384.887	112.75
385.112	123.75
385.337	124.75
385.562	120.75
385.787	127.75
386.013	129.75
386.238	134.75
386.463	121.75
386.688	113.75
386.913	112.75
387.138	120.75
387.363	125.75
387.588	91.75
387.813	107.75
388.038	119.75
388.263	134.75
388.488	131.75
388.713	111.75
388.938	92.75
389.163	100.75
389.387	97.75
389.612	85.75
389.837	99.75
390.062	94.75
390.287	83.75
390.512	95.75
390.736	78.75
390.961	86.75
391.186	90.75
391.411	87.75
391.636	97.75
391.86	93.75
392.085	88.75
392.31	84.75
392.534	93.75
392.759	81.75
392.984	100.75
393.208	79.75
393.433	96.75
393.658	82.75
393.882	87.75
394.107	102.75
394.331	95.75
394.556	73.75
394.78	99.75
395.005	89.75
395.229	90.75
395.454	93.75
395.678	89.75
395.903	105.75
396.127	107.75
396.352	105.75
396.576	85.75
396.801	79.75
397.025	83.75
397.249	79.75
397.474	87.75
397.698	88.75
397.922	87.75
398.147	92.75
398.371	93.75
398.595	94.75
398.82	99.75
399.044	92.75
399.268	95.75
399.492	86.75
399.717	93.75
399.941	83.75
400.165	97.75
400.389	96.75
400.613	93.75
400.837	91.75
401.062	79.75
401.286	100.75
401.51	92.75
401.734	92.75
401.958	116.75
402.182	153.75
402.406	194.75
402.63	141.75
402.854	113.75
403.078	103.75
403.302	101.75
403.526	98.75
403.75	96.75
403.974	99.75
404.198	94.75
404.422	100.75
404.645	102.75
404.869	99.75
405.093	118.75
405.317	124.75
405.541	126.75
405.765	116.75
405.988	136.75
406.212	193.75
406.436	295.75
406.66	200.75
406.883	121.75
407.107	102.75
407.331	110.75
407.555	107.75
407.778	116.75
408.002	106.75
408.226	99.75
408.449	94.75
408.673	89.75
408.896	103.75
409.12	109.75
409.344	94.75
409.567	86.75
409.791	101.75
410.014	101.75
410.238	112.75
410.461	88.75
410.685	96.75
410.908	101.75
411.132	114.75
411.355	102.75
411.578	107.75
411.802	101.75
412.025	87.75
412.249	100.75
412.472	110.75
412.695	117.75
412.919	115.75
413.142	77.75
413.365	91.75
413.589	88.75
413.812	88.75
414.035	88.75
414.258	105.75
414.482	86.75
414.705	96.75
414.928	100.75
415.151	99.75
415.374	101.75
415.597	112.75
415.821	96.75
416.044	99.75
416.267	96.75
416.49	91.75
416.713	84.75
416.936	91.75
417.159	91.75
417.382	102.75
417.605	99.75
417.828	107.75
418.051	102.75
418.274	79.75
418.497	88.75
418.72	87.75
418.943	92.75
419.166	94.75
419.389	84.75
419.611	98.75
419.834	94.75
420.057	94.75
420.28	89.75
420.503	94.75
420.726	98.75
420.948	111.75
421.171	118.75
421.394	109.75
421.617	89.75
421.839	93.75
422.062	83.75
422.285	95.75
422.507	111.75
422.73	111.75
422.953	101.75
423.175	95.75
423.398	96.75
423.621	95.75
423.843	89.75
424.066	87.75
424.288	101.75
424.511	92.75
424.733	103.75
424.956	117.75
425.178	100.75
425.401	113.75
425.623	101.75
425.846	83.75
426.068	93.75
426.291	109.75
426.513	93.75
426.735	101.75
426.958	106.75
427.18	127.75
427.402	175.75
427.625	229.75
427.847	209.75
428.069	187.75
428.292	109.75
428.514	97.75
428.736	99.75
428.958	84.75
429.181	80.75
429.403	99.75
429.625	90.75
429.847	102.75
430.069	94.75
430.292	101.75
430.514	85.75
430.736	97.75
430.958	92.75
431.18	104.75
431.402	84.75
431.624	82.75
431.846	96.75
432.068	86.75
432.29	73.75
432.512	82.75
432.734	94.75
432.956	97.75
433.178	117.75
433.4	110.75
433.622	94.75
433.844	105.75
434.066	81.75
434.287	97.75
434.509	96.75
434.731	88.75
434.953	101.75
435.175	91.75
435.397	99.75
435.618	88.75
435.84	121.75
436.062	137.75
436.284	129.75
436.505	118.75
436.727	100.75
436.949	91.75
437.17	108.75
437.392	99.75
437.614	108.75
437.835	130.75
438.057	141.75
438.278	122.75
438.5	108.75
438.721	123.75
438.943	108.75
439.165	89.75
439.386	90.75
439.608	95.75
439.829	120.75
440.05	159.75
440.272	184.75
440.493	111.75
440.715	108.75
440.936	99.75
441.158	91.75
441.379	109.75
441.6	97.75
441.822	95.75
442.043	102.75
442.264	132.75
442.486	117.75
442.707	88.75
442.928	114.75
443.149	163.75
443.371	160.75
443.592	138.75
443.813	129.75
444.034	119.75
444.255	100.75
444.476	87.75
444.698	108.75
444.919	102.75
445.14	127.75
445.361	133.75
445.582	130.75
445.803	171.75
446.024	174.75
446.245	176.75
446.466	128.75
446.687	99.75
446.908	97.75
447.129	85.75
447.35	94.75
447.571	109.75
447.792	96.75
448.013	105.75
448.234	125.75
448.455	113.75
448.675	125.75
448.896	143.75
449.117	117.75
449.338	113.75
449.559	124.75
449.779	147.75
450	104.75
450.221	98.75
450.442	84.75
450.662	81.75
450.883	118.75
451.104	145.75
451.324	110.75
451.545	75.75
451.766	83.75
451.986	76.75
452.207	107.75
452.428	107.75
452.648	108.75
452.869	128.75
453.089	122.75
453.31	150.75
453.53	107.75
453.751	104.75
453.971	108.75
454.192	140.75
454.412	104.75
454.633	82.75
454.853	77.75
455.073	88.75
455.294	77.75
455.514	118.75
455.734	93.75
455.955	87.75
456.175	83.75
456.395	91.75
456.616	78.75
456.836	77.75
457.056	67.75
457.276	76.75
457.497	75.75
457.717	81.75
457.937	92.75
458.157	96.75
458.377	88.75
458.598	132.75
458.818	201.75
459.038	209.75
459.258	143.75
459.478	95.75
459.698	96.75
459.918	92.75
460.138	76.75
460.358	81.75
460.578	96.75
460.798	92.75
461.018	95.75
461.238	104.75
461.458	89.75
461.678	80.75
461.898	87.75
462.118	97.75
462.338	89.75
462.558	93.75
462.777	87.75
462.997	95.75
463.217	104.75
463.437	89.75
463.657	85.75
463.876	92.75
464.096	87.75
464.316	104.75
464.536	100.75
464.755	112.75
464.975	113.75
465.195	230.75
465.414	230.75
465.634	112.75
465.854	81.75
466.073	79.75
466.293	86.75
466.512	80.75
466.732	88.75
466.951	95.75
467.171	97.75
467.391	112.75
467.61	125.75
467.829	163.75
468.049	301.75
468.268	432.75
468.488	151.75
468.707	100.75
468.927	72.75
469.146	80.75
469.365	89.75
469.585	91.75
469.804	86.75
470.023	99.75
470.243	115.75
470.462	117.75
470.681	140.75
470.901	88.75
471.12	97.75
471.339	107.75
471.558	104.75
471.777	124.75
471.997	189.75
472.216	557.75
472.435	1241.75
472.654	322.75
472.873	114.75
473.092	108.75
473.311	100.75
473.53	79.75
473.749	93.75
473.968	105.75
474.187	125.75
474.406	127.75
474.625	101.75
474.844	90.75
475.063	99.75
475.282	82.75
475.501	100.75
475.72	99.75
475.939	109.75
476.158	84.75
476.377	87.75
476.596	94.75
476.814	95.75
477.033	110.75
477.252	99.75
477.471	92.75
477.69	92.75
477.908	91.75
478.127	86.75
478.346	94.75
478.564	91.75
478.783	118.75
479.002	107.75
479.22	110.75
479.439	115.75
479.658	119.75
479.876	116.75
480.095	111.75
480.313	97.75
480.532	120.75
480.751	191.75
480.969	540.75
481.188	2126.75
481.406	1316.75
481.624	240.75
481.843	107.75
482.061	112.75
482.28	85.75
482.498	108.75
482.717	98.75
482.935	85.75
483.153	111.75
483.372	100.75
483.59	92.75
483.808	88.75
484.027	92.75
484.245	84.75
484.463	81.75
484.681	108.75
484.9	99.75
485.118	99.75
485.336	91.75
485.554	92.75
485.772	89.75
485.99	102.75
486.209	113.75
486.427	117.75
486.645	115.75
486.863	131.75
487.081	104.75
487.299	92.75
487.517	101.75
487.735	111.75
487.953	97.75
488.171	90.75
488.389	101.75
488.607	115.75
488.825	99.75
489.043	99.75
489.261	98.75
489.479	92.75
489.696	99.75
489.914	103.75
490.132	89.75
490.35	82.75
490.568	84.75
490.786	93.75
491.003	95.75
491.221	112.75
491.439	100.75
491.657	95.75
491.874	99.75
492.092	94.75
492.31	88.75
492.527	92.75
492.745	85.75
492.963	93.75
493.18	92.75
493.398	103.75
493.615	96.75
493.833	83.75
494.05	95.75
494.268	94.75
494.485	97.75
494.703	83.75
494.92	99.75
495.138	92.75
495.355	100.75
495.573	91.75
495.79	90.75
496.008	89.75
496.225	91.75
496.442	83.75
496.66	91.75
496.877	89.75
497.094	93.75
497.312	83.75
497.529	79.75
497.746	77.75
497.963	92.75
498.181	87.75
498.398	95.75
498.615	125.75
498.832	105.75
499.049	109.75
499.267	101.75
499.484	81.75
499.701	100.75
499.918	102.75
500.135	96.75
500.352	85.75
500.569	96.75
500.786	94.75
501.003	89.75
501.22	81.75
501.437	84.75
501.654	89.75
501.871	110.75
502.088	98.75
502.305	91.75
502.522	96.75
502.739	98.75
502.956	78.75
503.172	99.75
503.389	101.75
503.606	123.75
503.823	105.75
504.04	83.75
504.256	90.75
504.473	77.75
504.69	88.75
504.907	100.75
505.123	106.75
505.34	91.75
505.557	97.75
505.773	108.75
505.99	107.75
506.207	88.75
506.423	97.75
506.64	96.75
506.856	101.75
507.073	102.75
507.289	86.75
507.506	106.75
507.722	145.75
507.939	140.75
508.155	98.75
508.372	100.75
508.588	90.75
508.805	109.75
509.021	108.75
509.238	112.75
509.454	98.75
509.67	110.75
509.887	114.75
510.103	134.75
510.319	234.75
510.536	865.75
510.752	2977.75
510.968	805.75
511.184	164.75
511.401	139.75
511.617	109.75
511.833	96.75
512.049	82.75
512.265	96.75
