Data from Circ_1990_H10_HRD10591_00029.txt Node
Date: Wed Jan 03 11:55:09 EST 2024
User: Yrep
Spectrometer: HR+D1059
Trigger mode: 1
Integration Time (sec): 1.000000E-1
Scans to average: 1
Electric dark correction enabled: true
Nonlinearity correction enabled: false
Boxcar width: 0
XAxis mode: Wavelengths
Number of Pixels in Spectrum: 2048
>>>>>Begin Spectral Data<<<<<
223.165	-18.19
223.4	-18.19
223.635	-18.19
223.869	-19.19
224.104	-23.19
224.338	-21.19
224.573	-11.19
224.808	-0.19
225.042	0.81
225.277	-9.19
225.511	8.81
225.746	-5.19
225.98	12.81
226.215	5.81
226.449	12.81
226.683	20.81
226.918	18.81
227.152	26.81
227.387	31.81
227.621	33.81
227.856	37.81
228.09	42.81
228.324	48.81
228.559	46.81
228.793	51.81
229.027	61.81
229.262	75.81
229.496	42.81
229.73	80.81
229.964	76.81
230.199	73.81
230.433	69.81
230.667	79.81
230.901	74.81
231.136	76.81
231.37	78.81
231.604	81.81
231.838	67.81
232.072	77.81
232.306	66.81
232.541	82.81
232.775	75.81
233.009	91.81
233.243	76.81
233.477	81.81
233.711	81.81
233.945	86.81
234.179	79.81
234.413	79.81
234.647	76.81
234.881	65.81
235.115	71.81
235.349	58.81
235.583	85.81
235.817	76.81
236.051	84.81
236.285	70.81
236.519	80.81
236.753	68.81
236.987	76.81
237.221	80.81
237.455	78.81
237.689	95.81
237.922	77.81
238.156	76.81
238.39	78.81
238.624	57.81
238.858	70.81
239.091	68.81
239.325	80.81
239.559	60.81
239.793	76.81
240.027	93.81
240.26	81.81
240.494	70.81
240.728	63.81
240.961	64.81
241.195	83.81
241.429	79.81
241.662	60.81
241.896	64.81
242.13	84.81
242.363	73.81
242.597	67.81
242.83	73.81
243.064	69.81
243.298	80.81
243.531	61.81
243.765	78.81
243.998	82.81
244.232	88.81
244.465	84.81
244.699	72.81
244.932	74.81
245.166	62.81
245.399	72.81
245.633	80.81
245.866	76.81
246.099	82.81
246.333	85.81
246.566	77.81
246.8	75.81
247.033	58.81
247.266	67.81
247.5	84.81
247.733	81.81
247.966	76.81
248.2	75.81
248.433	66.81
248.666	79.81
248.899	72.81
249.133	93.81
249.366	100.81
249.599	98.81
249.832	75.81
250.066	78.81
250.299	73.81
250.532	81.81
250.765	76.81
250.998	77.81
251.231	72.81
251.465	78.81
251.698	85.81
251.931	75.81
252.164	80.81
252.397	73.81
252.63	78.81
252.863	80.81
253.096	77.81
253.329	81.81
253.562	76.81
253.795	68.81
254.028	77.81
254.261	82.81
254.494	72.81
254.727	72.81
254.96	80.81
255.193	78.81
255.426	85.81
255.659	86.81
255.892	81.81
256.124	76.81
256.357	80.81
256.59	63.81
256.823	86.81
257.056	78.81
257.289	84.81
257.521	68.81
257.754	82.81
257.987	77.81
258.22	79.81
258.452	76.81
258.685	100.81
258.918	80.81
259.151	84.81
259.383	89.81
259.616	80.81
259.849	92.81
260.081	79.81
260.314	84.81
260.547	78.81
260.779	67.81
261.012	76.81
261.244	76.81
261.477	89.81
261.71	107.81
261.942	94.81
262.175	97.81
262.407	88.81
262.64	78.81
262.872	88.81
263.105	82.81
263.337	80.81
263.57	76.81
263.802	69.81
264.035	75.81
264.267	83.81
264.499	78.81
264.732	88.81
264.964	70.81
265.197	73.81
265.429	83.81
265.661	78.81
265.894	82.81
266.126	91.81
266.358	88.81
266.591	81.81
266.823	76.81
267.055	92.81
267.287	70.81
267.52	77.81
267.752	61.81
267.984	91.81
268.216	83.81
268.448	82.81
268.681	84.81
268.913	84.81
269.145	90.81
269.377	87.81
269.609	82.81
269.841	78.81
270.073	76.81
270.306	81.81
270.538	72.81
270.77	91.81
271.002	82.81
271.234	77.81
271.466	83.81
271.698	83.81
271.93	83.81
272.162	78.81
272.394	86.81
272.626	80.81
272.858	73.81
273.09	90.81
273.322	82.81
273.553	79.81
273.785	82.81
274.017	77.81
274.249	82.81
274.481	96.81
274.713	74.81
274.945	62.81
275.176	83.81
275.408	75.81
275.64	97.81
275.872	85.81
276.104	81.81
276.335	83.81
276.567	94.81
276.799	99.81
277.031	91.81
277.262	90.81
277.494	95.81
277.726	85.81
277.957	88.81
278.189	93.81
278.421	79.81
278.652	83.81
278.884	82.81
279.115	85.81
279.347	85.81
279.579	74.81
279.81	83.81
280.042	84.81
280.273	105.81
280.505	94.81
280.736	68.81
280.968	80.81
281.199	78.81
281.431	78.81
281.662	86.81
281.894	89.81
282.125	91.81
282.356	122.81
282.588	128.81
282.819	110.81
283.051	92.81
283.282	85.81
283.513	80.81
283.745	80.81
283.976	80.81
284.207	80.81
284.439	81.81
284.67	71.81
284.901	78.81
285.132	88.81
285.364	90.81
285.595	84.81
285.826	85.81
286.057	74.81
286.288	88.81
286.52	98.81
286.751	80.81
286.982	77.81
287.213	78.81
287.444	96.81
287.675	85.81
287.906	82.81
288.138	91.81
288.369	96.81
288.6	90.81
288.831	76.81
289.062	71.81
289.293	88.81
289.524	83.81
289.755	81.81
289.986	82.81
290.217	86.81
290.448	73.81
290.679	86.81
290.91	100.81
291.141	69.81
291.371	91.81
291.602	84.81
291.833	86.81
292.064	94.81
292.295	83.81
292.526	79.81
292.757	73.81
292.987	92.81
293.218	78.81
293.449	78.81
293.68	84.81
293.91	85.81
294.141	83.81
294.372	82.81
294.603	89.81
294.833	93.81
295.064	80.81
295.295	90.81
295.525	84.81
295.756	96.81
295.987	94.81
296.217	129.81
296.448	110.81
296.679	80.81
296.909	94.81
297.14	85.81
297.37	92.81
297.601	83.81
297.831	86.81
298.062	93.81
298.292	84.81
298.523	96.81
298.753	90.81
298.984	97.81
299.214	89.81
299.445	89.81
299.675	95.81
299.905	96.81
300.136	68.81
300.366	82.81
300.597	96.81
300.827	103.81
301.057	93.81
301.288	95.81
301.518	98.81
301.748	85.81
301.979	97.81
302.209	84.81
302.439	92.81
302.669	80.81
302.9	92.81
303.13	92.81
303.36	85.81
303.59	104.81
303.82	91.81
304.051	90.81
304.281	104.81
304.511	104.81
304.741	90.81
304.971	78.81
305.201	84.81
305.431	85.81
305.661	92.81
305.891	88.81
306.121	108.81
306.352	99.81
306.582	92.81
306.812	94.81
307.042	89.81
307.272	97.81
307.502	103.81
307.731	97.81
307.961	100.81
308.191	74.81
308.421	93.81
308.651	85.81
308.881	81.81
309.111	97.81
309.341	101.81
309.571	98.81
309.8	85.81
310.03	90.81
310.26	92.81
310.49	92.81
310.72	83.81
310.949	96.81
311.179	105.81
311.409	78.81
311.639	91.81
311.868	88.81
312.098	96.81
312.328	86.81
312.557	91.81
312.787	98.81
313.017	102.81
313.246	97.81
313.476	106.81
313.706	84.81
313.935	104.81
314.165	100.81
314.394	86.81
314.624	86.81
314.853	89.81
315.083	82.81
315.312	105.81
315.542	85.81
315.771	83.81
316.001	90.81
316.23	82.81
316.46	82.81
316.689	87.81
316.919	80.81
317.148	91.81
317.377	96.81
317.607	65.81
317.836	84.81
318.065	91.81
318.295	86.81
318.524	94.81
318.753	96.81
318.983	91.81
319.212	88.81
319.441	100.81
319.67	97.81
319.9	93.81
320.129	96.81
320.358	96.81
320.587	89.81
320.816	99.81
321.046	109.81
321.275	99.81
321.504	88.81
321.733	78.81
321.962	85.81
322.191	98.81
322.42	102.81
322.649	110.81
322.878	109.81
323.108	115.81
323.337	117.81
323.566	138.81
323.795	131.81
324.024	196.81
324.253	330.81
324.482	666.81
324.71	1344.81
324.939	1796.81
325.168	669.81
325.397	212.81
325.626	111.81
325.855	125.81
326.084	123.81
326.313	121.81
326.542	129.81
326.77	196.81
326.999	375.81
327.228	758.81
327.457	1368.81
327.686	1098.81
327.914	344.81
328.143	213.81
328.372	186.81
328.6	121.81
328.829	111.81
329.058	109.81
329.287	115.81
329.515	108.81
329.744	128.81
329.972	145.81
330.201	234.81
330.43	283.81
330.658	170.81
330.887	133.81
331.115	111.81
331.344	112.81
331.572	91.81
331.801	101.81
332.03	98.81
332.258	102.81
332.486	97.81
332.715	86.81
332.943	80.81
333.172	94.81
333.4	102.81
333.629	102.81
333.857	129.81
334.085	159.81
334.314	225.81
334.542	339.81
334.771	334.81
334.999	140.81
335.227	95.81
335.455	103.81
335.684	91.81
335.912	98.81
336.14	94.81
336.369	96.81
336.597	94.81
336.825	89.81
337.053	92.81
337.281	84.81
337.51	95.81
337.738	89.81
337.966	109.81
338.194	90.81
338.422	86.81
338.65	110.81
338.878	91.81
339.106	66.81
339.334	80.81
339.562	87.81
339.79	83.81
340.018	88.81
340.246	90.81
340.474	94.81
340.702	78.81
340.93	84.81
341.158	96.81
341.386	82.81
341.614	86.81
341.842	97.81
342.07	90.81
342.298	77.81
342.526	97.81
342.754	95.81
342.981	97.81
343.209	85.81
343.437	90.81
343.665	85.81
343.893	87.81
344.12	80.81
344.348	81.81
344.576	88.81
344.804	82.81
345.031	94.81
345.259	96.81
345.487	97.81
345.714	81.81
345.942	90.81
346.17	79.81
346.397	86.81
346.625	86.81
346.853	100.81
347.08	90.81
347.308	105.81
347.535	95.81
347.763	88.81
347.99	101.81
348.218	99.81
348.445	92.81
348.673	92.81
348.9	92.81
349.128	94.81
349.355	96.81
349.583	86.81
349.81	96.81
350.037	90.81
350.265	94.81
350.492	75.81
350.72	109.81
350.947	101.81
351.174	104.81
351.402	102.81
351.629	94.81
351.856	100.81
352.083	96.81
352.311	102.81
352.538	106.81
352.765	82.81
352.992	112.81
353.22	106.81
353.447	105.81
353.674	77.81
353.901	91.81
354.128	87.81
354.355	85.81
354.583	95.81
354.81	94.81
355.037	97.81
355.264	91.81
355.491	86.81
355.718	91.81
355.945	102.81
356.172	96.81
356.399	97.81
356.626	85.81
356.853	91.81
357.08	90.81
357.307	101.81
357.534	82.81
357.761	69.81
357.988	86.81
358.215	96.81
358.441	96.81
358.668	97.81
358.895	100.81
359.122	85.81
359.349	79.81
359.576	84.81
359.802	101.81
360.029	112.81
360.256	97.81
360.483	99.81
360.709	97.81
360.936	94.81
361.163	79.81
361.39	77.81
361.616	102.81
361.843	94.81
362.07	100.81
362.296	97.81
362.523	85.81
362.749	89.81
362.976	93.81
363.203	86.81
363.429	93.81
363.656	81.81
363.882	85.81
364.109	93.81
364.335	88.81
364.562	98.81
364.788	100.81
365.015	88.81
365.241	86.81
365.468	96.81
365.694	96.81
365.92	94.81
366.147	84.81
366.373	89.81
366.599	84.81
366.826	76.81
367.052	99.81
367.278	77.81
367.505	89.81
367.731	93.81
367.957	80.81
368.184	84.81
368.41	76.81
368.636	112.81
368.862	118.81
369.089	94.81
369.315	102.81
369.541	81.81
369.767	93.81
369.993	86.81
370.219	92.81
370.445	84.81
370.672	93.81
370.898	68.81
371.124	73.81
371.35	74.81
371.576	79.81
371.802	91.81
372.028	78.81
372.254	84.81
372.48	90.81
372.706	83.81
372.932	101.81
373.158	100.81
373.384	105.81
373.61	88.81
373.835	75.81
374.061	71.81
374.287	90.81
374.513	106.81
374.739	94.81
374.965	90.81
375.191	74.81
375.416	80.81
375.642	85.81
375.868	97.81
376.094	92.81
376.319	97.81
376.545	92.81
376.771	89.81
376.997	87.81
377.222	101.81
377.448	90.81
377.674	107.81
377.899	95.81
378.125	88.81
378.35	99.81
378.576	94.81
378.802	82.81
379.027	92.81
379.253	97.81
379.478	88.81
379.704	93.81
379.929	91.81
380.155	107.81
380.38	101.81
380.606	89.81
380.831	92.81
381.057	101.81
381.282	102.81
381.507	98.81
381.733	92.81
381.958	92.81
382.184	100.81
382.409	108.81
382.634	107.81
382.86	96.81
383.085	98.81
383.31	103.81
383.535	92.81
383.761	114.81
383.986	104.81
384.211	102.81
384.436	110.81
384.662	123.81
384.887	107.81
385.112	112.81
385.337	119.81
385.562	121.81
385.787	137.81
386.013	126.81
386.238	123.81
386.463	123.81
386.688	127.81
386.913	127.81
387.138	132.81
387.363	106.81
387.588	105.81
387.813	124.81
388.038	133.81
388.263	130.81
388.488	136.81
388.713	100.81
388.938	99.81
389.163	75.81
389.387	91.81
389.612	98.81
389.837	84.81
390.062	92.81
390.287	88.81
390.512	86.81
390.736	101.81
390.961	92.81
391.186	73.81
391.411	84.81
391.636	86.81
391.86	94.81
392.085	83.81
392.31	98.81
392.534	88.81
392.759	97.81
392.984	92.81
393.208	80.81
393.433	93.81
393.658	72.81
393.882	101.81
394.107	85.81
394.331	73.81
394.556	92.81
394.78	87.81
395.005	72.81
395.229	91.81
395.454	76.81
395.678	77.81
395.903	85.81
396.127	106.81
396.352	85.81
396.576	86.81
396.801	85.81
397.025	57.81
397.249	83.81
397.474	74.81
397.698	70.81
397.922	77.81
398.147	66.81
398.371	78.81
398.595	96.81
398.82	87.81
399.044	88.81
399.268	74.81
399.492	93.81
399.717	80.81
399.941	88.81
400.165	93.81
400.389	89.81
400.613	92.81
400.837	91.81
401.062	82.81
401.286	94.81
401.51	86.81
401.734	84.81
401.958	97.81
402.182	113.81
402.406	132.81
402.63	108.81
402.854	86.81
403.078	89.81
403.302	79.81
403.526	78.81
403.75	84.81
403.974	106.81
404.198	84.81
404.422	91.81
404.645	88.81
404.869	101.81
405.093	93.81
405.317	102.81
405.541	95.81
405.765	89.81
405.988	112.81
406.212	145.81
406.436	193.81
406.66	125.81
406.883	95.81
407.107	94.81
407.331	90.81
407.555	91.81
407.778	82.81
408.002	97.81
408.226	84.81
408.449	103.81
408.673	92.81
408.896	98.81
409.12	83.81
409.344	94.81
409.567	92.81
409.791	100.81
410.014	105.81
410.238	89.81
410.461	78.81
410.685	85.81
410.908	95.81
411.132	109.81
411.355	93.81
411.578	90.81
411.802	103.81
412.025	86.81
412.249	105.81
412.472	90.81
412.695	93.81
412.919	97.81
413.142	101.81
413.365	75.81
413.589	99.81
413.812	99.81
414.035	105.81
414.258	84.81
414.482	99.81
414.705	80.81
414.928	93.81
415.151	104.81
415.374	97.81
415.597	92.81
415.821	83.81
416.044	93.81
416.267	102.81
416.49	81.81
416.713	89.81
416.936	80.81
417.159	83.81
417.382	94.81
417.605	81.81
417.828	90.81
418.051	86.81
418.274	94.81
418.497	95.81
418.72	93.81
418.943	87.81
419.166	82.81
419.389	95.81
419.611	82.81
419.834	90.81
420.057	77.81
420.28	80.81
420.503	82.81
420.726	70.81
420.948	85.81
421.171	80.81
421.394	86.81
421.617	104.81
421.839	82.81
422.062	73.81
422.285	86.81
422.507	106.81
422.73	83.81
422.953	90.81
423.175	66.81
423.398	98.81
423.621	85.81
423.843	95.81
424.066	96.81
424.288	101.81
424.511	94.81
424.733	98.81
424.956	109.81
425.178	97.81
425.401	97.81
425.623	94.81
425.846	94.81
426.068	98.81
426.291	81.81
426.513	90.81
426.735	86.81
426.958	89.81
427.18	97.81
427.402	120.81
427.625	148.81
427.847	132.81
428.069	137.81
428.292	85.81
428.514	94.81
428.736	90.81
428.958	90.81
429.181	81.81
429.403	89.81
429.625	68.81
429.847	94.81
430.069	95.81
430.292	77.81
430.514	90.81
430.736	88.81
430.958	91.81
431.18	94.81
431.402	95.81
431.624	101.81
431.846	72.81
432.068	86.81
432.29	76.81
432.512	86.81
432.734	86.81
432.956	93.81
433.178	93.81
433.4	101.81
433.622	89.81
433.844	72.81
434.066	83.81
434.287	80.81
434.509	69.81
434.731	81.81
434.953	88.81
435.175	90.81
435.397	111.81
435.618	102.81
435.84	96.81
436.062	114.81
436.284	100.81
436.505	88.81
436.727	85.81
436.949	87.81
437.17	79.81
437.392	86.81
437.614	92.81
437.835	107.81
438.057	117.81
438.278	109.81
438.5	95.81
438.721	106.81
438.943	100.81
439.165	88.81
439.386	96.81
439.608	88.81
439.829	80.81
440.05	112.81
440.272	110.81
440.493	86.81
440.715	88.81
440.936	74.81
441.158	77.81
441.379	84.81
441.6	76.81
441.822	82.81
442.043	97.81
442.264	90.81
442.486	85.81
442.707	79.81
442.928	89.81
443.149	115.81
443.371	122.81
443.592	98.81
443.813	106.81
444.034	92.81
444.255	84.81
444.476	77.81
444.698	78.81
444.919	91.81
445.14	138.81
445.361	123.81
445.582	114.81
445.803	112.81
446.024	131.81
446.245	122.81
446.466	102.81
446.687	99.81
446.908	93.81
447.129	97.81
447.35	82.81
447.571	84.81
447.792	98.81
448.013	109.81
448.234	111.81
448.455	96.81
448.675	109.81
448.896	106.81
449.117	101.81
449.338	99.81
449.559	127.81
449.779	111.81
450	93.81
450.221	86.81
450.442	78.81
450.662	90.81
450.883	92.81
451.104	100.81
451.324	96.81
451.545	96.81
451.766	91.81
451.986	93.81
452.207	81.81
452.428	75.81
452.648	88.81
452.869	113.81
453.089	100.81
453.31	97.81
453.53	84.81
453.751	82.81
453.971	78.81
454.192	109.81
454.412	90.81
454.633	90.81
454.853	86.81
455.073	76.81
455.294	87.81
455.514	86.81
455.734	93.81
455.955	75.81
456.175	89.81
456.395	80.81
456.616	92.81
456.836	94.81
457.056	83.81
457.276	82.81
457.497	75.81
457.717	67.81
457.937	85.81
458.157	85.81
458.377	79.81
458.598	97.81
458.818	137.81
459.038	134.81
459.258	95.81
459.478	88.81
459.698	78.81
459.918	85.81
460.138	79.81
460.358	97.81
460.578	87.81
460.798	98.81
461.018	97.81
461.238	84.81
461.458	80.81
461.678	88.81
461.898	93.81
462.118	90.81
462.338	78.81
462.558	76.81
462.777	89.81
462.997	77.81
463.217	86.81
463.437	82.81
463.657	85.81
463.876	85.81
464.096	96.81
464.316	85.81
464.536	98.81
464.755	107.81
464.975	103.81
465.195	130.81
465.414	138.81
465.634	102.81
465.854	88.81
466.073	87.81
466.293	93.81
466.512	79.81
466.732	85.81
466.951	79.81
467.171	90.81
467.391	88.81
467.61	88.81
467.829	97.81
468.049	160.81
468.268	197.81
468.488	101.81
468.707	83.81
468.927	84.81
469.146	80.81
469.365	75.81
469.585	94.81
469.804	88.81
470.023	91.81
470.243	84.81
470.462	84.81
470.681	102.81
470.901	79.81
471.12	85.81
471.339	86.81
471.558	91.81
471.777	102.81
471.997	119.81
472.216	240.81
472.435	431.81
472.654	153.81
472.873	96.81
473.092	95.81
473.311	76.81
473.53	90.81
473.749	84.81
473.968	84.81
474.187	93.81
474.406	97.81
474.625	102.81
474.844	86.81
475.063	87.81
475.282	90.81
475.501	100.81
475.72	95.81
475.939	88.81
476.158	90.81
476.377	83.81
476.596	82.81
476.814	77.81
477.033	82.81
477.252	94.81
477.471	80.81
477.69	88.81
477.908	88.81
478.127	86.81
478.346	90.81
478.564	69.81
478.783	84.81
479.002	73.81
479.22	96.81
479.439	108.81
479.658	100.81
479.876	107.81
480.095	97.81
480.313	96.81
480.532	92.81
480.751	119.81
480.969	237.81
481.188	745.81
481.406	448.81
481.624	132.81
481.843	90.81
482.061	85.81
482.28	83.81
482.498	79.81
482.717	85.81
482.935	88.81
483.153	89.81
483.372	77.81
483.59	94.81
483.808	76.81
484.027	96.81
484.245	93.81
484.463	83.81
484.681	94.81
484.9	90.81
485.118	96.81
485.336	81.81
485.554	111.81
485.772	97.81
485.99	92.81
486.209	113.81
486.427	101.81
486.645	115.81
486.863	111.81
487.081	105.81
487.299	89.81
487.517	97.81
487.735	94.81
487.953	94.81
488.171	83.81
488.389	98.81
488.607	99.81
488.825	93.81
489.043	88.81
489.261	89.81
489.479	91.81
489.696	95.81
489.914	86.81
490.132	70.81
490.35	79.81
490.568	82.81
490.786	86.81
491.003	93.81
491.221	97.81
491.439	92.81
491.657	86.81
491.874	92.81
492.092	106.81
492.31	83.81
492.527	63.81
492.745	95.81
492.963	84.81
493.18	87.81
493.398	98.81
493.615	92.81
493.833	99.81
494.05	86.81
494.268	95.81
494.485	88.81
494.703	94.81
494.92	70.81
495.138	74.81
495.355	76.81
495.573	85.81
495.79	84.81
496.008	106.81
496.225	96.81
496.442	87.81
496.66	102.81
496.877	79.81
497.094	92.81
497.312	97.81
497.529	96.81
497.746	73.81
497.963	68.81
498.181	93.81
498.398	89.81
498.615	110.81
498.832	94.81
499.049	99.81
499.267	84.81
499.484	78.81
499.701	95.81
499.918	89.81
500.135	99.81
500.352	93.81
500.569	99.81
500.786	97.81
501.003	93.81
501.22	94.81
501.437	102.81
501.654	81.81
501.871	104.81
502.088	84.81
502.305	87.81
502.522	110.81
502.739	81.81
502.956	79.81
503.172	87.81
503.389	97.81
503.606	98.81
503.823	96.81
504.04	85.81
504.256	90.81
504.473	77.81
504.69	90.81
504.907	89.81
505.123	77.81
505.34	92.81
505.557	84.81
505.773	83.81
505.99	89.81
506.207	89.81
506.423	98.81
506.64	84.81
506.856	89.81
507.073	94.81
507.289	102.81
507.506	81.81
507.722	117.81
507.939	105.81
508.155	88.81
508.372	88.81
508.588	95.81
508.805	93.81
509.021	78.81
509.238	88.81
509.454	98.81
509.67	89.81
509.887	102.81
510.103	122.81
510.319	186.81
510.536	640.81
510.752	1898.81
510.968	539.81
511.184	144.81
511.401	98.81
511.617	94.81
511.833	79.81
512.049	88.81
512.265	86.81
512.481	83.81
512.698	76.81
512.914	89.81
513.13	95.81
513.346	93.81
513.562	84.81
513.778	96.81
513.994	94.81
514.21	85.81
514.426	117.81
514.642	114.81
514.858	106.81
515.074	154.81
515.29	367.81
515.506	1113.81
515.721	434.81
515.937	138.81
516.153	105.81
516.369	84.81
