Data from Circ_1990_H10_HRD10591_00022.txt Node
Date: Wed Jan 03 11:55:08 EST 2024
User: Yrep
Spectrometer: HR+D1059
Trigger mode: 1
Integration Time (sec): 1.000000E-1
Scans to average: 1
Electric dark correction enabled: true
Nonlinearity correction enabled: false
Boxcar width: 0
XAxis mode: Wavelengths
Number of Pixels in Spectrum: 2048
>>>>>Begin Spectral Data<<<<<
223.165	-7
223.4	-7
223.635	-7
223.869	-14
224.104	-19
224.338	-20
224.573	-20
224.808	-9
225.042	-9
225.277	0
225.511	17
225.746	5
225.98	10
226.215	9
226.449	-1
226.683	3
226.918	23
227.152	32
227.387	33
227.621	28
227.856	54
228.09	41
228.324	45
228.559	66
228.793	149
229.027	431
229.262	498
229.496	560
229.73	740
229.964	726
230.199	510
230.433	446
230.667	476
230.901	448
231.136	438
231.37	442
231.604	445
231.838	455
232.072	448
232.306	469
232.541	490
232.775	463
233.009	453
233.243	488
233.477	471
233.711	482
233.945	486
234.179	526
234.413	479
234.647	493
234.881	513
235.115	530
235.349	542
235.583	561
235.817	590
236.051	614
236.285	606
236.519	613
236.753	697
236.987	868
237.221	1265
237.455	1362
237.689	835
237.922	719
238.156	687
238.39	669
238.624	658
238.858	630
239.091	633
239.325	633
239.559	692
239.793	688
240.027	764
240.26	892
240.494	947
240.728	897
240.961	855
241.195	807
241.429	802
241.662	782
241.896	783
242.13	818
242.363	807
242.597	820
242.83	838
243.064	838
243.298	838
243.531	848
243.765	839
243.998	860
244.232	888
244.465	936
244.699	901
244.932	933
245.166	937
245.399	920
245.633	915
245.866	955
246.099	950
246.333	966
246.566	984
246.8	1001
247.033	1026
247.266	1049
247.5	1087
247.733	1140
247.966	1159
248.2	1182
248.433	1166
248.666	1241
248.899	1292
249.133	1401
249.366	1406
249.599	1376
249.832	1298
250.066	1441
250.299	1669
250.532	1987
250.765	2042
250.998	1884
251.231	1730
251.465	1555
251.698	1436
251.931	1454
252.164	1455
252.397	1407
252.63	1457
252.863	1553
253.096	1645
253.329	1660
253.562	1599
253.795	1572
254.028	1562
254.261	1593
254.494	1796
254.727	2062
254.96	2141
255.193	1976
255.426	1893
255.659	2055
255.892	2621
256.124	3236
256.357	2830
256.59	2222
256.823	1907
257.056	1791
257.289	1669
257.521	1694
257.754	1598
257.987	1588
258.22	1618
258.452	1620
258.685	1602
258.918	1638
259.151	1617
259.383	1695
259.616	1713
259.849	1702
260.081	1924
260.314	2028
260.547	1891
260.779	1830
261.012	1764
261.244	1753
261.477	1699
261.71	1698
261.942	1736
262.175	1757
262.407	1698
262.64	1626
262.872	1656
263.105	1669
263.337	1705
263.57	1673
263.802	1669
264.035	1710
264.267	1741
264.499	1716
264.732	1708
264.964	1704
265.197	1733
265.429	1761
265.661	1707
265.894	1748
266.126	1771
266.358	1784
266.591	1816
266.823	1887
267.055	1859
267.287	1860
267.52	1864
267.752	1872
267.984	1871
268.216	1911
268.448	1924
268.681	1981
268.913	2108
269.145	2225
269.377	2310
269.609	2231
269.841	2193
270.073	2292
270.306	2544
270.538	2623
270.77	2550
271.002	2412
271.234	2421
271.466	2553
271.698	2574
271.93	2614
272.162	2631
272.394	2564
272.626	2425
272.858	2281
273.09	2236
273.322	2282
273.553	2224
273.785	2257
274.017	2236
274.249	2276
274.481	2280
274.713	2256
274.945	2287
275.176	2324
275.408	2288
275.64	2300
275.872	2324
276.104	2326
276.335	2392
276.567	2466
276.799	2574
277.031	2803
277.262	2932
277.494	2813
277.726	2662
277.957	2585
278.189	2465
278.421	2482
278.652	2507
278.884	2453
279.115	2463
279.347	2481
279.579	2499
279.81	2533
280.042	2542
280.273	2592
280.505	2574
280.736	2553
280.968	2530
281.199	2519
281.431	2521
281.662	2512
281.894	2569
282.125	2553
282.356	2734
282.588	2809
282.819	2760
283.051	2583
283.282	2579
283.513	2558
283.745	2670
283.976	2660
284.207	2638
284.439	2659
284.67	2647
284.901	2680
285.132	2664
285.364	2696
285.595	2657
285.826	2638
286.057	2716
286.288	2708
286.52	2727
286.751	2693
286.982	2757
287.213	2809
287.444	2753
287.675	2809
287.906	2883
288.138	2928
288.369	2904
288.6	2903
288.831	2845
289.062	2862
289.293	2913
289.524	2845
289.755	2835
289.986	2815
290.217	2855
290.448	2840
290.679	2825
290.91	2880
291.141	2842
291.371	2847
291.602	2844
291.833	2808
292.064	2839
292.295	2829
292.526	2850
292.757	2883
292.987	2803
293.218	2808
293.449	2862
293.68	2831
293.91	2864
294.141	2802
294.372	2817
294.603	2854
294.833	2858
295.064	2873
295.295	2933
295.525	2867
295.756	2978
295.987	3090
296.217	3121
296.448	3133
296.679	2924
296.909	2918
297.14	2943
297.37	3012
297.601	3048
297.831	3058
298.062	3062
298.292	3100
298.523	3122
298.753	3111
298.984	3128
299.214	3112
299.445	3098
299.675	3161
299.905	3157
300.136	3114
300.366	3136
300.597	3236
300.827	3294
301.057	3315
301.288	3369
301.518	3324
301.748	3335
301.979	3416
302.209	3364
302.439	3426
302.669	3317
302.9	3242
303.13	3282
303.36	3396
303.59	3356
303.82	3427
304.051	3347
304.281	3280
304.511	3300
304.741	3312
304.971	3306
305.201	3305
305.431	3284
305.661	3266
305.891	3244
306.121	3281
306.352	3330
306.582	3306
306.812	3217
307.042	3246
307.272	3329
307.502	3383
307.731	3388
307.961	3305
308.191	3289
308.421	3292
308.651	3365
308.881	3321
309.111	3442
309.341	3345
309.571	3476
309.8	3450
310.03	3518
310.26	3585
310.49	3505
310.72	3652
310.949	3758
311.179	3727
311.409	3609
311.639	3603
311.868	3655
312.098	3641
312.328	3723
312.557	3823
312.787	3921
313.017	3858
313.246	3763
313.476	3673
313.706	3746
313.935	3853
314.165	3934
314.394	3953
314.624	3898
314.853	3742
315.083	3764
315.312	3727
315.542	3686
315.771	3686
316.001	3615
316.23	3608
316.46	3684
316.689	3766
316.919	3724
317.148	3730
317.377	3812
317.607	3752
317.836	3727
318.065	3623
318.295	3680
318.524	3693
318.753	3658
318.983	3695
319.212	3664
319.441	3741
319.67	3790
319.9	3726
320.129	3688
320.358	3717
320.587	3698
320.816	3822
321.046	3884
321.275	3822
321.504	3859
321.733	3888
321.962	3928
322.191	4010
322.42	4040
322.649	4141
322.878	4230
323.108	4374
323.337	4546
323.566	4647
323.795	4928
324.024	5435
324.253	6950
324.482	10117
324.71	14619
324.939	15626
325.168	11684
325.397	6295
325.626	5253
325.855	4908
326.084	4819
326.313	4852
326.542	4955
326.77	5578
326.999	6814
327.228	9692
327.457	13798
327.686	13126
327.914	7664
328.143	6692
328.372	6734
328.6	5892
328.829	5671
329.058	5746
329.287	5792
329.515	5678
329.744	5922
329.972	6711
330.201	7922
330.43	8492
330.658	7205
330.887	6418
331.115	5849
331.344	5325
331.572	5242
331.801	5333
332.03	5321
332.258	5276
332.486	5262
332.715	5437
332.943	5594
333.172	5840
333.4	6102
333.629	6497
333.857	6973
334.085	7854
334.314	9228
334.542	10749
334.771	10032
334.999	7214
335.227	6354
335.455	5877
335.684	5606
335.912	5329
336.14	5234
336.369	5196
336.597	5181
336.825	5088
337.053	5018
337.281	4869
337.51	4812
337.738	4812
337.966	4757
338.194	4794
338.422	4674
338.65	4609
338.878	4581
339.106	4544
339.334	4582
339.562	4471
339.79	4380
340.018	4420
340.246	4384
340.474	4447
340.702	4404
340.93	4414
341.158	4391
341.386	4447
341.614	4379
341.842	4285
342.07	4286
342.298	4261
342.526	4269
342.754	4322
342.981	4272
343.209	4438
343.437	4660
343.665	4917
343.893	5108
344.12	5181
344.348	4948
344.576	4753
344.804	4666
345.031	4604
345.259	4549
345.487	4438
345.714	4297
345.942	4226
346.17	4175
346.397	4176
346.625	4130
346.853	4163
347.08	4120
347.308	4191
347.535	4276
347.763	4376
347.99	4243
348.218	4242
348.445	4297
348.673	4190
348.9	4172
349.128	4124
349.355	4038
349.583	4023
349.81	4022
350.037	4066
350.265	3968
350.492	4026
350.72	4008
350.947	4092
351.174	4174
351.402	4181
351.629	4106
351.856	4215
352.083	4209
352.311	4221
352.538	4165
352.765	4148
352.992	4093
353.22	4078
353.447	4083
353.674	4000
353.901	3998
354.128	3976
354.355	3924
354.583	3992
354.81	3939
355.037	3900
355.264	3953
355.491	3914
355.718	3936
355.945	3913
356.172	3985
356.399	3908
356.626	3933
356.853	3971
357.08	3923
357.307	3973
357.534	3893
357.761	3984
357.988	3992
358.215	3976
358.441	3974
358.668	3993
358.895	4055
359.122	4036
359.349	4133
359.576	4256
359.802	4367
360.029	4561
360.256	4487
360.483	4377
360.709	4148
360.936	4084
361.163	4113
361.39	4175
361.616	4182
361.843	4130
362.07	4093
362.296	4146
362.523	4074
362.749	4142
362.976	4112
363.203	4052
363.429	3982
363.656	4053
363.882	4089
364.109	4004
364.335	3975
364.562	3969
364.788	4071
365.015	3983
365.241	4018
365.468	4005
365.694	4064
365.92	4031
366.147	4024
366.373	4006
366.599	4000
366.826	4000
367.052	3949
367.278	4035
367.505	4056
367.731	4097
367.957	4020
368.184	4064
368.41	4184
368.636	4152
368.862	4252
369.089	4134
369.315	4074
369.541	4103
369.767	4188
369.993	4158
370.219	4199
370.445	4177
370.672	4234
370.898	4216
371.124	4232
371.35	4357
371.576	4288
371.802	4240
372.028	4263
372.254	4306
372.48	4319
372.706	4400
372.932	4380
373.158	4365
373.384	4355
373.61	4300
373.835	4365
374.061	4414
374.287	4425
374.513	4445
374.739	4620
374.965	4706
375.191	4746
375.416	4640
375.642	4513
375.868	4422
376.094	4400
376.319	4338
376.545	4320
376.771	4359
376.997	4255
377.222	4279
377.448	4309
377.674	4289
377.899	4188
378.125	4254
378.35	4268
378.576	4176
378.802	4180
379.027	4177
379.253	4322
379.478	4191
379.704	4249
379.929	4285
380.155	4278
380.38	4199
380.606	4308
380.831	4272
381.057	4286
381.282	4318
381.507	4297
381.733	4421
381.958	4373
382.184	4496
382.409	4496
382.634	4466
382.86	4522
383.085	4544
383.31	4719
383.535	4696
383.761	4736
383.986	4867
384.211	4923
384.436	5028
384.662	5080
384.887	5118
385.112	5151
385.337	5245
385.562	5288
385.787	5244
386.013	5245
386.238	5257
386.463	5319
386.688	5246
386.913	5260
387.138	5161
387.363	5161
387.588	5069
387.813	5129
388.038	5120
388.263	5224
388.488	5241
388.713	5091
388.938	5135
389.163	5090
389.387	5072
389.612	5043
389.837	4997
390.062	4977
390.287	5002
390.512	5074
390.736	5095
390.961	5165
391.186	5276
391.411	5373
391.636	5534
391.86	5638
392.085	5716
392.31	5661
392.534	5481
392.759	5440
392.984	5346
393.208	5291
393.433	5312
393.658	5319
393.882	5263
394.107	5391
394.331	5505
394.556	5373
394.78	5501
395.005	5527
395.229	5480
395.454	5671
395.678	5760
395.903	5757
396.127	5758
396.352	5605
396.576	5465
396.801	5442
397.025	5509
397.249	5597
397.474	5654
397.698	5744
397.922	5913
398.147	5972
398.371	6123
398.595	6237
398.82	6530
399.044	7039
399.268	7849
399.492	8805
399.717	9442
399.941	9202
400.165	8638
400.389	7873
400.613	7124
400.837	6738
401.062	6669
401.286	6508
401.51	6404
401.734	6399
401.958	6508
402.182	6664
402.406	6775
402.63	6757
402.854	6816
403.078	6936
403.302	7108
403.526	7253
403.75	7328
403.974	7450
404.198	7390
404.422	7548
404.645	7590
404.869	7701
405.093	8270
405.317	8645
405.541	8496
405.765	7668
405.988	7398
406.212	7462
406.436	7565
406.66	7685
406.883	7648
407.107	8248
407.331	8753
407.555	9283
407.778	8884
408.002	8130
408.226	7864
408.449	7726
408.673	7593
408.896	7648
409.12	7771
409.344	7384
409.567	7196
409.791	7160
410.014	6950
410.238	6899
410.461	6928
410.685	6994
410.908	7035
411.132	7287
411.355	7239
411.578	6970
411.802	6877
412.025	6976
412.249	7303
412.472	7746
412.695	8294
412.919	7644
413.142	7090
413.365	6924
413.589	6719
413.812	6541
414.035	6437
414.258	6502
414.482	6511
414.705	6564
414.928	6478
415.151	6403
415.374	6399
415.597	6321
415.821	6349
416.044	6302
416.267	6265
416.49	6192
416.713	6187
416.936	6263
417.159	6323
417.382	6453
417.605	6496
417.828	6598
418.051	6576
418.274	6590
418.497	6407
418.72	6550
418.943	6521
419.166	6846
419.389	7362
419.611	7315
419.834	7113
420.057	7154
420.28	7253
420.503	7123
420.726	6909
420.948	6926
421.171	7209
421.394	7066
421.617	6600
421.839	6439
422.062	6586
422.285	6773
422.507	7332
422.73	7729
422.953	7221
423.175	6914
423.398	6913
423.621	6885
423.843	7037
424.066	7113
424.288	6961
424.511	7150
424.733	7593
424.956	7972
425.178	7504
425.401	7714
425.623	7579
425.846	6730
426.068	6482
426.291	6468
426.513	6379
426.735	6470
426.958	7040
427.18	7648
427.402	8746
427.625	9045
427.847	7992
428.069	7710
428.292	6857
428.514	6251
428.736	5989
428.958	5967
429.181	5742
429.403	5804
429.625	5941
429.847	6250
430.069	6674
430.292	6242
430.514	5724
430.736	5721
430.958	5680
431.18	5616
431.402	5566
431.624	5542
431.846	5663
432.068	5674
432.29	5786
432.512	5698
432.734	5766
432.956	5661
433.178	5731
433.4	5744
433.622	5718
433.844	5763
434.066	5752
434.287	5831
434.509	6042
434.731	6288
434.953	6254
435.175	6436
435.397	6527
435.618	6485
435.84	6814
436.062	7539
436.284	7450
436.505	6351
436.727	6074
436.949	5881
437.17	5741
437.392	5721
437.614	5854
437.835	6150
438.057	7038
438.278	7744
438.5	7592
438.721	8368
438.943	7247
439.165	6164
439.386	6092
439.608	6150
439.829	6212
440.05	6583
440.272	6867
440.493	6276
440.715	6010
440.936	5982
441.158	6103
441.379	6160
441.6	6519
441.822	6686
442.043	7040
442.264	7804
442.486	7473
442.707	6682
442.928	6566
443.149	6808
443.371	6878
443.592	7483
443.813	8376
444.034	8303
444.255	7360
444.476	7225
444.698	7327
444.919	7388
445.14	7190
445.361	7127
445.582	7207
445.803	7800
446.024	8309
446.245	7966
446.466	7185
446.687	6260
446.908	6020
447.129	5626
447.35	5517
447.571	5592
447.792	5401
448.013	5467
448.234	5652
448.455	6382
448.675	7377
448.896	7797
449.117	6467
449.338	6688
449.559	7968
449.779	8124
450	6156
450.221	5600
450.442	5497
450.662	5398
450.883	5364
451.104	5541
451.324	5334
451.545	5263
451.766	5105
451.986	5058
452.207	5017
452.428	4980
452.648	4946
452.869	5019
453.089	5074
453.31	5097
453.53	5033
453.751	4978
453.971	5012
454.192	5080
454.412	4897
454.633	4848
454.853	4837
455.073	4876
455.294	5180
455.514	5646
455.734	5216
455.955	4775
456.175	4708
456.395	4597
456.616	4601
456.836	4593
457.056	4609
457.276	4565
457.497	4775
457.717	4726
457.937	4806
458.157	4847
458.377	4964
458.598	5212
458.818	5802
459.038	6517
459.258	6465
459.478	5821
459.698	5697
459.918	5796
460.138	6012
460.358	6201
460.578	6228
460.798	6272
461.018	6348
461.238	6161
461.458	6151
461.678	6112
461.898	6278
462.118	6297
462.338	6701
462.558	6799
462.777	7149
462.997	7620
463.217	8124
463.437	7847
463.657	7296
463.876	7120
464.096	7072
464.316	7123
464.536	7112
464.755	6914
464.975	6804
465.195	6937
465.414	6860
465.634	6126
465.854	5841
466.073	5662
466.293	5456
466.512	5280
466.732	5214
466.951	5207
467.171	5202
467.391	5331
467.61	5411
467.829	5399
468.049	5639
468.268	5945
468.488	5465
468.707	5207
468.927	5123
469.146	5082
469.365	5092
469.585	5080
469.804	5288
470.023	5424
470.243	5424
470.462	5470
470.681	5655
470.901	5555
471.12	5477
471.339	5410
471.558	5416
471.777	5414
471.997	5455
472.216	6336
472.435	7930
472.654	6836
472.873	5880
473.092	5538
473.311	5380
473.53	5262
473.749	5348
473.968	5719
474.187	6549
474.406	6150
474.625	5414
474.844	5146
475.063	5060
475.282	5144
475.501	5184
475.72	5118
475.939	5209
476.158	5194
476.377	5204
476.596	5221
476.814	5295
477.033	5356
477.252	5439
477.471	5597
477.69	5664
477.908	5821
478.127	5954
478.346	6043
478.564	6115
478.783	6166
479.002	6392
479.22	6393
479.439	6500
479.658	6525
479.876	6720
480.095	6822
480.313	7310
480.532	7384
480.751	7382
480.969	8196
481.188	11322
481.406	11287
481.624	8556
481.843	7518
482.061	6948
482.28	6564
482.498	6418
482.717	6284
482.935	6204
483.153	6145
483.372	6061
483.59	6102
483.808	6059
484.027	6090
484.245	6115
484.463	6125
484.681	6230
484.9	6223
485.118	6327
485.336	6377
485.554	6343
485.772	6403
485.99	6374
486.209	6476
486.427	6439
486.645	6512
486.863	6491
487.081	6546
487.299	6523
487.517	6436
487.735	6380
487.953	6498
488.171	6368
488.389	6468
488.607	6463
488.825	6478
489.043	6494
489.261	6643
489.479	6710
489.696	6645
489.914	6805
490.132	6949
490.35	7020
490.568	7181
490.786	7335
491.003	7347
491.221	7677
491.439	7877
491.657	8021
491.874	8064
492.092	8161
492.31	8140
492.527	8385
492.745	8628
492.963	8552
493.18	8465
493.398	8502
493.615	8323
493.833	8340
494.05	8277
494.268	8063
494.485	8024
494.703	8052
494.92	7926
495.138	7942
495.355	7928
495.573	7821
495.79	7813
496.008	7844
496.225	7752
496.442	7858
496.66	7772
496.877	7767
497.094	7795
497.312	8003
497.529	8174
497.746	8358
497.963	8554
498.181	8997
498.398	9163
498.615	9534
498.832	10000
499.049	10497
499.267	11097
499.484	11829
499.701	12656
499.918	13401
500.135	14248
500.352	14872
500.569	15063
500.786	14994
501.003	14479
501.22	13889
501.437	13071
501.654	12110
501.871	11495
502.088	10691
502.305	10130
502.522	9585
502.739	9307
502.956	8756
503.172	8526
503.389	8278
503.606	8082
503.823	8010
504.04	7975
504.256	7943
504.473	8249
504.69	8185
504.907	7952
505.123	7605
505.34	7358
505.557	7142
505.773	7013
505.99	6936
506.207	6887
506.423	6813
506.64	6738
506.856	6630
507.073	6560
507.289	6464
507.506	6510
507.722	6624
507.939	6551
508.155	6427
508.372	6252
508.588	6141
508.805	6122
509.021	6327
509.238	6382
509.454	6343
509.67	6274
509.887	6077
510.103	6052
510.319	6205
510.536	7210
510.752	10020
510.968	7103
511.184	6028
511.401	6051
511.617	6161
511.833	6548
512.049	6647
512.265	6397
512.481	6224
512.698	6061
512.914	5985
513.13	5880
513.346	5785
513.562	5860
513.778	5841
513.994	5798
514.21	5953
514.426	6140
514.642	6411
514.858	6534
515.074	6778
515.29	7876
515.506	9950
515.721	7627
515.937	6728
516.153	6535
516.369	6547
516.585	6572
516.801	6762
517.016	6866
517.232	7085
517.448	7264
517.664	7484
517.879	7464
518.095	7407
518.311	7204
518.527	7015
518.742	6863
518.958	6603
519.173	6349
519.389	6248
519.605	6145
519.82	6082
520.036	6130
520.251	6250
520.467	6312
520.682	6205
520.898	6167
521.113	6294
521.329	6409
521.544	7045
521.76	8585
521.975	12393
522.19	9768
522.406	6556
522.621	5896
522.836	5620
523.052	5448
523.267	5246
523.482	5215
523.698	5192
523.913	5259
524.128	5055
524.343	5024
524.559	4983
524.774	4966
524.989	4928
525.204	5006
525.419	5017
525.634	4840
525.849	4782
526.064	4802
526.28	4831
526.495	4737
526.71	4757
526.925	4756
527.14	4750
527.355	4707
527.57	4700
527.785	4718
527.999	4724
528.214	4789
528.429	4740
528.644	4721
528.859	4611
529.074	4664
529.289	4857
529.503	5314
529.718	5095
529.933	4890
530.148	4759
530.363	4687
530.577	4648
530.792	4628
531.007	4700
531.221	4677
531.436	4663
531.651	4656
531.865	4645
532.08	4686
532.295	4589
532.509	4616
532.724	4594
532.938	4627
533.153	4588
533.367	4588
533.582	4634
533.796	4603
534.011	4583
534.225	4593
534.44	4528
534.654	4462
534.868	4520
535.083	4530
535.297	4610
535.511	4536
535.726	4526
535.94	4534
536.154	4395
536.369	4410
536.583	4323
536.797	4340
537.011	4276
537.225	4242
537.44	4248
537.654	4277
537.868	4303
538.082	4337
538.296	4282
538.51	4241
538.724	4217
538.938	4207
539.153	4184
539.367	4257
539.581	4266
539.795	4196
540.009	4211
540.222	4113
540.436	4170
540.65	4177
540.864	4182
541.078	4266
541.292	4235
541.506	4152
541.72	4120
541.934	4000
542.147	4076
