Data from Circ_1990_H10_HRD10591_00045.txt Node
Date: Wed Jan 03 11:55:13 EST 2024
User: Yrep
Spectrometer: HR+D1059
Trigger mode: 1
Integration Time (sec): 1.000000E-1
Scans to average: 1
Electric dark correction enabled: true
Nonlinearity correction enabled: false
Boxcar width: 0
XAxis mode: Wavelengths
Number of Pixels in Spectrum: 2048
>>>>>Begin Spectral Data<<<<<
223.165	-11.69
223.4	-11.69
223.635	-11.69
223.869	-26.69
224.104	-19.69
224.338	-15.69
224.573	-23.69
224.808	-15.69
225.042	-18.69
225.277	-9.69
225.511	-7.69
225.746	7.31
225.98	16.31
226.215	22.31
226.449	29.31
226.683	21.31
226.918	16.31
227.152	36.31
227.387	36.31
227.621	43.31
227.856	51.31
228.09	43.31
228.324	57.31
228.559	52.31
228.793	49.31
229.027	72.31
229.262	66.31
229.496	67.31
229.73	85.31
229.964	92.31
230.199	76.31
230.433	58.31
230.667	86.31
230.901	68.31
231.136	76.31
231.37	95.31
231.604	86.31
231.838	73.31
232.072	89.31
232.306	84.31
232.541	78.31
232.775	87.31
233.009	85.31
233.243	86.31
233.477	82.31
233.711	87.31
233.945	76.31
234.179	89.31
234.413	80.31
234.647	78.31
234.881	76.31
235.115	79.31
235.349	82.31
235.583	87.31
235.817	72.31
236.051	68.31
236.285	74.31
236.519	78.31
236.753	82.31
236.987	93.31
237.221	81.31
237.455	80.31
237.689	61.31
237.922	80.31
238.156	72.31
238.39	96.31
238.624	77.31
238.858	70.31
239.091	87.31
239.325	74.31
239.559	86.31
239.793	72.31
240.027	73.31
240.26	92.31
240.494	77.31
240.728	90.31
240.961	89.31
241.195	69.31
241.429	76.31
241.662	84.31
241.896	89.31
242.13	80.31
242.363	86.31
242.597	85.31
242.83	81.31
243.064	87.31
243.298	81.31
243.531	73.31
243.765	84.31
243.998	78.31
244.232	83.31
244.465	76.31
244.699	93.31
244.932	83.31
245.166	71.31
245.399	83.31
245.633	76.31
245.866	86.31
246.099	83.31
246.333	85.31
246.566	78.31
246.8	76.31
247.033	79.31
247.266	77.31
247.5	79.31
247.733	76.31
247.966	76.31
248.2	78.31
248.433	79.31
248.666	81.31
248.899	88.31
249.133	85.31
249.366	97.31
249.599	95.31
249.832	88.31
250.066	80.31
250.299	94.31
250.532	86.31
250.765	95.31
250.998	91.31
251.231	72.31
251.465	88.31
251.698	80.31
251.931	84.31
252.164	92.31
252.397	92.31
252.63	95.31
252.863	78.31
253.096	76.31
253.329	87.31
253.562	81.31
253.795	86.31
254.028	78.31
254.261	85.31
254.494	79.31
254.727	82.31
254.96	87.31
255.193	73.31
255.426	88.31
255.659	84.31
255.892	97.31
256.124	94.31
256.357	84.31
256.59	86.31
256.823	83.31
257.056	93.31
257.289	92.31
257.521	66.31
257.754	76.31
257.987	84.31
258.22	104.31
258.452	89.31
258.685	78.31
258.918	79.31
259.151	96.31
259.383	79.31
259.616	80.31
259.849	90.31
260.081	68.31
260.314	92.31
260.547	76.31
260.779	85.31
261.012	89.31
261.244	85.31
261.477	84.31
261.71	89.31
261.942	130.31
262.175	115.31
262.407	111.31
262.64	84.31
262.872	86.31
263.105	85.31
263.337	97.31
263.57	77.31
263.802	85.31
264.035	88.31
264.267	84.31
264.499	88.31
264.732	101.31
264.964	80.31
265.197	72.31
265.429	73.31
265.661	72.31
265.894	76.31
266.126	100.31
266.358	82.31
266.591	69.31
266.823	89.31
267.055	86.31
267.287	82.31
267.52	89.31
267.752	84.31
267.984	96.31
268.216	89.31
268.448	93.31
268.681	80.31
268.913	84.31
269.145	98.31
269.377	91.31
269.609	78.31
269.841	87.31
270.073	84.31
270.306	86.31
270.538	84.31
270.77	79.31
271.002	101.31
271.234	100.31
271.466	85.31
271.698	88.31
271.93	77.31
272.162	84.31
272.394	89.31
272.626	78.31
272.858	93.31
273.09	104.31
273.322	85.31
273.553	72.31
273.785	90.31
274.017	82.31
274.249	80.31
274.481	85.31
274.713	98.31
274.945	94.31
275.176	77.31
275.408	77.31
275.64	91.31
275.872	107.31
276.104	86.31
276.335	100.31
276.567	103.31
276.799	109.31
277.031	121.31
277.262	119.31
277.494	90.31
277.726	95.31
277.957	94.31
278.189	94.31
278.421	84.31
278.652	87.31
278.884	84.31
279.115	84.31
279.347	93.31
279.579	94.31
279.81	97.31
280.042	95.31
280.273	144.31
280.505	105.31
280.736	97.31
280.968	89.31
281.199	103.31
281.431	95.31
281.662	77.31
281.894	95.31
282.125	90.31
282.356	114.31
282.588	141.31
282.819	104.31
283.051	96.31
283.282	99.31
283.513	86.31
283.745	90.31
283.976	80.31
284.207	103.31
284.439	85.31
284.67	88.31
284.901	85.31
285.132	93.31
285.364	94.31
285.595	89.31
285.826	86.31
286.057	90.31
286.288	88.31
286.52	79.31
286.751	80.31
286.982	94.31
287.213	87.31
287.444	88.31
287.675	92.31
287.906	100.31
288.138	88.31
288.369	90.31
288.6	99.31
288.831	81.31
289.062	85.31
289.293	85.31
289.524	86.31
289.755	99.31
289.986	76.31
290.217	86.31
290.448	85.31
290.679	85.31
290.91	82.31
291.141	74.31
291.371	91.31
291.602	100.31
291.833	95.31
292.064	99.31
292.295	93.31
292.526	88.31
292.757	94.31
292.987	110.31
293.218	92.31
293.449	80.31
293.68	92.31
293.91	90.31
294.141	107.31
294.372	89.31
294.603	69.31
294.833	110.31
295.064	86.31
295.295	91.31
295.525	93.31
295.756	102.31
295.987	114.31
296.217	133.31
296.448	123.31
296.679	102.31
296.909	99.31
297.14	95.31
297.37	83.31
297.601	94.31
297.831	96.31
298.062	87.31
298.292	98.31
298.523	89.31
298.753	94.31
298.984	95.31
299.214	93.31
299.445	86.31
299.675	100.31
299.905	105.31
300.136	83.31
300.366	88.31
300.597	84.31
300.827	104.31
301.057	93.31
301.288	97.31
301.518	98.31
301.748	93.31
301.979	113.31
302.209	87.31
302.439	86.31
302.669	90.31
302.9	89.31
303.13	94.31
303.36	112.31
303.59	112.31
303.82	121.31
304.051	110.31
304.281	74.31
304.511	94.31
304.741	98.31
304.971	96.31
305.201	91.31
305.431	93.31
305.661	85.31
305.891	80.31
306.121	110.31
306.352	105.31
306.582	106.31
306.812	105.31
307.042	120.31
307.272	113.31
307.502	122.31
307.731	135.31
307.961	111.31
308.191	96.31
308.421	94.31
308.651	93.31
308.881	98.31
309.111	105.31
309.341	72.31
309.571	100.31
309.8	85.31
310.03	97.31
310.26	96.31
310.49	97.31
310.72	103.31
310.949	106.31
311.179	96.31
311.409	104.31
311.639	93.31
311.868	97.31
312.098	110.31
312.328	96.31
312.557	108.31
312.787	112.31
313.017	93.31
313.246	86.31
313.476	85.31
313.706	101.31
313.935	112.31
314.165	105.31
314.394	103.31
314.624	103.31
314.853	111.31
315.083	101.31
315.312	85.31
315.542	98.31
315.771	103.31
316.001	85.31
316.23	101.31
316.46	109.31
316.689	91.31
316.919	99.31
317.148	106.31
317.377	102.31
317.607	104.31
317.836	90.31
318.065	78.31
318.295	98.31
318.524	105.31
318.753	96.31
318.983	96.31
319.212	115.31
319.441	111.31
319.67	109.31
319.9	101.31
320.129	86.31
320.358	96.31
320.587	113.31
320.816	106.31
321.046	108.31
321.275	116.31
321.504	102.31
321.733	93.31
321.962	96.31
322.191	96.31
322.42	113.31
322.649	127.31
322.878	115.31
323.108	118.31
323.337	119.31
323.566	130.31
323.795	149.31
324.024	217.31
324.253	382.31
324.482	809.31
324.71	1660.31
324.939	2238.31
325.168	796.31
325.397	255.31
325.626	152.31
325.855	146.31
326.084	135.31
326.313	128.31
326.542	136.31
326.77	227.31
326.999	442.31
327.228	898.31
327.457	1664.31
327.686	1321.31
327.914	414.31
328.143	281.31
328.372	311.31
328.6	188.31
328.829	156.31
329.058	145.31
329.287	144.31
329.515	144.31
329.744	144.31
329.972	212.31
330.201	364.31
330.43	521.31
330.658	262.31
330.887	174.31
331.115	161.31
331.344	106.31
331.572	108.31
331.801	108.31
332.03	117.31
332.258	105.31
332.486	106.31
332.715	102.31
332.943	116.31
333.172	111.31
333.4	121.31
333.629	122.31
333.857	151.31
334.085	213.31
334.314	342.31
334.542	666.31
334.771	607.31
334.999	212.31
335.227	137.31
335.455	98.31
335.684	112.31
335.912	97.31
336.14	114.31
336.369	103.31
336.597	102.31
336.825	94.31
337.053	85.31
337.281	99.31
337.51	81.31
337.738	92.31
337.966	80.31
338.194	110.31
338.422	95.31
338.65	82.31
338.878	88.31
339.106	81.31
339.334	95.31
339.562	100.31
339.79	89.31
340.018	87.31
340.246	106.31
340.474	94.31
340.702	92.31
340.93	92.31
341.158	100.31
341.386	94.31
341.614	89.31
341.842	92.31
342.07	95.31
342.298	89.31
342.526	97.31
342.754	88.31
342.981	93.31
343.209	92.31
343.437	100.31
343.665	101.31
343.893	85.31
344.12	80.31
344.348	92.31
344.576	89.31
344.804	101.31
345.031	99.31
345.259	100.31
345.487	88.31
345.714	100.31
345.942	95.31
346.17	94.31
346.397	92.31
346.625	89.31
346.853	96.31
347.08	94.31
347.308	103.31
347.535	87.31
347.763	104.31
347.99	95.31
348.218	109.31
348.445	94.31
348.673	97.31
348.9	96.31
349.128	97.31
349.355	104.31
349.583	89.31
349.81	98.31
350.037	101.31
350.265	86.31
350.492	92.31
350.72	119.31
350.947	105.31
351.174	114.31
351.402	121.31
351.629	115.31
351.856	105.31
352.083	105.31
352.311	97.31
352.538	103.31
352.765	104.31
352.992	119.31
353.22	125.31
353.447	104.31
353.674	103.31
353.901	94.31
354.128	95.31
354.355	89.31
354.583	94.31
354.81	103.31
355.037	100.31
355.264	94.31
355.491	98.31
355.718	110.31
355.945	93.31
356.172	92.31
356.399	102.31
356.626	92.31
356.853	113.31
357.08	87.31
357.307	86.31
357.534	92.31
357.761	96.31
357.988	108.31
358.215	106.31
358.441	100.31
358.668	98.31
358.895	89.31
359.122	107.31
359.349	101.31
359.576	91.31
359.802	98.31
360.029	120.31
360.256	119.31
360.483	103.31
360.709	97.31
360.936	90.31
361.163	98.31
361.39	106.31
361.616	101.31
361.843	98.31
362.07	94.31
362.296	94.31
362.523	100.31
362.749	94.31
362.976	105.31
363.203	101.31
363.429	81.31
363.656	91.31
363.882	87.31
364.109	97.31
364.335	84.31
364.562	103.31
364.788	104.31
365.015	97.31
365.241	108.31
365.468	111.31
365.694	96.31
365.92	103.31
366.147	84.31
366.373	95.31
366.599	94.31
366.826	96.31
367.052	98.31
367.278	100.31
367.505	89.31
367.731	94.31
367.957	86.31
368.184	85.31
368.41	118.31
368.636	114.31
368.862	118.31
369.089	111.31
369.315	98.31
369.541	95.31
369.767	94.31
369.993	93.31
370.219	81.31
370.445	102.31
370.672	101.31
370.898	93.31
371.124	93.31
371.35	93.31
371.576	98.31
371.802	96.31
372.028	95.31
372.254	96.31
372.48	85.31
372.706	95.31
372.932	88.31
373.158	93.31
373.384	80.31
373.61	103.31
373.835	97.31
374.061	100.31
374.287	88.31
374.513	94.31
374.739	89.31
374.965	104.31
375.191	88.31
375.416	95.31
375.642	90.31
375.868	92.31
376.094	94.31
376.319	93.31
376.545	115.31
376.771	102.31
376.997	106.31
377.222	104.31
377.448	103.31
377.674	103.31
377.899	85.31
378.125	93.31
378.35	100.31
378.576	88.31
378.802	95.31
379.027	91.31
379.253	100.31
379.478	124.31
379.704	84.31
379.929	101.31
380.155	95.31
380.38	89.31
380.606	97.31
380.831	105.31
381.057	101.31
381.282	122.31
381.507	103.31
381.733	98.31
381.958	102.31
382.184	104.31
382.409	114.31
382.634	120.31
382.86	111.31
383.085	109.31
383.31	104.31
383.535	111.31
383.761	114.31
383.986	101.31
384.211	110.31
384.436	111.31
384.662	105.31
384.887	122.31
385.112	110.31
385.337	109.31
385.562	133.31
385.787	114.31
386.013	129.31
386.238	128.31
386.463	116.31
386.688	121.31
386.913	122.31
387.138	113.31
387.363	124.31
387.588	106.31
387.813	116.31
388.038	101.31
388.263	125.31
388.488	118.31
388.713	118.31
388.938	86.31
389.163	84.31
389.387	90.31
389.612	93.31
389.837	89.31
390.062	86.31
390.287	86.31
390.512	88.31
390.736	97.31
390.961	96.31
391.186	108.31
391.411	94.31
391.636	96.31
391.86	90.31
392.085	92.31
392.31	80.31
392.534	76.31
392.759	87.31
392.984	96.31
393.208	102.31
393.433	99.31
393.658	89.31
393.882	100.31
394.107	82.31
394.331	79.31
394.556	92.31
394.78	88.31
395.005	87.31
395.229	87.31
395.454	88.31
395.678	88.31
395.903	93.31
396.127	95.31
396.352	90.31
396.576	95.31
396.801	93.31
397.025	93.31
397.249	84.31
397.474	94.31
397.698	90.31
397.922	79.31
398.147	89.31
398.371	84.31
398.595	93.31
398.82	94.31
399.044	87.31
399.268	80.31
399.492	85.31
399.717	76.31
399.941	87.31
400.165	101.31
400.389	95.31
400.613	97.31
400.837	93.31
401.062	96.31
401.286	87.31
401.51	96.31
401.734	81.31
401.958	106.31
402.182	130.31
402.406	166.31
402.63	133.31
402.854	88.31
403.078	85.31
403.302	72.31
403.526	97.31
403.75	88.31
403.974	97.31
404.198	102.31
404.422	97.31
404.645	91.31
404.869	92.31
405.093	104.31
405.317	103.31
405.541	95.31
405.765	89.31
405.988	116.31
406.212	179.31
406.436	242.31
406.66	157.31
406.883	100.31
407.107	92.31
407.331	99.31
407.555	90.31
407.778	97.31
408.002	95.31
408.226	96.31
408.449	93.31
408.673	94.31
408.896	88.31
409.12	84.31
409.344	93.31
409.567	82.31
409.791	105.31
410.014	99.31
410.238	96.31
410.461	93.31
410.685	97.31
410.908	103.31
411.132	99.31
411.355	93.31
411.578	92.31
411.802	92.31
412.025	97.31
412.249	102.31
412.472	101.31
412.695	107.31
412.919	83.31
413.142	99.31
413.365	79.31
413.589	86.31
413.812	84.31
414.035	87.31
414.258	90.31
414.482	100.31
414.705	97.31
414.928	90.31
415.151	103.31
415.374	91.31
415.597	90.31
415.821	89.31
416.044	93.31
416.267	94.31
416.49	93.31
416.713	94.31
416.936	105.31
417.159	92.31
417.382	91.31
417.605	86.31
417.828	89.31
418.051	109.31
418.274	98.31
418.497	88.31
418.72	97.31
418.943	99.31
419.166	82.31
419.389	77.31
419.611	95.31
419.834	98.31
420.057	93.31
420.28	89.31
420.503	92.31
420.726	84.31
420.948	89.31
421.171	89.31
421.394	84.31
421.617	97.31
421.839	90.31
422.062	87.31
422.285	84.31
422.507	96.31
422.73	121.31
422.953	100.31
423.175	83.31
423.398	83.31
423.621	87.31
423.843	87.31
424.066	76.31
424.288	90.31
424.511	103.31
424.733	101.31
424.956	109.31
425.178	109.31
425.401	89.31
425.623	107.31
425.846	100.31
426.068	89.31
426.291	92.31
426.513	96.31
426.735	106.31
426.958	84.31
427.18	116.31
427.402	148.31
427.625	185.31
427.847	176.31
428.069	159.31
428.292	116.31
428.514	99.31
428.736	98.31
428.958	78.31
429.181	72.31
429.403	89.31
429.625	92.31
429.847	96.31
430.069	104.31
430.292	92.31
430.514	89.31
430.736	94.31
430.958	79.31
431.18	87.31
431.402	84.31
431.624	88.31
431.846	77.31
432.068	102.31
432.29	99.31
432.512	89.31
432.734	89.31
432.956	79.31
433.178	102.31
433.4	102.31
433.622	103.31
433.844	89.31
434.066	99.31
434.287	102.31
434.509	90.31
434.731	96.31
434.953	94.31
435.175	96.31
435.397	82.31
435.618	93.31
435.84	99.31
436.062	112.31
436.284	120.31
436.505	97.31
436.727	88.31
436.949	97.31
437.17	95.31
437.392	81.31
437.614	102.31
437.835	121.31
438.057	124.31
438.278	119.31
438.5	112.31
438.721	123.31
438.943	98.31
439.165	90.31
439.386	93.31
439.608	106.31
439.829	92.31
440.05	128.31
440.272	142.31
440.493	98.31
440.715	79.31
440.936	78.31
441.158	88.31
441.379	90.31
441.6	104.31
441.822	104.31
442.043	90.31
442.264	108.31
442.486	94.31
442.707	95.31
442.928	118.31
443.149	153.31
443.371	120.31
443.592	98.31
443.813	110.31
444.034	112.31
444.255	89.31
444.476	94.31
444.698	88.31
444.919	84.31
445.14	142.31
445.361	110.31
445.582	120.31
445.803	132.31
446.024	143.31
446.245	140.31
446.466	116.31
446.687	97.31
446.908	88.31
447.129	97.31
447.35	92.31
447.571	98.31
447.792	98.31
448.013	111.31
448.234	105.31
448.455	94.31
448.675	109.31
448.896	100.31
449.117	84.31
449.338	106.31
449.559	142.31
449.779	147.31
450	114.31
450.221	86.31
450.442	78.31
450.662	77.31
450.883	97.31
451.104	117.31
451.324	97.31
451.545	105.31
451.766	101.31
451.986	89.31
452.207	95.31
452.428	99.31
452.648	106.31
452.869	114.31
453.089	117.31
453.31	121.31
453.53	101.31
453.751	69.31
453.971	106.31
454.192	125.31
454.412	87.31
454.633	89.31
454.853	77.31
455.073	101.31
455.294	82.31
455.514	102.31
455.734	93.31
455.955	88.31
456.175	87.31
456.395	76.31
456.616	83.31
456.836	80.31
457.056	71.31
457.276	94.31
457.497	96.31
457.717	76.31
457.937	78.31
458.157	91.31
458.377	92.31
458.598	105.31
458.818	145.31
459.038	166.31
459.258	129.31
459.478	98.31
459.698	82.31
459.918	94.31
460.138	97.31
460.358	85.31
460.578	91.31
460.798	101.31
461.018	96.31
461.238	98.31
461.458	78.31
461.678	88.31
461.898	90.31
462.118	84.31
462.338	80.31
462.558	83.31
462.777	97.31
462.997	96.31
463.217	89.31
463.437	88.31
463.657	93.31
463.876	88.31
464.096	85.31
464.316	102.31
464.536	94.31
464.755	100.31
464.975	105.31
465.195	192.31
465.414	179.31
465.634	107.31
465.854	95.31
466.073	99.31
466.293	82.31
466.512	76.31
466.732	83.31
466.951	86.31
467.171	84.31
467.391	84.31
467.61	114.31
467.829	125.31
468.049	252.31
468.268	318.31
468.488	122.31
468.707	96.31
468.927	94.31
469.146	87.31
469.365	84.31
469.585	83.31
469.804	98.31
470.023	103.31
470.243	90.31
470.462	98.31
470.681	126.31
470.901	108.31
471.12	83.31
471.339	102.31
471.558	107.31
471.777	93.31
471.997	156.31
472.216	424.31
472.435	882.31
472.654	253.31
472.873	124.31
473.092	99.31
473.311	102.31
473.53	84.31
473.749	82.31
473.968	96.31
474.187	96.31
474.406	103.31
474.625	78.31
474.844	81.31
475.063	74.31
475.282	101.31
475.501	84.31
475.72	92.31
475.939	90.31
476.158	89.31
476.377	82.31
476.596	89.31
476.814	99.31
477.033	112.31
477.252	104.31
477.471	89.31
477.69	88.31
477.908	106.31
478.127	98.31
478.346	90.31
478.564	95.31
478.783	111.31
479.002	107.31
479.22	101.31
479.439	106.31
479.658	90.31
479.876	109.31
480.095	103.31
480.313	105.31
480.532	103.31
480.751	152.31
480.969	424.31
481.188	1508.31
481.406	903.31
481.624	199.31
481.843	98.31
482.061	91.31
482.28	98.31
482.498	87.31
482.717	79.31
482.935	81.31
483.153	77.31
483.372	88.31
483.59	104.31
483.808	100.31
484.027	84.31
484.245	89.31
484.463	97.31
484.681	93.31
484.9	102.31
485.118	96.31
485.336	92.31
485.554	95.31
485.772	112.31
485.99	124.31
486.209	102.31
486.427	89.31
486.645	107.31
486.863	127.31
487.081	97.31
487.299	100.31
487.517	98.31
487.735	86.31
487.953	104.31
488.171	106.31
488.389	92.31
488.607	106.31
488.825	86.31
489.043	76.31
489.261	97.31
489.479	86.31
489.696	91.31
489.914	98.31
490.132	104.31
490.35	97.31
490.568	88.31
490.786	88.31
491.003	99.31
491.221	80.31
491.439	96.31
491.657	88.31
491.874	93.31
492.092	98.31
492.31	107.31
492.527	78.31
492.745	98.31
492.963	90.31
493.18	108.31
493.398	94.31
493.615	101.31
493.833	92.31
494.05	109.31
494.268	77.31
494.485	97.31
494.703	84.31
494.92	80.31
495.138	87.31
495.355	100.31
495.573	103.31
495.79	101.31
496.008	105.31
496.225	88.31
496.442	90.31
496.66	83.31
496.877	84.31
497.094	99.31
497.312	85.31
497.529	96.31
497.746	95.31
497.963	98.31
498.181	99.31
498.398	95.31
498.615	115.31
498.832	103.31
499.049	110.31
499.267	113.31
499.484	83.31
499.701	86.31
499.918	95.31
500.135	97.31
500.352	95.31
500.569	90.31
500.786	98.31
501.003	81.31
501.22	86.31
501.437	98.31
501.654	101.31
501.871	105.31
502.088	98.31
502.305	87.31
502.522	88.31
502.739	98.31
502.956	86.31
503.172	89.31
503.389	93.31
503.606	120.31
503.823	103.31
504.04	93.31
504.256	82.31
504.473	103.31
504.69	98.31
504.907	95.31
505.123	100.31
505.34	92.31
505.557	116.31
505.773	106.31
505.99	84.31
506.207	97.31
506.423	102.31
506.64	83.31
506.856	92.31
507.073	98.31
507.289	99.31
507.506	93.31
507.722	112.31
507.939	121.31
508.155	110.31
508.372	103.31
508.588	102.31
508.805	101.31
509.021	88.31
509.238	103.31
509.454	90.31
509.67	98.31
509.887	103.31
510.103	132.31
510.319	194.31
510.536	733.31
510.752	2434.31
510.968	658.31
511.184	164.31
511.401	113.31
511.617	103.31
511.833	107.31
512.049	103.31
512.265	106.31
512.481	82.31
512.698	90.31
512.914	89.31
513.13	100.31
513.346	94.31
513.562	93.31
513.778	98.31
