Data from Circ_1990_H10_HRD10591_00089.txt Node
Date: Wed Jan 03 11:55:21 EST 2024
User: Yrep
Spectrometer: HR+D1059
Trigger mode: 1
Integration Time (sec): 1.000000E-1
Scans to average: 1
Electric dark correction enabled: true
Nonlinearity correction enabled: false
Boxcar width: 0
XAxis mode: Wavelengths
Number of Pixels in Spectrum: 2048
>>>>>Begin Spectral Data<<<<<
223.165	-29.31
223.4	-29.31
223.635	-29.31
223.869	-18.31
224.104	-16.31
224.338	-25.31
224.573	-4.31
224.808	-18.31
225.042	-18.31
225.277	-13.31
225.511	11.69
225.746	-3.31
225.98	7.69
226.215	13.69
226.449	36.69
226.683	23.69
226.918	27.69
227.152	25.69
227.387	33.69
227.621	30.69
227.856	34.69
228.09	52.69
228.324	45.69
228.559	61.69
228.793	62.69
229.027	63.69
229.262	69.69
229.496	55.69
229.73	79.69
229.964	78.69
230.199	78.69
230.433	78.69
230.667	80.69
230.901	82.69
231.136	65.69
231.37	75.69
231.604	87.69
231.838	78.69
232.072	76.69
232.306	69.69
232.541	70.69
232.775	76.69
233.009	77.69
233.243	64.69
233.477	77.69
233.711	77.69
233.945	97.69
234.179	80.69
234.413	84.69
234.647	84.69
234.881	77.69
235.115	87.69
235.349	66.69
235.583	75.69
235.817	95.69
236.051	88.69
236.285	96.69
236.519	79.69
236.753	77.69
236.987	77.69
237.221	88.69
237.455	83.69
237.689	60.69
237.922	93.69
238.156	76.69
238.39	78.69
238.624	78.69
238.858	77.69
239.091	67.69
239.325	64.69
239.559	83.69
239.793	71.69
240.027	61.69
240.26	70.69
240.494	69.69
240.728	78.69
240.961	80.69
241.195	86.69
241.429	70.69
241.662	83.69
241.896	70.69
242.13	77.69
242.363	73.69
242.597	71.69
242.83	71.69
243.064	82.69
243.298	82.69
243.531	73.69
243.765	72.69
243.998	78.69
244.232	89.69
244.465	81.69
244.699	84.69
244.932	76.69
245.166	77.69
245.399	77.69
245.633	77.69
245.866	79.69
246.099	78.69
246.333	67.69
246.566	57.69
246.8	81.69
247.033	82.69
247.266	69.69
247.5	83.69
247.733	90.69
247.966	105.69
248.2	89.69
248.433	76.69
248.666	82.69
248.899	93.69
249.133	85.69
249.366	96.69
249.599	104.69
249.832	77.69
250.066	83.69
250.299	77.69
250.532	85.69
250.765	90.69
250.998	85.69
251.231	80.69
251.465	76.69
251.698	74.69
251.931	94.69
252.164	77.69
252.397	70.69
252.63	86.69
252.863	91.69
253.096	67.69
253.329	77.69
253.562	79.69
253.795	61.69
254.028	81.69
254.261	62.69
254.494	87.69
254.727	83.69
254.96	91.69
255.193	82.69
255.426	83.69
255.659	79.69
255.892	96.69
256.124	69.69
256.357	93.69
256.59	90.69
256.823	77.69
257.056	88.69
257.289	81.69
257.521	78.69
257.754	77.69
257.987	89.69
258.22	85.69
258.452	103.69
258.685	87.69
258.918	76.69
259.151	73.69
259.383	86.69
259.616	79.69
259.849	82.69
260.081	76.69
260.314	77.69
260.547	74.69
260.779	87.69
261.012	90.69
261.244	85.69
261.477	77.69
261.71	96.69
261.942	99.69
262.175	114.69
262.407	91.69
262.64	81.69
262.872	78.69
263.105	85.69
263.337	92.69
263.57	85.69
263.802	77.69
264.035	79.69
264.267	74.69
264.499	93.69
264.732	87.69
264.964	98.69
265.197	77.69
265.429	80.69
265.661	77.69
265.894	87.69
266.126	89.69
266.358	78.69
266.591	74.69
266.823	89.69
267.055	90.69
267.287	97.69
267.52	83.69
267.752	82.69
267.984	95.69
268.216	92.69
268.448	77.69
268.681	93.69
268.913	78.69
269.145	83.69
269.377	77.69
269.609	73.69
269.841	87.69
270.073	78.69
270.306	94.69
270.538	79.69
270.77	84.69
271.002	71.69
271.234	80.69
271.466	81.69
271.698	91.69
271.93	82.69
272.162	88.69
272.394	95.69
272.626	78.69
272.858	88.69
273.09	91.69
273.322	88.69
273.553	82.69
273.785	82.69
274.017	77.69
274.249	85.69
274.481	78.69
274.713	94.69
274.945	85.69
275.176	75.69
275.408	94.69
275.64	93.69
275.872	86.69
276.104	89.69
276.335	96.69
276.567	103.69
276.799	119.69
277.031	130.69
277.262	126.69
277.494	102.69
277.726	92.69
277.957	103.69
278.189	92.69
278.421	88.69
278.652	93.69
278.884	75.69
279.115	83.69
279.347	87.69
279.579	93.69
279.81	110.69
280.042	119.69
280.273	145.69
280.505	108.69
280.736	94.69
280.968	81.69
281.199	95.69
281.431	79.69
281.662	82.69
281.894	81.69
282.125	97.69
282.356	99.69
282.588	141.69
282.819	111.69
283.051	105.69
283.282	86.69
283.513	86.69
283.745	87.69
283.976	70.69
284.207	90.69
284.439	87.69
284.67	95.69
284.901	70.69
285.132	84.69
285.364	73.69
285.595	98.69
285.826	91.69
286.057	86.69
286.288	76.69
286.52	85.69
286.751	68.69
286.982	81.69
287.213	88.69
287.444	83.69
287.675	91.69
287.906	85.69
288.138	81.69
288.369	102.69
288.6	89.69
288.831	92.69
289.062	88.69
289.293	97.69
289.524	79.69
289.755	75.69
289.986	82.69
290.217	84.69
290.448	70.69
290.679	86.69
290.91	69.69
291.141	77.69
291.371	90.69
291.602	89.69
291.833	82.69
292.064	77.69
292.295	91.69
292.526	79.69
292.757	105.69
292.987	85.69
293.218	83.69
293.449	81.69
293.68	96.69
293.91	62.69
294.141	83.69
294.372	81.69
294.603	91.69
294.833	89.69
295.064	92.69
295.295	93.69
295.525	94.69
295.756	100.69
295.987	107.69
296.217	141.69
296.448	112.69
296.679	102.69
296.909	103.69
297.14	95.69
297.37	78.69
297.601	77.69
297.831	97.69
298.062	92.69
298.292	94.69
298.523	95.69
298.753	89.69
298.984	92.69
299.214	98.69
299.445	101.69
299.675	92.69
299.905	92.69
300.136	99.69
300.366	97.69
300.597	91.69
300.827	95.69
301.057	82.69
301.288	107.69
301.518	101.69
301.748	102.69
301.979	111.69
302.209	93.69
302.439	86.69
302.669	94.69
302.9	95.69
303.13	101.69
303.36	92.69
303.59	109.69
303.82	128.69
304.051	100.69
304.281	86.69
304.511	77.69
304.741	85.69
304.971	93.69
305.201	86.69
305.431	93.69
305.661	87.69
305.891	88.69
306.121	103.69
306.352	102.69
306.582	109.69
306.812	93.69
307.042	108.69
307.272	114.69
307.502	129.69
307.731	123.69
307.961	109.69
308.191	88.69
308.421	102.69
308.651	107.69
308.881	96.69
309.111	65.69
309.341	89.69
309.571	101.69
309.8	95.69
310.03	95.69
310.26	88.69
310.49	102.69
310.72	103.69
310.949	111.69
311.179	107.69
311.409	94.69
311.639	103.69
311.868	100.69
312.098	108.69
312.328	108.69
312.557	95.69
312.787	122.69
313.017	96.69
313.246	83.69
313.476	90.69
313.706	90.69
313.935	94.69
314.165	99.69
314.394	110.69
314.624	101.69
314.853	109.69
315.083	93.69
315.312	98.69
315.542	98.69
315.771	94.69
316.001	98.69
316.23	86.69
316.46	86.69
316.689	86.69
316.919	96.69
317.148	112.69
317.377	93.69
317.607	89.69
317.836	82.69
318.065	86.69
318.295	97.69
318.524	87.69
318.753	79.69
318.983	98.69
319.212	86.69
319.441	108.69
319.67	107.69
319.9	86.69
320.129	90.69
320.358	91.69
320.587	95.69
320.816	102.69
321.046	103.69
321.275	82.69
321.504	92.69
321.733	85.69
321.962	110.69
322.191	99.69
322.42	116.69
322.649	112.69
322.878	109.69
323.108	90.69
323.337	125.69
323.566	135.69
323.795	157.69
324.024	232.69
324.253	413.69
324.482	901.69
324.71	1809.69
324.939	2360.69
325.168	850.69
325.397	254.69
325.626	174.69
325.855	130.69
326.084	137.69
326.313	138.69
326.542	151.69
326.77	242.69
326.999	464.69
327.228	963.69
327.457	1822.69
327.686	1454.69
327.914	470.69
328.143	311.69
328.372	348.69
328.6	216.69
328.829	144.69
329.058	148.69
329.287	153.69
329.515	132.69
329.744	172.69
329.972	262.69
330.201	471.69
330.43	694.69
330.658	353.69
330.887	190.69
331.115	145.69
331.344	107.69
331.572	103.69
331.801	120.69
332.03	102.69
332.258	99.69
332.486	110.69
332.715	105.69
332.943	89.69
333.172	111.69
333.4	109.69
333.629	122.69
333.857	160.69
334.085	265.69
334.314	452.69
334.542	866.69
334.771	791.69
334.999	239.69
335.227	136.69
335.455	103.69
335.684	99.69
335.912	106.69
336.14	101.69
336.369	112.69
336.597	95.69
336.825	105.69
337.053	89.69
337.281	96.69
337.51	80.69
337.738	95.69
337.966	102.69
338.194	98.69
338.422	102.69
338.65	88.69
338.878	101.69
339.106	79.69
339.334	102.69
339.562	102.69
339.79	80.69
340.018	86.69
340.246	86.69
340.474	85.69
340.702	87.69
340.93	93.69
341.158	81.69
341.386	101.69
341.614	107.69
341.842	91.69
342.07	86.69
342.298	100.69
342.526	96.69
342.754	98.69
342.981	95.69
343.209	83.69
343.437	92.69
343.665	84.69
343.893	99.69
344.12	81.69
344.348	90.69
344.576	99.69
344.804	91.69
345.031	101.69
345.259	87.69
345.487	102.69
345.714	85.69
345.942	102.69
346.17	82.69
346.397	91.69
346.625	94.69
346.853	101.69
347.08	94.69
347.308	92.69
347.535	102.69
347.763	103.69
347.99	89.69
348.218	106.69
348.445	105.69
348.673	118.69
348.9	91.69
349.128	81.69
349.355	85.69
349.583	91.69
349.81	80.69
350.037	101.69
350.265	86.69
350.492	96.69
350.72	96.69
350.947	93.69
351.174	108.69
351.402	118.69
351.629	103.69
351.856	103.69
352.083	121.69
352.311	113.69
352.538	116.69
352.765	115.69
352.992	112.69
353.22	115.69
353.447	103.69
353.674	103.69
353.901	98.69
354.128	95.69
354.355	85.69
354.583	112.69
354.81	81.69
355.037	104.69
355.264	90.69
355.491	94.69
355.718	85.69
355.945	95.69
356.172	90.69
356.399	95.69
356.626	98.69
356.853	95.69
357.08	96.69
357.307	89.69
357.534	95.69
357.761	85.69
357.988	89.69
358.215	96.69
358.441	108.69
358.668	95.69
358.895	96.69
359.122	93.69
359.349	92.69
359.576	85.69
359.802	86.69
360.029	108.69
360.256	104.69
360.483	87.69
360.709	79.69
360.936	94.69
361.163	101.69
361.39	113.69
361.616	91.69
361.843	85.69
362.07	89.69
362.296	91.69
362.523	92.69
362.749	90.69
362.976	110.69
363.203	91.69
363.429	80.69
363.656	89.69
363.882	97.69
364.109	92.69
364.335	84.69
364.562	78.69
364.788	98.69
365.015	97.69
365.241	107.69
365.468	95.69
365.694	110.69
365.92	97.69
366.147	92.69
366.373	89.69
366.599	83.69
366.826	88.69
367.052	81.69
367.278	107.69
367.505	90.69
367.731	103.69
367.957	87.69
368.184	100.69
368.41	102.69
368.636	118.69
368.862	117.69
369.089	108.69
369.315	94.69
369.541	87.69
369.767	96.69
369.993	91.69
370.219	86.69
370.445	95.69
370.672	93.69
370.898	98.69
371.124	91.69
371.35	85.69
371.576	94.69
371.802	89.69
372.028	85.69
372.254	90.69
372.48	96.69
372.706	95.69
372.932	86.69
373.158	97.69
373.384	103.69
373.61	89.69
373.835	93.69
374.061	96.69
374.287	106.69
374.513	89.69
374.739	73.69
374.965	91.69
375.191	95.69
375.416	89.69
375.642	90.69
375.868	100.69
376.094	101.69
376.319	92.69
376.545	98.69
376.771	98.69
376.997	81.69
377.222	93.69
377.448	97.69
377.674	81.69
377.899	105.69
378.125	100.69
378.35	86.69
378.576	86.69
378.802	82.69
379.027	82.69
379.253	84.69
379.478	85.69
379.704	92.69
379.929	95.69
380.155	103.69
380.38	98.69
380.606	94.69
380.831	83.69
381.057	94.69
381.282	77.69
381.507	100.69
381.733	111.69
381.958	106.69
382.184	109.69
382.409	95.69
382.634	111.69
382.86	91.69
383.085	87.69
383.31	101.69
383.535	97.69
383.761	105.69
383.986	118.69
384.211	100.69
384.436	112.69
384.662	93.69
384.887	108.69
385.112	104.69
385.337	108.69
385.562	114.69
385.787	117.69
386.013	111.69
386.238	118.69
386.463	106.69
386.688	100.69
386.913	102.69
387.138	115.69
387.363	101.69
387.588	102.69
387.813	100.69
388.038	115.69
388.263	106.69
388.488	105.69
388.713	100.69
388.938	105.69
389.163	102.69
389.387	97.69
389.612	93.69
389.837	101.69
390.062	86.69
390.287	89.69
390.512	83.69
390.736	81.69
390.961	96.69
391.186	90.69
391.411	99.69
391.636	86.69
391.86	102.69
392.085	86.69
392.31	77.69
392.534	91.69
392.759	91.69
392.984	76.69
393.208	105.69
393.433	95.69
393.658	91.69
393.882	92.69
394.107	93.69
394.331	81.69
394.556	93.69
394.78	88.69
395.005	94.69
395.229	96.69
395.454	91.69
395.678	82.69
395.903	101.69
396.127	105.69
396.352	93.69
396.576	87.69
396.801	82.69
397.025	81.69
397.249	83.69
397.474	80.69
397.698	81.69
397.922	85.69
398.147	85.69
398.371	93.69
398.595	90.69
398.82	80.69
399.044	87.69
399.268	97.69
399.492	80.69
399.717	100.69
399.941	87.69
400.165	89.69
400.389	96.69
400.613	87.69
400.837	94.69
401.062	97.69
401.286	102.69
401.51	93.69
401.734	92.69
401.958	95.69
402.182	132.69
402.406	181.69
402.63	134.69
402.854	94.69
403.078	82.69
403.302	78.69
403.526	97.69
403.75	91.69
403.974	93.69
404.198	98.69
404.422	83.69
404.645	82.69
404.869	91.69
405.093	80.69
405.317	110.69
405.541	108.69
405.765	99.69
405.988	124.69
406.212	195.69
406.436	239.69
406.66	174.69
406.883	123.69
407.107	98.69
407.331	100.69
407.555	103.69
407.778	95.69
408.002	89.69
408.226	93.69
408.449	86.69
408.673	95.69
408.896	104.69
409.12	105.69
409.344	102.69
409.567	93.69
409.791	87.69
410.014	90.69
410.238	94.69
410.461	96.69
410.685	90.69
410.908	101.69
411.132	111.69
411.355	109.69
411.578	86.69
411.802	89.69
412.025	105.69
412.249	109.69
412.472	102.69
412.695	121.69
412.919	88.69
413.142	97.69
413.365	93.69
413.589	82.69
413.812	89.69
414.035	91.69
414.258	97.69
414.482	90.69
414.705	95.69
414.928	105.69
415.151	86.69
415.374	91.69
415.597	85.69
415.821	83.69
416.044	82.69
416.267	87.69
416.49	80.69
416.713	80.69
416.936	78.69
417.159	102.69
417.382	100.69
417.605	83.69
417.828	111.69
418.051	88.69
418.274	97.69
418.497	88.69
418.72	84.69
418.943	99.69
419.166	87.69
419.389	84.69
419.611	82.69
419.834	90.69
420.057	79.69
420.28	97.69
420.503	87.69
420.726	82.69
420.948	91.69
421.171	104.69
421.394	107.69
421.617	89.69
421.839	85.69
422.062	84.69
422.285	92.69
422.507	99.69
422.73	96.69
422.953	91.69
423.175	84.69
423.398	95.69
423.621	95.69
423.843	81.69
424.066	89.69
424.288	90.69
424.511	82.69
424.733	82.69
424.956	98.69
425.178	93.69
425.401	102.69
425.623	109.69
425.846	96.69
426.068	103.69
426.291	74.69
426.513	88.69
426.735	85.69
426.958	86.69
427.18	104.69
427.402	165.69
427.625	201.69
427.847	185.69
428.069	166.69
428.292	118.69
428.514	90.69
428.736	81.69
428.958	77.69
429.181	87.69
429.403	93.69
429.625	77.69
429.847	98.69
430.069	89.69
430.292	88.69
430.514	89.69
430.736	91.69
430.958	88.69
431.18	77.69
431.402	84.69
431.624	98.69
431.846	86.69
432.068	87.69
432.29	77.69
432.512	90.69
432.734	75.69
432.956	88.69
433.178	90.69
433.4	91.69
433.622	102.69
433.844	92.69
434.066	74.69
434.287	86.69
434.509	77.69
434.731	93.69
434.953	81.69
435.175	87.69
435.397	87.69
435.618	103.69
435.84	107.69
436.062	103.69
436.284	126.69
436.505	103.69
436.727	98.69
436.949	98.69
437.17	94.69
437.392	81.69
437.614	96.69
437.835	108.69
438.057	128.69
438.278	100.69
438.5	90.69
438.721	128.69
438.943	110.69
439.165	99.69
439.386	82.69
439.608	88.69
439.829	107.69
440.05	127.69
440.272	160.69
440.493	99.69
440.715	89.69
440.936	86.69
441.158	94.69
441.379	103.69
441.6	100.69
441.822	99.69
442.043	103.69
442.264	116.69
442.486	97.69
442.707	79.69
442.928	104.69
443.149	147.69
443.371	137.69
443.592	101.69
443.813	113.69
444.034	109.69
444.255	92.69
444.476	87.69
444.698	78.69
444.919	83.69
445.14	130.69
445.361	134.69
445.582	115.69
445.803	150.69
446.024	131.69
446.245	142.69
446.466	125.69
446.687	105.69
446.908	101.69
447.129	98.69
447.35	89.69
447.571	107.69
447.792	97.69
448.013	110.69
448.234	109.69
448.455	103.69
448.675	97.69
448.896	115.69
449.117	101.69
449.338	103.69
449.559	134.69
449.779	138.69
450	100.69
450.221	97.69
450.442	94.69
450.662	92.69
450.883	102.69
451.104	139.69
451.324	97.69
451.545	79.69
451.766	89.69
451.986	85.69
452.207	98.69
452.428	78.69
452.648	94.69
452.869	110.69
453.089	107.69
453.31	115.69
453.53	99.69
453.751	90.69
453.971	83.69
454.192	114.69
454.412	84.69
454.633	94.69
454.853	81.69
455.073	89.69
455.294	78.69
455.514	93.69
455.734	88.69
455.955	93.69
456.175	84.69
456.395	86.69
456.616	86.69
456.836	82.69
457.056	92.69
457.276	93.69
457.497	66.69
457.717	83.69
457.937	76.69
458.157	85.69
458.377	78.69
458.598	109.69
458.818	166.69
459.038	203.69
459.258	115.69
459.478	91.69
459.698	90.69
459.918	98.69
460.138	92.69
460.358	70.69
460.578	83.69
460.798	87.69
461.018	81.69
461.238	90.69
461.458	86.69
461.678	97.69
461.898	84.69
462.118	78.69
462.338	84.69
462.558	81.69
462.777	70.69
462.997	81.69
463.217	82.69
463.437	82.69
463.657	84.69
463.876	98.69
464.096	86.69
464.316	88.69
464.536	92.69
464.755	100.69
464.975	101.69
465.195	174.69
465.414	175.69
465.634	102.69
465.854	89.69
466.073	89.69
466.293	103.69
466.512	79.69
466.732	94.69
466.951	81.69
467.171	95.69
467.391	97.69
467.61	118.69
467.829	140.69
468.049	293.69
468.268	403.69
468.488	142.69
468.707	102.69
468.927	72.69
469.146	85.69
469.365	93.69
469.585	94.69
469.804	93.69
470.023	96.69
470.243	96.69
470.462	95.69
470.681	116.69
470.901	86.69
471.12	83.69
471.339	91.69
471.558	98.69
471.777	118.69
471.997	182.69
472.216	534.69
472.435	1125.69
472.654	291.69
472.873	124.69
473.092	103.69
473.311	102.69
473.53	86.69
473.749	92.69
473.968	93.69
474.187	105.69
474.406	99.69
474.625	103.69
474.844	94.69
475.063	97.69
475.282	83.69
475.501	85.69
475.72	97.69
475.939	89.69
476.158	77.69
476.377	101.69
476.596	103.69
476.814	96.69
477.033	94.69
477.252	85.69
477.471	93.69
477.69	86.69
477.908	100.69
478.127	83.69
478.346	95.69
478.564	93.69
478.783	94.69
479.002	87.69
479.22	96.69
479.439	115.69
479.658	100.69
479.876	103.69
480.095	98.69
480.313	98.69
480.532	126.69
480.751	167.69
480.969	507.69
481.188	2014.69
481.406	1142.69
481.624	219.69
481.843	93.69
482.061	107.69
482.28	95.69
482.498	96.69
482.717	94.69
482.935	85.69
483.153	97.69
483.372	83.69
483.59	84.69
483.808	91.69
484.027	95.69
484.245	99.69
484.463	109.69
484.681	100.69
484.9	111.69
485.118	98.69
485.336	92.69
485.554	96.69
485.772	97.69
485.99	102.69
486.209	106.69
486.427	100.69
486.645	102.69
486.863	118.69
487.081	89.69
487.299	110.69
487.517	98.69
487.735	94.69
487.953	98.69
488.171	89.69
488.389	97.69
488.607	92.69
488.825	94.69
489.043	81.69
489.261	80.69
489.479	102.69
489.696	81.69
489.914	89.69
490.132	74.69
490.35	81.69
490.568	79.69
490.786	89.69
491.003	101.69
491.221	102.69
491.439	85.69
491.657	82.69
491.874	94.69
492.092	89.69
492.31	85.69
492.527	93.69
492.745	89.69
492.963	85.69
493.18	98.69
493.398	94.69
493.615	97.69
493.833	91.69
494.05	96.69
494.268	87.69
494.485	96.69
494.703	82.69
494.92	91.69
495.138	79.69
495.355	90.69
495.573	84.69
495.79	95.69
496.008	103.69
496.225	88.69
496.442	93.69
496.66	99.69
496.877	80.69
497.094	86.69
497.312	90.69
497.529	101.69
497.746	102.69
497.963	80.69
498.181	75.69
498.398	97.69
498.615	103.69
498.832	83.69
499.049	96.69
499.267	92.69
499.484	96.69
499.701	89.69
499.918	89.69
500.135	97.69
500.352	101.69
500.569	83.69
500.786	102.69
501.003	101.69
501.22	82.69
501.437	92.69
501.654	89.69
501.871	103.69
502.088	94.69
502.305	90.69
502.522	97.69
502.739	83.69
502.956	71.69
503.172	75.69
503.389	87.69
503.606	109.69
503.823	101.69
504.04	90.69
504.256	90.69
504.473	90.69
504.69	90.69
504.907	88.69
505.123	84.69
505.34	81.69
505.557	91.69
505.773	88.69
505.99	83.69
506.207	81.69
506.423	89.69
506.64	98.69
506.856	95.69
507.073	100.69
507.289	89.69
507.506	100.69
507.722	115.69
507.939	118.69
508.155	113.69
508.372	81.69
508.588	102.69
508.805	93.69
509.021	95.69
509.238	91.69
509.454	102.69
509.67	95.69
509.887	93.69
510.103	131.69
510.319	218.69
510.536	750.69
510.752	2431.69
510.968	671.69
511.184	160.69
511.401	128.69
511.617	100.69
511.833	79.69
512.049	95.69
512.265	98.69
512.481	93.69
512.698	100.69
512.914	97.69
513.13	85.69
513.346	92.69
513.562	83.69
513.778	98.69
513.994	93.69
514.21	98.69
514.426	119.69
514.642	151.69
