Data from Circ_1990_H10_HRD10591_00078.txt Node
Date: Wed Jan 03 11:55:19 EST 2024
User: Yrep
Spectrometer: HR+D1059
Trigger mode: 1
Integration Time (sec): 1.000000E-1
Scans to average: 1
Electric dark correction enabled: true
Nonlinearity correction enabled: false
Boxcar width: 0
XAxis mode: Wavelengths
Number of Pixels in Spectrum: 2048
>>>>>Begin Spectral Data<<<<<
223.165	-17.06
223.4	-17.06
223.635	-17.06
223.869	-20.06
224.104	-20.06
224.338	-18.06
224.573	-13.06
224.808	-22.06
225.042	0.94
225.277	8.94
225.511	-12.06
225.746	-2.06
225.98	0.94
226.215	3.94
226.449	17.94
226.683	21.94
226.918	20.94
227.152	48.94
227.387	30.94
227.621	32.94
227.856	36.94
228.09	38.94
228.324	56.94
228.559	56.94
228.793	64.94
229.027	48.94
229.262	82.94
229.496	78.94
229.73	81.94
229.964	92.94
230.199	70.94
230.433	75.94
230.667	76.94
230.901	66.94
231.136	63.94
231.37	75.94
231.604	72.94
231.838	77.94
232.072	70.94
232.306	85.94
232.541	77.94
232.775	62.94
233.009	85.94
233.243	73.94
233.477	69.94
233.711	83.94
233.945	97.94
234.179	84.94
234.413	80.94
234.647	73.94
234.881	83.94
235.115	80.94
235.349	97.94
235.583	77.94
235.817	86.94
236.051	77.94
236.285	69.94
236.519	80.94
236.753	59.94
236.987	80.94
237.221	93.94
237.455	84.94
237.689	70.94
237.922	72.94
238.156	85.94
238.39	74.94
238.624	67.94
238.858	74.94
239.091	75.94
239.325	68.94
239.559	84.94
239.793	73.94
240.027	87.94
240.26	72.94
240.494	68.94
240.728	76.94
240.961	85.94
241.195	85.94
241.429	70.94
241.662	72.94
241.896	72.94
242.13	75.94
242.363	84.94
242.597	80.94
242.83	79.94
243.064	77.94
243.298	73.94
243.531	76.94
243.765	74.94
243.998	75.94
244.232	81.94
244.465	89.94
244.699	85.94
244.932	80.94
245.166	75.94
245.399	69.94
245.633	60.94
245.866	76.94
246.099	69.94
246.333	64.94
246.566	72.94
246.8	79.94
247.033	78.94
247.266	75.94
247.5	89.94
247.733	72.94
247.966	78.94
248.2	68.94
248.433	80.94
248.666	73.94
248.899	76.94
249.133	84.94
249.366	98.94
249.599	98.94
249.832	83.94
250.066	84.94
250.299	90.94
250.532	82.94
250.765	83.94
250.998	78.94
251.231	82.94
251.465	78.94
251.698	77.94
251.931	78.94
252.164	78.94
252.397	82.94
252.63	77.94
252.863	76.94
253.096	88.94
253.329	85.94
253.562	73.94
253.795	79.94
254.028	82.94
254.261	86.94
254.494	81.94
254.727	69.94
254.96	79.94
255.193	66.94
255.426	66.94
255.659	89.94
255.892	76.94
256.124	91.94
256.357	85.94
256.59	65.94
256.823	68.94
257.056	85.94
257.289	76.94
257.521	65.94
257.754	86.94
257.987	82.94
258.22	72.94
258.452	82.94
258.685	78.94
258.918	76.94
259.151	74.94
259.383	87.94
259.616	77.94
259.849	83.94
260.081	84.94
260.314	83.94
260.547	76.94
260.779	90.94
261.012	86.94
261.244	82.94
261.477	88.94
261.71	83.94
261.942	117.94
262.175	109.94
262.407	90.94
262.64	85.94
262.872	95.94
263.105	82.94
263.337	93.94
263.57	83.94
263.802	84.94
264.035	83.94
264.267	95.94
264.499	76.94
264.732	78.94
264.964	82.94
265.197	78.94
265.429	77.94
265.661	74.94
265.894	84.94
266.126	88.94
266.358	74.94
266.591	76.94
266.823	78.94
267.055	93.94
267.287	70.94
267.52	82.94
267.752	83.94
267.984	69.94
268.216	75.94
268.448	91.94
268.681	85.94
268.913	80.94
269.145	65.94
269.377	75.94
269.609	93.94
269.841	85.94
270.073	82.94
270.306	88.94
270.538	79.94
270.77	94.94
271.002	98.94
271.234	87.94
271.466	91.94
271.698	77.94
271.93	78.94
272.162	85.94
272.394	102.94
272.626	85.94
272.858	93.94
273.09	96.94
273.322	85.94
273.553	92.94
273.785	93.94
274.017	87.94
274.249	86.94
274.481	78.94
274.713	82.94
274.945	92.94
275.176	76.94
275.408	89.94
275.64	92.94
275.872	92.94
276.104	94.94
276.335	88.94
276.567	93.94
276.799	114.94
277.031	128.94
277.262	144.94
277.494	102.94
277.726	91.94
277.957	85.94
278.189	75.94
278.421	91.94
278.652	100.94
278.884	84.94
279.115	85.94
279.347	76.94
279.579	89.94
279.81	110.94
280.042	121.94
280.273	130.94
280.505	104.94
280.736	94.94
280.968	85.94
281.199	87.94
281.431	76.94
281.662	84.94
281.894	76.94
282.125	96.94
282.356	122.94
282.588	156.94
282.819	107.94
283.051	81.94
283.282	93.94
283.513	103.94
283.745	79.94
283.976	87.94
284.207	78.94
284.439	76.94
284.67	77.94
284.901	92.94
285.132	79.94
285.364	99.94
285.595	84.94
285.826	93.94
286.057	104.94
286.288	104.94
286.52	72.94
286.751	77.94
286.982	64.94
287.213	91.94
287.444	84.94
287.675	76.94
287.906	92.94
288.138	84.94
288.369	94.94
288.6	88.94
288.831	86.94
289.062	76.94
289.293	81.94
289.524	92.94
289.755	86.94
289.986	78.94
290.217	98.94
290.448	86.94
290.679	84.94
290.91	99.94
291.141	74.94
291.371	89.94
291.602	76.94
291.833	86.94
292.064	85.94
292.295	86.94
292.526	85.94
292.757	76.94
292.987	76.94
293.218	81.94
293.449	97.94
293.68	74.94
293.91	96.94
294.141	92.94
294.372	90.94
294.603	83.94
294.833	85.94
295.064	82.94
295.295	74.94
295.525	94.94
295.756	112.94
295.987	105.94
296.217	135.94
296.448	121.94
296.679	80.94
296.909	93.94
297.14	92.94
297.37	82.94
297.601	85.94
297.831	85.94
298.062	99.94
298.292	82.94
298.523	103.94
298.753	98.94
298.984	79.94
299.214	83.94
299.445	94.94
299.675	78.94
299.905	93.94
300.136	97.94
300.366	88.94
300.597	78.94
300.827	88.94
301.057	88.94
301.288	103.94
301.518	97.94
301.748	102.94
301.979	107.94
302.209	80.94
302.439	102.94
302.669	74.94
302.9	89.94
303.13	81.94
303.36	90.94
303.59	107.94
303.82	113.94
304.051	97.94
304.281	78.94
304.511	84.94
304.741	69.94
304.971	81.94
305.201	84.94
305.431	81.94
305.661	91.94
305.891	87.94
306.121	92.94
306.352	114.94
306.582	102.94
306.812	106.94
307.042	107.94
307.272	134.94
307.502	136.94
307.731	135.94
307.961	109.94
308.191	89.94
308.421	81.94
308.651	87.94
308.881	89.94
309.111	84.94
309.341	102.94
309.571	95.94
309.8	105.94
310.03	99.94
310.26	92.94
310.49	99.94
310.72	101.94
310.949	103.94
311.179	100.94
311.409	84.94
311.639	108.94
311.868	99.94
312.098	95.94
312.328	80.94
312.557	103.94
312.787	99.94
313.017	92.94
313.246	105.94
313.476	86.94
313.706	85.94
313.935	81.94
314.165	109.94
314.394	98.94
314.624	92.94
314.853	115.94
315.083	89.94
315.312	80.94
315.542	99.94
315.771	89.94
316.001	94.94
316.23	90.94
316.46	92.94
316.689	84.94
316.919	85.94
317.148	93.94
317.377	98.94
317.607	92.94
317.836	93.94
318.065	95.94
318.295	82.94
318.524	84.94
318.753	86.94
318.983	91.94
319.212	119.94
319.441	111.94
319.67	108.94
319.9	84.94
320.129	100.94
320.358	84.94
320.587	81.94
320.816	87.94
321.046	101.94
321.275	107.94
321.504	98.94
321.733	95.94
321.962	92.94
322.191	105.94
322.42	120.94
322.649	101.94
322.878	111.94
323.108	116.94
323.337	132.94
323.566	147.94
323.795	154.94
324.024	221.94
324.253	433.94
324.482	935.94
324.71	1946.94
324.939	2606.94
325.168	933.94
325.397	264.94
325.626	157.94
325.855	135.94
326.084	130.94
326.313	137.94
326.542	152.94
326.77	235.94
326.999	486.94
327.228	1080.94
327.457	2006.94
327.686	1553.94
327.914	464.94
328.143	323.94
328.372	337.94
328.6	213.94
328.829	131.94
329.058	142.94
329.287	138.94
329.515	136.94
329.744	167.94
329.972	256.94
330.201	465.94
330.43	637.94
330.658	332.94
330.887	195.94
331.115	154.94
331.344	107.94
331.572	109.94
331.801	114.94
332.03	104.94
332.258	115.94
332.486	88.94
332.715	101.94
332.943	92.94
333.172	105.94
333.4	103.94
333.629	125.94
333.857	158.94
334.085	236.94
334.314	463.94
334.542	862.94
334.771	759.94
334.999	240.94
335.227	130.94
335.455	103.94
335.684	106.94
335.912	101.94
336.14	106.94
336.369	101.94
336.597	108.94
336.825	106.94
337.053	101.94
337.281	90.94
337.51	83.94
337.738	95.94
337.966	105.94
338.194	102.94
338.422	107.94
338.65	92.94
338.878	80.94
339.106	78.94
339.334	89.94
339.562	92.94
339.79	98.94
340.018	103.94
340.246	94.94
340.474	96.94
340.702	99.94
340.93	83.94
341.158	84.94
341.386	90.94
341.614	85.94
341.842	99.94
342.07	82.94
342.298	96.94
342.526	106.94
342.754	83.94
342.981	78.94
343.209	95.94
343.437	95.94
343.665	80.94
343.893	83.94
344.12	78.94
344.348	86.94
344.576	82.94
344.804	86.94
345.031	86.94
345.259	105.94
345.487	94.94
345.714	97.94
345.942	92.94
346.17	105.94
346.397	86.94
346.625	83.94
346.853	105.94
347.08	83.94
347.308	84.94
347.535	94.94
347.763	108.94
347.99	88.94
348.218	96.94
348.445	90.94
348.673	93.94
348.9	86.94
349.128	90.94
349.355	93.94
349.583	101.94
349.81	95.94
350.037	101.94
350.265	97.94
350.492	84.94
350.72	88.94
350.947	101.94
351.174	113.94
351.402	116.94
351.629	89.94
351.856	108.94
352.083	111.94
352.311	104.94
352.538	114.94
352.765	119.94
352.992	100.94
353.22	107.94
353.447	88.94
353.674	104.94
353.901	87.94
354.128	96.94
354.355	95.94
354.583	106.94
354.81	89.94
355.037	100.94
355.264	76.94
355.491	74.94
355.718	93.94
355.945	90.94
356.172	85.94
356.399	93.94
356.626	89.94
356.853	85.94
357.08	91.94
357.307	89.94
357.534	102.94
357.761	84.94
357.988	86.94
358.215	81.94
358.441	92.94
358.668	82.94
358.895	83.94
359.122	87.94
359.349	86.94
359.576	99.94
359.802	120.94
360.029	116.94
360.256	117.94
360.483	92.94
360.709	90.94
360.936	97.94
361.163	99.94
361.39	98.94
361.616	91.94
361.843	92.94
362.07	91.94
362.296	104.94
362.523	94.94
362.749	90.94
362.976	90.94
363.203	85.94
363.429	76.94
363.656	88.94
363.882	92.94
364.109	86.94
364.335	98.94
364.562	101.94
364.788	89.94
365.015	104.94
365.241	110.94
365.468	100.94
365.694	115.94
365.92	96.94
366.147	86.94
366.373	85.94
366.599	90.94
366.826	82.94
367.052	89.94
367.278	104.94
367.505	84.94
367.731	86.94
367.957	92.94
368.184	104.94
368.41	111.94
368.636	92.94
368.862	112.94
369.089	108.94
369.315	83.94
369.541	90.94
369.767	97.94
369.993	101.94
370.219	75.94
370.445	88.94
370.672	100.94
370.898	96.94
371.124	90.94
371.35	90.94
371.576	93.94
371.802	84.94
372.028	77.94
372.254	91.94
372.48	95.94
372.706	94.94
372.932	73.94
373.158	82.94
373.384	91.94
373.61	102.94
373.835	88.94
374.061	77.94
374.287	100.94
374.513	91.94
374.739	85.94
374.965	91.94
375.191	87.94
375.416	92.94
375.642	100.94
375.868	87.94
376.094	89.94
376.319	83.94
376.545	92.94
376.771	72.94
376.997	80.94
377.222	86.94
377.448	80.94
377.674	82.94
377.899	85.94
378.125	70.94
378.35	88.94
378.576	94.94
378.802	86.94
379.027	89.94
379.253	90.94
379.478	84.94
379.704	97.94
379.929	99.94
380.155	99.94
380.38	91.94
380.606	78.94
380.831	85.94
381.057	96.94
381.282	99.94
381.507	86.94
381.733	75.94
381.958	99.94
382.184	98.94
382.409	109.94
382.634	111.94
382.86	96.94
383.085	100.94
383.31	100.94
383.535	105.94
383.761	94.94
383.986	106.94
384.211	88.94
384.436	102.94
384.662	96.94
384.887	109.94
385.112	113.94
385.337	108.94
385.562	102.94
385.787	99.94
386.013	112.94
386.238	105.94
386.463	95.94
386.688	111.94
386.913	98.94
387.138	113.94
387.363	106.94
387.588	92.94
387.813	104.94
388.038	104.94
388.263	109.94
388.488	107.94
388.713	94.94
388.938	113.94
389.163	93.94
389.387	92.94
389.612	90.94
389.837	98.94
390.062	85.94
390.287	88.94
390.512	99.94
390.736	90.94
390.961	102.94
391.186	104.94
391.411	97.94
391.636	83.94
391.86	80.94
392.085	70.94
392.31	80.94
392.534	85.94
392.759	93.94
392.984	90.94
393.208	83.94
393.433	91.94
393.658	95.94
393.882	82.94
394.107	86.94
394.331	92.94
394.556	78.94
394.78	94.94
395.005	88.94
395.229	74.94
395.454	89.94
395.678	89.94
395.903	83.94
396.127	85.94
396.352	102.94
396.576	85.94
396.801	86.94
397.025	82.94
397.249	85.94
397.474	74.94
397.698	76.94
397.922	93.94
398.147	91.94
398.371	90.94
398.595	86.94
398.82	88.94
399.044	72.94
399.268	85.94
399.492	89.94
399.717	83.94
399.941	86.94
400.165	103.94
400.389	91.94
400.613	77.94
400.837	97.94
401.062	93.94
401.286	94.94
401.51	92.94
401.734	99.94
401.958	89.94
402.182	132.94
402.406	155.94
402.63	114.94
402.854	90.94
403.078	86.94
403.302	74.94
403.526	81.94
403.75	88.94
403.974	89.94
404.198	85.94
404.422	96.94
404.645	84.94
404.869	80.94
405.093	108.94
405.317	114.94
405.541	120.94
405.765	100.94
405.988	113.94
406.212	168.94
406.436	244.94
406.66	159.94
406.883	110.94
407.107	107.94
407.331	101.94
407.555	100.94
407.778	92.94
408.002	91.94
408.226	102.94
408.449	100.94
408.673	83.94
408.896	90.94
409.12	94.94
409.344	78.94
409.567	90.94
409.791	88.94
410.014	97.94
410.238	86.94
410.461	91.94
410.685	116.94
410.908	101.94
411.132	118.94
411.355	99.94
411.578	91.94
411.802	84.94
412.025	80.94
412.249	90.94
412.472	102.94
412.695	104.94
412.919	88.94
413.142	89.94
413.365	93.94
413.589	88.94
413.812	98.94
414.035	95.94
414.258	96.94
414.482	89.94
414.705	96.94
414.928	104.94
415.151	97.94
415.374	99.94
415.597	75.94
415.821	84.94
416.044	102.94
416.267	85.94
416.49	89.94
416.713	112.94
416.936	79.94
417.159	93.94
417.382	90.94
417.605	88.94
417.828	82.94
418.051	94.94
418.274	83.94
418.497	84.94
418.72	96.94
418.943	91.94
419.166	92.94
419.389	101.94
419.611	84.94
419.834	95.94
420.057	93.94
420.28	95.94
420.503	81.94
420.726	92.94
420.948	99.94
421.171	106.94
421.394	88.94
421.617	79.94
421.839	80.94
422.062	86.94
422.285	108.94
422.507	101.94
422.73	108.94
422.953	96.94
423.175	94.94
423.398	93.94
423.621	92.94
423.843	80.94
424.066	80.94
424.288	90.94
424.511	81.94
424.733	115.94
424.956	91.94
425.178	105.94
425.401	96.94
425.623	102.94
425.846	105.94
426.068	88.94
426.291	78.94
426.513	96.94
426.735	88.94
426.958	81.94
427.18	114.94
427.402	152.94
427.625	214.94
427.847	175.94
428.069	168.94
428.292	116.94
428.514	86.94
428.736	89.94
428.958	78.94
429.181	93.94
429.403	94.94
429.625	88.94
429.847	108.94
430.069	99.94
430.292	85.94
430.514	68.94
430.736	87.94
430.958	84.94
431.18	66.94
431.402	90.94
431.624	67.94
431.846	88.94
432.068	91.94
432.29	78.94
432.512	97.94
432.734	82.94
432.956	79.94
433.178	85.94
433.4	82.94
433.622	85.94
433.844	83.94
434.066	87.94
434.287	90.94
434.509	89.94
434.731	104.94
434.953	84.94
435.175	90.94
435.397	77.94
435.618	93.94
435.84	96.94
436.062	120.94
436.284	119.94
436.505	102.94
436.727	101.94
436.949	98.94
437.17	77.94
437.392	84.94
437.614	90.94
437.835	106.94
438.057	121.94
438.278	100.94
438.5	101.94
438.721	126.94
438.943	106.94
439.165	90.94
439.386	81.94
439.608	91.94
439.829	104.94
440.05	114.94
440.272	166.94
440.493	88.94
440.715	83.94
440.936	94.94
441.158	89.94
441.379	89.94
441.6	88.94
441.822	102.94
442.043	112.94
442.264	104.94
442.486	113.94
442.707	99.94
442.928	109.94
443.149	130.94
443.371	135.94
443.592	128.94
443.813	103.94
444.034	119.94
444.255	110.94
444.476	89.94
444.698	95.94
444.919	91.94
445.14	134.94
445.361	126.94
445.582	130.94
445.803	138.94
446.024	144.94
446.245	173.94
446.466	99.94
446.687	98.94
446.908	79.94
447.129	78.94
447.35	88.94
447.571	88.94
447.792	111.94
448.013	117.94
448.234	95.94
448.455	93.94
448.675	107.94
448.896	138.94
449.117	108.94
449.338	96.94
449.559	153.94
449.779	148.94
450	107.94
450.221	102.94
450.442	89.94
450.662	86.94
450.883	119.94
451.104	108.94
451.324	107.94
451.545	74.94
451.766	95.94
451.986	90.94
452.207	84.94
452.428	80.94
452.648	109.94
452.869	110.94
453.089	105.94
453.31	116.94
453.53	94.94
453.751	93.94
453.971	92.94
454.192	129.94
454.412	76.94
454.633	72.94
454.853	79.94
455.073	77.94
455.294	100.94
455.514	104.94
455.734	85.94
455.955	84.94
456.175	92.94
456.395	70.94
456.616	83.94
456.836	78.94
457.056	74.94
457.276	83.94
457.497	88.94
457.717	90.94
457.937	91.94
458.157	87.94
458.377	87.94
458.598	106.94
458.818	162.94
459.038	174.94
459.258	125.94
459.478	83.94
459.698	84.94
459.918	83.94
460.138	76.94
460.358	77.94
460.578	95.94
460.798	92.94
461.018	72.94
461.238	77.94
461.458	82.94
461.678	82.94
461.898	78.94
462.118	66.94
462.338	72.94
462.558	89.94
462.777	82.94
462.997	92.94
463.217	85.94
463.437	90.94
463.657	82.94
463.876	73.94
464.096	91.94
464.316	92.94
464.536	86.94
464.755	110.94
464.975	115.94
465.195	178.94
465.414	165.94
465.634	102.94
465.854	95.94
466.073	91.94
466.293	83.94
466.512	83.94
466.732	86.94
466.951	95.94
467.171	97.94
467.391	104.94
467.61	121.94
467.829	142.94
468.049	274.94
468.268	395.94
468.488	142.94
468.707	85.94
468.927	88.94
469.146	90.94
469.365	81.94
469.585	97.94
469.804	105.94
470.023	102.94
470.243	104.94
470.462	103.94
470.681	102.94
470.901	91.94
471.12	109.94
471.339	89.94
471.558	96.94
471.777	111.94
471.997	159.94
472.216	562.94
472.435	1120.94
472.654	304.94
472.873	117.94
473.092	110.94
473.311	95.94
473.53	85.94
473.749	93.94
473.968	92.94
474.187	106.94
474.406	96.94
474.625	90.94
474.844	84.94
475.063	81.94
475.282	92.94
475.501	91.94
475.72	106.94
475.939	88.94
476.158	72.94
476.377	77.94
476.596	86.94
476.814	88.94
477.033	85.94
477.252	80.94
477.471	81.94
477.69	84.94
477.908	97.94
478.127	85.94
478.346	82.94
478.564	93.94
478.783	83.94
479.002	96.94
479.22	96.94
479.439	107.94
479.658	117.94
479.876	106.94
480.095	106.94
480.313	98.94
480.532	120.94
480.751	174.94
480.969	512.94
481.188	1976.94
481.406	1137.94
481.624	217.94
481.843	102.94
482.061	96.94
482.28	93.94
482.498	85.94
482.717	88.94
482.935	97.94
483.153	94.94
483.372	93.94
483.59	110.94
483.808	84.94
484.027	85.94
484.245	99.94
484.463	97.94
484.681	94.94
484.9	82.94
485.118	93.94
485.336	91.94
485.554	94.94
485.772	97.94
485.99	102.94
486.209	112.94
486.427	108.94
486.645	99.94
486.863	112.94
487.081	91.94
487.299	92.94
487.517	93.94
487.735	97.94
487.953	88.94
488.171	78.94
488.389	86.94
488.607	106.94
488.825	82.94
489.043	92.94
489.261	89.94
489.479	83.94
489.696	92.94
489.914	92.94
490.132	97.94
490.35	107.94
490.568	90.94
490.786	90.94
491.003	75.94
491.221	89.94
491.439	101.94
491.657	105.94
491.874	82.94
492.092	83.94
492.31	92.94
492.527	87.94
492.745	81.94
492.963	89.94
493.18	107.94
493.398	102.94
493.615	108.94
493.833	103.94
494.05	90.94
494.268	72.94
494.485	84.94
494.703	79.94
494.92	101.94
495.138	91.94
495.355	99.94
495.573	90.94
495.79	81.94
496.008	94.94
496.225	94.94
496.442	86.94
496.66	100.94
496.877	82.94
497.094	98.94
497.312	92.94
497.529	100.94
497.746	87.94
497.963	95.94
498.181	87.94
498.398	114.94
498.615	112.94
498.832	104.94
499.049	93.94
499.267	92.94
499.484	86.94
499.701	98.94
499.918	78.94
500.135	90.94
500.352	96.94
500.569	87.94
500.786	83.94
501.003	86.94
501.22	81.94
501.437	91.94
501.654	105.94
501.871	108.94
502.088	90.94
502.305	98.94
502.522	99.94
502.739	85.94
502.956	90.94
503.172	86.94
503.389	101.94
503.606	105.94
503.823	101.94
504.04	87.94
504.256	88.94
504.473	81.94
504.69	83.94
504.907	105.94
505.123	98.94
505.34	85.94
505.557	83.94
505.773	88.94
505.99	84.94
506.207	92.94
506.423	71.94
506.64	76.94
506.856	89.94
507.073	80.94
507.289	88.94
507.506	95.94
507.722	107.94
507.939	110.94
508.155	105.94
508.372	95.94
508.588	102.94
508.805	93.94
509.021	99.94
509.238	99.94
509.454	108.94
509.67	99.94
509.887	106.94
510.103	127.94
510.319	214.94
510.536	780.94
510.752	2464.94
510.968	653.94
511.184	165.94
511.401	118.94
511.617	96.94
511.833	98.94
512.049	91.94
512.265	93.94
512.481	90.94
512.698	94.94
512.914	93.94
513.13	81.94
513.346	102.94
513.562	95.94
513.778	97.94
513.994	90.94
514.21	104.94
514.426	136.94
514.642	151.94
514.858	132.94
