Data from Circ_1990_H10_HRD10591_00100.txt Node
Date: Wed Jan 03 11:55:24 EST 2024
User: Yrep
Spectrometer: HR+D1059
Trigger mode: 1
Integration Time (sec): 1.000000E-1
Scans to average: 1
Electric dark correction enabled: true
Nonlinearity correction enabled: false
Boxcar width: 0
XAxis mode: Wavelengths
Number of Pixels in Spectrum: 2048
>>>>>Begin Spectral Data<<<<<
223.165	-15.75
223.4	-15.75
223.635	-15.75
223.869	-12.75
224.104	-7.75
224.338	-28.75
224.573	-20.75
224.808	-8.75
225.042	-15.75
225.277	-4.75
225.511	-18.75
225.746	5.25
225.98	-0.75
226.215	17.25
226.449	21.25
226.683	25.25
226.918	31.25
227.152	34.25
227.387	24.25
227.621	41.25
227.856	37.25
228.09	54.25
228.324	48.25
228.559	42.25
228.793	55.25
229.027	61.25
229.262	76.25
229.496	69.25
229.73	88.25
229.964	90.25
230.199	76.25
230.433	68.25
230.667	57.25
230.901	52.25
231.136	74.25
231.37	83.25
231.604	92.25
231.838	88.25
232.072	93.25
232.306	67.25
232.541	82.25
232.775	74.25
233.009	80.25
233.243	77.25
233.477	73.25
233.711	77.25
233.945	80.25
234.179	79.25
234.413	76.25
234.647	84.25
234.881	73.25
235.115	77.25
235.349	75.25
235.583	76.25
235.817	83.25
236.051	78.25
236.285	80.25
236.519	65.25
236.753	85.25
236.987	88.25
237.221	88.25
237.455	78.25
237.689	77.25
237.922	68.25
238.156	78.25
238.39	64.25
238.624	72.25
238.858	72.25
239.091	70.25
239.325	80.25
239.559	74.25
239.793	80.25
240.027	90.25
240.26	75.25
240.494	65.25
240.728	83.25
240.961	74.25
241.195	79.25
241.429	88.25
241.662	75.25
241.896	76.25
242.13	79.25
242.363	81.25
242.597	95.25
242.83	62.25
243.064	83.25
243.298	85.25
243.531	68.25
243.765	80.25
243.998	72.25
244.232	77.25
244.465	86.25
244.699	73.25
244.932	64.25
245.166	78.25
245.399	80.25
245.633	80.25
245.866	84.25
246.099	88.25
246.333	81.25
246.566	73.25
246.8	92.25
247.033	79.25
247.266	74.25
247.5	88.25
247.733	66.25
247.966	85.25
248.2	79.25
248.433	79.25
248.666	68.25
248.899	83.25
249.133	93.25
249.366	99.25
249.599	108.25
249.832	65.25
250.066	82.25
250.299	81.25
250.532	80.25
250.765	72.25
250.998	91.25
251.231	81.25
251.465	88.25
251.698	74.25
251.931	80.25
252.164	87.25
252.397	73.25
252.63	86.25
252.863	80.25
253.096	79.25
253.329	81.25
253.562	92.25
253.795	86.25
254.028	85.25
254.261	64.25
254.494	92.25
254.727	80.25
254.96	78.25
255.193	80.25
255.426	66.25
255.659	74.25
255.892	74.25
256.124	80.25
256.357	93.25
256.59	79.25
256.823	85.25
257.056	78.25
257.289	67.25
257.521	66.25
257.754	67.25
257.987	72.25
258.22	77.25
258.452	79.25
258.685	82.25
258.918	78.25
259.151	74.25
259.383	70.25
259.616	76.25
259.849	92.25
260.081	80.25
260.314	72.25
260.547	83.25
260.779	81.25
261.012	97.25
261.244	102.25
261.477	97.25
261.71	78.25
261.942	108.25
262.175	113.25
262.407	90.25
262.64	84.25
262.872	72.25
263.105	95.25
263.337	95.25
263.57	85.25
263.802	88.25
264.035	85.25
264.267	80.25
264.499	89.25
264.732	73.25
264.964	73.25
265.197	78.25
265.429	85.25
265.661	69.25
265.894	81.25
266.126	86.25
266.358	97.25
266.591	89.25
266.823	87.25
267.055	88.25
267.287	74.25
267.52	92.25
267.752	88.25
267.984	84.25
268.216	84.25
268.448	83.25
268.681	79.25
268.913	76.25
269.145	82.25
269.377	91.25
269.609	80.25
269.841	80.25
270.073	67.25
270.306	70.25
270.538	69.25
270.77	74.25
271.002	97.25
271.234	85.25
271.466	88.25
271.698	78.25
271.93	73.25
272.162	89.25
272.394	95.25
272.626	86.25
272.858	82.25
273.09	76.25
273.322	75.25
273.553	75.25
273.785	81.25
274.017	78.25
274.249	83.25
274.481	93.25
274.713	92.25
274.945	84.25
275.176	77.25
275.408	72.25
275.64	101.25
275.872	105.25
276.104	93.25
276.335	92.25
276.567	111.25
276.799	110.25
277.031	131.25
277.262	118.25
277.494	114.25
277.726	90.25
277.957	91.25
278.189	87.25
278.421	75.25
278.652	83.25
278.884	70.25
279.115	99.25
279.347	93.25
279.579	95.25
279.81	96.25
280.042	139.25
280.273	158.25
280.505	118.25
280.736	82.25
280.968	94.25
281.199	97.25
281.431	98.25
281.662	82.25
281.894	83.25
282.125	93.25
282.356	129.25
282.588	129.25
282.819	113.25
283.051	82.25
283.282	82.25
283.513	94.25
283.745	80.25
283.976	75.25
284.207	73.25
284.439	68.25
284.67	92.25
284.901	76.25
285.132	89.25
285.364	84.25
285.595	108.25
285.826	105.25
286.057	85.25
286.288	84.25
286.52	92.25
286.751	92.25
286.982	77.25
287.213	95.25
287.444	78.25
287.675	85.25
287.906	82.25
288.138	90.25
288.369	102.25
288.6	82.25
288.831	97.25
289.062	84.25
289.293	79.25
289.524	78.25
289.755	84.25
289.986	85.25
290.217	82.25
290.448	89.25
290.679	75.25
290.91	84.25
291.141	92.25
291.371	77.25
291.602	82.25
291.833	90.25
292.064	84.25
292.295	89.25
292.526	73.25
292.757	92.25
292.987	102.25
293.218	109.25
293.449	85.25
293.68	73.25
293.91	85.25
294.141	80.25
294.372	86.25
294.603	91.25
294.833	95.25
295.064	81.25
295.295	89.25
295.525	101.25
295.756	84.25
295.987	97.25
296.217	147.25
296.448	129.25
296.679	89.25
296.909	88.25
297.14	84.25
297.37	86.25
297.601	92.25
297.831	67.25
298.062	98.25
298.292	105.25
298.523	91.25
298.753	87.25
298.984	78.25
299.214	74.25
299.445	85.25
299.675	94.25
299.905	94.25
300.136	87.25
300.366	91.25
300.597	95.25
300.827	92.25
301.057	105.25
301.288	113.25
301.518	92.25
301.748	86.25
301.979	115.25
302.209	97.25
302.439	98.25
302.669	93.25
302.9	84.25
303.13	80.25
303.36	98.25
303.59	96.25
303.82	124.25
304.051	94.25
304.281	91.25
304.511	87.25
304.741	75.25
304.971	88.25
305.201	106.25
305.431	93.25
305.661	96.25
305.891	95.25
306.121	81.25
306.352	99.25
306.582	110.25
306.812	97.25
307.042	102.25
307.272	121.25
307.502	121.25
307.731	116.25
307.961	93.25
308.191	92.25
308.421	92.25
308.651	108.25
308.881	98.25
309.111	95.25
309.341	95.25
309.571	108.25
309.8	104.25
310.03	96.25
310.26	107.25
310.49	84.25
310.72	90.25
310.949	98.25
311.179	93.25
311.409	97.25
311.639	93.25
311.868	105.25
312.098	99.25
312.328	88.25
312.557	106.25
312.787	107.25
313.017	113.25
313.246	86.25
313.476	84.25
313.706	99.25
313.935	80.25
314.165	103.25
314.394	115.25
314.624	93.25
314.853	96.25
315.083	87.25
315.312	103.25
315.542	93.25
315.771	94.25
316.001	92.25
316.23	81.25
316.46	84.25
316.689	90.25
316.919	91.25
317.148	94.25
317.377	87.25
317.607	90.25
317.836	88.25
318.065	88.25
318.295	92.25
318.524	80.25
318.753	73.25
318.983	84.25
319.212	106.25
319.441	116.25
319.67	116.25
319.9	82.25
320.129	95.25
320.358	94.25
320.587	98.25
320.816	88.25
321.046	110.25
321.275	92.25
321.504	91.25
321.733	107.25
321.962	83.25
322.191	100.25
322.42	83.25
322.649	95.25
322.878	112.25
323.108	113.25
323.337	124.25
323.566	140.25
323.795	163.25
324.024	205.25
324.253	393.25
324.482	861.25
324.71	1724.25
324.939	2358.25
325.168	848.25
325.397	257.25
325.626	139.25
325.855	129.25
326.084	117.25
326.313	143.25
326.542	165.25
326.77	248.25
326.999	452.25
327.228	965.25
327.457	1780.25
327.686	1409.25
327.914	452.25
328.143	325.25
328.372	370.25
328.6	220.25
328.829	148.25
329.058	162.25
329.287	156.25
329.515	150.25
329.744	159.25
329.972	285.25
330.201	509.25
330.43	697.25
330.658	338.25
330.887	191.25
331.115	146.25
331.344	115.25
331.572	107.25
331.801	124.25
332.03	125.25
332.258	99.25
332.486	94.25
332.715	105.25
332.943	98.25
333.172	108.25
333.4	107.25
333.629	125.25
333.857	182.25
334.085	255.25
334.314	464.25
334.542	893.25
334.771	879.25
334.999	276.25
335.227	123.25
335.455	122.25
335.684	94.25
335.912	110.25
336.14	88.25
336.369	93.25
336.597	95.25
336.825	106.25
337.053	108.25
337.281	92.25
337.51	87.25
337.738	84.25
337.966	82.25
338.194	97.25
338.422	87.25
338.65	93.25
338.878	97.25
339.106	93.25
339.334	100.25
339.562	89.25
339.79	78.25
340.018	84.25
340.246	85.25
340.474	97.25
340.702	96.25
340.93	87.25
341.158	92.25
341.386	99.25
341.614	97.25
341.842	96.25
342.07	85.25
342.298	99.25
342.526	100.25
342.754	92.25
342.981	89.25
343.209	84.25
343.437	100.25
343.665	80.25
343.893	95.25
344.12	88.25
344.348	85.25
344.576	82.25
344.804	80.25
345.031	90.25
345.259	100.25
345.487	93.25
345.714	94.25
345.942	97.25
346.17	97.25
346.397	99.25
346.625	86.25
346.853	89.25
347.08	87.25
347.308	100.25
347.535	106.25
347.763	87.25
347.99	99.25
348.218	100.25
348.445	101.25
348.673	104.25
348.9	80.25
349.128	80.25
349.355	95.25
349.583	106.25
349.81	94.25
350.037	97.25
350.265	88.25
350.492	76.25
350.72	111.25
350.947	101.25
351.174	110.25
351.402	105.25
351.629	105.25
351.856	98.25
352.083	97.25
352.311	109.25
352.538	112.25
352.765	106.25
352.992	109.25
353.22	103.25
353.447	113.25
353.674	98.25
353.901	83.25
354.128	80.25
354.355	94.25
354.583	100.25
354.81	89.25
355.037	100.25
355.264	91.25
355.491	72.25
355.718	86.25
355.945	96.25
356.172	93.25
356.399	88.25
356.626	96.25
356.853	96.25
357.08	103.25
357.307	90.25
357.534	84.25
357.761	77.25
357.988	86.25
358.215	94.25
358.441	94.25
358.668	80.25
358.895	89.25
359.122	85.25
359.349	82.25
359.576	105.25
359.802	102.25
360.029	111.25
360.256	117.25
360.483	114.25
360.709	93.25
360.936	79.25
361.163	89.25
361.39	96.25
361.616	90.25
361.843	84.25
362.07	92.25
362.296	99.25
362.523	91.25
362.749	97.25
362.976	88.25
363.203	97.25
363.429	95.25
363.656	85.25
363.882	84.25
364.109	88.25
364.335	100.25
364.562	88.25
364.788	79.25
365.015	98.25
365.241	106.25
365.468	102.25
365.694	110.25
365.92	91.25
366.147	92.25
366.373	92.25
366.599	96.25
366.826	92.25
367.052	105.25
367.278	86.25
367.505	77.25
367.731	99.25
367.957	96.25
368.184	99.25
368.41	104.25
368.636	110.25
368.862	114.25
369.089	109.25
369.315	102.25
369.541	98.25
369.767	95.25
369.993	89.25
370.219	90.25
370.445	77.25
370.672	88.25
370.898	83.25
371.124	83.25
371.35	85.25
371.576	97.25
371.802	72.25
372.028	77.25
372.254	84.25
372.48	82.25
372.706	87.25
372.932	86.25
373.158	80.25
373.384	94.25
373.61	81.25
373.835	85.25
374.061	88.25
374.287	92.25
374.513	90.25
374.739	107.25
374.965	92.25
375.191	68.25
375.416	80.25
375.642	74.25
375.868	91.25
376.094	92.25
376.319	83.25
376.545	98.25
376.771	98.25
376.997	92.25
377.222	84.25
377.448	87.25
377.674	78.25
377.899	83.25
378.125	83.25
378.35	86.25
378.576	95.25
378.802	87.25
379.027	85.25
379.253	94.25
379.478	96.25
379.704	74.25
379.929	74.25
380.155	92.25
380.38	93.25
380.606	79.25
380.831	94.25
381.057	86.25
381.282	93.25
381.507	109.25
381.733	107.25
381.958	100.25
382.184	110.25
382.409	96.25
382.634	99.25
382.86	105.25
383.085	98.25
383.31	92.25
383.535	96.25
383.761	110.25
383.986	82.25
384.211	99.25
384.436	99.25
384.662	97.25
384.887	99.25
385.112	96.25
385.337	103.25
385.562	101.25
385.787	109.25
386.013	101.25
386.238	116.25
386.463	96.25
386.688	101.25
386.913	96.25
387.138	98.25
387.363	116.25
387.588	92.25
387.813	103.25
388.038	102.25
388.263	115.25
388.488	104.25
388.713	93.25
388.938	99.25
389.163	107.25
389.387	90.25
389.612	93.25
389.837	86.25
390.062	77.25
390.287	104.25
390.512	100.25
390.736	82.25
390.961	85.25
391.186	91.25
391.411	78.25
391.636	88.25
391.86	84.25
392.085	84.25
392.31	91.25
392.534	82.25
392.759	80.25
392.984	76.25
393.208	93.25
393.433	76.25
393.658	88.25
393.882	81.25
394.107	81.25
394.331	84.25
394.556	81.25
394.78	84.25
395.005	81.25
395.229	94.25
395.454	83.25
395.678	72.25
395.903	83.25
396.127	99.25
396.352	93.25
396.576	81.25
396.801	94.25
397.025	78.25
397.249	79.25
397.474	74.25
397.698	89.25
397.922	77.25
398.147	85.25
398.371	94.25
398.595	84.25
398.82	76.25
399.044	83.25
399.268	95.25
399.492	88.25
399.717	98.25
399.941	87.25
400.165	88.25
400.389	86.25
400.613	86.25
400.837	91.25
401.062	81.25
401.286	84.25
401.51	80.25
401.734	97.25
401.958	100.25
402.182	131.25
402.406	173.25
402.63	131.25
402.854	93.25
403.078	80.25
403.302	91.25
403.526	95.25
403.75	84.25
403.974	74.25
404.198	73.25
404.422	94.25
404.645	92.25
404.869	88.25
405.093	93.25
405.317	110.25
405.541	108.25
405.765	101.25
405.988	125.25
406.212	180.25
406.436	255.25
406.66	166.25
406.883	97.25
407.107	85.25
407.331	91.25
407.555	82.25
407.778	88.25
408.002	82.25
408.226	90.25
408.449	64.25
408.673	88.25
408.896	78.25
409.12	102.25
409.344	100.25
409.567	79.25
409.791	94.25
410.014	96.25
410.238	68.25
410.461	115.25
410.685	99.25
410.908	98.25
411.132	94.25
411.355	84.25
411.578	77.25
411.802	82.25
412.025	86.25
412.249	96.25
412.472	101.25
412.695	125.25
412.919	79.25
413.142	91.25
413.365	87.25
413.589	88.25
413.812	84.25
414.035	88.25
414.258	94.25
414.482	88.25
414.705	97.25
414.928	76.25
415.151	94.25
415.374	93.25
415.597	73.25
415.821	88.25
416.044	97.25
416.267	100.25
416.49	96.25
416.713	91.25
416.936	93.25
417.159	86.25
417.382	84.25
417.605	91.25
417.828	99.25
418.051	98.25
418.274	82.25
418.497	94.25
418.72	82.25
418.943	86.25
419.166	86.25
419.389	79.25
419.611	88.25
419.834	82.25
420.057	83.25
420.28	93.25
420.503	86.25
420.726	82.25
420.948	91.25
421.171	106.25
421.394	107.25
421.617	94.25
421.839	90.25
422.062	91.25
422.285	80.25
422.507	102.25
422.73	105.25
422.953	103.25
423.175	80.25
423.398	86.25
423.621	90.25
423.843	88.25
424.066	84.25
424.288	83.25
424.511	84.25
424.733	93.25
424.956	116.25
425.178	101.25
425.401	93.25
425.623	94.25
425.846	90.25
426.068	101.25
426.291	84.25
426.513	89.25
426.735	90.25
426.958	99.25
427.18	122.25
427.402	151.25
427.625	194.25
427.847	165.25
428.069	167.25
428.292	114.25
428.514	85.25
428.736	92.25
428.958	77.25
429.181	74.25
429.403	91.25
429.625	84.25
429.847	96.25
430.069	95.25
430.292	78.25
430.514	86.25
430.736	89.25
430.958	82.25
431.18	88.25
431.402	91.25
431.624	75.25
431.846	75.25
432.068	86.25
432.29	91.25
432.512	80.25
432.734	89.25
432.956	99.25
433.178	95.25
433.4	100.25
433.622	84.25
433.844	89.25
434.066	89.25
434.287	96.25
434.509	84.25
434.731	74.25
434.953	90.25
435.175	93.25
435.397	86.25
435.618	93.25
435.84	116.25
436.062	132.25
436.284	113.25
436.505	109.25
436.727	101.25
436.949	80.25
437.17	96.25
437.392	89.25
437.614	94.25
437.835	112.25
438.057	124.25
438.278	106.25
438.5	102.25
438.721	120.25
438.943	99.25
439.165	89.25
439.386	80.25
439.608	99.25
439.829	104.25
440.05	124.25
440.272	139.25
440.493	114.25
440.715	90.25
440.936	82.25
441.158	89.25
441.379	106.25
441.6	85.25
441.822	98.25
442.043	83.25
442.264	107.25
442.486	99.25
442.707	91.25
442.928	113.25
443.149	145.25
443.371	140.25
443.592	121.25
443.813	108.25
444.034	109.25
444.255	90.25
444.476	98.25
444.698	96.25
444.919	94.25
445.14	131.25
445.361	133.25
445.582	118.25
445.803	144.25
446.024	142.25
446.245	146.25
446.466	113.25
446.687	92.25
446.908	88.25
447.129	94.25
447.35	98.25
447.571	101.25
447.792	101.25
448.013	109.25
448.234	110.25
448.455	109.25
448.675	122.25
448.896	107.25
449.117	107.25
449.338	106.25
449.559	127.25
449.779	121.25
450	95.25
450.221	96.25
450.442	81.25
450.662	95.25
450.883	107.25
451.104	118.25
451.324	93.25
451.545	92.25
451.766	76.25
451.986	81.25
452.207	80.25
452.428	90.25
452.648	101.25
452.869	118.25
453.089	121.25
453.31	129.25
453.53	84.25
453.751	78.25
453.971	116.25
454.192	103.25
454.412	100.25
454.633	74.25
454.853	71.25
455.073	92.25
455.294	94.25
455.514	99.25
455.734	102.25
455.955	83.25
456.175	80.25
456.395	85.25
456.616	75.25
456.836	82.25
457.056	74.25
457.276	83.25
457.497	85.25
457.717	87.25
457.937	86.25
458.157	88.25
458.377	77.25
458.598	121.25
458.818	161.25
459.038	187.25
459.258	136.25
459.478	99.25
459.698	76.25
459.918	85.25
460.138	95.25
460.358	84.25
460.578	90.25
460.798	100.25
461.018	81.25
461.238	95.25
461.458	107.25
461.678	62.25
461.898	76.25
462.118	88.25
462.338	66.25
462.558	95.25
462.777	95.25
462.997	105.25
463.217	100.25
463.437	88.25
463.657	76.25
463.876	98.25
464.096	98.25
464.316	93.25
464.536	89.25
464.755	104.25
464.975	108.25
465.195	180.25
465.414	192.25
465.634	118.25
465.854	89.25
466.073	109.25
466.293	98.25
466.512	97.25
466.732	99.25
466.951	97.25
467.171	102.25
467.391	109.25
467.61	112.25
467.829	133.25
468.049	318.25
468.268	453.25
468.488	155.25
468.707	96.25
468.927	76.25
469.146	84.25
469.365	98.25
469.585	95.25
469.804	109.25
470.023	92.25
470.243	101.25
470.462	108.25
470.681	122.25
470.901	81.25
471.12	89.25
471.339	105.25
471.558	98.25
471.777	115.25
471.997	197.25
472.216	575.25
472.435	1246.25
472.654	332.25
472.873	120.25
473.092	102.25
473.311	91.25
473.53	92.25
473.749	96.25
473.968	105.25
474.187	109.25
474.406	81.25
474.625	106.25
474.844	105.25
475.063	94.25
475.282	99.25
475.501	89.25
475.72	76.25
475.939	84.25
476.158	91.25
476.377	88.25
476.596	84.25
476.814	95.25
477.033	89.25
477.252	93.25
477.471	86.25
477.69	91.25
477.908	100.25
478.127	92.25
478.346	81.25
478.564	91.25
478.783	100.25
479.002	97.25
479.22	98.25
479.439	121.25
479.658	119.25
479.876	107.25
480.095	110.25
480.313	101.25
480.532	137.25
480.751	186.25
480.969	544.25
481.188	2169.25
481.406	1275.25
481.624	216.25
481.843	104.25
482.061	101.25
482.28	86.25
482.498	99.25
482.717	84.25
482.935	93.25
483.153	107.25
483.372	104.25
483.59	105.25
483.808	73.25
484.027	90.25
484.245	88.25
484.463	93.25
484.681	102.25
484.9	93.25
485.118	84.25
485.336	91.25
485.554	94.25
485.772	99.25
485.99	96.25
486.209	103.25
486.427	102.25
486.645	118.25
486.863	109.25
487.081	104.25
487.299	103.25
487.517	91.25
487.735	87.25
487.953	82.25
488.171	84.25
488.389	88.25
488.607	107.25
488.825	99.25
489.043	104.25
489.261	90.25
489.479	98.25
489.696	94.25
489.914	85.25
490.132	83.25
490.35	92.25
490.568	85.25
490.786	90.25
491.003	112.25
491.221	94.25
491.439	91.25
491.657	96.25
491.874	101.25
492.092	102.25
492.31	92.25
492.527	110.25
492.745	96.25
492.963	92.25
493.18	97.25
493.398	82.25
493.615	81.25
493.833	86.25
494.05	87.25
494.268	90.25
494.485	95.25
494.703	97.25
494.92	87.25
495.138	82.25
495.355	95.25
495.573	80.25
495.79	102.25
496.008	94.25
496.225	95.25
496.442	101.25
496.66	98.25
496.877	95.25
497.094	96.25
497.312	88.25
497.529	111.25
497.746	91.25
497.963	93.25
498.181	72.25
498.398	97.25
498.615	102.25
498.832	94.25
499.049	98.25
499.267	86.25
499.484	76.25
499.701	88.25
499.918	82.25
500.135	99.25
500.352	91.25
500.569	91.25
500.786	97.25
501.003	84.25
501.22	82.25
501.437	84.25
501.654	91.25
501.871	125.25
502.088	84.25
502.305	84.25
502.522	93.25
502.739	89.25
502.956	87.25
503.172	95.25
503.389	93.25
503.606	112.25
503.823	114.25
504.04	91.25
504.256	99.25
504.473	106.25
504.69	98.25
504.907	112.25
505.123	95.25
505.34	87.25
505.557	101.25
505.773	92.25
505.99	81.25
506.207	105.25
506.423	82.25
506.64	78.25
506.856	90.25
507.073	92.25
507.289	92.25
507.506	99.25
507.722	125.25
507.939	122.25
508.155	110.25
508.372	81.25
508.588	83.25
508.805	92.25
509.021	99.25
509.238	100.25
509.454	86.25
509.67	92.25
509.887	109.25
510.103	126.25
510.319	208.25
510.536	734.25
510.752	2427.25
510.968	669.25
511.184	154.25
511.401	108.25
511.617	87.25
511.833	89.25
512.049	89.25
512.265	96.25
512.481	97.25
512.698	101.25
512.914	94.25
513.13	113.25
513.346	95.25
513.562	100.25
513.778	91.25
513.994	101.25
514.21	113.25
514.426	133.25
514.642	156.25
514.858	127.25
515.074	170.25
