Data from Circ_1990_H10_HRD10591_00040.txt Node
Date: Wed Jan 03 11:55:12 EST 2024
User: Yrep
Spectrometer: HR+D1059
Trigger mode: 1
Integration Time (sec): 1.000000E-1
Scans to average: 1
Electric dark correction enabled: true
Nonlinearity correction enabled: false
Boxcar width: 0
XAxis mode: Wavelengths
Number of Pixels in Spectrum: 2048
>>>>>Begin Spectral Data<<<<<
223.165	-26.75
223.4	-26.75
223.635	-26.75
223.869	-14.75
224.104	-22.75
224.338	-2.75
224.573	-19.75
224.808	-2.75
225.042	-5.75
225.277	-0.75
225.511	-0.75
225.746	14.25
225.98	18.25
226.215	-5.75
226.449	7.25
226.683	19.25
226.918	-2.75
227.152	46.25
227.387	30.25
227.621	44.25
227.856	30.25
228.09	38.25
228.324	56.25
228.559	50.25
228.793	55.25
229.027	67.25
229.262	67.25
229.496	75.25
229.73	83.25
229.964	91.25
230.199	84.25
230.433	61.25
230.667	84.25
230.901	71.25
231.136	72.25
231.37	74.25
231.604	86.25
231.838	79.25
232.072	78.25
232.306	77.25
232.541	85.25
232.775	82.25
233.009	87.25
233.243	75.25
233.477	84.25
233.711	86.25
233.945	96.25
234.179	72.25
234.413	76.25
234.647	80.25
234.881	84.25
235.115	75.25
235.349	85.25
235.583	75.25
235.817	72.25
236.051	78.25
236.285	75.25
236.519	91.25
236.753	84.25
236.987	82.25
237.221	79.25
237.455	87.25
237.689	81.25
237.922	78.25
238.156	76.25
238.39	90.25
238.624	78.25
238.858	61.25
239.091	66.25
239.325	80.25
239.559	79.25
239.793	61.25
240.027	86.25
240.26	82.25
240.494	72.25
240.728	70.25
240.961	79.25
241.195	67.25
241.429	78.25
241.662	74.25
241.896	77.25
242.13	78.25
242.363	78.25
242.597	80.25
242.83	67.25
243.064	88.25
243.298	70.25
243.531	94.25
243.765	67.25
243.998	82.25
244.232	101.25
244.465	84.25
244.699	75.25
244.932	68.25
245.166	108.25
245.399	85.25
245.633	79.25
245.866	96.25
246.099	87.25
246.333	86.25
246.566	77.25
246.8	87.25
247.033	78.25
247.266	70.25
247.5	91.25
247.733	89.25
247.966	76.25
248.2	83.25
248.433	75.25
248.666	80.25
248.899	78.25
249.133	93.25
249.366	84.25
249.599	87.25
249.832	96.25
250.066	67.25
250.299	80.25
250.532	72.25
250.765	90.25
250.998	76.25
251.231	94.25
251.465	85.25
251.698	77.25
251.931	69.25
252.164	66.25
252.397	66.25
252.63	81.25
252.863	74.25
253.096	68.25
253.329	67.25
253.562	88.25
253.795	79.25
254.028	75.25
254.261	84.25
254.494	79.25
254.727	65.25
254.96	93.25
255.193	82.25
255.426	67.25
255.659	83.25
255.892	78.25
256.124	67.25
256.357	91.25
256.59	85.25
256.823	63.25
257.056	91.25
257.289	85.25
257.521	66.25
257.754	96.25
257.987	69.25
258.22	84.25
258.452	89.25
258.685	86.25
258.918	86.25
259.151	85.25
259.383	91.25
259.616	87.25
259.849	89.25
260.081	93.25
260.314	81.25
260.547	87.25
260.779	85.25
261.012	82.25
261.244	99.25
261.477	89.25
261.71	98.25
261.942	120.25
262.175	117.25
262.407	94.25
262.64	85.25
262.872	84.25
263.105	85.25
263.337	88.25
263.57	82.25
263.802	83.25
264.035	72.25
264.267	72.25
264.499	81.25
264.732	94.25
264.964	86.25
265.197	87.25
265.429	80.25
265.661	83.25
265.894	88.25
266.126	83.25
266.358	78.25
266.591	83.25
266.823	88.25
267.055	70.25
267.287	85.25
267.52	76.25
267.752	76.25
267.984	85.25
268.216	85.25
268.448	83.25
268.681	76.25
268.913	93.25
269.145	89.25
269.377	83.25
269.609	76.25
269.841	97.25
270.073	91.25
270.306	89.25
270.538	83.25
270.77	87.25
271.002	83.25
271.234	80.25
271.466	86.25
271.698	81.25
271.93	91.25
272.162	80.25
272.394	96.25
272.626	79.25
272.858	80.25
273.09	84.25
273.322	74.25
273.553	89.25
273.785	71.25
274.017	80.25
274.249	94.25
274.481	80.25
274.713	94.25
274.945	85.25
275.176	77.25
275.408	106.25
275.64	103.25
275.872	99.25
276.104	85.25
276.335	77.25
276.567	102.25
276.799	100.25
277.031	118.25
277.262	101.25
277.494	101.25
277.726	87.25
277.957	96.25
278.189	70.25
278.421	82.25
278.652	89.25
278.884	70.25
279.115	102.25
279.347	85.25
279.579	93.25
279.81	94.25
280.042	98.25
280.273	130.25
280.505	98.25
280.736	88.25
280.968	94.25
281.199	93.25
281.431	87.25
281.662	104.25
281.894	76.25
282.125	75.25
282.356	113.25
282.588	143.25
282.819	104.25
283.051	95.25
283.282	82.25
283.513	86.25
283.745	88.25
283.976	102.25
284.207	82.25
284.439	88.25
284.67	85.25
284.901	77.25
285.132	88.25
285.364	83.25
285.595	86.25
285.826	80.25
286.057	88.25
286.288	93.25
286.52	81.25
286.751	89.25
286.982	103.25
287.213	82.25
287.444	83.25
287.675	74.25
287.906	84.25
288.138	98.25
288.369	94.25
288.6	87.25
288.831	92.25
289.062	90.25
289.293	87.25
289.524	85.25
289.755	89.25
289.986	89.25
290.217	80.25
290.448	84.25
290.679	95.25
290.91	82.25
291.141	81.25
291.371	87.25
291.602	71.25
291.833	79.25
292.064	90.25
292.295	98.25
292.526	94.25
292.757	84.25
292.987	96.25
293.218	74.25
293.449	77.25
293.68	92.25
293.91	87.25
294.141	88.25
294.372	106.25
294.603	85.25
294.833	86.25
295.064	92.25
295.295	88.25
295.525	81.25
295.756	90.25
295.987	114.25
296.217	123.25
296.448	127.25
296.679	103.25
296.909	87.25
297.14	81.25
297.37	87.25
297.601	87.25
297.831	97.25
298.062	86.25
298.292	89.25
298.523	86.25
298.753	82.25
298.984	78.25
299.214	87.25
299.445	92.25
299.675	105.25
299.905	95.25
300.136	94.25
300.366	93.25
300.597	106.25
300.827	89.25
301.057	102.25
301.288	100.25
301.518	94.25
301.748	85.25
301.979	109.25
302.209	84.25
302.439	88.25
302.669	99.25
302.9	84.25
303.13	92.25
303.36	96.25
303.59	107.25
303.82	106.25
304.051	79.25
304.281	79.25
304.511	90.25
304.741	80.25
304.971	83.25
305.201	94.25
305.431	103.25
305.661	90.25
305.891	85.25
306.121	101.25
306.352	111.25
306.582	104.25
306.812	97.25
307.042	75.25
307.272	108.25
307.502	114.25
307.731	113.25
307.961	107.25
308.191	94.25
308.421	82.25
308.651	92.25
308.881	100.25
309.111	96.25
309.341	95.25
309.571	98.25
309.8	103.25
310.03	89.25
310.26	95.25
310.49	89.25
310.72	94.25
310.949	97.25
311.179	87.25
311.409	99.25
311.639	98.25
311.868	95.25
312.098	100.25
312.328	96.25
312.557	106.25
312.787	111.25
313.017	107.25
313.246	106.25
313.476	92.25
313.706	96.25
313.935	92.25
314.165	96.25
314.394	92.25
314.624	82.25
314.853	95.25
315.083	99.25
315.312	106.25
315.542	100.25
315.771	89.25
316.001	95.25
316.23	88.25
316.46	90.25
316.689	91.25
316.919	99.25
317.148	102.25
317.377	114.25
317.607	94.25
317.836	93.25
318.065	90.25
318.295	96.25
318.524	85.25
318.753	95.25
318.983	86.25
319.212	88.25
319.441	99.25
319.67	89.25
319.9	89.25
320.129	101.25
320.358	95.25
320.587	95.25
320.816	88.25
321.046	115.25
321.275	90.25
321.504	98.25
321.733	111.25
321.962	100.25
322.191	102.25
322.42	101.25
322.649	107.25
322.878	110.25
323.108	110.25
323.337	120.25
323.566	112.25
323.795	165.25
324.024	204.25
324.253	376.25
324.482	778.25
324.71	1538.25
324.939	2047.25
325.168	758.25
325.397	247.25
325.626	131.25
325.855	115.25
326.084	122.25
326.313	124.25
326.542	150.25
326.77	222.25
326.999	429.25
327.228	872.25
327.457	1596.25
327.686	1276.25
327.914	400.25
328.143	244.25
328.372	240.25
328.6	158.25
328.829	125.25
329.058	129.25
329.287	129.25
329.515	110.25
329.744	130.25
329.972	182.25
330.201	300.25
330.43	404.25
330.658	229.25
330.887	142.25
331.115	114.25
331.344	94.25
331.572	105.25
331.801	97.25
332.03	107.25
332.258	111.25
332.486	104.25
332.715	95.25
332.943	86.25
333.172	97.25
333.4	106.25
333.629	106.25
333.857	136.25
334.085	189.25
334.314	299.25
334.542	506.25
334.771	502.25
334.999	165.25
335.227	99.25
335.455	97.25
335.684	103.25
335.912	96.25
336.14	97.25
336.369	98.25
336.597	97.25
336.825	93.25
337.053	102.25
337.281	89.25
337.51	90.25
337.738	88.25
337.966	92.25
338.194	93.25
338.422	96.25
338.65	93.25
338.878	111.25
339.106	100.25
339.334	92.25
339.562	102.25
339.79	69.25
340.018	86.25
340.246	97.25
340.474	99.25
340.702	94.25
340.93	87.25
341.158	88.25
341.386	76.25
341.614	94.25
341.842	101.25
342.07	87.25
342.298	83.25
342.526	95.25
342.754	91.25
342.981	90.25
343.209	88.25
343.437	88.25
343.665	93.25
343.893	94.25
344.12	92.25
344.348	103.25
344.576	96.25
344.804	93.25
345.031	91.25
345.259	88.25
345.487	88.25
345.714	87.25
345.942	99.25
346.17	69.25
346.397	98.25
346.625	86.25
346.853	93.25
347.08	98.25
347.308	97.25
347.535	108.25
347.763	84.25
347.99	115.25
348.218	113.25
348.445	102.25
348.673	103.25
348.9	93.25
349.128	93.25
349.355	96.25
349.583	90.25
349.81	87.25
350.037	91.25
350.265	92.25
350.492	86.25
350.72	96.25
350.947	87.25
351.174	98.25
351.402	116.25
351.629	100.25
351.856	102.25
352.083	105.25
352.311	100.25
352.538	101.25
352.765	105.25
352.992	98.25
353.22	102.25
353.447	103.25
353.674	110.25
353.901	107.25
354.128	92.25
354.355	88.25
354.583	99.25
354.81	98.25
355.037	94.25
355.264	108.25
355.491	96.25
355.718	94.25
355.945	99.25
356.172	100.25
356.399	104.25
356.626	100.25
356.853	76.25
357.08	103.25
357.307	91.25
357.534	88.25
357.761	80.25
357.988	88.25
358.215	92.25
358.441	104.25
358.668	108.25
358.895	97.25
359.122	93.25
359.349	83.25
359.576	94.25
359.802	103.25
360.029	114.25
360.256	114.25
360.483	100.25
360.709	92.25
360.936	88.25
361.163	107.25
361.39	90.25
361.616	90.25
361.843	85.25
362.07	103.25
362.296	96.25
362.523	92.25
362.749	105.25
362.976	93.25
363.203	90.25
363.429	86.25
363.656	78.25
363.882	87.25
364.109	100.25
364.335	90.25
364.562	88.25
364.788	97.25
365.015	98.25
365.241	104.25
365.468	94.25
365.694	115.25
365.92	94.25
366.147	79.25
366.373	95.25
366.599	87.25
366.826	94.25
367.052	86.25
367.278	88.25
367.505	88.25
367.731	99.25
367.957	93.25
368.184	88.25
368.41	96.25
368.636	103.25
368.862	111.25
369.089	97.25
369.315	88.25
369.541	91.25
369.767	99.25
369.993	86.25
370.219	92.25
370.445	84.25
370.672	90.25
370.898	96.25
371.124	81.25
371.35	96.25
371.576	85.25
371.802	84.25
372.028	90.25
372.254	92.25
372.48	90.25
372.706	93.25
372.932	76.25
373.158	88.25
373.384	89.25
373.61	103.25
373.835	96.25
374.061	94.25
374.287	75.25
374.513	89.25
374.739	94.25
374.965	93.25
375.191	73.25
375.416	86.25
375.642	99.25
375.868	99.25
376.094	87.25
376.319	77.25
376.545	90.25
376.771	92.25
376.997	80.25
377.222	92.25
377.448	94.25
377.674	87.25
377.899	88.25
378.125	95.25
378.35	101.25
378.576	88.25
378.802	89.25
379.027	90.25
379.253	103.25
379.478	99.25
379.704	96.25
379.929	96.25
380.155	95.25
380.38	109.25
380.606	109.25
380.831	112.25
381.057	101.25
381.282	91.25
381.507	104.25
381.733	110.25
381.958	97.25
382.184	110.25
382.409	106.25
382.634	91.25
382.86	112.25
383.085	100.25
383.31	110.25
383.535	110.25
383.761	108.25
383.986	117.25
384.211	99.25
384.436	111.25
384.662	103.25
384.887	108.25
385.112	116.25
385.337	112.25
385.562	117.25
385.787	106.25
386.013	121.25
386.238	126.25
386.463	114.25
386.688	105.25
386.913	104.25
387.138	116.25
387.363	122.25
387.588	119.25
387.813	101.25
388.038	125.25
388.263	140.25
388.488	126.25
388.713	102.25
388.938	92.25
389.163	94.25
389.387	83.25
389.612	98.25
389.837	93.25
390.062	89.25
390.287	86.25
390.512	94.25
390.736	107.25
390.961	100.25
391.186	99.25
391.411	93.25
391.636	82.25
391.86	80.25
392.085	92.25
392.31	93.25
392.534	70.25
392.759	84.25
392.984	86.25
393.208	87.25
393.433	91.25
393.658	76.25
393.882	83.25
394.107	85.25
394.331	87.25
394.556	94.25
394.78	80.25
395.005	68.25
395.229	80.25
395.454	95.25
395.678	96.25
395.903	82.25
396.127	93.25
396.352	86.25
396.576	90.25
396.801	80.25
397.025	96.25
397.249	74.25
397.474	106.25
397.698	99.25
397.922	87.25
398.147	84.25
398.371	79.25
398.595	98.25
398.82	83.25
399.044	94.25
399.268	92.25
399.492	83.25
399.717	77.25
399.941	86.25
400.165	95.25
400.389	90.25
400.613	77.25
400.837	77.25
401.062	78.25
401.286	87.25
401.51	100.25
401.734	86.25
401.958	95.25
402.182	113.25
402.406	150.25
402.63	112.25
402.854	99.25
403.078	91.25
403.302	91.25
403.526	76.25
403.75	90.25
403.974	85.25
404.198	81.25
404.422	74.25
404.645	88.25
404.869	87.25
405.093	96.25
405.317	107.25
405.541	98.25
405.765	84.25
405.988	121.25
406.212	177.25
406.436	214.25
406.66	124.25
406.883	89.25
407.107	103.25
407.331	108.25
407.555	98.25
407.778	78.25
408.002	84.25
408.226	83.25
408.449	75.25
408.673	90.25
408.896	91.25
409.12	95.25
409.344	81.25
409.567	103.25
409.791	99.25
410.014	84.25
410.238	96.25
410.461	95.25
410.685	87.25
410.908	107.25
411.132	109.25
411.355	118.25
411.578	85.25
411.802	84.25
412.025	73.25
412.249	83.25
412.472	98.25
412.695	114.25
412.919	93.25
413.142	91.25
413.365	84.25
413.589	89.25
413.812	95.25
414.035	90.25
414.258	90.25
414.482	91.25
414.705	82.25
414.928	87.25
415.151	98.25
415.374	105.25
415.597	92.25
415.821	92.25
416.044	97.25
416.267	92.25
416.49	81.25
416.713	78.25
416.936	92.25
417.159	86.25
417.382	87.25
417.605	84.25
417.828	100.25
418.051	87.25
418.274	95.25
418.497	100.25
418.72	84.25
418.943	91.25
419.166	85.25
419.389	99.25
419.611	91.25
419.834	86.25
420.057	92.25
420.28	89.25
420.503	86.25
420.726	86.25
420.948	90.25
421.171	103.25
421.394	84.25
421.617	75.25
421.839	104.25
422.062	97.25
422.285	89.25
422.507	99.25
422.73	99.25
422.953	85.25
423.175	82.25
423.398	98.25
423.621	88.25
423.843	85.25
424.066	81.25
424.288	89.25
424.511	95.25
424.733	84.25
424.956	103.25
425.178	99.25
425.401	122.25
425.623	94.25
425.846	85.25
426.068	90.25
426.291	78.25
426.513	87.25
426.735	90.25
426.958	92.25
427.18	101.25
427.402	143.25
427.625	161.25
427.847	148.25
428.069	133.25
428.292	92.25
428.514	89.25
428.736	103.25
428.958	62.25
429.181	84.25
429.403	77.25
429.625	70.25
429.847	84.25
430.069	101.25
430.292	94.25
430.514	87.25
430.736	80.25
430.958	83.25
431.18	84.25
431.402	85.25
431.624	81.25
431.846	80.25
432.068	81.25
432.29	79.25
432.512	89.25
432.734	95.25
432.956	80.25
433.178	98.25
433.4	105.25
433.622	90.25
433.844	82.25
434.066	87.25
434.287	94.25
434.509	92.25
434.731	100.25
434.953	100.25
435.175	92.25
435.397	90.25
435.618	96.25
435.84	114.25
436.062	117.25
436.284	100.25
436.505	93.25
436.727	106.25
436.949	107.25
437.17	98.25
437.392	86.25
437.614	98.25
437.835	112.25
438.057	111.25
438.278	101.25
438.5	97.25
438.721	125.25
438.943	110.25
439.165	88.25
439.386	95.25
439.608	64.25
439.829	86.25
440.05	113.25
440.272	133.25
440.493	90.25
440.715	84.25
440.936	84.25
441.158	96.25
441.379	96.25
441.6	91.25
441.822	93.25
442.043	78.25
442.264	107.25
442.486	104.25
442.707	90.25
442.928	112.25
443.149	128.25
443.371	117.25
443.592	106.25
443.813	126.25
444.034	109.25
444.255	90.25
444.476	90.25
444.698	90.25
444.919	70.25
445.14	131.25
445.361	134.25
445.582	101.25
445.803	131.25
446.024	132.25
446.245	134.25
446.466	96.25
446.687	94.25
446.908	83.25
447.129	80.25
447.35	86.25
447.571	85.25
447.792	99.25
448.013	88.25
448.234	102.25
448.455	101.25
448.675	114.25
448.896	132.25
449.117	100.25
449.338	107.25
449.559	122.25
449.779	134.25
450	82.25
450.221	83.25
450.442	91.25
450.662	81.25
450.883	106.25
451.104	107.25
451.324	96.25
451.545	81.25
451.766	83.25
451.986	82.25
452.207	93.25
452.428	94.25
452.648	104.25
452.869	103.25
453.089	103.25
453.31	117.25
453.53	90.25
453.751	82.25
453.971	104.25
454.192	113.25
454.412	93.25
454.633	91.25
454.853	107.25
455.073	78.25
455.294	96.25
455.514	92.25
455.734	94.25
455.955	81.25
456.175	96.25
456.395	71.25
456.616	79.25
456.836	78.25
457.056	76.25
457.276	91.25
457.497	85.25
457.717	96.25
457.937	81.25
458.157	93.25
458.377	89.25
458.598	96.25
458.818	142.25
459.038	148.25
459.258	108.25
459.478	78.25
459.698	85.25
459.918	88.25
460.138	88.25
460.358	104.25
460.578	91.25
460.798	85.25
461.018	86.25
461.238	101.25
461.458	85.25
461.678	87.25
461.898	86.25
462.118	85.25
462.338	93.25
462.558	86.25
462.777	74.25
462.997	90.25
463.217	87.25
463.437	95.25
463.657	103.25
463.876	91.25
464.096	83.25
464.316	82.25
464.536	97.25
464.755	102.25
464.975	96.25
465.195	157.25
465.414	140.25
465.634	104.25
465.854	80.25
466.073	80.25
466.293	100.25
466.512	77.25
466.732	83.25
466.951	91.25
467.171	89.25
467.391	97.25
467.61	110.25
467.829	136.25
468.049	206.25
468.268	248.25
468.488	114.25
468.707	98.25
468.927	90.25
469.146	96.25
469.365	91.25
469.585	89.25
469.804	94.25
470.023	97.25
470.243	86.25
470.462	93.25
470.681	111.25
470.901	94.25
471.12	100.25
471.339	92.25
471.558	111.25
471.777	102.25
471.997	136.25
472.216	337.25
472.435	677.25
472.654	203.25
472.873	101.25
473.092	76.25
473.311	85.25
473.53	92.25
473.749	99.25
473.968	91.25
474.187	94.25
474.406	111.25
474.625	104.25
474.844	90.25
475.063	78.25
475.282	89.25
475.501	95.25
475.72	99.25
475.939	101.25
476.158	80.25
476.377	86.25
476.596	98.25
476.814	98.25
477.033	91.25
477.252	93.25
477.471	90.25
477.69	91.25
477.908	87.25
478.127	91.25
478.346	84.25
478.564	101.25
478.783	95.25
479.002	84.25
479.22	91.25
479.439	93.25
479.658	99.25
479.876	106.25
480.095	108.25
480.313	94.25
480.532	100.25
480.751	143.25
480.969	332.25
481.188	1179.25
481.406	699.25
481.624	153.25
481.843	101.25
482.061	92.25
482.28	104.25
482.498	106.25
482.717	94.25
482.935	91.25
483.153	93.25
483.372	86.25
483.59	82.25
483.808	71.25
484.027	95.25
484.245	89.25
484.463	94.25
484.681	113.25
484.9	101.25
485.118	94.25
485.336	93.25
485.554	115.25
485.772	97.25
485.99	114.25
486.209	109.25
486.427	120.25
486.645	128.25
486.863	109.25
487.081	112.25
487.299	94.25
487.517	101.25
487.735	85.25
487.953	108.25
488.171	93.25
488.389	93.25
488.607	85.25
488.825	101.25
489.043	98.25
489.261	87.25
489.479	94.25
489.696	108.25
489.914	86.25
490.132	84.25
490.35	82.25
490.568	89.25
490.786	103.25
491.003	92.25
491.221	86.25
491.439	87.25
491.657	91.25
491.874	96.25
492.092	97.25
492.31	92.25
492.527	89.25
492.745	90.25
492.963	89.25
493.18	87.25
493.398	109.25
493.615	92.25
493.833	85.25
494.05	87.25
494.268	87.25
494.485	94.25
494.703	91.25
494.92	88.25
495.138	90.25
495.355	84.25
495.573	100.25
495.79	84.25
496.008	93.25
496.225	91.25
496.442	89.25
496.66	86.25
496.877	87.25
497.094	80.25
497.312	96.25
497.529	83.25
497.746	76.25
497.963	87.25
498.181	83.25
498.398	91.25
498.615	98.25
498.832	98.25
499.049	87.25
499.267	93.25
499.484	98.25
499.701	104.25
499.918	107.25
500.135	88.25
500.352	89.25
500.569	98.25
500.786	108.25
501.003	89.25
501.22	85.25
501.437	96.25
501.654	102.25
501.871	109.25
502.088	101.25
502.305	85.25
502.522	98.25
502.739	94.25
502.956	92.25
503.172	94.25
503.389	95.25
503.606	100.25
503.823	93.25
504.04	97.25
504.256	80.25
504.473	106.25
504.69	97.25
504.907	90.25
505.123	90.25
505.34	89.25
505.557	89.25
505.773	78.25
505.99	88.25
506.207	95.25
506.423	85.25
506.64	85.25
506.856	82.25
507.073	100.25
507.289	96.25
507.506	107.25
507.722	108.25
507.939	102.25
508.155	87.25
508.372	112.25
508.588	88.25
508.805	81.25
509.021	94.25
509.238	92.25
509.454	111.25
509.67	93.25
509.887	117.25
510.103	122.25
510.319	184.25
510.536	666.25
510.752	2030.25
510.968	558.25
511.184	154.25
511.401	110.25
511.617	100.25
511.833	101.25
512.049	96.25
512.265	98.25
512.481	97.25
512.698	88.25
512.914	91.25
513.13	74.25
513.346	88.25
513.562	93.25
513.778	94.25
513.994	104.25
514.21	101.25
514.426	112.25
514.642	126.25
514.858	110.25
515.074	164.25
