Data from Circ_1990_H10_HRD10591_00069.txt Node
Date: Wed Jan 03 11:55:17 EST 2024
User: Yrep
Spectrometer: HR+D1059
Trigger mode: 1
Integration Time (sec): 1.000000E-1
Scans to average: 1
Electric dark correction enabled: true
Nonlinearity correction enabled: false
Boxcar width: 0
XAxis mode: Wavelengths
Number of Pixels in Spectrum: 2048
>>>>>Begin Spectral Data<<<<<
223.165	-10.75
223.4	-10.75
223.635	-10.75
223.869	-17.75
224.104	-27.75
224.338	-11.75
224.573	-12.75
224.808	6.25
225.042	-16.75
225.277	6.25
225.511	-4.75
225.746	1.25
225.98	5.25
226.215	0.25
226.449	18.25
226.683	22.25
226.918	28.25
227.152	14.25
227.387	27.25
227.621	53.25
227.856	49.25
228.09	45.25
228.324	45.25
228.559	67.25
228.793	56.25
229.027	59.25
229.262	61.25
229.496	73.25
229.73	78.25
229.964	76.25
230.199	78.25
230.433	73.25
230.667	77.25
230.901	84.25
231.136	75.25
231.37	65.25
231.604	91.25
231.838	86.25
232.072	82.25
232.306	87.25
232.541	83.25
232.775	77.25
233.009	82.25
233.243	87.25
233.477	98.25
233.711	75.25
233.945	91.25
234.179	70.25
234.413	68.25
234.647	77.25
234.881	61.25
235.115	74.25
235.349	91.25
235.583	76.25
235.817	86.25
236.051	71.25
236.285	89.25
236.519	77.25
236.753	78.25
236.987	72.25
237.221	70.25
237.455	73.25
237.689	69.25
237.922	68.25
238.156	71.25
238.39	70.25
238.624	74.25
238.858	91.25
239.091	67.25
239.325	70.25
239.559	82.25
239.793	60.25
240.027	77.25
240.26	68.25
240.494	70.25
240.728	64.25
240.961	85.25
241.195	70.25
241.429	82.25
241.662	81.25
241.896	81.25
242.13	73.25
242.363	83.25
242.597	81.25
242.83	74.25
243.064	71.25
243.298	87.25
243.531	73.25
243.765	82.25
243.998	84.25
244.232	66.25
244.465	92.25
244.699	66.25
244.932	70.25
245.166	67.25
245.399	78.25
245.633	75.25
245.866	82.25
246.099	83.25
246.333	73.25
246.566	79.25
246.8	72.25
247.033	80.25
247.266	83.25
247.5	80.25
247.733	75.25
247.966	81.25
248.2	78.25
248.433	79.25
248.666	81.25
248.899	96.25
249.133	77.25
249.366	98.25
249.599	78.25
249.832	68.25
250.066	75.25
250.299	94.25
250.532	81.25
250.765	84.25
250.998	85.25
251.231	69.25
251.465	68.25
251.698	78.25
251.931	73.25
252.164	65.25
252.397	74.25
252.63	78.25
252.863	76.25
253.096	85.25
253.329	87.25
253.562	78.25
253.795	75.25
254.028	75.25
254.261	76.25
254.494	85.25
254.727	79.25
254.96	70.25
255.193	78.25
255.426	84.25
255.659	60.25
255.892	97.25
256.124	89.25
256.357	73.25
256.59	78.25
256.823	87.25
257.056	85.25
257.289	77.25
257.521	80.25
257.754	79.25
257.987	81.25
258.22	80.25
258.452	87.25
258.685	70.25
258.918	79.25
259.151	91.25
259.383	84.25
259.616	94.25
259.849	75.25
260.081	85.25
260.314	70.25
260.547	81.25
260.779	87.25
261.012	90.25
261.244	87.25
261.477	88.25
261.71	98.25
261.942	118.25
262.175	122.25
262.407	102.25
262.64	77.25
262.872	88.25
263.105	79.25
263.337	87.25
263.57	77.25
263.802	74.25
264.035	82.25
264.267	87.25
264.499	79.25
264.732	74.25
264.964	97.25
265.197	85.25
265.429	81.25
265.661	74.25
265.894	81.25
266.126	76.25
266.358	82.25
266.591	75.25
266.823	89.25
267.055	79.25
267.287	73.25
267.52	79.25
267.752	83.25
267.984	82.25
268.216	91.25
268.448	98.25
268.681	78.25
268.913	92.25
269.145	69.25
269.377	81.25
269.609	89.25
269.841	66.25
270.073	93.25
270.306	81.25
270.538	84.25
270.77	86.25
271.002	82.25
271.234	78.25
271.466	84.25
271.698	73.25
271.93	87.25
272.162	96.25
272.394	80.25
272.626	92.25
272.858	79.25
273.09	82.25
273.322	83.25
273.553	74.25
273.785	81.25
274.017	85.25
274.249	81.25
274.481	70.25
274.713	71.25
274.945	82.25
275.176	85.25
275.408	83.25
275.64	101.25
275.872	90.25
276.104	104.25
276.335	90.25
276.567	108.25
276.799	108.25
277.031	118.25
277.262	120.25
277.494	107.25
277.726	90.25
277.957	79.25
278.189	73.25
278.421	75.25
278.652	71.25
278.884	87.25
279.115	85.25
279.347	99.25
279.579	83.25
279.81	101.25
280.042	126.25
280.273	150.25
280.505	120.25
280.736	89.25
280.968	65.25
281.199	79.25
281.431	81.25
281.662	94.25
281.894	104.25
282.125	103.25
282.356	120.25
282.588	126.25
282.819	125.25
283.051	79.25
283.282	99.25
283.513	105.25
283.745	89.25
283.976	77.25
284.207	95.25
284.439	84.25
284.67	73.25
284.901	88.25
285.132	86.25
285.364	75.25
285.595	86.25
285.826	87.25
286.057	94.25
286.288	80.25
286.52	90.25
286.751	75.25
286.982	91.25
287.213	91.25
287.444	76.25
287.675	89.25
287.906	93.25
288.138	91.25
288.369	87.25
288.6	96.25
288.831	82.25
289.062	87.25
289.293	82.25
289.524	91.25
289.755	82.25
289.986	84.25
290.217	82.25
290.448	95.25
290.679	82.25
290.91	78.25
291.141	86.25
291.371	82.25
291.602	84.25
291.833	88.25
292.064	98.25
292.295	81.25
292.526	106.25
292.757	103.25
292.987	85.25
293.218	90.25
293.449	89.25
293.68	80.25
293.91	86.25
294.141	82.25
294.372	75.25
294.603	102.25
294.833	95.25
295.064	77.25
295.295	94.25
295.525	85.25
295.756	97.25
295.987	119.25
296.217	158.25
296.448	124.25
296.679	93.25
296.909	88.25
297.14	81.25
297.37	69.25
297.601	91.25
297.831	86.25
298.062	96.25
298.292	97.25
298.523	95.25
298.753	83.25
298.984	81.25
299.214	79.25
299.445	85.25
299.675	88.25
299.905	91.25
300.136	81.25
300.366	85.25
300.597	98.25
300.827	100.25
301.057	91.25
301.288	104.25
301.518	90.25
301.748	85.25
301.979	103.25
302.209	88.25
302.439	101.25
302.669	85.25
302.9	86.25
303.13	91.25
303.36	93.25
303.59	123.25
303.82	123.25
304.051	102.25
304.281	80.25
304.511	87.25
304.741	95.25
304.971	85.25
305.201	99.25
305.431	91.25
305.661	91.25
305.891	91.25
306.121	95.25
306.352	115.25
306.582	98.25
306.812	92.25
307.042	100.25
307.272	124.25
307.502	115.25
307.731	124.25
307.961	95.25
308.191	109.25
308.421	84.25
308.651	92.25
308.881	92.25
309.111	98.25
309.341	96.25
309.571	91.25
309.8	82.25
310.03	101.25
310.26	100.25
310.49	84.25
310.72	106.25
310.949	103.25
311.179	94.25
311.409	97.25
311.639	92.25
311.868	103.25
312.098	108.25
312.328	95.25
312.557	95.25
312.787	117.25
313.017	100.25
313.246	105.25
313.476	91.25
313.706	99.25
313.935	99.25
314.165	117.25
314.394	108.25
314.624	99.25
314.853	98.25
315.083	92.25
315.312	82.25
315.542	87.25
315.771	82.25
316.001	87.25
316.23	92.25
316.46	85.25
316.689	92.25
316.919	88.25
317.148	95.25
317.377	91.25
317.607	84.25
317.836	91.25
318.065	91.25
318.295	77.25
318.524	91.25
318.753	96.25
318.983	94.25
319.212	97.25
319.441	118.25
319.67	92.25
319.9	96.25
320.129	79.25
320.358	102.25
320.587	93.25
320.816	95.25
321.046	100.25
321.275	95.25
321.504	87.25
321.733	101.25
321.962	94.25
322.191	102.25
322.42	101.25
322.649	116.25
322.878	108.25
323.108	105.25
323.337	121.25
323.566	141.25
323.795	153.25
324.024	221.25
324.253	438.25
324.482	934.25
324.71	1898.25
324.939	2569.25
325.168	917.25
325.397	272.25
325.626	158.25
325.855	137.25
326.084	123.25
326.313	140.25
326.542	141.25
326.77	241.25
326.999	474.25
327.228	1016.25
327.457	1911.25
327.686	1579.25
327.914	482.25
328.143	361.25
328.372	380.25
328.6	233.25
328.829	150.25
329.058	153.25
329.287	162.25
329.515	157.25
329.744	173.25
329.972	257.25
330.201	514.25
330.43	713.25
330.658	371.25
330.887	203.25
331.115	139.25
331.344	106.25
331.572	87.25
331.801	109.25
332.03	102.25
332.258	94.25
332.486	89.25
332.715	105.25
332.943	104.25
333.172	107.25
333.4	111.25
333.629	150.25
333.857	174.25
334.085	262.25
334.314	502.25
334.542	879.25
334.771	839.25
334.999	265.25
335.227	145.25
335.455	92.25
335.684	105.25
335.912	86.25
336.14	102.25
336.369	114.25
336.597	115.25
336.825	94.25
337.053	101.25
337.281	95.25
337.51	86.25
337.738	98.25
337.966	94.25
338.194	94.25
338.422	91.25
338.65	108.25
338.878	86.25
339.106	65.25
339.334	95.25
339.562	94.25
339.79	92.25
340.018	97.25
340.246	93.25
340.474	95.25
340.702	95.25
340.93	92.25
341.158	92.25
341.386	97.25
341.614	85.25
341.842	86.25
342.07	100.25
342.298	81.25
342.526	72.25
342.754	60.25
342.981	87.25
343.209	81.25
343.437	115.25
343.665	87.25
343.893	85.25
344.12	78.25
344.348	77.25
344.576	96.25
344.804	91.25
345.031	95.25
345.259	103.25
345.487	106.25
345.714	93.25
345.942	93.25
346.17	81.25
346.397	90.25
346.625	95.25
346.853	99.25
347.08	90.25
347.308	91.25
347.535	91.25
347.763	102.25
347.99	100.25
348.218	114.25
348.445	100.25
348.673	93.25
348.9	112.25
349.128	89.25
349.355	99.25
349.583	95.25
349.81	86.25
350.037	100.25
350.265	92.25
350.492	93.25
350.72	104.25
350.947	103.25
351.174	110.25
351.402	96.25
351.629	93.25
351.856	91.25
352.083	102.25
352.311	112.25
352.538	129.25
352.765	131.25
352.992	97.25
353.22	106.25
353.447	95.25
353.674	90.25
353.901	93.25
354.128	89.25
354.355	90.25
354.583	94.25
354.81	110.25
355.037	85.25
355.264	99.25
355.491	95.25
355.718	89.25
355.945	93.25
356.172	89.25
356.399	100.25
356.626	89.25
356.853	105.25
357.08	106.25
357.307	72.25
357.534	74.25
357.761	101.25
357.988	94.25
358.215	91.25
358.441	94.25
358.668	99.25
358.895	97.25
359.122	77.25
359.349	85.25
359.576	96.25
359.802	106.25
360.029	118.25
360.256	109.25
360.483	107.25
360.709	92.25
360.936	103.25
361.163	102.25
361.39	101.25
361.616	99.25
361.843	88.25
362.07	89.25
362.296	76.25
362.523	98.25
362.749	95.25
362.976	99.25
363.203	94.25
363.429	89.25
363.656	76.25
363.882	93.25
364.109	94.25
364.335	82.25
364.562	92.25
364.788	81.25
365.015	101.25
365.241	90.25
365.468	121.25
365.694	106.25
365.92	102.25
366.147	109.25
366.373	103.25
366.599	82.25
366.826	91.25
367.052	81.25
367.278	71.25
367.505	93.25
367.731	91.25
367.957	99.25
368.184	94.25
368.41	85.25
368.636	103.25
368.862	117.25
369.089	113.25
369.315	105.25
369.541	94.25
369.767	94.25
369.993	109.25
370.219	97.25
370.445	92.25
370.672	90.25
370.898	82.25
371.124	68.25
371.35	83.25
371.576	92.25
371.802	93.25
372.028	74.25
372.254	86.25
372.48	90.25
372.706	78.25
372.932	87.25
373.158	98.25
373.384	98.25
373.61	95.25
373.835	87.25
374.061	77.25
374.287	97.25
374.513	98.25
374.739	98.25
374.965	88.25
375.191	96.25
375.416	113.25
375.642	86.25
375.868	89.25
376.094	93.25
376.319	105.25
376.545	95.25
376.771	82.25
376.997	86.25
377.222	111.25
377.448	100.25
377.674	87.25
377.899	97.25
378.125	86.25
378.35	81.25
378.576	82.25
378.802	87.25
379.027	92.25
379.253	91.25
379.478	91.25
379.704	92.25
379.929	85.25
380.155	103.25
380.38	100.25
380.606	96.25
380.831	102.25
381.057	101.25
381.282	104.25
381.507	94.25
381.733	92.25
381.958	90.25
382.184	99.25
382.409	99.25
382.634	106.25
382.86	98.25
383.085	92.25
383.31	107.25
383.535	104.25
383.761	87.25
383.986	105.25
384.211	93.25
384.436	90.25
384.662	102.25
384.887	107.25
385.112	90.25
385.337	106.25
385.562	113.25
385.787	114.25
386.013	115.25
386.238	110.25
386.463	114.25
386.688	118.25
386.913	102.25
387.138	123.25
387.363	103.25
387.588	123.25
387.813	109.25
388.038	116.25
388.263	123.25
388.488	108.25
388.713	82.25
388.938	91.25
389.163	84.25
389.387	101.25
389.612	82.25
389.837	95.25
390.062	92.25
390.287	84.25
390.512	74.25
390.736	98.25
390.961	76.25
391.186	90.25
391.411	89.25
391.636	80.25
391.86	83.25
392.085	93.25
392.31	91.25
392.534	90.25
392.759	92.25
392.984	85.25
393.208	93.25
393.433	82.25
393.658	90.25
393.882	93.25
394.107	94.25
394.331	73.25
394.556	90.25
394.78	90.25
395.005	91.25
395.229	81.25
395.454	75.25
395.678	84.25
395.903	75.25
396.127	102.25
396.352	88.25
396.576	85.25
396.801	85.25
397.025	77.25
397.249	75.25
397.474	75.25
397.698	83.25
397.922	87.25
398.147	88.25
398.371	86.25
398.595	67.25
398.82	75.25
399.044	83.25
399.268	82.25
399.492	82.25
399.717	98.25
399.941	87.25
400.165	99.25
400.389	111.25
400.613	98.25
400.837	93.25
401.062	90.25
401.286	81.25
401.51	84.25
401.734	100.25
401.958	91.25
402.182	124.25
402.406	174.25
402.63	118.25
402.854	99.25
403.078	81.25
403.302	79.25
403.526	98.25
403.75	81.25
403.974	97.25
404.198	89.25
404.422	110.25
404.645	70.25
404.869	87.25
405.093	98.25
405.317	112.25
405.541	119.25
405.765	114.25
405.988	130.25
406.212	182.25
406.436	250.25
406.66	174.25
406.883	89.25
407.107	97.25
407.331	117.25
407.555	108.25
407.778	129.25
408.002	93.25
408.226	83.25
408.449	87.25
408.673	86.25
408.896	89.25
409.12	92.25
409.344	93.25
409.567	90.25
409.791	95.25
410.014	93.25
410.238	74.25
410.461	93.25
410.685	87.25
410.908	108.25
411.132	102.25
411.355	101.25
411.578	93.25
411.802	94.25
412.025	88.25
412.249	104.25
412.472	108.25
412.695	123.25
412.919	96.25
413.142	102.25
413.365	92.25
413.589	86.25
413.812	99.25
414.035	92.25
414.258	90.25
414.482	93.25
414.705	83.25
414.928	85.25
415.151	87.25
415.374	97.25
415.597	92.25
415.821	84.25
416.044	84.25
416.267	93.25
416.49	81.25
416.713	87.25
416.936	78.25
417.159	94.25
417.382	87.25
417.605	99.25
417.828	110.25
418.051	91.25
418.274	98.25
418.497	83.25
418.72	87.25
418.943	92.25
419.166	83.25
419.389	91.25
419.611	87.25
419.834	95.25
420.057	93.25
420.28	79.25
420.503	90.25
420.726	83.25
420.948	82.25
421.171	95.25
421.394	92.25
421.617	85.25
421.839	83.25
422.062	91.25
422.285	90.25
422.507	106.25
422.73	105.25
422.953	99.25
423.175	85.25
423.398	81.25
423.621	78.25
423.843	98.25
424.066	92.25
424.288	89.25
424.511	92.25
424.733	104.25
424.956	117.25
425.178	101.25
425.401	96.25
425.623	93.25
425.846	102.25
426.068	83.25
426.291	85.25
426.513	91.25
426.735	92.25
426.958	98.25
427.18	116.25
427.402	144.25
427.625	218.25
427.847	204.25
428.069	191.25
428.292	115.25
428.514	99.25
428.736	94.25
428.958	72.25
429.181	99.25
429.403	86.25
429.625	90.25
429.847	97.25
430.069	114.25
430.292	86.25
430.514	86.25
430.736	90.25
430.958	97.25
431.18	71.25
431.402	76.25
431.624	94.25
431.846	80.25
432.068	85.25
432.29	85.25
432.512	85.25
432.734	76.25
432.956	85.25
433.178	96.25
433.4	92.25
433.622	88.25
433.844	101.25
434.066	97.25
434.287	84.25
434.509	92.25
434.731	96.25
434.953	82.25
435.175	74.25
435.397	94.25
435.618	98.25
435.84	118.25
436.062	122.25
436.284	124.25
436.505	108.25
436.727	78.25
436.949	102.25
437.17	83.25
437.392	78.25
437.614	100.25
437.835	113.25
438.057	119.25
438.278	110.25
438.5	122.25
438.721	134.25
438.943	105.25
439.165	100.25
439.386	79.25
439.608	91.25
439.829	101.25
440.05	134.25
440.272	180.25
440.493	111.25
440.715	85.25
440.936	81.25
441.158	92.25
441.379	83.25
441.6	87.25
441.822	108.25
442.043	99.25
442.264	112.25
442.486	99.25
442.707	96.25
442.928	108.25
443.149	161.25
443.371	129.25
443.592	119.25
443.813	140.25
444.034	125.25
444.255	89.25
444.476	102.25
444.698	87.25
444.919	84.25
445.14	158.25
445.361	139.25
445.582	138.25
445.803	173.25
446.024	164.25
446.245	167.25
446.466	115.25
446.687	93.25
446.908	103.25
447.129	85.25
447.35	99.25
447.571	86.25
447.792	96.25
448.013	96.25
448.234	116.25
448.455	115.25
448.675	125.25
448.896	146.25
449.117	102.25
449.338	113.25
449.559	127.25
449.779	144.25
450	95.25
450.221	57.25
450.442	82.25
450.662	96.25
450.883	108.25
451.104	125.25
451.324	81.25
451.545	90.25
451.766	64.25
451.986	89.25
452.207	91.25
452.428	99.25
452.648	106.25
452.869	114.25
453.089	123.25
453.31	104.25
453.53	95.25
453.751	90.25
453.971	98.25
454.192	105.25
454.412	103.25
454.633	82.25
454.853	99.25
455.073	82.25
455.294	82.25
455.514	99.25
455.734	99.25
455.955	73.25
456.175	83.25
456.395	79.25
456.616	87.25
456.836	83.25
457.056	75.25
457.276	85.25
457.497	78.25
457.717	67.25
457.937	89.25
458.157	93.25
458.377	83.25
458.598	105.25
458.818	161.25
459.038	187.25
459.258	116.25
459.478	93.25
459.698	104.25
459.918	86.25
460.138	98.25
460.358	83.25
460.578	92.25
460.798	77.25
461.018	93.25
461.238	81.25
461.458	78.25
461.678	86.25
461.898	97.25
462.118	68.25
462.338	74.25
462.558	92.25
462.777	78.25
462.997	86.25
463.217	90.25
463.437	84.25
463.657	71.25
463.876	79.25
464.096	96.25
464.316	80.25
464.536	96.25
464.755	101.25
464.975	113.25
465.195	182.25
465.414	185.25
465.634	96.25
465.854	92.25
466.073	86.25
466.293	77.25
466.512	78.25
466.732	85.25
466.951	66.25
467.171	101.25
467.391	103.25
467.61	123.25
467.829	145.25
468.049	301.25
468.268	417.25
468.488	133.25
468.707	107.25
468.927	84.25
469.146	87.25
469.365	93.25
469.585	83.25
469.804	101.25
470.023	109.25
470.243	98.25
470.462	110.25
470.681	116.25
470.901	100.25
471.12	86.25
471.339	95.25
471.558	100.25
471.777	130.25
471.997	195.25
472.216	556.25
472.435	1173.25
472.654	308.25
472.873	121.25
473.092	96.25
473.311	83.25
473.53	88.25
473.749	102.25
473.968	102.25
474.187	112.25
474.406	102.25
474.625	82.25
474.844	87.25
475.063	94.25
475.282	100.25
475.501	75.25
475.72	91.25
475.939	82.25
476.158	93.25
476.377	89.25
476.596	95.25
476.814	94.25
477.033	82.25
477.252	87.25
477.471	83.25
477.69	90.25
477.908	95.25
478.127	94.25
478.346	80.25
478.564	92.25
478.783	95.25
479.002	95.25
479.22	98.25
479.439	104.25
479.658	109.25
479.876	107.25
480.095	115.25
480.313	110.25
480.532	126.25
480.751	181.25
480.969	553.25
481.188	2067.25
481.406	1237.25
481.624	241.25
481.843	112.25
482.061	99.25
482.28	113.25
482.498	92.25
482.717	86.25
482.935	99.25
483.153	91.25
483.372	89.25
483.59	95.25
483.808	93.25
484.027	98.25
484.245	89.25
484.463	94.25
484.681	105.25
484.9	74.25
485.118	91.25
485.336	91.25
485.554	90.25
485.772	118.25
485.99	95.25
486.209	126.25
486.427	123.25
486.645	113.25
486.863	111.25
487.081	115.25
487.299	103.25
487.517	98.25
487.735	94.25
487.953	109.25
488.171	86.25
488.389	101.25
488.607	89.25
488.825	94.25
489.043	83.25
489.261	84.25
489.479	93.25
489.696	89.25
489.914	90.25
490.132	83.25
490.35	98.25
490.568	86.25
490.786	99.25
491.003	86.25
491.221	95.25
491.439	86.25
491.657	97.25
491.874	104.25
492.092	88.25
492.31	80.25
492.527	90.25
492.745	86.25
492.963	99.25
493.18	91.25
493.398	94.25
493.615	103.25
493.833	93.25
494.05	78.25
494.268	84.25
494.485	78.25
494.703	81.25
494.92	89.25
495.138	81.25
495.355	83.25
495.573	88.25
495.79	97.25
496.008	91.25
496.225	90.25
496.442	102.25
496.66	99.25
496.877	93.25
497.094	94.25
497.312	81.25
497.529	93.25
497.746	86.25
497.963	90.25
498.181	97.25
498.398	91.25
498.615	102.25
498.832	101.25
499.049	99.25
499.267	96.25
499.484	93.25
499.701	94.25
499.918	84.25
500.135	84.25
500.352	100.25
500.569	85.25
500.786	82.25
501.003	85.25
501.22	79.25
501.437	87.25
501.654	90.25
501.871	107.25
502.088	96.25
502.305	73.25
502.522	83.25
502.739	88.25
502.956	95.25
503.172	87.25
503.389	107.25
503.606	117.25
503.823	87.25
504.04	103.25
504.256	98.25
504.473	84.25
504.69	92.25
504.907	90.25
505.123	97.25
505.34	77.25
505.557	85.25
505.773	92.25
505.99	80.25
506.207	94.25
506.423	93.25
506.64	76.25
506.856	80.25
507.073	87.25
507.289	85.25
507.506	83.25
507.722	127.25
507.939	129.25
508.155	102.25
508.372	108.25
508.588	102.25
508.805	101.25
509.021	93.25
509.238	94.25
509.454	99.25
509.67	111.25
509.887	102.25
510.103	123.25
510.319	203.25
510.536	737.25
510.752	2301.25
510.968	650.25
511.184	153.25
511.401	98.25
511.617	94.25
511.833	91.25
512.049	89.25
512.265	96.25
512.481	90.25
512.698	77.25
512.914	92.25
513.13	77.25
513.346	89.25
513.562	100.25
513.778	97.25
513.994	94.25
514.21	111.25
514.426	141.25
514.642	144.25
514.858	143.25
