Data from Circ_1990_H10_HRD10591_00097.txt Node
Date: Wed Jan 03 11:55:23 EST 2024
User: Yrep
Spectrometer: HR+D1059
Trigger mode: 1
Integration Time (sec): 1.000000E-1
Scans to average: 1
Electric dark correction enabled: true
Nonlinearity correction enabled: false
Boxcar width: 0
XAxis mode: Wavelengths
Number of Pixels in Spectrum: 2048
>>>>>Begin Spectral Data<<<<<
223.165	-26.44
223.4	-26.44
223.635	-26.44
223.869	-24.44
224.104	-13.44
224.338	-10.44
224.573	-27.44
224.808	-7.44
225.042	-8.44
225.277	-2.44
225.511	-0.44
225.746	7.56
225.98	12.56
226.215	16.56
226.449	5.56
226.683	17.56
226.918	38.56
227.152	22.56
227.387	43.56
227.621	47.56
227.856	54.56
228.09	45.56
228.324	61.56
228.559	59.56
228.793	57.56
229.027	66.56
229.262	76.56
229.496	62.56
229.73	87.56
229.964	94.56
230.199	81.56
230.433	74.56
230.667	91.56
230.901	79.56
231.136	78.56
231.37	86.56
231.604	79.56
231.838	80.56
232.072	62.56
232.306	87.56
232.541	86.56
232.775	83.56
233.009	82.56
233.243	79.56
233.477	74.56
233.711	84.56
233.945	91.56
234.179	88.56
234.413	92.56
234.647	79.56
234.881	74.56
235.115	68.56
235.349	72.56
235.583	87.56
235.817	80.56
236.051	77.56
236.285	75.56
236.519	64.56
236.753	82.56
236.987	90.56
237.221	101.56
237.455	98.56
237.689	78.56
237.922	66.56
238.156	87.56
238.39	78.56
238.624	71.56
238.858	74.56
239.091	70.56
239.325	83.56
239.559	102.56
239.793	97.56
240.027	91.56
240.26	80.56
240.494	80.56
240.728	72.56
240.961	76.56
241.195	71.56
241.429	73.56
241.662	84.56
241.896	82.56
242.13	84.56
242.363	85.56
242.597	76.56
242.83	95.56
243.064	86.56
243.298	81.56
243.531	80.56
243.765	92.56
243.998	85.56
244.232	75.56
244.465	83.56
244.699	79.56
244.932	53.56
245.166	86.56
245.399	80.56
245.633	88.56
245.866	69.56
246.099	66.56
246.333	84.56
246.566	69.56
246.8	90.56
247.033	64.56
247.266	78.56
247.5	79.56
247.733	82.56
247.966	81.56
248.2	80.56
248.433	80.56
248.666	79.56
248.899	72.56
249.133	88.56
249.366	104.56
249.599	108.56
249.832	96.56
250.066	84.56
250.299	84.56
250.532	77.56
250.765	94.56
250.998	82.56
251.231	83.56
251.465	79.56
251.698	88.56
251.931	83.56
252.164	68.56
252.397	82.56
252.63	82.56
252.863	81.56
253.096	95.56
253.329	82.56
253.562	76.56
253.795	83.56
254.028	77.56
254.261	70.56
254.494	71.56
254.727	80.56
254.96	81.56
255.193	78.56
255.426	80.56
255.659	80.56
255.892	86.56
256.124	87.56
256.357	83.56
256.59	81.56
256.823	91.56
257.056	78.56
257.289	86.56
257.521	79.56
257.754	67.56
257.987	91.56
258.22	88.56
258.452	108.56
258.685	84.56
258.918	77.56
259.151	84.56
259.383	78.56
259.616	69.56
259.849	81.56
260.081	86.56
260.314	94.56
260.547	82.56
260.779	84.56
261.012	99.56
261.244	96.56
261.477	86.56
261.71	104.56
261.942	122.56
262.175	128.56
262.407	96.56
262.64	99.56
262.872	90.56
263.105	79.56
263.337	68.56
263.57	78.56
263.802	84.56
264.035	92.56
264.267	76.56
264.499	98.56
264.732	72.56
264.964	93.56
265.197	80.56
265.429	76.56
265.661	94.56
265.894	99.56
266.126	81.56
266.358	87.56
266.591	98.56
266.823	85.56
267.055	83.56
267.287	87.56
267.52	90.56
267.752	94.56
267.984	76.56
268.216	91.56
268.448	80.56
268.681	85.56
268.913	87.56
269.145	90.56
269.377	90.56
269.609	99.56
269.841	98.56
270.073	78.56
270.306	79.56
270.538	86.56
270.77	93.56
271.002	76.56
271.234	94.56
271.466	69.56
271.698	82.56
271.93	80.56
272.162	78.56
272.394	80.56
272.626	88.56
272.858	94.56
273.09	63.56
273.322	87.56
273.553	85.56
273.785	75.56
274.017	83.56
274.249	91.56
274.481	70.56
274.713	83.56
274.945	80.56
275.176	89.56
275.408	111.56
275.64	104.56
275.872	116.56
276.104	101.56
276.335	109.56
276.567	109.56
276.799	118.56
277.031	123.56
277.262	155.56
277.494	121.56
277.726	111.56
277.957	82.56
278.189	86.56
278.421	82.56
278.652	93.56
278.884	82.56
279.115	90.56
279.347	81.56
279.579	86.56
279.81	91.56
280.042	139.56
280.273	165.56
280.505	138.56
280.736	96.56
280.968	83.56
281.199	101.56
281.431	89.56
281.662	71.56
281.894	81.56
282.125	105.56
282.356	119.56
282.588	167.56
282.819	119.56
283.051	99.56
283.282	82.56
283.513	83.56
283.745	84.56
283.976	80.56
284.207	81.56
284.439	84.56
284.67	87.56
284.901	94.56
285.132	85.56
285.364	93.56
285.595	100.56
285.826	96.56
286.057	101.56
286.288	91.56
286.52	89.56
286.751	75.56
286.982	85.56
287.213	99.56
287.444	107.56
287.675	87.56
287.906	84.56
288.138	92.56
288.369	98.56
288.6	97.56
288.831	85.56
289.062	83.56
289.293	96.56
289.524	82.56
289.755	95.56
289.986	85.56
290.217	85.56
290.448	84.56
290.679	92.56
290.91	103.56
291.141	94.56
291.371	94.56
291.602	79.56
291.833	85.56
292.064	85.56
292.295	90.56
292.526	89.56
292.757	87.56
292.987	80.56
293.218	91.56
293.449	85.56
293.68	90.56
293.91	95.56
294.141	100.56
294.372	66.56
294.603	96.56
294.833	85.56
295.064	109.56
295.295	98.56
295.525	86.56
295.756	91.56
295.987	122.56
296.217	131.56
296.448	134.56
296.679	88.56
296.909	95.56
297.14	81.56
297.37	97.56
297.601	80.56
297.831	100.56
298.062	101.56
298.292	91.56
298.523	84.56
298.753	87.56
298.984	90.56
299.214	91.56
299.445	98.56
299.675	100.56
299.905	85.56
300.136	101.56
300.366	90.56
300.597	87.56
300.827	107.56
301.057	90.56
301.288	96.56
301.518	95.56
301.748	98.56
301.979	109.56
302.209	99.56
302.439	78.56
302.669	85.56
302.9	82.56
303.13	83.56
303.36	85.56
303.59	108.56
303.82	115.56
304.051	103.56
304.281	89.56
304.511	99.56
304.741	70.56
304.971	90.56
305.201	87.56
305.431	92.56
305.661	103.56
305.891	93.56
306.121	92.56
306.352	103.56
306.582	109.56
306.812	103.56
307.042	107.56
307.272	116.56
307.502	126.56
307.731	139.56
307.961	116.56
308.191	102.56
308.421	85.56
308.651	86.56
308.881	91.56
309.111	99.56
309.341	100.56
309.571	102.56
309.8	90.56
310.03	110.56
310.26	102.56
310.49	86.56
310.72	106.56
310.949	113.56
311.179	101.56
311.409	93.56
311.639	94.56
311.868	91.56
312.098	103.56
312.328	97.56
312.557	93.56
312.787	109.56
313.017	100.56
313.246	104.56
313.476	104.56
313.706	100.56
313.935	109.56
314.165	103.56
314.394	108.56
314.624	101.56
314.853	92.56
315.083	91.56
315.312	80.56
315.542	109.56
315.771	95.56
316.001	101.56
316.23	98.56
316.46	85.56
316.689	94.56
316.919	95.56
317.148	83.56
317.377	87.56
317.607	107.56
317.836	93.56
318.065	104.56
318.295	95.56
318.524	98.56
318.753	85.56
318.983	90.56
319.212	99.56
319.441	105.56
319.67	102.56
319.9	87.56
320.129	92.56
320.358	110.56
320.587	106.56
320.816	107.56
321.046	114.56
321.275	87.56
321.504	99.56
321.733	99.56
321.962	107.56
322.191	104.56
322.42	118.56
322.649	116.56
322.878	119.56
323.108	137.56
323.337	148.56
323.566	145.56
323.795	184.56
324.024	218.56
324.253	471.56
324.482	992.56
324.71	2058.56
324.939	2781.56
325.168	983.56
325.397	289.56
325.626	163.56
325.855	149.56
326.084	132.56
326.313	133.56
326.542	177.56
326.77	270.56
326.999	532.56
327.228	1072.56
327.457	2015.56
327.686	1646.56
327.914	487.56
328.143	360.56
328.372	415.56
328.6	260.56
328.829	164.56
329.058	167.56
329.287	168.56
329.515	156.56
329.744	197.56
329.972	293.56
330.201	583.56
330.43	845.56
330.658	425.56
330.887	232.56
331.115	166.56
331.344	109.56
331.572	102.56
331.801	125.56
332.03	111.56
332.258	107.56
332.486	99.56
332.715	110.56
332.943	96.56
333.172	117.56
333.4	118.56
333.629	134.56
333.857	171.56
334.085	296.56
334.314	551.56
334.542	1044.56
334.771	999.56
334.999	291.56
335.227	156.56
335.455	117.56
335.684	107.56
335.912	111.56
336.14	97.56
336.369	106.56
336.597	127.56
336.825	100.56
337.053	98.56
337.281	100.56
337.51	111.56
337.738	88.56
337.966	93.56
338.194	110.56
338.422	97.56
338.65	101.56
338.878	90.56
339.106	95.56
339.334	103.56
339.562	102.56
339.79	91.56
340.018	95.56
340.246	108.56
340.474	98.56
340.702	96.56
340.93	103.56
341.158	101.56
341.386	99.56
341.614	114.56
341.842	108.56
342.07	97.56
342.298	86.56
342.526	75.56
342.754	87.56
342.981	94.56
343.209	79.56
343.437	104.56
343.665	83.56
343.893	90.56
344.12	103.56
344.348	94.56
344.576	90.56
344.804	98.56
345.031	95.56
345.259	106.56
345.487	96.56
345.714	98.56
345.942	92.56
346.17	100.56
346.397	95.56
346.625	104.56
346.853	99.56
347.08	95.56
347.308	97.56
347.535	95.56
347.763	102.56
347.99	102.56
348.218	114.56
348.445	115.56
348.673	106.56
348.9	98.56
349.128	85.56
349.355	88.56
349.583	111.56
349.81	91.56
350.037	94.56
350.265	108.56
350.492	102.56
350.72	102.56
350.947	101.56
351.174	117.56
351.402	117.56
351.629	95.56
351.856	106.56
352.083	92.56
352.311	107.56
352.538	125.56
352.765	118.56
352.992	109.56
353.22	120.56
353.447	105.56
353.674	102.56
353.901	74.56
354.128	103.56
354.355	86.56
354.583	83.56
354.81	91.56
355.037	109.56
355.264	93.56
355.491	90.56
355.718	87.56
355.945	89.56
356.172	97.56
356.399	106.56
356.626	104.56
356.853	107.56
357.08	94.56
357.307	91.56
357.534	96.56
357.761	78.56
357.988	92.56
358.215	86.56
358.441	90.56
358.668	103.56
358.895	96.56
359.122	95.56
359.349	87.56
359.576	102.56
359.802	103.56
360.029	131.56
360.256	139.56
360.483	103.56
360.709	94.56
360.936	86.56
361.163	96.56
361.39	99.56
361.616	95.56
361.843	99.56
362.07	92.56
362.296	83.56
362.523	103.56
362.749	87.56
362.976	88.56
363.203	96.56
363.429	95.56
363.656	81.56
363.882	89.56
364.109	87.56
364.335	102.56
364.562	91.56
364.788	96.56
365.015	87.56
365.241	99.56
365.468	116.56
365.694	115.56
365.92	111.56
366.147	93.56
366.373	80.56
366.599	99.56
366.826	86.56
367.052	101.56
367.278	90.56
367.505	106.56
367.731	102.56
367.957	104.56
368.184	104.56
368.41	89.56
368.636	117.56
368.862	116.56
369.089	113.56
369.315	104.56
369.541	90.56
369.767	108.56
369.993	101.56
370.219	102.56
370.445	79.56
370.672	96.56
370.898	87.56
371.124	98.56
371.35	85.56
371.576	99.56
371.802	78.56
372.028	66.56
372.254	92.56
372.48	86.56
372.706	108.56
372.932	94.56
373.158	79.56
373.384	82.56
373.61	103.56
373.835	90.56
374.061	96.56
374.287	97.56
374.513	84.56
374.739	91.56
374.965	103.56
375.191	88.56
375.416	93.56
375.642	83.56
375.868	100.56
376.094	91.56
376.319	91.56
376.545	79.56
376.771	98.56
376.997	97.56
377.222	102.56
377.448	93.56
377.674	99.56
377.899	83.56
378.125	96.56
378.35	78.56
378.576	85.56
378.802	78.56
379.027	92.56
379.253	91.56
379.478	92.56
379.704	86.56
379.929	82.56
380.155	111.56
380.38	103.56
380.606	102.56
380.831	98.56
381.057	90.56
381.282	87.56
381.507	99.56
381.733	94.56
381.958	115.56
382.184	92.56
382.409	98.56
382.634	102.56
382.86	98.56
383.085	94.56
383.31	106.56
383.535	86.56
383.761	101.56
383.986	104.56
384.211	115.56
384.436	101.56
384.662	104.56
384.887	98.56
385.112	94.56
385.337	99.56
385.562	105.56
385.787	102.56
386.013	123.56
386.238	113.56
386.463	111.56
386.688	108.56
386.913	103.56
387.138	112.56
387.363	103.56
387.588	99.56
387.813	90.56
388.038	106.56
388.263	112.56
388.488	114.56
388.713	105.56
388.938	92.56
389.163	83.56
389.387	95.56
389.612	106.56
389.837	76.56
390.062	90.56
390.287	90.56
390.512	85.56
390.736	89.56
390.961	84.56
391.186	90.56
391.411	96.56
391.636	83.56
391.86	98.56
392.085	77.56
392.31	89.56
392.534	77.56
392.759	97.56
392.984	100.56
393.208	80.56
393.433	97.56
393.658	92.56
393.882	92.56
394.107	90.56
394.331	93.56
394.556	108.56
394.78	95.56
395.005	96.56
395.229	90.56
395.454	77.56
395.678	87.56
395.903	87.56
396.127	95.56
396.352	82.56
396.576	100.56
396.801	96.56
397.025	92.56
397.249	87.56
397.474	78.56
397.698	87.56
397.922	97.56
398.147	95.56
398.371	76.56
398.595	80.56
398.82	85.56
399.044	82.56
399.268	84.56
399.492	83.56
399.717	86.56
399.941	81.56
400.165	100.56
400.389	81.56
400.613	96.56
400.837	79.56
401.062	78.56
401.286	85.56
401.51	90.56
401.734	84.56
401.958	107.56
402.182	130.56
402.406	180.56
402.63	132.56
402.854	94.56
403.078	80.56
403.302	87.56
403.526	79.56
403.75	77.56
403.974	91.56
404.198	78.56
404.422	99.56
404.645	95.56
404.869	114.56
405.093	118.56
405.317	131.56
405.541	122.56
405.765	114.56
405.988	125.56
406.212	176.56
406.436	271.56
406.66	168.56
406.883	109.56
407.107	111.56
407.331	88.56
407.555	97.56
407.778	104.56
408.002	100.56
408.226	97.56
408.449	81.56
408.673	96.56
408.896	106.56
409.12	98.56
409.344	92.56
409.567	90.56
409.791	89.56
410.014	110.56
410.238	104.56
410.461	100.56
410.685	90.56
410.908	97.56
411.132	98.56
411.355	112.56
411.578	94.56
411.802	91.56
412.025	100.56
412.249	114.56
412.472	106.56
412.695	111.56
412.919	110.56
413.142	91.56
413.365	91.56
413.589	88.56
413.812	85.56
414.035	94.56
414.258	96.56
414.482	77.56
414.705	99.56
414.928	96.56
415.151	96.56
415.374	94.56
415.597	92.56
415.821	101.56
416.044	103.56
416.267	105.56
416.49	94.56
416.713	101.56
416.936	100.56
417.159	86.56
417.382	95.56
417.605	96.56
417.828	103.56
418.051	104.56
418.274	92.56
418.497	74.56
418.72	90.56
418.943	75.56
419.166	85.56
419.389	92.56
419.611	88.56
419.834	96.56
420.057	98.56
420.28	103.56
420.503	98.56
420.726	83.56
420.948	76.56
421.171	98.56
421.394	101.56
421.617	91.56
421.839	88.56
422.062	107.56
422.285	109.56
422.507	105.56
422.73	127.56
422.953	99.56
423.175	99.56
423.398	103.56
423.621	86.56
423.843	87.56
424.066	89.56
424.288	106.56
424.511	106.56
424.733	91.56
424.956	132.56
425.178	110.56
425.401	108.56
425.623	104.56
425.846	107.56
426.068	100.56
426.291	77.56
426.513	107.56
426.735	83.56
426.958	93.56
427.18	121.56
427.402	172.56
427.625	233.56
427.847	206.56
428.069	204.56
428.292	111.56
428.514	94.56
428.736	78.56
428.958	80.56
429.181	98.56
429.403	83.56
429.625	94.56
429.847	88.56
430.069	114.56
430.292	91.56
430.514	94.56
430.736	74.56
430.958	93.56
431.18	97.56
431.402	91.56
431.624	80.56
431.846	92.56
432.068	78.56
432.29	75.56
432.512	72.56
432.734	79.56
432.956	98.56
433.178	109.56
433.4	96.56
433.622	96.56
433.844	99.56
434.066	101.56
434.287	103.56
434.509	103.56
434.731	102.56
434.953	104.56
435.175	90.56
435.397	91.56
435.618	110.56
435.84	112.56
436.062	144.56
436.284	129.56
436.505	112.56
436.727	98.56
436.949	92.56
437.17	86.56
437.392	78.56
437.614	92.56
437.835	120.56
438.057	127.56
438.278	119.56
438.5	107.56
438.721	134.56
438.943	116.56
439.165	92.56
439.386	84.56
439.608	107.56
439.829	113.56
440.05	140.56
440.272	188.56
440.493	115.56
440.715	90.56
440.936	81.56
441.158	84.56
441.379	86.56
441.6	91.56
441.822	87.56
442.043	100.56
442.264	111.56
442.486	116.56
442.707	98.56
442.928	115.56
443.149	154.56
443.371	153.56
443.592	116.56
443.813	125.56
444.034	118.56
444.255	95.56
444.476	98.56
444.698	95.56
444.919	103.56
445.14	140.56
445.361	131.56
445.582	118.56
445.803	164.56
446.024	175.56
446.245	162.56
446.466	122.56
446.687	83.56
446.908	86.56
447.129	93.56
447.35	98.56
447.571	91.56
447.792	109.56
448.013	111.56
448.234	120.56
448.455	112.56
448.675	128.56
448.896	140.56
449.117	120.56
449.338	116.56
449.559	148.56
449.779	152.56
450	127.56
450.221	103.56
450.442	93.56
450.662	104.56
450.883	118.56
451.104	131.56
451.324	121.56
451.545	120.56
451.766	82.56
451.986	94.56
452.207	88.56
452.428	86.56
452.648	99.56
452.869	111.56
453.089	109.56
453.31	131.56
453.53	94.56
453.751	85.56
453.971	109.56
454.192	122.56
454.412	98.56
454.633	91.56
454.853	94.56
455.073	101.56
455.294	93.56
455.514	101.56
455.734	101.56
455.955	98.56
456.175	98.56
456.395	71.56
456.616	68.56
456.836	90.56
457.056	85.56
457.276	96.56
457.497	62.56
457.717	88.56
457.937	83.56
458.157	88.56
458.377	102.56
458.598	118.56
458.818	185.56
459.038	208.56
459.258	127.56
459.478	86.56
459.698	69.56
459.918	73.56
460.138	77.56
460.358	95.56
460.578	87.56
460.798	89.56
461.018	92.56
461.238	95.56
461.458	80.56
461.678	93.56
461.898	100.56
462.118	96.56
462.338	92.56
462.558	85.56
462.777	91.56
462.997	87.56
463.217	104.56
463.437	95.56
463.657	114.56
463.876	94.56
464.096	92.56
464.316	88.56
464.536	93.56
464.755	94.56
464.975	107.56
465.195	197.56
465.414	210.56
465.634	116.56
465.854	93.56
466.073	86.56
466.293	84.56
466.512	92.56
466.732	85.56
466.951	99.56
467.171	104.56
467.391	107.56
467.61	107.56
467.829	144.56
468.049	350.56
468.268	485.56
468.488	162.56
468.707	97.56
468.927	92.56
469.146	115.56
469.365	96.56
469.585	93.56
469.804	101.56
470.023	92.56
470.243	86.56
470.462	109.56
470.681	118.56
470.901	107.56
471.12	101.56
471.339	95.56
471.558	95.56
471.777	135.56
471.997	202.56
472.216	655.56
472.435	1445.56
472.654	370.56
472.873	141.56
473.092	108.56
473.311	101.56
473.53	93.56
473.749	84.56
473.968	91.56
474.187	114.56
474.406	108.56
474.625	90.56
474.844	90.56
475.063	93.56
475.282	70.56
475.501	81.56
475.72	80.56
475.939	90.56
476.158	91.56
476.377	87.56
476.596	91.56
476.814	111.56
477.033	102.56
477.252	99.56
477.471	85.56
477.69	76.56
477.908	85.56
478.127	86.56
478.346	97.56
478.564	80.56
478.783	91.56
479.002	100.56
479.22	95.56
479.439	107.56
479.658	115.56
479.876	116.56
480.095	109.56
480.313	127.56
480.532	129.56
480.751	209.56
480.969	606.56
481.188	2487.56
481.406	1449.56
481.624	241.56
481.843	109.56
482.061	109.56
482.28	100.56
482.498	99.56
482.717	97.56
482.935	99.56
483.153	91.56
483.372	69.56
483.59	94.56
483.808	96.56
484.027	105.56
484.245	103.56
484.463	94.56
484.681	103.56
484.9	90.56
485.118	86.56
485.336	99.56
485.554	100.56
485.772	99.56
485.99	104.56
486.209	119.56
486.427	110.56
486.645	110.56
486.863	98.56
487.081	115.56
487.299	95.56
487.517	99.56
487.735	101.56
487.953	98.56
488.171	102.56
488.389	98.56
488.607	108.56
488.825	79.56
489.043	81.56
489.261	97.56
489.479	90.56
489.696	95.56
489.914	108.56
490.132	90.56
490.35	94.56
490.568	85.56
490.786	88.56
491.003	95.56
491.221	90.56
491.439	99.56
491.657	117.56
491.874	89.56
492.092	97.56
492.31	98.56
492.527	99.56
492.745	84.56
492.963	104.56
493.18	91.56
493.398	97.56
493.615	104.56
493.833	103.56
494.05	84.56
494.268	86.56
494.485	83.56
494.703	78.56
494.92	85.56
495.138	80.56
495.355	96.56
495.573	85.56
495.79	74.56
496.008	99.56
496.225	84.56
496.442	83.56
496.66	98.56
496.877	95.56
497.094	90.56
497.312	92.56
497.529	82.56
497.746	87.56
497.963	91.56
498.181	93.56
498.398	86.56
498.615	117.56
498.832	96.56
499.049	78.56
499.267	85.56
499.484	77.56
499.701	88.56
499.918	77.56
500.135	95.56
500.352	92.56
500.569	89.56
500.786	101.56
501.003	103.56
501.22	97.56
501.437	84.56
501.654	87.56
501.871	119.56
502.088	83.56
502.305	100.56
502.522	86.56
502.739	88.56
502.956	88.56
503.172	99.56
503.389	107.56
503.606	133.56
503.823	96.56
504.04	96.56
504.256	99.56
504.473	92.56
504.69	94.56
504.907	90.56
505.123	85.56
505.34	85.56
505.557	91.56
505.773	76.56
505.99	86.56
506.207	98.56
506.423	100.56
506.64	87.56
506.856	85.56
507.073	96.56
507.289	98.56
507.506	87.56
507.722	121.56
507.939	118.56
508.155	107.56
508.372	92.56
508.588	100.56
508.805	96.56
509.021	100.56
509.238	95.56
509.454	104.56
509.67	92.56
509.887	109.56
510.103	140.56
510.319	217.56
510.536	772.56
510.752	2520.56
510.968	702.56
511.184	152.56
511.401	130.56
511.617	92.56
511.833	89.56
512.049	90.56
512.265	104.56
512.481	94.56
512.698	95.56
512.914	89.56
513.13	86.56
513.346	97.56
513.562	99.56
