Data from Circ_1990_H10_HRD10591_00059.txt Node
Date: Wed Jan 03 11:55:15 EST 2024
User: Yrep
Spectrometer: HR+D1059
Trigger mode: 1
Integration Time (sec): 1.000000E-1
Scans to average: 1
Electric dark correction enabled: true
Nonlinearity correction enabled: false
Boxcar width: 0
XAxis mode: Wavelengths
Number of Pixels in Spectrum: 2048
>>>>>Begin Spectral Data<<<<<
223.165	-1.94
223.4	-1.94
223.635	-1.94
223.869	-18.94
224.104	-10.94
224.338	-22.94
224.573	-13.94
224.808	-20.94
225.042	-9.94
225.277	-10.94
225.511	-2.94
225.746	5.06
225.98	4.06
226.215	2.06
226.449	14.06
226.683	17.06
226.918	45.06
227.152	26.06
227.387	28.06
227.621	30.06
227.856	52.06
228.09	56.06
228.324	39.06
228.559	60.06
228.793	53.06
229.027	61.06
229.262	64.06
229.496	74.06
229.73	77.06
229.964	76.06
230.199	69.06
230.433	69.06
230.667	76.06
230.901	66.06
231.136	62.06
231.37	64.06
231.604	77.06
231.838	71.06
232.072	68.06
232.306	90.06
232.541	87.06
232.775	87.06
233.009	82.06
233.243	77.06
233.477	75.06
233.711	74.06
233.945	81.06
234.179	72.06
234.413	84.06
234.647	55.06
234.881	69.06
235.115	82.06
235.349	80.06
235.583	70.06
235.817	62.06
236.051	76.06
236.285	73.06
236.519	74.06
236.753	72.06
236.987	85.06
237.221	79.06
237.455	84.06
237.689	70.06
237.922	68.06
238.156	76.06
238.39	72.06
238.624	68.06
238.858	79.06
239.091	69.06
239.325	80.06
239.559	75.06
239.793	61.06
240.027	79.06
240.26	81.06
240.494	70.06
240.728	74.06
240.961	70.06
241.195	72.06
241.429	68.06
241.662	90.06
241.896	63.06
242.13	77.06
242.363	74.06
242.597	81.06
242.83	78.06
243.064	74.06
243.298	70.06
243.531	71.06
243.765	62.06
243.998	69.06
244.232	71.06
244.465	84.06
244.699	76.06
244.932	73.06
245.166	81.06
245.399	69.06
245.633	70.06
245.866	82.06
246.099	75.06
246.333	72.06
246.566	67.06
246.8	77.06
247.033	60.06
247.266	88.06
247.5	82.06
247.733	80.06
247.966	80.06
248.2	76.06
248.433	91.06
248.666	84.06
248.899	76.06
249.133	78.06
249.366	74.06
249.599	80.06
249.832	84.06
250.066	80.06
250.299	92.06
250.532	78.06
250.765	78.06
250.998	80.06
251.231	86.06
251.465	85.06
251.698	73.06
251.931	89.06
252.164	80.06
252.397	76.06
252.63	81.06
252.863	78.06
253.096	58.06
253.329	83.06
253.562	70.06
253.795	82.06
254.028	82.06
254.261	77.06
254.494	85.06
254.727	84.06
254.96	78.06
255.193	77.06
255.426	75.06
255.659	89.06
255.892	83.06
256.124	87.06
256.357	80.06
256.59	83.06
256.823	74.06
257.056	85.06
257.289	84.06
257.521	72.06
257.754	81.06
257.987	85.06
258.22	92.06
258.452	72.06
258.685	90.06
258.918	77.06
259.151	68.06
259.383	77.06
259.616	74.06
259.849	69.06
260.081	70.06
260.314	95.06
260.547	80.06
260.779	104.06
261.012	82.06
261.244	91.06
261.477	82.06
261.71	92.06
261.942	95.06
262.175	117.06
262.407	88.06
262.64	90.06
262.872	76.06
263.105	96.06
263.337	81.06
263.57	87.06
263.802	96.06
264.035	86.06
264.267	86.06
264.499	69.06
264.732	85.06
264.964	88.06
265.197	85.06
265.429	91.06
265.661	80.06
265.894	77.06
266.126	75.06
266.358	83.06
266.591	74.06
266.823	68.06
267.055	81.06
267.287	84.06
267.52	83.06
267.752	76.06
267.984	77.06
268.216	100.06
268.448	96.06
268.681	81.06
268.913	79.06
269.145	60.06
269.377	83.06
269.609	68.06
269.841	85.06
270.073	73.06
270.306	98.06
270.538	81.06
270.77	89.06
271.002	83.06
271.234	82.06
271.466	85.06
271.698	83.06
271.93	90.06
272.162	73.06
272.394	85.06
272.626	76.06
272.858	82.06
273.09	92.06
273.322	74.06
273.553	93.06
273.785	84.06
274.017	88.06
274.249	73.06
274.481	85.06
274.713	89.06
274.945	74.06
275.176	83.06
275.408	88.06
275.64	79.06
275.872	82.06
276.104	90.06
276.335	95.06
276.567	101.06
276.799	115.06
277.031	121.06
277.262	117.06
277.494	120.06
277.726	90.06
277.957	83.06
278.189	88.06
278.421	86.06
278.652	82.06
278.884	85.06
279.115	93.06
279.347	84.06
279.579	91.06
279.81	92.06
280.042	115.06
280.273	124.06
280.505	106.06
280.736	96.06
280.968	91.06
281.199	96.06
281.431	84.06
281.662	93.06
281.894	96.06
282.125	90.06
282.356	126.06
282.588	129.06
282.819	112.06
283.051	98.06
283.282	75.06
283.513	85.06
283.745	96.06
283.976	64.06
284.207	89.06
284.439	77.06
284.67	73.06
284.901	104.06
285.132	90.06
285.364	86.06
285.595	82.06
285.826	89.06
286.057	92.06
286.288	89.06
286.52	94.06
286.751	93.06
286.982	89.06
287.213	88.06
287.444	91.06
287.675	97.06
287.906	76.06
288.138	80.06
288.369	90.06
288.6	93.06
288.831	88.06
289.062	94.06
289.293	98.06
289.524	83.06
289.755	83.06
289.986	86.06
290.217	80.06
290.448	94.06
290.679	88.06
290.91	103.06
291.141	81.06
291.371	86.06
291.602	82.06
291.833	83.06
292.064	80.06
292.295	100.06
292.526	82.06
292.757	91.06
292.987	85.06
293.218	76.06
293.449	76.06
293.68	95.06
293.91	78.06
294.141	100.06
294.372	95.06
294.603	88.06
294.833	83.06
295.064	107.06
295.295	85.06
295.525	104.06
295.756	101.06
295.987	119.06
296.217	159.06
296.448	116.06
296.679	94.06
296.909	93.06
297.14	91.06
297.37	90.06
297.601	88.06
297.831	82.06
298.062	90.06
298.292	93.06
298.523	88.06
298.753	82.06
298.984	86.06
299.214	104.06
299.445	91.06
299.675	90.06
299.905	103.06
300.136	84.06
300.366	95.06
300.597	85.06
300.827	100.06
301.057	76.06
301.288	114.06
301.518	92.06
301.748	82.06
301.979	98.06
302.209	98.06
302.439	92.06
302.669	100.06
302.9	97.06
303.13	89.06
303.36	92.06
303.59	99.06
303.82	95.06
304.051	97.06
304.281	102.06
304.511	97.06
304.741	93.06
304.971	82.06
305.201	78.06
305.431	80.06
305.661	85.06
305.891	99.06
306.121	84.06
306.352	111.06
306.582	105.06
306.812	94.06
307.042	88.06
307.272	115.06
307.502	96.06
307.731	102.06
307.961	89.06
308.191	93.06
308.421	97.06
308.651	92.06
308.881	86.06
309.111	89.06
309.341	95.06
309.571	100.06
309.8	88.06
310.03	88.06
310.26	90.06
310.49	89.06
310.72	98.06
310.949	100.06
311.179	101.06
311.409	88.06
311.639	105.06
311.868	104.06
312.098	82.06
312.328	94.06
312.557	96.06
312.787	94.06
313.017	100.06
313.246	119.06
313.476	89.06
313.706	87.06
313.935	101.06
314.165	97.06
314.394	87.06
314.624	92.06
314.853	84.06
315.083	80.06
315.312	103.06
315.542	89.06
315.771	83.06
316.001	81.06
316.23	88.06
316.46	76.06
316.689	90.06
316.919	96.06
317.148	90.06
317.377	82.06
317.607	83.06
317.836	87.06
318.065	88.06
318.295	78.06
318.524	94.06
318.753	92.06
318.983	96.06
319.212	102.06
319.441	106.06
319.67	106.06
319.9	82.06
320.129	84.06
320.358	72.06
320.587	88.06
320.816	102.06
321.046	102.06
321.275	98.06
321.504	103.06
321.733	88.06
321.962	91.06
322.191	115.06
322.42	99.06
322.649	108.06
322.878	117.06
323.108	108.06
323.337	134.06
323.566	124.06
323.795	159.06
324.024	189.06
324.253	384.06
324.482	840.06
324.71	1775.06
324.939	2363.06
325.168	827.06
325.397	251.06
325.626	158.06
325.855	130.06
326.084	125.06
326.313	133.06
326.542	153.06
326.77	243.06
326.999	480.06
327.228	960.06
327.457	1800.06
327.686	1449.06
327.914	420.06
328.143	301.06
328.372	316.06
328.6	198.06
328.829	138.06
329.058	123.06
329.287	150.06
329.515	120.06
329.744	148.06
329.972	228.06
330.201	389.06
330.43	544.06
330.658	272.06
330.887	177.06
331.115	129.06
331.344	110.06
331.572	96.06
331.801	98.06
332.03	109.06
332.258	86.06
332.486	104.06
332.715	88.06
332.943	101.06
333.172	94.06
333.4	109.06
333.629	122.06
333.857	132.06
334.085	210.06
334.314	382.06
334.542	639.06
334.771	625.06
334.999	200.06
335.227	123.06
335.455	109.06
335.684	103.06
335.912	101.06
336.14	101.06
336.369	108.06
336.597	106.06
336.825	91.06
337.053	97.06
337.281	90.06
337.51	90.06
337.738	97.06
337.966	96.06
338.194	81.06
338.422	92.06
338.65	96.06
338.878	86.06
339.106	89.06
339.334	96.06
339.562	111.06
339.79	90.06
340.018	85.06
340.246	106.06
340.474	88.06
340.702	84.06
340.93	83.06
341.158	87.06
341.386	85.06
341.614	100.06
341.842	82.06
342.07	106.06
342.298	92.06
342.526	87.06
342.754	92.06
342.981	87.06
343.209	89.06
343.437	106.06
343.665	93.06
343.893	89.06
344.12	94.06
344.348	94.06
344.576	96.06
344.804	101.06
345.031	91.06
345.259	101.06
345.487	100.06
345.714	93.06
345.942	101.06
346.17	92.06
346.397	95.06
346.625	108.06
346.853	68.06
347.08	84.06
347.308	95.06
347.535	92.06
347.763	115.06
347.99	95.06
348.218	97.06
348.445	95.06
348.673	89.06
348.9	85.06
349.128	102.06
349.355	81.06
349.583	95.06
349.81	86.06
350.037	74.06
350.265	100.06
350.492	98.06
350.72	85.06
350.947	101.06
351.174	98.06
351.402	100.06
351.629	96.06
351.856	96.06
352.083	101.06
352.311	90.06
352.538	109.06
352.765	107.06
352.992	101.06
353.22	100.06
353.447	99.06
353.674	91.06
353.901	101.06
354.128	96.06
354.355	82.06
354.583	93.06
354.81	111.06
355.037	99.06
355.264	91.06
355.491	95.06
355.718	83.06
355.945	96.06
356.172	91.06
356.399	97.06
356.626	98.06
356.853	89.06
357.08	98.06
357.307	85.06
357.534	82.06
357.761	94.06
357.988	111.06
358.215	99.06
358.441	96.06
358.668	84.06
358.895	92.06
359.122	81.06
359.349	81.06
359.576	90.06
359.802	105.06
360.029	124.06
360.256	124.06
360.483	93.06
360.709	90.06
360.936	83.06
361.163	85.06
361.39	102.06
361.616	88.06
361.843	78.06
362.07	87.06
362.296	85.06
362.523	89.06
362.749	89.06
362.976	77.06
363.203	97.06
363.429	95.06
363.656	93.06
363.882	83.06
364.109	108.06
364.335	101.06
364.562	90.06
364.788	97.06
365.015	97.06
365.241	95.06
365.468	94.06
365.694	108.06
365.92	83.06
366.147	76.06
366.373	82.06
366.599	73.06
366.826	84.06
367.052	89.06
367.278	95.06
367.505	96.06
367.731	98.06
367.957	85.06
368.184	88.06
368.41	102.06
368.636	111.06
368.862	106.06
369.089	99.06
369.315	112.06
369.541	93.06
369.767	76.06
369.993	94.06
370.219	77.06
370.445	79.06
370.672	100.06
370.898	89.06
371.124	92.06
371.35	78.06
371.576	85.06
371.802	73.06
372.028	92.06
372.254	97.06
372.48	88.06
372.706	87.06
372.932	102.06
373.158	84.06
373.384	94.06
373.61	76.06
373.835	83.06
374.061	79.06
374.287	90.06
374.513	93.06
374.739	87.06
374.965	94.06
375.191	91.06
375.416	95.06
375.642	96.06
375.868	78.06
376.094	96.06
376.319	90.06
376.545	90.06
376.771	89.06
376.997	86.06
377.222	98.06
377.448	88.06
377.674	92.06
377.899	83.06
378.125	93.06
378.35	97.06
378.576	91.06
378.802	82.06
379.027	90.06
379.253	102.06
379.478	88.06
379.704	93.06
379.929	92.06
380.155	104.06
380.38	103.06
380.606	98.06
380.831	89.06
381.057	102.06
381.282	101.06
381.507	116.06
381.733	99.06
381.958	95.06
382.184	85.06
382.409	101.06
382.634	96.06
382.86	105.06
383.085	116.06
383.31	108.06
383.535	95.06
383.761	94.06
383.986	93.06
384.211	85.06
384.436	76.06
384.662	108.06
384.887	106.06
385.112	119.06
385.337	116.06
385.562	102.06
385.787	110.06
386.013	121.06
386.238	120.06
386.463	106.06
386.688	109.06
386.913	103.06
387.138	98.06
387.363	102.06
387.588	101.06
387.813	113.06
388.038	109.06
388.263	109.06
388.488	115.06
388.713	96.06
388.938	80.06
389.163	84.06
389.387	74.06
389.612	91.06
389.837	81.06
390.062	91.06
390.287	88.06
390.512	81.06
390.736	86.06
390.961	99.06
391.186	82.06
391.411	92.06
391.636	91.06
391.86	93.06
392.085	77.06
392.31	80.06
392.534	79.06
392.759	80.06
392.984	76.06
393.208	74.06
393.433	81.06
393.658	91.06
393.882	89.06
394.107	92.06
394.331	82.06
394.556	84.06
394.78	95.06
395.005	80.06
395.229	93.06
395.454	88.06
395.678	73.06
395.903	79.06
396.127	89.06
396.352	93.06
396.576	83.06
396.801	80.06
397.025	83.06
397.249	84.06
397.474	86.06
397.698	75.06
397.922	98.06
398.147	79.06
398.371	96.06
398.595	87.06
398.82	70.06
399.044	93.06
399.268	77.06
399.492	85.06
399.717	92.06
399.941	93.06
400.165	97.06
400.389	105.06
400.613	81.06
400.837	88.06
401.062	78.06
401.286	75.06
401.51	76.06
401.734	73.06
401.958	108.06
402.182	116.06
402.406	147.06
402.63	115.06
402.854	87.06
403.078	91.06
403.302	87.06
403.526	81.06
403.75	84.06
403.974	89.06
404.198	89.06
404.422	91.06
404.645	81.06
404.869	89.06
405.093	85.06
405.317	123.06
405.541	127.06
405.765	100.06
405.988	112.06
406.212	169.06
406.436	237.06
406.66	165.06
406.883	108.06
407.107	95.06
407.331	99.06
407.555	109.06
407.778	96.06
408.002	84.06
408.226	92.06
408.449	83.06
408.673	94.06
408.896	93.06
409.12	96.06
409.344	100.06
409.567	91.06
409.791	87.06
410.014	99.06
410.238	97.06
410.461	99.06
410.685	79.06
410.908	88.06
411.132	106.06
411.355	101.06
411.578	88.06
411.802	85.06
412.025	75.06
412.249	88.06
412.472	99.06
412.695	111.06
412.919	102.06
413.142	86.06
413.365	92.06
413.589	92.06
413.812	91.06
414.035	81.06
414.258	96.06
414.482	91.06
414.705	86.06
414.928	78.06
415.151	87.06
415.374	78.06
415.597	97.06
415.821	104.06
416.044	74.06
416.267	94.06
416.49	87.06
416.713	72.06
416.936	79.06
417.159	95.06
417.382	82.06
417.605	77.06
417.828	85.06
418.051	101.06
418.274	97.06
418.497	72.06
418.72	71.06
418.943	95.06
419.166	101.06
419.389	69.06
419.611	96.06
419.834	85.06
420.057	98.06
420.28	80.06
420.503	92.06
420.726	98.06
420.948	87.06
421.171	89.06
421.394	92.06
421.617	81.06
421.839	93.06
422.062	92.06
422.285	97.06
422.507	94.06
422.73	92.06
422.953	95.06
423.175	108.06
423.398	91.06
423.621	94.06
423.843	87.06
424.066	93.06
424.288	89.06
424.511	83.06
424.733	93.06
424.956	101.06
425.178	89.06
425.401	92.06
425.623	92.06
425.846	79.06
426.068	83.06
426.291	89.06
426.513	99.06
426.735	86.06
426.958	96.06
427.18	109.06
427.402	162.06
427.625	190.06
427.847	170.06
428.069	163.06
428.292	108.06
428.514	88.06
428.736	89.06
428.958	86.06
429.181	81.06
429.403	78.06
429.625	84.06
429.847	99.06
430.069	110.06
430.292	90.06
430.514	81.06
430.736	83.06
430.958	85.06
431.18	79.06
431.402	76.06
431.624	74.06
431.846	86.06
432.068	89.06
432.29	83.06
432.512	79.06
432.734	84.06
432.956	92.06
433.178	100.06
433.4	115.06
433.622	86.06
433.844	75.06
434.066	83.06
434.287	80.06
434.509	99.06
434.731	84.06
434.953	91.06
435.175	84.06
435.397	100.06
435.618	91.06
435.84	108.06
436.062	121.06
436.284	116.06
436.505	96.06
436.727	96.06
436.949	84.06
437.17	86.06
437.392	79.06
437.614	85.06
437.835	114.06
438.057	136.06
438.278	106.06
438.5	104.06
438.721	134.06
438.943	92.06
439.165	90.06
439.386	85.06
439.608	80.06
439.829	95.06
440.05	120.06
440.272	153.06
440.493	98.06
440.715	86.06
440.936	91.06
441.158	91.06
441.379	95.06
441.6	92.06
441.822	101.06
442.043	94.06
442.264	86.06
442.486	91.06
442.707	94.06
442.928	105.06
443.149	125.06
443.371	119.06
443.592	98.06
443.813	106.06
444.034	114.06
444.255	83.06
444.476	81.06
444.698	85.06
444.919	85.06
445.14	132.06
445.361	121.06
445.582	121.06
445.803	133.06
446.024	138.06
446.245	140.06
446.466	128.06
446.687	91.06
446.908	83.06
447.129	76.06
447.35	89.06
447.571	92.06
447.792	88.06
448.013	89.06
448.234	99.06
448.455	101.06
448.675	114.06
448.896	112.06
449.117	100.06
449.338	119.06
449.559	127.06
449.779	137.06
450	92.06
450.221	81.06
450.442	93.06
450.662	83.06
450.883	101.06
451.104	112.06
451.324	111.06
451.545	84.06
451.766	74.06
451.986	99.06
452.207	106.06
452.428	95.06
452.648	107.06
452.869	115.06
453.089	110.06
453.31	114.06
453.53	94.06
453.751	91.06
453.971	97.06
454.192	123.06
454.412	99.06
454.633	93.06
454.853	80.06
455.073	82.06
455.294	78.06
455.514	93.06
455.734	80.06
455.955	91.06
456.175	79.06
456.395	90.06
456.616	86.06
456.836	74.06
457.056	81.06
457.276	73.06
457.497	70.06
457.717	72.06
457.937	86.06
458.157	82.06
458.377	81.06
458.598	91.06
458.818	141.06
459.038	171.06
459.258	113.06
459.478	96.06
459.698	88.06
459.918	66.06
460.138	73.06
460.358	83.06
460.578	81.06
460.798	83.06
461.018	73.06
461.238	89.06
461.458	85.06
461.678	92.06
461.898	82.06
462.118	101.06
462.338	85.06
462.558	72.06
462.777	90.06
462.997	93.06
463.217	80.06
463.437	96.06
463.657	79.06
463.876	75.06
464.096	87.06
464.316	75.06
464.536	101.06
464.755	86.06
464.975	118.06
465.195	179.06
465.414	164.06
465.634	93.06
465.854	93.06
466.073	89.06
466.293	75.06
466.512	62.06
466.732	95.06
466.951	80.06
467.171	94.06
467.391	102.06
467.61	108.06
467.829	118.06
468.049	253.06
468.268	317.06
468.488	115.06
468.707	84.06
468.927	96.06
469.146	71.06
469.365	82.06
469.585	72.06
469.804	93.06
470.023	89.06
470.243	92.06
470.462	95.06
470.681	107.06
470.901	90.06
471.12	90.06
471.339	91.06
471.558	98.06
471.777	83.06
471.997	159.06
472.216	451.06
472.435	934.06
472.654	270.06
472.873	104.06
473.092	76.06
473.311	91.06
473.53	90.06
473.749	93.06
473.968	109.06
474.187	121.06
474.406	104.06
474.625	85.06
474.844	88.06
475.063	88.06
475.282	75.06
475.501	69.06
475.72	69.06
475.939	79.06
476.158	83.06
476.377	83.06
476.596	95.06
476.814	88.06
477.033	98.06
477.252	91.06
477.471	95.06
477.69	99.06
477.908	108.06
478.127	98.06
478.346	79.06
478.564	86.06
478.783	92.06
479.002	77.06
479.22	82.06
479.439	115.06
479.658	113.06
479.876	88.06
480.095	100.06
480.313	106.06
480.532	114.06
480.751	163.06
480.969	441.06
481.188	1635.06
481.406	932.06
481.624	192.06
481.843	95.06
482.061	100.06
482.28	83.06
482.498	78.06
482.717	94.06
482.935	92.06
483.153	85.06
483.372	98.06
483.59	83.06
483.808	80.06
484.027	93.06
484.245	86.06
484.463	84.06
484.681	93.06
484.9	83.06
485.118	78.06
485.336	95.06
485.554	92.06
485.772	102.06
485.99	95.06
486.209	102.06
486.427	100.06
486.645	109.06
486.863	111.06
487.081	104.06
487.299	89.06
487.517	109.06
487.735	83.06
487.953	93.06
488.171	95.06
488.389	103.06
488.607	108.06
488.825	94.06
489.043	92.06
489.261	94.06
489.479	88.06
489.696	93.06
489.914	92.06
490.132	93.06
490.35	100.06
490.568	65.06
490.786	88.06
491.003	91.06
491.221	102.06
491.439	95.06
491.657	96.06
491.874	85.06
492.092	85.06
492.31	92.06
492.527	80.06
492.745	98.06
492.963	67.06
493.18	88.06
493.398	105.06
493.615	103.06
493.833	88.06
494.05	83.06
494.268	89.06
494.485	84.06
494.703	95.06
494.92	80.06
495.138	82.06
495.355	89.06
495.573	85.06
495.79	86.06
496.008	87.06
496.225	93.06
496.442	100.06
496.66	86.06
496.877	84.06
497.094	91.06
497.312	76.06
497.529	92.06
497.746	91.06
497.963	96.06
498.181	93.06
498.398	80.06
498.615	116.06
498.832	98.06
499.049	79.06
499.267	87.06
499.484	89.06
499.701	82.06
499.918	89.06
500.135	81.06
500.352	88.06
500.569	83.06
500.786	91.06
501.003	95.06
501.22	90.06
501.437	94.06
501.654	94.06
501.871	97.06
502.088	88.06
502.305	90.06
502.522	93.06
502.739	92.06
502.956	86.06
503.172	98.06
503.389	86.06
503.606	97.06
503.823	90.06
504.04	89.06
504.256	87.06
504.473	80.06
504.69	91.06
504.907	80.06
505.123	83.06
505.34	88.06
505.557	81.06
505.773	88.06
505.99	81.06
506.207	83.06
506.423	81.06
506.64	85.06
506.856	75.06
507.073	89.06
507.289	97.06
507.506	95.06
507.722	113.06
507.939	108.06
508.155	83.06
508.372	80.06
508.588	96.06
508.805	97.06
509.021	99.06
509.238	97.06
509.454	109.06
509.67	95.06
509.887	102.06
510.103	109.06
510.319	200.06
510.536	716.06
510.752	2255.06
510.968	629.06
511.184	145.06
511.401	117.06
511.617	107.06
511.833	93.06
512.049	87.06
512.265	94.06
512.481	91.06
512.698	77.06
512.914	90.06
513.13	94.06
513.346	108.06
513.562	80.06
513.778	102.06
513.994	102.06
514.21	111.06
514.426	131.06
514.642	129.06
514.858	116.06
515.074	164.06
515.29	471.06
515.506	1551.06
