Data from Circ_1990_H10_HRD10591_00057.txt Node
Date: Wed Jan 03 11:55:15 EST 2024
User: Yrep
Spectrometer: HR+D1059
Trigger mode: 1
Integration Time (sec): 1.000000E-1
Scans to average: 1
Electric dark correction enabled: true
Nonlinearity correction enabled: false
Boxcar width: 0
XAxis mode: Wavelengths
Number of Pixels in Spectrum: 2048
>>>>>Begin Spectral Data<<<<<
223.165	-13.12
223.4	-13.12
223.635	-13.12
223.869	-25.12
224.104	-15.12
224.338	-22.12
224.573	-0.12
224.808	-14.12
225.042	-14.12
225.277	-8.12
225.511	0.88
225.746	-7.12
225.98	12.88
226.215	1.88
226.449	17.88
226.683	24.88
226.918	25.88
227.152	34.88
227.387	40.88
227.621	46.88
227.856	46.88
228.09	47.88
228.324	37.88
228.559	63.88
228.793	55.88
229.027	68.88
229.262	68.88
229.496	68.88
229.73	73.88
229.964	97.88
230.199	69.88
230.433	89.88
230.667	72.88
230.901	80.88
231.136	69.88
231.37	92.88
231.604	84.88
231.838	84.88
232.072	89.88
232.306	84.88
232.541	86.88
232.775	80.88
233.009	74.88
233.243	75.88
233.477	77.88
233.711	77.88
233.945	100.88
234.179	82.88
234.413	80.88
234.647	87.88
234.881	74.88
235.115	74.88
235.349	56.88
235.583	88.88
235.817	98.88
236.051	88.88
236.285	83.88
236.519	79.88
236.753	86.88
236.987	76.88
237.221	93.88
237.455	90.88
237.689	87.88
237.922	79.88
238.156	77.88
238.39	84.88
238.624	76.88
238.858	88.88
239.091	77.88
239.325	76.88
239.559	84.88
239.793	87.88
240.027	78.88
240.26	82.88
240.494	97.88
240.728	86.88
240.961	79.88
241.195	77.88
241.429	84.88
241.662	90.88
241.896	73.88
242.13	86.88
242.363	76.88
242.597	76.88
242.83	86.88
243.064	77.88
243.298	74.88
243.531	75.88
243.765	68.88
243.998	76.88
244.232	90.88
244.465	79.88
244.699	86.88
244.932	80.88
245.166	84.88
245.399	92.88
245.633	78.88
245.866	78.88
246.099	78.88
246.333	84.88
246.566	87.88
246.8	76.88
247.033	77.88
247.266	78.88
247.5	88.88
247.733	86.88
247.966	71.88
248.2	81.88
248.433	92.88
248.666	76.88
248.899	79.88
249.133	84.88
249.366	98.88
249.599	90.88
249.832	94.88
250.066	87.88
250.299	65.88
250.532	91.88
250.765	77.88
250.998	86.88
251.231	88.88
251.465	93.88
251.698	82.88
251.931	87.88
252.164	82.88
252.397	61.88
252.63	84.88
252.863	79.88
253.096	90.88
253.329	82.88
253.562	90.88
253.795	90.88
254.028	85.88
254.261	94.88
254.494	89.88
254.727	78.88
254.96	81.88
255.193	94.88
255.426	82.88
255.659	75.88
255.892	85.88
256.124	87.88
256.357	72.88
256.59	74.88
256.823	79.88
257.056	88.88
257.289	85.88
257.521	89.88
257.754	97.88
257.987	77.88
258.22	87.88
258.452	80.88
258.685	87.88
258.918	81.88
259.151	91.88
259.383	86.88
259.616	76.88
259.849	94.88
260.081	87.88
260.314	74.88
260.547	72.88
260.779	85.88
261.012	82.88
261.244	82.88
261.477	97.88
261.71	100.88
261.942	112.88
262.175	106.88
262.407	80.88
262.64	74.88
262.872	79.88
263.105	73.88
263.337	86.88
263.57	84.88
263.802	82.88
264.035	87.88
264.267	83.88
264.499	76.88
264.732	92.88
264.964	84.88
265.197	80.88
265.429	92.88
265.661	84.88
265.894	91.88
266.126	100.88
266.358	83.88
266.591	91.88
266.823	88.88
267.055	95.88
267.287	83.88
267.52	88.88
267.752	84.88
267.984	96.88
268.216	76.88
268.448	99.88
268.681	92.88
268.913	90.88
269.145	95.88
269.377	88.88
269.609	71.88
269.841	84.88
270.073	87.88
270.306	79.88
270.538	86.88
270.77	80.88
271.002	78.88
271.234	92.88
271.466	104.88
271.698	93.88
271.93	82.88
272.162	71.88
272.394	85.88
272.626	81.88
272.858	102.88
273.09	87.88
273.322	99.88
273.553	90.88
273.785	85.88
274.017	95.88
274.249	74.88
274.481	82.88
274.713	86.88
274.945	84.88
275.176	81.88
275.408	93.88
275.64	85.88
275.872	97.88
276.104	88.88
276.335	90.88
276.567	105.88
276.799	112.88
277.031	104.88
277.262	105.88
277.494	90.88
277.726	91.88
277.957	87.88
278.189	94.88
278.421	93.88
278.652	95.88
278.884	77.88
279.115	91.88
279.347	85.88
279.579	96.88
279.81	88.88
280.042	92.88
280.273	117.88
280.505	99.88
280.736	91.88
280.968	97.88
281.199	70.88
281.431	78.88
281.662	98.88
281.894	91.88
282.125	98.88
282.356	128.88
282.588	145.88
282.819	121.88
283.051	86.88
283.282	83.88
283.513	97.88
283.745	91.88
283.976	78.88
284.207	99.88
284.439	80.88
284.67	74.88
284.901	83.88
285.132	67.88
285.364	87.88
285.595	84.88
285.826	88.88
286.057	83.88
286.288	94.88
286.52	80.88
286.751	92.88
286.982	98.88
287.213	80.88
287.444	87.88
287.675	84.88
287.906	102.88
288.138	88.88
288.369	105.88
288.6	89.88
288.831	94.88
289.062	92.88
289.293	84.88
289.524	80.88
289.755	88.88
289.986	91.88
290.217	96.88
290.448	74.88
290.679	93.88
290.91	90.88
291.141	87.88
291.371	101.88
291.602	91.88
291.833	96.88
292.064	92.88
292.295	88.88
292.526	92.88
292.757	92.88
292.987	89.88
293.218	82.88
293.449	87.88
293.68	91.88
293.91	86.88
294.141	88.88
294.372	86.88
294.603	84.88
294.833	89.88
295.064	90.88
295.295	90.88
295.525	100.88
295.756	97.88
295.987	122.88
296.217	111.88
296.448	119.88
296.679	86.88
296.909	104.88
297.14	89.88
297.37	78.88
297.601	90.88
297.831	94.88
298.062	93.88
298.292	82.88
298.523	106.88
298.753	98.88
298.984	80.88
299.214	81.88
299.445	93.88
299.675	86.88
299.905	84.88
300.136	94.88
300.366	74.88
300.597	88.88
300.827	110.88
301.057	88.88
301.288	103.88
301.518	87.88
301.748	94.88
301.979	101.88
302.209	96.88
302.439	87.88
302.669	85.88
302.9	67.88
303.13	92.88
303.36	78.88
303.59	106.88
303.82	128.88
304.051	100.88
304.281	98.88
304.511	94.88
304.741	88.88
304.971	79.88
305.201	82.88
305.431	84.88
305.661	90.88
305.891	102.88
306.121	101.88
306.352	99.88
306.582	106.88
306.812	94.88
307.042	96.88
307.272	105.88
307.502	126.88
307.731	111.88
307.961	100.88
308.191	103.88
308.421	90.88
308.651	82.88
308.881	100.88
309.111	107.88
309.341	90.88
309.571	99.88
309.8	94.88
310.03	97.88
310.26	92.88
310.49	97.88
310.72	88.88
310.949	115.88
311.179	109.88
311.409	97.88
311.639	78.88
311.868	92.88
312.098	103.88
312.328	92.88
312.557	113.88
312.787	96.88
313.017	102.88
313.246	98.88
313.476	87.88
313.706	90.88
313.935	80.88
314.165	85.88
314.394	74.88
314.624	105.88
314.853	100.88
315.083	93.88
315.312	100.88
315.542	86.88
315.771	93.88
316.001	89.88
316.23	88.88
316.46	97.88
316.689	81.88
316.919	86.88
317.148	95.88
317.377	99.88
317.607	92.88
317.836	92.88
318.065	94.88
318.295	85.88
318.524	95.88
318.753	99.88
318.983	85.88
319.212	112.88
319.441	110.88
319.67	104.88
319.9	88.88
320.129	99.88
320.358	98.88
320.587	94.88
320.816	100.88
321.046	94.88
321.275	105.88
321.504	101.88
321.733	94.88
321.962	102.88
322.191	101.88
322.42	93.88
322.649	82.88
322.878	103.88
323.108	110.88
323.337	145.88
323.566	128.88
323.795	154.88
324.024	183.88
324.253	369.88
324.482	751.88
324.71	1517.88
324.939	1989.88
325.168	744.88
325.397	236.88
325.626	136.88
325.855	126.88
326.084	126.88
326.313	139.88
326.542	149.88
326.77	213.88
326.999	419.88
327.228	848.88
327.457	1617.88
327.686	1252.88
327.914	376.88
328.143	241.88
328.372	268.88
328.6	184.88
328.829	117.88
329.058	124.88
329.287	122.88
329.515	125.88
329.744	136.88
329.972	204.88
330.201	334.88
330.43	430.88
330.658	237.88
330.887	156.88
331.115	113.88
331.344	111.88
331.572	108.88
331.801	105.88
332.03	105.88
332.258	103.88
332.486	96.88
332.715	111.88
332.943	101.88
333.172	95.88
333.4	108.88
333.629	100.88
333.857	136.88
334.085	204.88
334.314	308.88
334.542	543.88
334.771	488.88
334.999	175.88
335.227	115.88
335.455	100.88
335.684	113.88
335.912	96.88
336.14	89.88
336.369	93.88
336.597	85.88
336.825	98.88
337.053	93.88
337.281	90.88
337.51	104.88
337.738	106.88
337.966	101.88
338.194	81.88
338.422	91.88
338.65	97.88
338.878	97.88
339.106	92.88
339.334	98.88
339.562	92.88
339.79	98.88
340.018	102.88
340.246	103.88
340.474	98.88
340.702	95.88
340.93	97.88
341.158	95.88
341.386	90.88
341.614	105.88
341.842	113.88
342.07	81.88
342.298	85.88
342.526	84.88
342.754	101.88
342.981	107.88
343.209	94.88
343.437	103.88
343.665	87.88
343.893	94.88
344.12	110.88
344.348	105.88
344.576	88.88
344.804	74.88
345.031	89.88
345.259	102.88
345.487	90.88
345.714	89.88
345.942	88.88
346.17	85.88
346.397	98.88
346.625	92.88
346.853	84.88
347.08	79.88
347.308	82.88
347.535	98.88
347.763	110.88
347.99	93.88
348.218	104.88
348.445	105.88
348.673	101.88
348.9	100.88
349.128	110.88
349.355	82.88
349.583	86.88
349.81	85.88
350.037	92.88
350.265	98.88
350.492	97.88
350.72	101.88
350.947	93.88
351.174	101.88
351.402	111.88
351.629	102.88
351.856	92.88
352.083	100.88
352.311	103.88
352.538	100.88
352.765	102.88
352.992	110.88
353.22	103.88
353.447	102.88
353.674	110.88
353.901	96.88
354.128	90.88
354.355	91.88
354.583	92.88
354.81	103.88
355.037	105.88
355.264	87.88
355.491	97.88
355.718	103.88
355.945	90.88
356.172	92.88
356.399	97.88
356.626	94.88
356.853	96.88
357.08	83.88
357.307	106.88
357.534	96.88
357.761	94.88
357.988	92.88
358.215	105.88
358.441	112.88
358.668	84.88
358.895	105.88
359.122	102.88
359.349	96.88
359.576	88.88
359.802	110.88
360.029	110.88
360.256	108.88
360.483	96.88
360.709	86.88
360.936	106.88
361.163	107.88
361.39	96.88
361.616	99.88
361.843	78.88
362.07	108.88
362.296	95.88
362.523	92.88
362.749	85.88
362.976	86.88
363.203	101.88
363.429	82.88
363.656	100.88
363.882	91.88
364.109	93.88
364.335	100.88
364.562	86.88
364.788	100.88
365.015	92.88
365.241	94.88
365.468	110.88
365.694	94.88
365.92	93.88
366.147	97.88
366.373	97.88
366.599	80.88
366.826	87.88
367.052	77.88
367.278	93.88
367.505	95.88
367.731	94.88
367.957	87.88
368.184	84.88
368.41	95.88
368.636	110.88
368.862	118.88
369.089	107.88
369.315	100.88
369.541	92.88
369.767	106.88
369.993	80.88
370.219	103.88
370.445	94.88
370.672	97.88
370.898	92.88
371.124	100.88
371.35	81.88
371.576	90.88
371.802	86.88
372.028	90.88
372.254	90.88
372.48	78.88
372.706	80.88
372.932	82.88
373.158	86.88
373.384	87.88
373.61	92.88
373.835	96.88
374.061	87.88
374.287	92.88
374.513	92.88
374.739	91.88
374.965	79.88
375.191	92.88
375.416	85.88
375.642	88.88
375.868	86.88
376.094	95.88
376.319	98.88
376.545	80.88
376.771	92.88
376.997	88.88
377.222	96.88
377.448	100.88
377.674	87.88
377.899	82.88
378.125	94.88
378.35	89.88
378.576	105.88
378.802	90.88
379.027	80.88
379.253	87.88
379.478	100.88
379.704	97.88
379.929	99.88
380.155	105.88
380.38	101.88
380.606	93.88
380.831	97.88
381.057	113.88
381.282	100.88
381.507	95.88
381.733	96.88
381.958	91.88
382.184	114.88
382.409	94.88
382.634	103.88
382.86	110.88
383.085	102.88
383.31	95.88
383.535	101.88
383.761	96.88
383.986	106.88
384.211	102.88
384.436	103.88
384.662	94.88
384.887	112.88
385.112	116.88
385.337	115.88
385.562	105.88
385.787	119.88
386.013	117.88
386.238	134.88
386.463	97.88
386.688	105.88
386.913	117.88
387.138	112.88
387.363	108.88
387.588	106.88
387.813	115.88
388.038	118.88
388.263	115.88
388.488	121.88
388.713	96.88
388.938	95.88
389.163	93.88
389.387	99.88
389.612	93.88
389.837	93.88
390.062	101.88
390.287	98.88
390.512	95.88
390.736	88.88
390.961	94.88
391.186	107.88
391.411	100.88
391.636	102.88
391.86	85.88
392.085	78.88
392.31	92.88
392.534	90.88
392.759	82.88
392.984	94.88
393.208	87.88
393.433	96.88
393.658	88.88
393.882	90.88
394.107	88.88
394.331	90.88
394.556	100.88
394.78	93.88
395.005	81.88
395.229	83.88
395.454	89.88
395.678	83.88
395.903	88.88
396.127	94.88
396.352	101.88
396.576	101.88
396.801	84.88
397.025	93.88
397.249	82.88
397.474	81.88
397.698	87.88
397.922	85.88
398.147	92.88
398.371	96.88
398.595	81.88
398.82	98.88
399.044	88.88
399.268	98.88
399.492	87.88
399.717	101.88
399.941	92.88
400.165	94.88
400.389	110.88
400.613	80.88
400.837	98.88
401.062	82.88
401.286	97.88
401.51	96.88
401.734	89.88
401.958	99.88
402.182	113.88
402.406	154.88
402.63	138.88
402.854	97.88
403.078	84.88
403.302	88.88
403.526	92.88
403.75	83.88
403.974	92.88
404.198	95.88
404.422	79.88
404.645	93.88
404.869	87.88
405.093	85.88
405.317	113.88
405.541	97.88
405.765	114.88
405.988	124.88
406.212	180.88
406.436	198.88
406.66	142.88
406.883	90.88
407.107	87.88
407.331	98.88
407.555	112.88
407.778	94.88
408.002	79.88
408.226	80.88
408.449	96.88
408.673	95.88
408.896	93.88
409.12	90.88
409.344	78.88
409.567	92.88
409.791	90.88
410.014	92.88
410.238	94.88
410.461	94.88
410.685	98.88
410.908	100.88
411.132	96.88
411.355	104.88
411.578	95.88
411.802	83.88
412.025	85.88
412.249	91.88
412.472	101.88
412.695	94.88
412.919	90.88
413.142	84.88
413.365	97.88
413.589	93.88
413.812	101.88
414.035	96.88
414.258	91.88
414.482	77.88
414.705	90.88
414.928	95.88
415.151	84.88
415.374	92.88
415.597	88.88
415.821	87.88
416.044	87.88
416.267	90.88
416.49	84.88
416.713	82.88
416.936	89.88
417.159	94.88
417.382	81.88
417.605	95.88
417.828	105.88
418.051	101.88
418.274	102.88
418.497	94.88
418.72	73.88
418.943	105.88
419.166	93.88
419.389	89.88
419.611	93.88
419.834	87.88
420.057	81.88
420.28	89.88
420.503	86.88
420.726	85.88
420.948	96.88
421.171	93.88
421.394	96.88
421.617	90.88
421.839	86.88
422.062	89.88
422.285	103.88
422.507	107.88
422.73	96.88
422.953	86.88
423.175	81.88
423.398	84.88
423.621	96.88
423.843	96.88
424.066	87.88
424.288	96.88
424.511	102.88
424.733	88.88
424.956	109.88
425.178	97.88
425.401	93.88
425.623	89.88
425.846	85.88
426.068	84.88
426.291	93.88
426.513	90.88
426.735	86.88
426.958	97.88
427.18	105.88
427.402	120.88
427.625	163.88
427.847	146.88
428.069	142.88
428.292	114.88
428.514	96.88
428.736	96.88
428.958	92.88
429.181	82.88
429.403	78.88
429.625	82.88
429.847	89.88
430.069	103.88
430.292	92.88
430.514	89.88
430.736	96.88
430.958	76.88
431.18	86.88
431.402	96.88
431.624	81.88
431.846	85.88
432.068	92.88
432.29	76.88
432.512	92.88
432.734	90.88
432.956	92.88
433.178	100.88
433.4	93.88
433.622	98.88
433.844	92.88
434.066	92.88
434.287	85.88
434.509	95.88
434.731	84.88
434.953	80.88
435.175	87.88
435.397	88.88
435.618	100.88
435.84	95.88
436.062	121.88
436.284	98.88
436.505	91.88
436.727	93.88
436.949	94.88
437.17	96.88
437.392	96.88
437.614	102.88
437.835	112.88
438.057	103.88
438.278	101.88
438.5	118.88
438.721	118.88
438.943	102.88
439.165	86.88
439.386	92.88
439.608	100.88
439.829	103.88
440.05	114.88
440.272	134.88
440.493	100.88
440.715	85.88
440.936	81.88
441.158	106.88
441.379	97.88
441.6	84.88
441.822	82.88
442.043	107.88
442.264	96.88
442.486	119.88
442.707	87.88
442.928	87.88
443.149	118.88
443.371	126.88
443.592	100.88
443.813	101.88
444.034	112.88
444.255	95.88
444.476	85.88
444.698	80.88
444.919	94.88
445.14	110.88
445.361	100.88
445.582	109.88
445.803	145.88
446.024	127.88
446.245	121.88
446.466	96.88
446.687	90.88
446.908	89.88
447.129	78.88
447.35	90.88
447.571	92.88
447.792	92.88
448.013	81.88
448.234	106.88
448.455	98.88
448.675	125.88
448.896	109.88
449.117	112.88
449.338	116.88
449.559	117.88
449.779	120.88
450	93.88
450.221	96.88
450.442	101.88
450.662	96.88
450.883	91.88
451.104	95.88
451.324	100.88
451.545	94.88
451.766	82.88
451.986	80.88
452.207	96.88
452.428	92.88
452.648	100.88
452.869	109.88
453.089	111.88
453.31	123.88
453.53	95.88
453.751	88.88
453.971	103.88
454.192	110.88
454.412	92.88
454.633	88.88
454.853	85.88
455.073	88.88
455.294	97.88
455.514	103.88
455.734	81.88
455.955	93.88
456.175	99.88
456.395	83.88
456.616	77.88
456.836	96.88
457.056	92.88
457.276	85.88
457.497	90.88
457.717	78.88
457.937	95.88
458.157	100.88
458.377	94.88
458.598	112.88
458.818	144.88
459.038	146.88
459.258	119.88
459.478	95.88
459.698	82.88
459.918	82.88
460.138	86.88
460.358	97.88
460.578	97.88
460.798	91.88
461.018	86.88
461.238	79.88
461.458	92.88
461.678	83.88
461.898	89.88
462.118	93.88
462.338	89.88
462.558	87.88
462.777	79.88
462.997	77.88
463.217	83.88
463.437	101.88
463.657	84.88
463.876	88.88
464.096	87.88
464.316	82.88
464.536	87.88
464.755	100.88
464.975	105.88
465.195	145.88
465.414	158.88
465.634	95.88
465.854	78.88
466.073	87.88
466.293	92.88
466.512	80.88
466.732	89.88
466.951	88.88
467.171	90.88
467.391	104.88
467.61	102.88
467.829	121.88
468.049	228.88
468.268	274.88
468.488	124.88
468.707	96.88
468.927	100.88
469.146	83.88
469.365	96.88
469.585	97.88
469.804	89.88
470.023	96.88
470.243	105.88
470.462	95.88
470.681	98.88
470.901	90.88
471.12	83.88
471.339	97.88
471.558	94.88
471.777	98.88
471.997	168.88
472.216	393.88
472.435	718.88
472.654	226.88
472.873	118.88
473.092	94.88
473.311	90.88
473.53	106.88
473.749	83.88
473.968	106.88
474.187	104.88
474.406	88.88
474.625	79.88
474.844	94.88
475.063	84.88
475.282	88.88
475.501	81.88
475.72	86.88
475.939	100.88
476.158	95.88
476.377	95.88
476.596	90.88
476.814	97.88
477.033	100.88
477.252	96.88
477.471	88.88
477.69	98.88
477.908	93.88
478.127	85.88
478.346	82.88
478.564	94.88
478.783	100.88
479.002	86.88
479.22	89.88
479.439	104.88
479.658	107.88
479.876	103.88
480.095	121.88
480.313	109.88
480.532	116.88
480.751	156.88
480.969	402.88
481.188	1250.88
481.406	720.88
481.624	178.88
481.843	97.88
482.061	91.88
482.28	92.88
482.498	109.88
482.717	89.88
482.935	97.88
483.153	85.88
483.372	99.88
483.59	106.88
483.808	81.88
484.027	99.88
484.245	95.88
484.463	97.88
484.681	99.88
484.9	87.88
485.118	86.88
485.336	106.88
485.554	92.88
485.772	96.88
485.99	103.88
486.209	108.88
486.427	92.88
486.645	112.88
486.863	107.88
487.081	101.88
487.299	106.88
487.517	98.88
487.735	98.88
487.953	100.88
488.171	95.88
488.389	84.88
488.607	84.88
488.825	87.88
489.043	90.88
489.261	93.88
489.479	94.88
489.696	87.88
489.914	92.88
490.132	97.88
490.35	101.88
490.568	97.88
490.786	83.88
491.003	95.88
491.221	96.88
491.439	95.88
491.657	89.88
491.874	91.88
492.092	90.88
492.31	85.88
492.527	85.88
492.745	87.88
492.963	94.88
493.18	106.88
493.398	96.88
493.615	100.88
493.833	89.88
494.05	96.88
494.268	86.88
494.485	104.88
494.703	85.88
494.92	96.88
495.138	86.88
495.355	104.88
495.573	94.88
495.79	90.88
496.008	93.88
496.225	94.88
496.442	89.88
496.66	101.88
496.877	100.88
497.094	100.88
497.312	90.88
497.529	89.88
497.746	97.88
497.963	99.88
498.181	87.88
498.398	96.88
498.615	108.88
498.832	104.88
499.049	87.88
499.267	92.88
499.484	94.88
499.701	95.88
499.918	109.88
500.135	101.88
500.352	87.88
500.569	93.88
500.786	103.88
501.003	105.88
501.22	99.88
501.437	86.88
501.654	80.88
501.871	108.88
502.088	82.88
502.305	96.88
502.522	84.88
502.739	94.88
502.956	83.88
503.172	99.88
503.389	98.88
503.606	109.88
503.823	85.88
504.04	102.88
504.256	82.88
504.473	95.88
504.69	90.88
504.907	102.88
505.123	94.88
505.34	91.88
505.557	78.88
505.773	83.88
505.99	88.88
506.207	80.88
506.423	93.88
506.64	85.88
506.856	88.88
507.073	99.88
507.289	95.88
507.506	105.88
507.722	119.88
507.939	106.88
508.155	105.88
508.372	92.88
508.588	101.88
508.805	92.88
509.021	94.88
509.238	98.88
509.454	96.88
509.67	99.88
509.887	100.88
510.103	121.88
510.319	206.88
510.536	688.88
510.752	2101.88
510.968	582.88
511.184	134.88
511.401	112.88
511.617	107.88
511.833	101.88
512.049	101.88
512.265	84.88
512.481	87.88
512.698	89.88
512.914	96.88
513.13	94.88
513.346	78.88
513.562	97.88
513.778	83.88
513.994	97.88
514.21	112.88
514.426	125.88
514.642	119.88
514.858	117.88
