Data from Circ_1990_H10_HRD10591_00038.txt Node
Date: Wed Jan 03 11:55:11 EST 2024
User: Yrep
Spectrometer: HR+D1059
Trigger mode: 1
Integration Time (sec): 1.000000E-1
Scans to average: 1
Electric dark correction enabled: true
Nonlinearity correction enabled: false
Boxcar width: 0
XAxis mode: Wavelengths
Number of Pixels in Spectrum: 2048
>>>>>Begin Spectral Data<<<<<
223.165	-12.75
223.4	-12.75
223.635	-12.75
223.869	-7.75
224.104	-31.75
224.338	-21.75
224.573	-14.75
224.808	-25.75
225.042	-15.75
225.277	2.25
225.511	6.25
225.746	-2.75
225.98	20.25
226.215	2.25
226.449	16.25
226.683	14.25
226.918	38.25
227.152	33.25
227.387	42.25
227.621	39.25
227.856	45.25
228.09	45.25
228.324	45.25
228.559	51.25
228.793	58.25
229.027	86.25
229.262	64.25
229.496	72.25
229.73	87.25
229.964	91.25
230.199	64.25
230.433	78.25
230.667	79.25
230.901	66.25
231.136	71.25
231.37	92.25
231.604	82.25
231.838	83.25
232.072	73.25
232.306	88.25
232.541	84.25
232.775	82.25
233.009	82.25
233.243	83.25
233.477	86.25
233.711	70.25
233.945	82.25
234.179	79.25
234.413	90.25
234.647	79.25
234.881	82.25
235.115	80.25
235.349	79.25
235.583	65.25
235.817	82.25
236.051	80.25
236.285	87.25
236.519	75.25
236.753	92.25
236.987	71.25
237.221	84.25
237.455	91.25
237.689	85.25
237.922	87.25
238.156	80.25
238.39	80.25
238.624	73.25
238.858	67.25
239.091	86.25
239.325	84.25
239.559	77.25
239.793	84.25
240.027	94.25
240.26	83.25
240.494	83.25
240.728	77.25
240.961	87.25
241.195	89.25
241.429	72.25
241.662	65.25
241.896	94.25
242.13	68.25
242.363	71.25
242.597	77.25
242.83	80.25
243.064	83.25
243.298	89.25
243.531	56.25
243.765	96.25
243.998	78.25
244.232	70.25
244.465	74.25
244.699	89.25
244.932	70.25
245.166	84.25
245.399	72.25
245.633	88.25
245.866	94.25
246.099	79.25
246.333	73.25
246.566	62.25
246.8	89.25
247.033	78.25
247.266	82.25
247.5	76.25
247.733	80.25
247.966	78.25
248.2	86.25
248.433	77.25
248.666	65.25
248.899	87.25
249.133	81.25
249.366	90.25
249.599	100.25
249.832	92.25
250.066	81.25
250.299	68.25
250.532	80.25
250.765	65.25
250.998	79.25
251.231	87.25
251.465	87.25
251.698	82.25
251.931	90.25
252.164	85.25
252.397	84.25
252.63	66.25
252.863	82.25
253.096	92.25
253.329	82.25
253.562	94.25
253.795	82.25
254.028	94.25
254.261	88.25
254.494	97.25
254.727	88.25
254.96	97.25
255.193	88.25
255.426	76.25
255.659	88.25
255.892	87.25
256.124	92.25
256.357	92.25
256.59	88.25
256.823	80.25
257.056	74.25
257.289	79.25
257.521	87.25
257.754	81.25
257.987	81.25
258.22	86.25
258.452	92.25
258.685	80.25
258.918	74.25
259.151	95.25
259.383	82.25
259.616	86.25
259.849	85.25
260.081	89.25
260.314	83.25
260.547	96.25
260.779	82.25
261.012	82.25
261.244	99.25
261.477	90.25
261.71	105.25
261.942	125.25
262.175	120.25
262.407	93.25
262.64	69.25
262.872	76.25
263.105	100.25
263.337	77.25
263.57	74.25
263.802	85.25
264.035	80.25
264.267	83.25
264.499	84.25
264.732	90.25
264.964	74.25
265.197	85.25
265.429	79.25
265.661	94.25
265.894	96.25
266.126	81.25
266.358	88.25
266.591	81.25
266.823	80.25
267.055	75.25
267.287	85.25
267.52	71.25
267.752	85.25
267.984	80.25
268.216	78.25
268.448	88.25
268.681	89.25
268.913	90.25
269.145	76.25
269.377	91.25
269.609	94.25
269.841	84.25
270.073	94.25
270.306	92.25
270.538	92.25
270.77	83.25
271.002	94.25
271.234	86.25
271.466	89.25
271.698	77.25
271.93	89.25
272.162	87.25
272.394	102.25
272.626	106.25
272.858	76.25
273.09	92.25
273.322	77.25
273.553	93.25
273.785	87.25
274.017	76.25
274.249	99.25
274.481	84.25
274.713	88.25
274.945	92.25
275.176	89.25
275.408	95.25
275.64	93.25
275.872	90.25
276.104	92.25
276.335	86.25
276.567	100.25
276.799	112.25
277.031	97.25
277.262	117.25
277.494	100.25
277.726	80.25
277.957	95.25
278.189	82.25
278.421	99.25
278.652	100.25
278.884	88.25
279.115	101.25
279.347	86.25
279.579	85.25
279.81	96.25
280.042	101.25
280.273	110.25
280.505	102.25
280.736	92.25
280.968	86.25
281.199	90.25
281.431	72.25
281.662	80.25
281.894	102.25
282.125	95.25
282.356	111.25
282.588	141.25
282.819	107.25
283.051	107.25
283.282	73.25
283.513	96.25
283.745	85.25
283.976	71.25
284.207	79.25
284.439	97.25
284.67	92.25
284.901	99.25
285.132	77.25
285.364	76.25
285.595	95.25
285.826	82.25
286.057	89.25
286.288	95.25
286.52	97.25
286.751	85.25
286.982	83.25
287.213	95.25
287.444	95.25
287.675	100.25
287.906	89.25
288.138	87.25
288.369	95.25
288.6	100.25
288.831	85.25
289.062	84.25
289.293	87.25
289.524	86.25
289.755	98.25
289.986	81.25
290.217	92.25
290.448	74.25
290.679	99.25
290.91	90.25
291.141	75.25
291.371	78.25
291.602	105.25
291.833	93.25
292.064	80.25
292.295	94.25
292.526	76.25
292.757	99.25
292.987	79.25
293.218	81.25
293.449	76.25
293.68	93.25
293.91	95.25
294.141	85.25
294.372	88.25
294.603	92.25
294.833	101.25
295.064	91.25
295.295	93.25
295.525	82.25
295.756	101.25
295.987	105.25
296.217	150.25
296.448	122.25
296.679	100.25
296.909	100.25
297.14	95.25
297.37	92.25
297.601	94.25
297.831	90.25
298.062	107.25
298.292	92.25
298.523	94.25
298.753	93.25
298.984	106.25
299.214	81.25
299.445	81.25
299.675	106.25
299.905	93.25
300.136	92.25
300.366	97.25
300.597	108.25
300.827	88.25
301.057	93.25
301.288	111.25
301.518	94.25
301.748	106.25
301.979	106.25
302.209	94.25
302.439	93.25
302.669	104.25
302.9	104.25
303.13	90.25
303.36	94.25
303.59	97.25
303.82	112.25
304.051	103.25
304.281	101.25
304.511	95.25
304.741	98.25
304.971	96.25
305.201	99.25
305.431	88.25
305.661	92.25
305.891	86.25
306.121	101.25
306.352	104.25
306.582	112.25
306.812	85.25
307.042	96.25
307.272	103.25
307.502	113.25
307.731	106.25
307.961	96.25
308.191	107.25
308.421	84.25
308.651	89.25
308.881	101.25
309.111	85.25
309.341	106.25
309.571	102.25
309.8	114.25
310.03	108.25
310.26	96.25
310.49	98.25
310.72	114.25
310.949	98.25
311.179	104.25
311.409	95.25
311.639	104.25
311.868	82.25
312.098	98.25
312.328	95.25
312.557	109.25
312.787	105.25
313.017	101.25
313.246	103.25
313.476	97.25
313.706	109.25
313.935	93.25
314.165	99.25
314.394	114.25
314.624	96.25
314.853	93.25
315.083	97.25
315.312	101.25
315.542	84.25
315.771	92.25
316.001	98.25
316.23	100.25
316.46	97.25
316.689	96.25
316.919	81.25
317.148	92.25
317.377	98.25
317.607	92.25
317.836	96.25
318.065	102.25
318.295	101.25
318.524	97.25
318.753	88.25
318.983	96.25
319.212	92.25
319.441	118.25
319.67	108.25
319.9	109.25
320.129	99.25
320.358	104.25
320.587	101.25
320.816	111.25
321.046	106.25
321.275	99.25
321.504	97.25
321.733	93.25
321.962	95.25
322.191	111.25
322.42	112.25
322.649	114.25
322.878	116.25
323.108	120.25
323.337	126.25
323.566	130.25
323.795	154.25
324.024	196.25
324.253	382.25
324.482	816.25
324.71	1649.25
324.939	2128.25
325.168	781.25
325.397	245.25
325.626	154.25
325.855	132.25
326.084	137.25
326.313	141.25
326.542	174.25
326.77	242.25
326.999	454.25
327.228	908.25
327.457	1668.25
327.686	1284.25
327.914	388.25
328.143	270.25
328.372	235.25
328.6	178.25
328.829	146.25
329.058	139.25
329.287	133.25
329.515	121.25
329.744	148.25
329.972	199.25
330.201	326.25
330.43	399.25
330.658	228.25
330.887	169.25
331.115	131.25
331.344	102.25
331.572	97.25
331.801	108.25
332.03	114.25
332.258	112.25
332.486	103.25
332.715	101.25
332.943	93.25
333.172	101.25
333.4	97.25
333.629	105.25
333.857	151.25
334.085	186.25
334.314	311.25
334.542	507.25
334.771	467.25
334.999	174.25
335.227	102.25
335.455	106.25
335.684	97.25
335.912	97.25
336.14	96.25
336.369	98.25
336.597	103.25
336.825	94.25
337.053	94.25
337.281	101.25
337.51	101.25
337.738	93.25
337.966	103.25
338.194	111.25
338.422	105.25
338.65	102.25
338.878	82.25
339.106	95.25
339.334	100.25
339.562	87.25
339.79	89.25
340.018	88.25
340.246	105.25
340.474	96.25
340.702	103.25
340.93	86.25
341.158	105.25
341.386	94.25
341.614	95.25
341.842	90.25
342.07	97.25
342.298	102.25
342.526	94.25
342.754	108.25
342.981	95.25
343.209	79.25
343.437	97.25
343.665	87.25
343.893	76.25
344.12	96.25
344.348	89.25
344.576	82.25
344.804	83.25
345.031	106.25
345.259	110.25
345.487	92.25
345.714	91.25
345.942	88.25
346.17	106.25
346.397	95.25
346.625	101.25
346.853	89.25
347.08	89.25
347.308	111.25
347.535	94.25
347.763	105.25
347.99	104.25
348.218	114.25
348.445	94.25
348.673	102.25
348.9	104.25
349.128	111.25
349.355	99.25
349.583	105.25
349.81	103.25
350.037	105.25
350.265	93.25
350.492	97.25
350.72	94.25
350.947	104.25
351.174	101.25
351.402	115.25
351.629	89.25
351.856	103.25
352.083	101.25
352.311	102.25
352.538	114.25
352.765	108.25
352.992	109.25
353.22	114.25
353.447	116.25
353.674	87.25
353.901	106.25
354.128	84.25
354.355	104.25
354.583	111.25
354.81	101.25
355.037	105.25
355.264	100.25
355.491	95.25
355.718	99.25
355.945	92.25
356.172	96.25
356.399	105.25
356.626	102.25
356.853	82.25
357.08	91.25
357.307	105.25
357.534	106.25
357.761	102.25
357.988	117.25
358.215	109.25
358.441	91.25
358.668	97.25
358.895	99.25
359.122	93.25
359.349	83.25
359.576	112.25
359.802	98.25
360.029	113.25
360.256	110.25
360.483	110.25
360.709	87.25
360.936	97.25
361.163	100.25
361.39	107.25
361.616	89.25
361.843	83.25
362.07	97.25
362.296	96.25
362.523	87.25
362.749	103.25
362.976	101.25
363.203	97.25
363.429	97.25
363.656	93.25
363.882	84.25
364.109	80.25
364.335	88.25
364.562	89.25
364.788	101.25
365.015	102.25
365.241	101.25
365.468	105.25
365.694	106.25
365.92	108.25
366.147	91.25
366.373	82.25
366.599	82.25
366.826	95.25
367.052	93.25
367.278	87.25
367.505	96.25
367.731	102.25
367.957	78.25
368.184	92.25
368.41	102.25
368.636	115.25
368.862	125.25
369.089	108.25
369.315	87.25
369.541	87.25
369.767	85.25
369.993	101.25
370.219	83.25
370.445	101.25
370.672	92.25
370.898	94.25
371.124	90.25
371.35	100.25
371.576	97.25
371.802	98.25
372.028	91.25
372.254	108.25
372.48	85.25
372.706	100.25
372.932	81.25
373.158	94.25
373.384	98.25
373.61	85.25
373.835	78.25
374.061	102.25
374.287	100.25
374.513	78.25
374.739	92.25
374.965	86.25
375.191	98.25
375.416	96.25
375.642	92.25
375.868	102.25
376.094	91.25
376.319	94.25
376.545	93.25
376.771	80.25
376.997	95.25
377.222	96.25
377.448	98.25
377.674	86.25
377.899	97.25
378.125	88.25
378.35	92.25
378.576	95.25
378.802	92.25
379.027	99.25
379.253	96.25
379.478	106.25
379.704	96.25
379.929	98.25
380.155	103.25
380.38	102.25
380.606	121.25
380.831	92.25
381.057	104.25
381.282	103.25
381.507	102.25
381.733	108.25
381.958	103.25
382.184	115.25
382.409	112.25
382.634	113.25
382.86	101.25
383.085	117.25
383.31	113.25
383.535	112.25
383.761	99.25
383.986	106.25
384.211	104.25
384.436	112.25
384.662	109.25
384.887	110.25
385.112	119.25
385.337	124.25
385.562	124.25
385.787	116.25
386.013	129.25
386.238	147.25
386.463	120.25
386.688	121.25
386.913	127.25
387.138	116.25
387.363	105.25
387.588	108.25
387.813	105.25
388.038	127.25
388.263	130.25
388.488	125.25
388.713	114.25
388.938	98.25
389.163	98.25
389.387	100.25
389.612	102.25
389.837	104.25
390.062	95.25
390.287	96.25
390.512	92.25
390.736	93.25
390.961	92.25
391.186	102.25
391.411	90.25
391.636	80.25
391.86	82.25
392.085	77.25
392.31	93.25
392.534	92.25
392.759	90.25
392.984	101.25
393.208	84.25
393.433	110.25
393.658	103.25
393.882	84.25
394.107	96.25
394.331	89.25
394.556	92.25
394.78	94.25
395.005	78.25
395.229	92.25
395.454	87.25
395.678	73.25
395.903	79.25
396.127	85.25
396.352	89.25
396.576	85.25
396.801	87.25
397.025	84.25
397.249	86.25
397.474	91.25
397.698	95.25
397.922	90.25
398.147	85.25
398.371	82.25
398.595	101.25
398.82	94.25
399.044	100.25
399.268	85.25
399.492	77.25
399.717	93.25
399.941	84.25
400.165	84.25
400.389	92.25
400.613	88.25
400.837	88.25
401.062	101.25
401.286	91.25
401.51	92.25
401.734	90.25
401.958	94.25
402.182	135.25
402.406	156.25
402.63	114.25
402.854	89.25
403.078	86.25
403.302	93.25
403.526	98.25
403.75	101.25
403.974	96.25
404.198	81.25
404.422	93.25
404.645	90.25
404.869	99.25
405.093	97.25
405.317	100.25
405.541	118.25
405.765	104.25
405.988	118.25
406.212	187.25
406.436	232.25
406.66	153.25
406.883	91.25
407.107	93.25
407.331	99.25
407.555	100.25
407.778	101.25
408.002	89.25
408.226	79.25
408.449	94.25
408.673	84.25
408.896	92.25
409.12	111.25
409.344	106.25
409.567	99.25
409.791	107.25
410.014	106.25
410.238	102.25
410.461	94.25
410.685	92.25
410.908	99.25
411.132	104.25
411.355	98.25
411.578	92.25
411.802	92.25
412.025	77.25
412.249	98.25
412.472	98.25
412.695	98.25
412.919	95.25
413.142	90.25
413.365	100.25
413.589	98.25
413.812	89.25
414.035	98.25
414.258	86.25
414.482	96.25
414.705	92.25
414.928	89.25
415.151	100.25
415.374	104.25
415.597	100.25
415.821	101.25
416.044	94.25
416.267	94.25
416.49	100.25
416.713	115.25
416.936	98.25
417.159	90.25
417.382	97.25
417.605	99.25
417.828	96.25
418.051	90.25
418.274	108.25
418.497	91.25
418.72	81.25
418.943	96.25
419.166	85.25
419.389	91.25
419.611	96.25
419.834	89.25
420.057	84.25
420.28	92.25
420.503	95.25
420.726	96.25
420.948	98.25
421.171	85.25
421.394	93.25
421.617	103.25
421.839	88.25
422.062	99.25
422.285	99.25
422.507	97.25
422.73	103.25
422.953	104.25
423.175	95.25
423.398	87.25
423.621	93.25
423.843	78.25
424.066	80.25
424.288	96.25
424.511	102.25
424.733	115.25
424.956	100.25
425.178	96.25
425.401	97.25
425.623	108.25
425.846	101.25
426.068	100.25
426.291	87.25
426.513	89.25
426.735	77.25
426.958	103.25
427.18	89.25
427.402	136.25
427.625	181.25
427.847	158.25
428.069	137.25
428.292	103.25
428.514	92.25
428.736	96.25
428.958	92.25
429.181	69.25
429.403	88.25
429.625	92.25
429.847	93.25
430.069	96.25
430.292	84.25
430.514	89.25
430.736	78.25
430.958	82.25
431.18	81.25
431.402	87.25
431.624	88.25
431.846	94.25
432.068	83.25
432.29	80.25
432.512	74.25
432.734	80.25
432.956	86.25
433.178	111.25
433.4	98.25
433.622	98.25
433.844	107.25
434.066	93.25
434.287	83.25
434.509	94.25
434.731	87.25
434.953	86.25
435.175	86.25
435.397	85.25
435.618	98.25
435.84	109.25
436.062	111.25
436.284	113.25
436.505	98.25
436.727	90.25
436.949	93.25
437.17	87.25
437.392	78.25
437.614	87.25
437.835	104.25
438.057	115.25
438.278	106.25
438.5	94.25
438.721	129.25
438.943	100.25
439.165	106.25
439.386	96.25
439.608	111.25
439.829	99.25
440.05	133.25
440.272	128.25
440.493	105.25
440.715	97.25
440.936	82.25
441.158	79.25
441.379	87.25
441.6	95.25
441.822	98.25
442.043	104.25
442.264	96.25
442.486	101.25
442.707	105.25
442.928	112.25
443.149	133.25
443.371	127.25
443.592	106.25
443.813	97.25
444.034	110.25
444.255	92.25
444.476	105.25
444.698	81.25
444.919	94.25
445.14	144.25
445.361	114.25
445.582	107.25
445.803	141.25
446.024	132.25
446.245	129.25
446.466	117.25
446.687	100.25
446.908	79.25
447.129	78.25
447.35	93.25
447.571	89.25
447.792	99.25
448.013	104.25
448.234	118.25
448.455	102.25
448.675	122.25
448.896	111.25
449.117	106.25
449.338	106.25
449.559	117.25
449.779	124.25
450	113.25
450.221	96.25
450.442	94.25
450.662	105.25
450.883	120.25
451.104	102.25
451.324	88.25
451.545	81.25
451.766	88.25
451.986	87.25
452.207	91.25
452.428	95.25
452.648	101.25
452.869	95.25
453.089	126.25
453.31	130.25
453.53	80.25
453.751	85.25
453.971	110.25
454.192	113.25
454.412	90.25
454.633	90.25
454.853	84.25
455.073	94.25
455.294	92.25
455.514	93.25
455.734	104.25
455.955	88.25
456.175	85.25
456.395	78.25
456.616	80.25
456.836	96.25
457.056	90.25
457.276	100.25
457.497	80.25
457.717	84.25
457.937	88.25
458.157	90.25
458.377	106.25
458.598	116.25
458.818	144.25
459.038	168.25
459.258	118.25
459.478	96.25
459.698	73.25
459.918	89.25
460.138	89.25
460.358	88.25
460.578	89.25
460.798	85.25
461.018	92.25
461.238	82.25
461.458	88.25
461.678	87.25
461.898	84.25
462.118	80.25
462.338	81.25
462.558	98.25
462.777	102.25
462.997	72.25
463.217	96.25
463.437	97.25
463.657	81.25
463.876	87.25
464.096	89.25
464.316	88.25
464.536	80.25
464.755	92.25
464.975	115.25
465.195	156.25
465.414	166.25
465.634	94.25
465.854	78.25
466.073	93.25
466.293	86.25
466.512	84.25
466.732	77.25
466.951	87.25
467.171	88.25
467.391	96.25
467.61	115.25
467.829	127.25
468.049	200.25
468.268	261.25
468.488	113.25
468.707	81.25
468.927	88.25
469.146	86.25
469.365	93.25
469.585	81.25
469.804	108.25
470.023	106.25
470.243	88.25
470.462	109.25
470.681	119.25
470.901	93.25
471.12	94.25
471.339	89.25
471.558	103.25
471.777	100.25
471.997	130.25
472.216	346.25
472.435	673.25
472.654	223.25
472.873	98.25
473.092	81.25
473.311	95.25
473.53	97.25
473.749	84.25
473.968	95.25
474.187	99.25
474.406	103.25
474.625	97.25
474.844	83.25
475.063	77.25
475.282	86.25
475.501	101.25
475.72	83.25
475.939	101.25
476.158	95.25
476.377	99.25
476.596	98.25
476.814	96.25
477.033	81.25
477.252	91.25
477.471	78.25
477.69	89.25
477.908	95.25
478.127	92.25
478.346	91.25
478.564	92.25
478.783	106.25
479.002	90.25
479.22	99.25
479.439	109.25
479.658	110.25
479.876	109.25
480.095	114.25
480.313	89.25
480.532	105.25
480.751	148.25
480.969	348.25
481.188	1157.25
481.406	681.25
481.624	166.25
481.843	104.25
482.061	92.25
482.28	85.25
482.498	81.25
482.717	87.25
482.935	82.25
483.153	84.25
483.372	88.25
483.59	99.25
483.808	88.25
484.027	97.25
484.245	101.25
484.463	94.25
484.681	95.25
484.9	97.25
485.118	105.25
485.336	106.25
485.554	94.25
485.772	88.25
485.99	114.25
486.209	122.25
486.427	109.25
486.645	100.25
486.863	112.25
487.081	114.25
487.299	95.25
487.517	100.25
487.735	94.25
487.953	117.25
488.171	91.25
488.389	93.25
488.607	96.25
488.825	95.25
489.043	101.25
489.261	94.25
489.479	98.25
489.696	95.25
489.914	88.25
490.132	98.25
490.35	93.25
490.568	94.25
490.786	86.25
491.003	88.25
491.221	97.25
491.439	93.25
491.657	93.25
491.874	100.25
492.092	101.25
492.31	94.25
492.527	87.25
492.745	80.25
492.963	98.25
493.18	96.25
493.398	96.25
493.615	97.25
493.833	95.25
494.05	103.25
494.268	93.25
494.485	94.25
494.703	82.25
494.92	89.25
495.138	89.25
495.355	92.25
495.573	92.25
495.79	90.25
496.008	87.25
496.225	98.25
496.442	94.25
496.66	92.25
496.877	88.25
497.094	98.25
497.312	87.25
497.529	102.25
497.746	92.25
497.963	97.25
498.181	88.25
498.398	90.25
498.615	109.25
498.832	111.25
499.049	89.25
499.267	89.25
499.484	89.25
499.701	87.25
499.918	97.25
500.135	101.25
500.352	98.25
500.569	87.25
500.786	102.25
501.003	106.25
501.22	94.25
501.437	93.25
501.654	97.25
501.871	103.25
502.088	86.25
502.305	84.25
502.522	97.25
502.739	88.25
502.956	102.25
503.172	84.25
503.389	96.25
503.606	102.25
503.823	97.25
504.04	96.25
504.256	82.25
504.473	92.25
504.69	80.25
504.907	105.25
505.123	97.25
505.34	93.25
505.557	86.25
505.773	101.25
505.99	96.25
506.207	103.25
506.423	80.25
506.64	84.25
506.856	80.25
507.073	95.25
507.289	96.25
507.506	97.25
507.722	119.25
507.939	113.25
508.155	93.25
508.372	98.25
508.588	93.25
508.805	94.25
509.021	79.25
509.238	96.25
509.454	96.25
509.67	97.25
509.887	125.25
510.103	122.25
510.319	216.25
510.536	766.25
510.752	2339.25
510.968	678.25
511.184	166.25
511.401	111.25
511.617	98.25
511.833	103.25
512.049	103.25
512.265	92.25
512.481	94.25
512.698	106.25
512.914	101.25
513.13	96.25
513.346	79.25
513.562	98.25
513.778	85.25
513.994	106.25
