Data from Circ_1990_H10_HRD10591_00027.txt Node
Date: Wed Jan 03 11:55:09 EST 2024
User: Yrep
Spectrometer: HR+D1059
Trigger mode: 1
Integration Time (sec): 1.000000E-1
Scans to average: 1
Electric dark correction enabled: true
Nonlinearity correction enabled: false
Boxcar width: 0
XAxis mode: Wavelengths
Number of Pixels in Spectrum: 2048
>>>>>Begin Spectral Data<<<<<
223.165	-28.44
223.4	-28.44
223.635	-28.44
223.869	-20.44
224.104	-27.44
224.338	-16.44
224.573	-16.44
224.808	-17.44
225.042	-1.44
225.277	8.56
225.511	-0.44
225.746	-0.44
225.98	-0.44
226.215	29.56
226.449	15.56
226.683	33.56
226.918	22.56
227.152	19.56
227.387	29.56
227.621	33.56
227.856	47.56
228.09	48.56
228.324	47.56
228.559	55.56
228.793	47.56
229.027	62.56
229.262	72.56
229.496	48.56
229.73	68.56
229.964	86.56
230.199	67.56
230.433	77.56
230.667	73.56
230.901	63.56
231.136	66.56
231.37	59.56
231.604	84.56
231.838	67.56
232.072	93.56
232.306	71.56
232.541	90.56
232.775	92.56
233.009	85.56
233.243	82.56
233.477	86.56
233.711	79.56
233.945	79.56
234.179	87.56
234.413	83.56
234.647	86.56
234.881	80.56
235.115	72.56
235.349	71.56
235.583	71.56
235.817	63.56
236.051	77.56
236.285	71.56
236.519	71.56
236.753	64.56
236.987	88.56
237.221	76.56
237.455	75.56
237.689	70.56
237.922	76.56
238.156	65.56
238.39	71.56
238.624	75.56
238.858	74.56
239.091	68.56
239.325	83.56
239.559	73.56
239.793	83.56
240.027	59.56
240.26	62.56
240.494	61.56
240.728	77.56
240.961	56.56
241.195	66.56
241.429	65.56
241.662	67.56
241.896	60.56
242.13	68.56
242.363	77.56
242.597	76.56
242.83	86.56
243.064	67.56
243.298	72.56
243.531	73.56
243.765	70.56
243.998	66.56
244.232	67.56
244.465	93.56
244.699	75.56
244.932	81.56
245.166	77.56
245.399	84.56
245.633	62.56
245.866	81.56
246.099	50.56
246.333	85.56
246.566	64.56
246.8	76.56
247.033	75.56
247.266	86.56
247.5	60.56
247.733	92.56
247.966	80.56
248.2	69.56
248.433	73.56
248.666	84.56
248.899	63.56
249.133	79.56
249.366	88.56
249.599	95.56
249.832	72.56
250.066	83.56
250.299	71.56
250.532	87.56
250.765	79.56
250.998	73.56
251.231	83.56
251.465	85.56
251.698	76.56
251.931	69.56
252.164	82.56
252.397	79.56
252.63	72.56
252.863	78.56
253.096	77.56
253.329	74.56
253.562	73.56
253.795	88.56
254.028	79.56
254.261	79.56
254.494	82.56
254.727	75.56
254.96	81.56
255.193	87.56
255.426	67.56
255.659	76.56
255.892	62.56
256.124	79.56
256.357	74.56
256.59	87.56
256.823	73.56
257.056	74.56
257.289	79.56
257.521	61.56
257.754	69.56
257.987	61.56
258.22	59.56
258.452	83.56
258.685	73.56
258.918	73.56
259.151	83.56
259.383	90.56
259.616	71.56
259.849	77.56
260.081	76.56
260.314	77.56
260.547	63.56
260.779	79.56
261.012	83.56
261.244	77.56
261.477	85.56
261.71	88.56
261.942	96.56
262.175	109.56
262.407	88.56
262.64	61.56
262.872	80.56
263.105	71.56
263.337	83.56
263.57	75.56
263.802	74.56
264.035	80.56
264.267	89.56
264.499	97.56
264.732	69.56
264.964	76.56
265.197	78.56
265.429	83.56
265.661	83.56
265.894	84.56
266.126	92.56
266.358	77.56
266.591	74.56
266.823	74.56
267.055	81.56
267.287	75.56
267.52	75.56
267.752	84.56
267.984	73.56
268.216	82.56
268.448	90.56
268.681	73.56
268.913	98.56
269.145	88.56
269.377	75.56
269.609	77.56
269.841	83.56
270.073	76.56
270.306	83.56
270.538	75.56
270.77	80.56
271.002	84.56
271.234	87.56
271.466	75.56
271.698	83.56
271.93	80.56
272.162	92.56
272.394	90.56
272.626	81.56
272.858	73.56
273.09	90.56
273.322	90.56
273.553	79.56
273.785	88.56
274.017	79.56
274.249	63.56
274.481	83.56
274.713	85.56
274.945	81.56
275.176	87.56
275.408	89.56
275.64	87.56
275.872	77.56
276.104	93.56
276.335	82.56
276.567	86.56
276.799	110.56
277.031	100.56
277.262	83.56
277.494	100.56
277.726	98.56
277.957	75.56
278.189	81.56
278.421	72.56
278.652	77.56
278.884	72.56
279.115	72.56
279.347	88.56
279.579	84.56
279.81	92.56
280.042	110.56
280.273	108.56
280.505	95.56
280.736	94.56
280.968	81.56
281.199	74.56
281.431	86.56
281.662	89.56
281.894	88.56
282.125	92.56
282.356	117.56
282.588	134.56
282.819	83.56
283.051	72.56
283.282	83.56
283.513	83.56
283.745	84.56
283.976	65.56
284.207	91.56
284.439	90.56
284.67	83.56
284.901	71.56
285.132	92.56
285.364	77.56
285.595	85.56
285.826	78.56
286.057	92.56
286.288	89.56
286.52	73.56
286.751	84.56
286.982	87.56
287.213	87.56
287.444	87.56
287.675	92.56
287.906	90.56
288.138	83.56
288.369	87.56
288.6	81.56
288.831	90.56
289.062	89.56
289.293	89.56
289.524	84.56
289.755	84.56
289.986	91.56
290.217	85.56
290.448	72.56
290.679	82.56
290.91	77.56
291.141	82.56
291.371	82.56
291.602	82.56
291.833	83.56
292.064	89.56
292.295	88.56
292.526	64.56
292.757	77.56
292.987	72.56
293.218	74.56
293.449	87.56
293.68	85.56
293.91	88.56
294.141	76.56
294.372	87.56
294.603	91.56
294.833	92.56
295.064	74.56
295.295	84.56
295.525	81.56
295.756	85.56
295.987	117.56
296.217	138.56
296.448	106.56
296.679	79.56
296.909	95.56
297.14	89.56
297.37	93.56
297.601	84.56
297.831	89.56
298.062	85.56
298.292	67.56
298.523	84.56
298.753	76.56
298.984	98.56
299.214	93.56
299.445	74.56
299.675	92.56
299.905	92.56
300.136	88.56
300.366	87.56
300.597	83.56
300.827	83.56
301.057	76.56
301.288	97.56
301.518	100.56
301.748	89.56
301.979	107.56
302.209	81.56
302.439	91.56
302.669	81.56
302.9	90.56
303.13	89.56
303.36	100.56
303.59	107.56
303.82	98.56
304.051	96.56
304.281	88.56
304.511	84.56
304.741	90.56
304.971	97.56
305.201	75.56
305.431	84.56
305.661	92.56
305.891	92.56
306.121	89.56
306.352	91.56
306.582	83.56
306.812	81.56
307.042	82.56
307.272	89.56
307.502	108.56
307.731	86.56
307.961	94.56
308.191	90.56
308.421	85.56
308.651	100.56
308.881	78.56
309.111	96.56
309.341	89.56
309.571	107.56
309.8	90.56
310.03	92.56
310.26	82.56
310.49	91.56
310.72	66.56
310.949	89.56
311.179	87.56
311.409	99.56
311.639	92.56
311.868	87.56
312.098	92.56
312.328	88.56
312.557	99.56
312.787	78.56
313.017	88.56
313.246	88.56
313.476	87.56
313.706	94.56
313.935	92.56
314.165	103.56
314.394	93.56
314.624	109.56
314.853	100.56
315.083	93.56
315.312	83.56
315.542	103.56
315.771	93.56
316.001	95.56
316.23	88.56
316.46	90.56
316.689	86.56
316.919	81.56
317.148	92.56
317.377	88.56
317.607	87.56
317.836	91.56
318.065	86.56
318.295	88.56
318.524	80.56
318.753	97.56
318.983	108.56
319.212	97.56
319.441	93.56
319.67	90.56
319.9	92.56
320.129	104.56
320.358	84.56
320.587	85.56
320.816	92.56
321.046	90.56
321.275	89.56
321.504	91.56
321.733	84.56
321.962	93.56
322.191	97.56
322.42	98.56
322.649	81.56
322.878	108.56
323.108	95.56
323.337	124.56
323.566	133.56
323.795	138.56
324.024	187.56
324.253	348.56
324.482	691.56
324.71	1451.56
324.939	1908.56
325.168	693.56
325.397	216.56
325.626	137.56
325.855	123.56
326.084	106.56
326.313	130.56
326.542	129.56
326.77	188.56
326.999	397.56
327.228	819.56
327.457	1460.56
327.686	1209.56
327.914	351.56
328.143	216.56
328.372	210.56
328.6	140.56
328.829	106.56
329.058	117.56
329.287	109.56
329.515	114.56
329.744	128.56
329.972	160.56
330.201	243.56
330.43	321.56
330.658	192.56
330.887	143.56
331.115	122.56
331.344	101.56
331.572	107.56
331.801	99.56
332.03	95.56
332.258	77.56
332.486	93.56
332.715	85.56
332.943	100.56
333.172	111.56
333.4	87.56
333.629	91.56
333.857	105.56
334.085	155.56
334.314	251.56
334.542	380.56
334.771	377.56
334.999	156.56
335.227	102.56
335.455	96.56
335.684	102.56
335.912	82.56
336.14	104.56
336.369	98.56
336.597	106.56
336.825	101.56
337.053	77.56
337.281	94.56
337.51	103.56
337.738	82.56
337.966	93.56
338.194	87.56
338.422	81.56
338.65	88.56
338.878	92.56
339.106	91.56
339.334	92.56
339.562	79.56
339.79	80.56
340.018	85.56
340.246	79.56
340.474	82.56
340.702	99.56
340.93	99.56
341.158	85.56
341.386	102.56
341.614	91.56
341.842	90.56
342.07	100.56
342.298	105.56
342.526	86.56
342.754	86.56
342.981	72.56
343.209	89.56
343.437	85.56
343.665	91.56
343.893	93.56
344.12	93.56
344.348	86.56
344.576	91.56
344.804	97.56
345.031	73.56
345.259	99.56
345.487	73.56
345.714	91.56
345.942	95.56
346.17	105.56
346.397	83.56
346.625	96.56
346.853	65.56
347.08	82.56
347.308	93.56
347.535	84.56
347.763	99.56
347.99	98.56
348.218	97.56
348.445	99.56
348.673	92.56
348.9	82.56
349.128	96.56
349.355	93.56
349.583	85.56
349.81	84.56
350.037	99.56
350.265	95.56
350.492	92.56
350.72	87.56
350.947	89.56
351.174	101.56
351.402	111.56
351.629	103.56
351.856	93.56
352.083	93.56
352.311	112.56
352.538	94.56
352.765	104.56
352.992	96.56
353.22	99.56
353.447	109.56
353.674	87.56
353.901	103.56
354.128	89.56
354.355	88.56
354.583	101.56
354.81	98.56
355.037	108.56
355.264	103.56
355.491	88.56
355.718	89.56
355.945	101.56
356.172	93.56
356.399	93.56
356.626	94.56
356.853	92.56
357.08	94.56
357.307	88.56
357.534	83.56
357.761	85.56
357.988	84.56
358.215	105.56
358.441	94.56
358.668	94.56
358.895	98.56
359.122	93.56
359.349	92.56
359.576	91.56
359.802	88.56
360.029	100.56
360.256	107.56
360.483	99.56
360.709	72.56
360.936	83.56
361.163	91.56
361.39	98.56
361.616	95.56
361.843	86.56
362.07	91.56
362.296	96.56
362.523	94.56
362.749	84.56
362.976	88.56
363.203	88.56
363.429	94.56
363.656	88.56
363.882	93.56
364.109	92.56
364.335	89.56
364.562	102.56
364.788	87.56
365.015	90.56
365.241	92.56
365.468	96.56
365.694	88.56
365.92	96.56
366.147	81.56
366.373	99.56
366.599	86.56
366.826	83.56
367.052	81.56
367.278	89.56
367.505	81.56
367.731	88.56
367.957	100.56
368.184	88.56
368.41	100.56
368.636	107.56
368.862	99.56
369.089	101.56
369.315	99.56
369.541	87.56
369.767	94.56
369.993	87.56
370.219	79.56
370.445	74.56
370.672	69.56
370.898	91.56
371.124	88.56
371.35	100.56
371.576	76.56
371.802	76.56
372.028	85.56
372.254	79.56
372.48	91.56
372.706	85.56
372.932	87.56
373.158	89.56
373.384	96.56
373.61	105.56
373.835	93.56
374.061	68.56
374.287	89.56
374.513	83.56
374.739	95.56
374.965	95.56
375.191	82.56
375.416	83.56
375.642	85.56
375.868	78.56
376.094	83.56
376.319	93.56
376.545	105.56
376.771	78.56
376.997	89.56
377.222	73.56
377.448	91.56
377.674	82.56
377.899	89.56
378.125	103.56
378.35	89.56
378.576	77.56
378.802	95.56
379.027	88.56
379.253	101.56
379.478	103.56
379.704	102.56
379.929	97.56
380.155	90.56
380.38	97.56
380.606	89.56
380.831	104.56
381.057	100.56
381.282	111.56
381.507	111.56
381.733	94.56
381.958	121.56
382.184	106.56
382.409	95.56
382.634	117.56
382.86	120.56
383.085	111.56
383.31	120.56
383.535	104.56
383.761	108.56
383.986	93.56
384.211	111.56
384.436	113.56
384.662	117.56
384.887	94.56
385.112	135.56
385.337	136.56
385.562	111.56
385.787	117.56
386.013	109.56
386.238	130.56
386.463	130.56
386.688	121.56
386.913	119.56
387.138	126.56
387.363	114.56
387.588	112.56
387.813	127.56
388.038	126.56
388.263	143.56
388.488	148.56
388.713	99.56
388.938	91.56
389.163	91.56
389.387	106.56
389.612	76.56
389.837	100.56
390.062	82.56
390.287	90.56
390.512	80.56
390.736	89.56
390.961	96.56
391.186	82.56
391.411	109.56
391.636	98.56
391.86	82.56
392.085	86.56
392.31	74.56
392.534	88.56
392.759	87.56
392.984	102.56
393.208	75.56
393.433	77.56
393.658	87.56
393.882	97.56
394.107	91.56
394.331	76.56
394.556	82.56
394.78	80.56
395.005	73.56
395.229	83.56
395.454	89.56
395.678	84.56
395.903	68.56
396.127	77.56
396.352	90.56
396.576	73.56
396.801	88.56
397.025	81.56
397.249	89.56
397.474	90.56
397.698	87.56
397.922	88.56
398.147	83.56
398.371	84.56
398.595	86.56
398.82	82.56
399.044	90.56
399.268	92.56
399.492	95.56
399.717	89.56
399.941	93.56
400.165	87.56
400.389	77.56
400.613	95.56
400.837	82.56
401.062	85.56
401.286	73.56
401.51	81.56
401.734	88.56
401.958	90.56
402.182	114.56
402.406	151.56
402.63	120.56
402.854	87.56
403.078	68.56
403.302	93.56
403.526	87.56
403.75	95.56
403.974	91.56
404.198	78.56
404.422	82.56
404.645	77.56
404.869	95.56
405.093	81.56
405.317	113.56
405.541	84.56
405.765	85.56
405.988	106.56
406.212	141.56
406.436	194.56
406.66	126.56
406.883	100.56
407.107	91.56
407.331	78.56
407.555	112.56
407.778	104.56
408.002	87.56
408.226	91.56
408.449	92.56
408.673	89.56
408.896	96.56
409.12	87.56
409.344	96.56
409.567	82.56
409.791	83.56
410.014	88.56
410.238	94.56
410.461	93.56
410.685	89.56
410.908	103.56
411.132	101.56
411.355	84.56
411.578	107.56
411.802	96.56
412.025	85.56
412.249	96.56
412.472	81.56
412.695	105.56
412.919	102.56
413.142	91.56
413.365	73.56
413.589	89.56
413.812	88.56
414.035	90.56
414.258	84.56
414.482	98.56
414.705	79.56
414.928	81.56
415.151	95.56
415.374	79.56
415.597	99.56
415.821	81.56
416.044	94.56
416.267	100.56
416.49	92.56
416.713	88.56
416.936	95.56
417.159	92.56
417.382	95.56
417.605	104.56
417.828	87.56
418.051	91.56
418.274	84.56
418.497	93.56
418.72	95.56
418.943	87.56
419.166	85.56
419.389	84.56
419.611	83.56
419.834	102.56
420.057	95.56
420.28	99.56
420.503	97.56
420.726	98.56
420.948	74.56
421.171	96.56
421.394	103.56
421.617	83.56
421.839	82.56
422.062	72.56
422.285	96.56
422.507	104.56
422.73	101.56
422.953	82.56
423.175	88.56
423.398	77.56
423.621	83.56
423.843	89.56
424.066	80.56
424.288	74.56
424.511	87.56
424.733	86.56
424.956	96.56
425.178	78.56
425.401	97.56
425.623	88.56
425.846	85.56
426.068	96.56
426.291	82.56
426.513	93.56
426.735	92.56
426.958	86.56
427.18	109.56
427.402	124.56
427.625	158.56
427.847	137.56
428.069	143.56
428.292	105.56
428.514	93.56
428.736	76.56
428.958	82.56
429.181	92.56
429.403	80.56
429.625	69.56
429.847	107.56
430.069	90.56
430.292	83.56
430.514	80.56
430.736	95.56
430.958	90.56
431.18	75.56
431.402	79.56
431.624	82.56
431.846	73.56
432.068	85.56
432.29	72.56
432.512	88.56
432.734	85.56
432.956	94.56
433.178	109.56
433.4	104.56
433.622	80.56
433.844	90.56
434.066	95.56
434.287	90.56
434.509	100.56
434.731	92.56
434.953	89.56
435.175	79.56
435.397	80.56
435.618	85.56
435.84	91.56
436.062	96.56
436.284	100.56
436.505	103.56
436.727	99.56
436.949	76.56
437.17	89.56
437.392	96.56
437.614	93.56
437.835	107.56
438.057	110.56
438.278	96.56
438.5	85.56
438.721	108.56
438.943	100.56
439.165	77.56
439.386	90.56
439.608	78.56
439.829	98.56
440.05	117.56
440.272	130.56
440.493	82.56
440.715	78.56
440.936	80.56
441.158	81.56
441.379	87.56
441.6	97.56
441.822	91.56
442.043	81.56
442.264	96.56
442.486	112.56
442.707	88.56
442.928	97.56
443.149	123.56
443.371	130.56
443.592	110.56
443.813	111.56
444.034	95.56
444.255	83.56
444.476	96.56
444.698	95.56
444.919	92.56
445.14	126.56
445.361	125.56
445.582	120.56
445.803	126.56
446.024	127.56
446.245	122.56
446.466	116.56
446.687	95.56
446.908	79.56
447.129	89.56
447.35	84.56
447.571	81.56
447.792	98.56
448.013	79.56
448.234	95.56
448.455	108.56
448.675	103.56
448.896	107.56
449.117	98.56
449.338	79.56
449.559	118.56
449.779	136.56
450	95.56
450.221	79.56
450.442	93.56
450.662	87.56
450.883	85.56
451.104	106.56
451.324	100.56
451.545	94.56
451.766	81.56
451.986	83.56
452.207	78.56
452.428	88.56
452.648	86.56
452.869	91.56
453.089	99.56
453.31	91.56
453.53	77.56
453.751	78.56
453.971	95.56
454.192	102.56
454.412	84.56
454.633	80.56
454.853	80.56
455.073	86.56
455.294	76.56
455.514	90.56
455.734	82.56
455.955	79.56
456.175	96.56
456.395	89.56
456.616	84.56
456.836	71.56
457.056	79.56
457.276	82.56
457.497	93.56
457.717	79.56
457.937	78.56
458.157	88.56
458.377	81.56
458.598	95.56
458.818	130.56
459.038	140.56
459.258	114.56
459.478	82.56
459.698	85.56
459.918	68.56
460.138	84.56
460.358	72.56
460.578	83.56
460.798	92.56
461.018	80.56
461.238	75.56
461.458	71.56
461.678	92.56
461.898	84.56
462.118	93.56
462.338	83.56
462.558	77.56
462.777	61.56
462.997	84.56
463.217	93.56
463.437	89.56
463.657	79.56
463.876	91.56
464.096	92.56
464.316	65.56
464.536	84.56
464.755	85.56
464.975	102.56
465.195	127.56
465.414	139.56
465.634	103.56
465.854	85.56
466.073	90.56
466.293	87.56
466.512	84.56
466.732	93.56
466.951	96.56
467.171	88.56
467.391	92.56
467.61	98.56
467.829	106.56
468.049	172.56
468.268	212.56
468.488	105.56
468.707	89.56
468.927	77.56
469.146	82.56
469.365	89.56
469.585	73.56
469.804	103.56
470.023	83.56
470.243	99.56
470.462	84.56
470.681	115.56
470.901	83.56
471.12	73.56
471.339	96.56
471.558	98.56
471.777	83.56
471.997	120.56
472.216	264.56
472.435	530.56
472.654	165.56
472.873	94.56
473.092	84.56
473.311	91.56
473.53	91.56
473.749	88.56
473.968	95.56
474.187	101.56
474.406	76.56
474.625	87.56
474.844	73.56
475.063	68.56
475.282	79.56
475.501	86.56
475.72	81.56
475.939	91.56
476.158	72.56
476.377	83.56
476.596	82.56
476.814	74.56
477.033	86.56
477.252	71.56
477.471	71.56
477.69	86.56
477.908	79.56
478.127	94.56
478.346	85.56
478.564	96.56
478.783	88.56
479.002	104.56
479.22	85.56
479.439	104.56
479.658	105.56
479.876	91.56
480.095	87.56
480.313	92.56
480.532	95.56
480.751	129.56
480.969	268.56
481.188	872.56
481.406	549.56
481.624	151.56
481.843	94.56
482.061	92.56
482.28	97.56
482.498	88.56
482.717	70.56
482.935	94.56
483.153	92.56
483.372	83.56
483.59	75.56
483.808	76.56
484.027	90.56
484.245	86.56
484.463	81.56
484.681	91.56
484.9	94.56
485.118	89.56
485.336	91.56
485.554	80.56
485.772	105.56
485.99	101.56
486.209	105.56
486.427	106.56
486.645	109.56
486.863	112.56
487.081	101.56
487.299	87.56
487.517	80.56
487.735	77.56
487.953	88.56
488.171	96.56
488.389	74.56
488.607	86.56
488.825	88.56
489.043	86.56
489.261	84.56
489.479	86.56
489.696	89.56
489.914	85.56
490.132	88.56
490.35	87.56
490.568	93.56
490.786	88.56
491.003	96.56
491.221	88.56
491.439	93.56
491.657	74.56
491.874	98.56
492.092	78.56
492.31	79.56
492.527	99.56
492.745	98.56
492.963	93.56
493.18	85.56
493.398	80.56
493.615	84.56
493.833	81.56
494.05	78.56
494.268	65.56
494.485	85.56
494.703	77.56
494.92	74.56
495.138	92.56
495.355	84.56
495.573	84.56
495.79	91.56
496.008	93.56
496.225	95.56
496.442	95.56
496.66	88.56
496.877	90.56
497.094	93.56
497.312	84.56
497.529	69.56
497.746	78.56
497.963	86.56
498.181	75.56
498.398	106.56
498.615	98.56
498.832	95.56
499.049	89.56
499.267	96.56
499.484	82.56
499.701	84.56
499.918	93.56
500.135	89.56
500.352	83.56
500.569	89.56
500.786	92.56
501.003	74.56
501.22	79.56
501.437	83.56
501.654	100.56
501.871	105.56
502.088	95.56
502.305	88.56
502.522	78.56
502.739	83.56
502.956	83.56
503.172	86.56
503.389	93.56
503.606	98.56
503.823	88.56
504.04	96.56
504.256	77.56
504.473	60.56
504.69	84.56
504.907	83.56
505.123	85.56
505.34	83.56
505.557	82.56
505.773	91.56
505.99	89.56
506.207	79.56
506.423	89.56
506.64	87.56
506.856	73.56
507.073	86.56
507.289	96.56
507.506	98.56
507.722	98.56
507.939	106.56
508.155	88.56
508.372	95.56
508.588	87.56
508.805	82.56
509.021	93.56
509.238	91.56
509.454	97.56
509.67	104.56
509.887	99.56
510.103	117.56
510.319	182.56
510.536	629.56
510.752	1980.56
510.968	567.56
511.184	143.56
511.401	102.56
511.617	74.56
511.833	100.56
512.049	83.56
512.265	96.56
512.481	88.56
512.698	83.56
512.914	79.56
513.13	92.56
513.346	100.56
513.562	109.56
513.778	98.56
513.994	83.56
514.21	100.56
514.426	108.56
514.642	106.56
514.858	106.56
515.074	145.56
515.29	385.56
515.506	1211.56
515.721	453.56
515.937	124.56
516.153	90.56
516.369	90.56
