Data from Circ_1990_H10_HRD10591_00056.txt Node
Date: Wed Jan 03 11:55:15 EST 2024
User: Yrep
Spectrometer: HR+D1059
Trigger mode: 1
Integration Time (sec): 1.000000E-1
Scans to average: 1
Electric dark correction enabled: true
Nonlinearity correction enabled: false
Boxcar width: 0
XAxis mode: Wavelengths
Number of Pixels in Spectrum: 2048
>>>>>Begin Spectral Data<<<<<
223.165	-10.69
223.4	-10.69
223.635	-10.69
223.869	-20.69
224.104	-17.69
224.338	-13.69
224.573	-14.69
224.808	-18.69
225.042	-6.69
225.277	-3.69
225.511	-4.69
225.746	-0.69
225.98	3.31
226.215	15.31
226.449	13.31
226.683	18.31
226.918	19.31
227.152	42.31
227.387	43.31
227.621	44.31
227.856	43.31
228.09	43.31
228.324	45.31
228.559	56.31
228.793	39.31
229.027	67.31
229.262	69.31
229.496	62.31
229.73	91.31
229.964	102.31
230.199	77.31
230.433	78.31
230.667	81.31
230.901	84.31
231.136	81.31
231.37	76.31
231.604	83.31
231.838	78.31
232.072	87.31
232.306	71.31
232.541	84.31
232.775	87.31
233.009	89.31
233.243	88.31
233.477	71.31
233.711	82.31
233.945	87.31
234.179	88.31
234.413	95.31
234.647	75.31
234.881	81.31
235.115	74.31
235.349	77.31
235.583	93.31
235.817	74.31
236.051	64.31
236.285	79.31
236.519	55.31
236.753	75.31
236.987	94.31
237.221	84.31
237.455	88.31
237.689	69.31
237.922	75.31
238.156	73.31
238.39	87.31
238.624	72.31
238.858	69.31
239.091	67.31
239.325	87.31
239.559	87.31
239.793	79.31
240.027	101.31
240.26	86.31
240.494	66.31
240.728	68.31
240.961	67.31
241.195	62.31
241.429	85.31
241.662	76.31
241.896	86.31
242.13	71.31
242.363	81.31
242.597	75.31
242.83	69.31
243.064	82.31
243.298	69.31
243.531	72.31
243.765	73.31
243.998	71.31
244.232	85.31
244.465	88.31
244.699	85.31
244.932	81.31
245.166	81.31
245.399	99.31
245.633	77.31
245.866	64.31
246.099	72.31
246.333	70.31
246.566	73.31
246.8	71.31
247.033	81.31
247.266	88.31
247.5	76.31
247.733	90.31
247.966	77.31
248.2	75.31
248.433	80.31
248.666	75.31
248.899	78.31
249.133	83.31
249.366	97.31
249.599	117.31
249.832	77.31
250.066	91.31
250.299	79.31
250.532	87.31
250.765	84.31
250.998	79.31
251.231	92.31
251.465	95.31
251.698	88.31
251.931	81.31
252.164	84.31
252.397	73.31
252.63	75.31
252.863	64.31
253.096	75.31
253.329	87.31
253.562	80.31
253.795	97.31
254.028	88.31
254.261	80.31
254.494	79.31
254.727	86.31
254.96	87.31
255.193	86.31
255.426	89.31
255.659	80.31
255.892	96.31
256.124	79.31
256.357	87.31
256.59	88.31
256.823	73.31
257.056	95.31
257.289	95.31
257.521	96.31
257.754	85.31
257.987	76.31
258.22	85.31
258.452	88.31
258.685	87.31
258.918	74.31
259.151	90.31
259.383	79.31
259.616	85.31
259.849	92.31
260.081	86.31
260.314	85.31
260.547	89.31
260.779	77.31
261.012	84.31
261.244	94.31
261.477	92.31
261.71	97.31
261.942	129.31
262.175	132.31
262.407	96.31
262.64	95.31
262.872	79.31
263.105	79.31
263.337	83.31
263.57	68.31
263.802	83.31
264.035	86.31
264.267	93.31
264.499	73.31
264.732	79.31
264.964	76.31
265.197	78.31
265.429	92.31
265.661	83.31
265.894	99.31
266.126	76.31
266.358	76.31
266.591	86.31
266.823	80.31
267.055	72.31
267.287	86.31
267.52	75.31
267.752	81.31
267.984	76.31
268.216	94.31
268.448	81.31
268.681	78.31
268.913	94.31
269.145	105.31
269.377	94.31
269.609	85.31
269.841	89.31
270.073	88.31
270.306	94.31
270.538	86.31
270.77	82.31
271.002	82.31
271.234	88.31
271.466	90.31
271.698	82.31
271.93	89.31
272.162	94.31
272.394	88.31
272.626	103.31
272.858	86.31
273.09	86.31
273.322	80.31
273.553	87.31
273.785	84.31
274.017	78.31
274.249	87.31
274.481	97.31
274.713	95.31
274.945	84.31
275.176	81.31
275.408	97.31
275.64	101.31
275.872	107.31
276.104	107.31
276.335	95.31
276.567	103.31
276.799	141.31
277.031	140.31
277.262	145.31
277.494	120.31
277.726	94.31
277.957	87.31
278.189	99.31
278.421	82.31
278.652	93.31
278.884	85.31
279.115	85.31
279.347	93.31
279.579	94.31
279.81	107.31
280.042	130.31
280.273	165.31
280.505	113.31
280.736	77.31
280.968	85.31
281.199	90.31
281.431	86.31
281.662	83.31
281.894	86.31
282.125	109.31
282.356	136.31
282.588	154.31
282.819	120.31
283.051	96.31
283.282	84.31
283.513	92.31
283.745	87.31
283.976	85.31
284.207	84.31
284.439	95.31
284.67	89.31
284.901	95.31
285.132	81.31
285.364	88.31
285.595	92.31
285.826	87.31
286.057	89.31
286.288	88.31
286.52	83.31
286.751	91.31
286.982	102.31
287.213	105.31
287.444	107.31
287.675	87.31
287.906	92.31
288.138	97.31
288.369	95.31
288.6	91.31
288.831	99.31
289.062	88.31
289.293	85.31
289.524	81.31
289.755	81.31
289.986	106.31
290.217	87.31
290.448	87.31
290.679	81.31
290.91	91.31
291.141	92.31
291.371	89.31
291.602	82.31
291.833	94.31
292.064	93.31
292.295	86.31
292.526	85.31
292.757	101.31
292.987	92.31
293.218	98.31
293.449	91.31
293.68	94.31
293.91	85.31
294.141	95.31
294.372	92.31
294.603	81.31
294.833	72.31
295.064	71.31
295.295	89.31
295.525	92.31
295.756	95.31
295.987	123.31
296.217	156.31
296.448	127.31
296.679	97.31
296.909	100.31
297.14	82.31
297.37	91.31
297.601	87.31
297.831	84.31
298.062	87.31
298.292	79.31
298.523	88.31
298.753	94.31
298.984	92.31
299.214	77.31
299.445	83.31
299.675	86.31
299.905	93.31
300.136	95.31
300.366	91.31
300.597	92.31
300.827	83.31
301.057	101.31
301.288	113.31
301.518	100.31
301.748	86.31
301.979	106.31
302.209	113.31
302.439	90.31
302.669	89.31
302.9	81.31
303.13	89.31
303.36	99.31
303.59	115.31
303.82	119.31
304.051	93.31
304.281	84.31
304.511	89.31
304.741	110.31
304.971	93.31
305.201	102.31
305.431	98.31
305.661	87.31
305.891	95.31
306.121	100.31
306.352	111.31
306.582	115.31
306.812	93.31
307.042	102.31
307.272	132.31
307.502	130.31
307.731	124.31
307.961	100.31
308.191	91.31
308.421	91.31
308.651	94.31
308.881	102.31
309.111	97.31
309.341	100.31
309.571	103.31
309.8	109.31
310.03	123.31
310.26	93.31
310.49	107.31
310.72	97.31
310.949	120.31
311.179	101.31
311.409	76.31
311.639	93.31
311.868	105.31
312.098	105.31
312.328	106.31
312.557	107.31
312.787	99.31
313.017	118.31
313.246	91.31
313.476	104.31
313.706	100.31
313.935	104.31
314.165	94.31
314.394	95.31
314.624	111.31
314.853	96.31
315.083	93.31
315.312	95.31
315.542	94.31
315.771	100.31
316.001	89.31
316.23	109.31
316.46	91.31
316.689	89.31
316.919	105.31
317.148	99.31
317.377	107.31
317.607	94.31
317.836	105.31
318.065	100.31
318.295	83.31
318.524	85.31
318.753	96.31
318.983	101.31
319.212	99.31
319.441	116.31
319.67	112.31
319.9	84.31
320.129	104.31
320.358	99.31
320.587	94.31
320.816	116.31
321.046	109.31
321.275	111.31
321.504	95.31
321.733	109.31
321.962	121.31
322.191	99.31
322.42	100.31
322.649	117.31
322.878	132.31
323.108	131.31
323.337	149.31
323.566	154.31
323.795	167.31
324.024	238.31
324.253	424.31
324.482	946.31
324.71	2006.31
324.939	2655.31
325.168	997.31
325.397	273.31
325.626	163.31
325.855	137.31
326.084	141.31
326.313	154.31
326.542	179.31
326.77	264.31
326.999	505.31
327.228	1078.31
327.457	2018.31
327.686	1613.31
327.914	493.31
328.143	373.31
328.372	405.31
328.6	262.31
328.829	157.31
329.058	167.31
329.287	150.31
329.515	137.31
329.744	173.31
329.972	287.31
330.201	520.31
330.43	725.31
330.658	389.31
330.887	235.31
331.115	161.31
331.344	111.31
331.572	118.31
331.801	123.31
332.03	119.31
332.258	119.31
332.486	101.31
332.715	101.31
332.943	114.31
333.172	101.31
333.4	127.31
333.629	134.31
333.857	174.31
334.085	267.31
334.314	483.31
334.542	964.31
334.771	882.31
334.999	263.31
335.227	145.31
335.455	114.31
335.684	115.31
335.912	108.31
336.14	119.31
336.369	102.31
336.597	118.31
336.825	112.31
337.053	87.31
337.281	88.31
337.51	87.31
337.738	93.31
337.966	90.31
338.194	105.31
338.422	105.31
338.65	96.31
338.878	110.31
339.106	103.31
339.334	117.31
339.562	82.31
339.79	85.31
340.018	94.31
340.246	99.31
340.474	99.31
340.702	94.31
340.93	91.31
341.158	99.31
341.386	95.31
341.614	89.31
341.842	87.31
342.07	101.31
342.298	106.31
342.526	102.31
342.754	85.31
342.981	80.31
343.209	96.31
343.437	104.31
343.665	100.31
343.893	86.31
344.12	101.31
344.348	86.31
344.576	99.31
344.804	91.31
345.031	92.31
345.259	109.31
345.487	105.31
345.714	90.31
345.942	87.31
346.17	113.31
346.397	96.31
346.625	94.31
346.853	100.31
347.08	78.31
347.308	91.31
347.535	98.31
347.763	98.31
347.99	115.31
348.218	102.31
348.445	110.31
348.673	111.31
348.9	93.31
349.128	104.31
349.355	104.31
349.583	92.31
349.81	102.31
350.037	103.31
350.265	82.31
350.492	88.31
350.72	86.31
350.947	97.31
351.174	109.31
351.402	116.31
351.629	120.31
351.856	101.31
352.083	94.31
352.311	114.31
352.538	139.31
352.765	116.31
352.992	125.31
353.22	130.31
353.447	104.31
353.674	118.31
353.901	98.31
354.128	95.31
354.355	109.31
354.583	111.31
354.81	104.31
355.037	96.31
355.264	96.31
355.491	108.31
355.718	103.31
355.945	95.31
356.172	106.31
356.399	100.31
356.626	109.31
356.853	94.31
357.08	95.31
357.307	81.31
357.534	83.31
357.761	93.31
357.988	107.31
358.215	92.31
358.441	80.31
358.668	92.31
358.895	97.31
359.122	94.31
359.349	106.31
359.576	87.31
359.802	107.31
360.029	132.31
360.256	132.31
360.483	119.31
360.709	94.31
360.936	88.31
361.163	91.31
361.39	117.31
361.616	101.31
361.843	102.31
362.07	92.31
362.296	104.31
362.523	104.31
362.749	103.31
362.976	108.31
363.203	92.31
363.429	87.31
363.656	89.31
363.882	89.31
364.109	87.31
364.335	98.31
364.562	100.31
364.788	97.31
365.015	95.31
365.241	79.31
365.468	108.31
365.694	99.31
365.92	103.31
366.147	98.31
366.373	108.31
366.599	81.31
366.826	92.31
367.052	101.31
367.278	79.31
367.505	95.31
367.731	89.31
367.957	110.31
368.184	92.31
368.41	115.31
368.636	122.31
368.862	147.31
369.089	103.31
369.315	99.31
369.541	102.31
369.767	87.31
369.993	102.31
370.219	96.31
370.445	75.31
370.672	86.31
370.898	100.31
371.124	91.31
371.35	74.31
371.576	88.31
371.802	82.31
372.028	83.31
372.254	77.31
372.48	93.31
372.706	86.31
372.932	98.31
373.158	83.31
373.384	93.31
373.61	96.31
373.835	96.31
374.061	91.31
374.287	83.31
374.513	93.31
374.739	74.31
374.965	79.31
375.191	83.31
375.416	80.31
375.642	85.31
375.868	96.31
376.094	105.31
376.319	94.31
376.545	111.31
376.771	104.31
376.997	106.31
377.222	82.31
377.448	104.31
377.674	96.31
377.899	105.31
378.125	93.31
378.35	99.31
378.576	81.31
378.802	93.31
379.027	87.31
379.253	86.31
379.478	104.31
379.704	106.31
379.929	99.31
380.155	97.31
380.38	116.31
380.606	90.31
380.831	93.31
381.057	105.31
381.282	99.31
381.507	97.31
381.733	104.31
381.958	109.31
382.184	103.31
382.409	116.31
382.634	104.31
382.86	99.31
383.085	108.31
383.31	93.31
383.535	97.31
383.761	111.31
383.986	102.31
384.211	83.31
384.436	81.31
384.662	112.31
384.887	108.31
385.112	105.31
385.337	116.31
385.562	126.31
385.787	114.31
386.013	114.31
386.238	125.31
386.463	119.31
386.688	104.31
386.913	99.31
387.138	126.31
387.363	100.31
387.588	112.31
387.813	111.31
388.038	103.31
388.263	100.31
388.488	123.31
388.713	95.31
388.938	93.31
389.163	90.31
389.387	89.31
389.612	95.31
389.837	93.31
390.062	92.31
390.287	88.31
390.512	102.31
390.736	89.31
390.961	91.31
391.186	97.31
391.411	87.31
391.636	93.31
391.86	88.31
392.085	92.31
392.31	80.31
392.534	76.31
392.759	85.31
392.984	86.31
393.208	88.31
393.433	93.31
393.658	95.31
393.882	94.31
394.107	94.31
394.331	93.31
394.556	94.31
394.78	94.31
395.005	90.31
395.229	80.31
395.454	108.31
395.678	80.31
395.903	96.31
396.127	86.31
396.352	103.31
396.576	94.31
396.801	87.31
397.025	89.31
397.249	86.31
397.474	83.31
397.698	100.31
397.922	88.31
398.147	76.31
398.371	84.31
398.595	96.31
398.82	84.31
399.044	85.31
399.268	84.31
399.492	95.31
399.717	97.31
399.941	105.31
400.165	123.31
400.389	86.31
400.613	86.31
400.837	95.31
401.062	78.31
401.286	83.31
401.51	97.31
401.734	92.31
401.958	124.31
402.182	147.31
402.406	179.31
402.63	140.31
402.854	101.31
403.078	92.31
403.302	89.31
403.526	94.31
403.75	100.31
403.974	83.31
404.198	83.31
404.422	92.31
404.645	91.31
404.869	98.31
405.093	104.31
405.317	131.31
405.541	119.31
405.765	115.31
405.988	150.31
406.212	207.31
406.436	292.31
406.66	181.31
406.883	113.31
407.107	111.31
407.331	116.31
407.555	103.31
407.778	107.31
408.002	106.31
408.226	94.31
408.449	93.31
408.673	86.31
408.896	84.31
409.12	93.31
409.344	100.31
409.567	87.31
409.791	99.31
410.014	105.31
410.238	81.31
410.461	90.31
410.685	95.31
410.908	89.31
411.132	114.31
411.355	114.31
411.578	108.31
411.802	79.31
412.025	87.31
412.249	102.31
412.472	105.31
412.695	116.31
412.919	95.31
413.142	98.31
413.365	90.31
413.589	84.31
413.812	89.31
414.035	89.31
414.258	103.31
414.482	79.31
414.705	87.31
414.928	101.31
415.151	107.31
415.374	101.31
415.597	103.31
415.821	89.31
416.044	99.31
416.267	99.31
416.49	88.31
416.713	94.31
416.936	98.31
417.159	88.31
417.382	100.31
417.605	91.31
417.828	98.31
418.051	107.31
418.274	97.31
418.497	85.31
418.72	88.31
418.943	99.31
419.166	87.31
419.389	87.31
419.611	91.31
419.834	94.31
420.057	102.31
420.28	99.31
420.503	88.31
420.726	89.31
420.948	81.31
421.171	96.31
421.394	98.31
421.617	92.31
421.839	94.31
422.062	115.31
422.285	95.31
422.507	102.31
422.73	108.31
422.953	94.31
423.175	95.31
423.398	99.31
423.621	106.31
423.843	96.31
424.066	85.31
424.288	88.31
424.511	96.31
424.733	86.31
424.956	105.31
425.178	101.31
425.401	116.31
425.623	104.31
425.846	95.31
426.068	96.31
426.291	103.31
426.513	86.31
426.735	96.31
426.958	105.31
427.18	116.31
427.402	175.31
427.625	232.31
427.847	192.31
428.069	168.31
428.292	118.31
428.514	80.31
428.736	91.31
428.958	88.31
429.181	110.31
429.403	92.31
429.625	91.31
429.847	101.31
430.069	110.31
430.292	95.31
430.514	91.31
430.736	87.31
430.958	97.31
431.18	88.31
431.402	99.31
431.624	93.31
431.846	92.31
432.068	63.31
432.29	87.31
432.512	93.31
432.734	117.31
432.956	94.31
433.178	91.31
433.4	96.31
433.622	87.31
433.844	103.31
434.066	79.31
434.287	77.31
434.509	104.31
434.731	79.31
434.953	92.31
435.175	84.31
435.397	91.31
435.618	102.31
435.84	101.31
436.062	122.31
436.284	124.31
436.505	109.31
436.727	102.31
436.949	112.31
437.17	92.31
437.392	79.31
437.614	92.31
437.835	116.31
438.057	147.31
438.278	107.31
438.5	105.31
438.721	132.31
438.943	83.31
439.165	76.31
439.386	91.31
439.608	91.31
439.829	111.31
440.05	143.31
440.272	161.31
440.493	113.31
440.715	89.31
440.936	90.31
441.158	95.31
441.379	82.31
441.6	103.31
441.822	120.31
442.043	94.31
442.264	115.31
442.486	109.31
442.707	103.31
442.928	116.31
443.149	155.31
443.371	137.31
443.592	108.31
443.813	123.31
444.034	95.31
444.255	91.31
444.476	94.31
444.698	92.31
444.919	86.31
445.14	161.31
445.361	137.31
445.582	137.31
445.803	152.31
446.024	181.31
446.245	160.31
446.466	129.31
446.687	102.31
446.908	80.31
447.129	79.31
447.35	85.31
447.571	85.31
447.792	97.31
448.013	105.31
448.234	115.31
448.455	107.31
448.675	115.31
448.896	127.31
449.117	111.31
449.338	117.31
449.559	121.31
449.779	156.31
450	91.31
450.221	91.31
450.442	94.31
450.662	102.31
450.883	112.31
451.104	130.31
451.324	90.31
451.545	97.31
451.766	88.31
451.986	103.31
452.207	99.31
452.428	86.31
452.648	119.31
452.869	123.31
453.089	126.31
453.31	134.31
453.53	89.31
453.751	95.31
453.971	130.31
454.192	130.31
454.412	91.31
454.633	89.31
454.853	87.31
455.073	87.31
455.294	89.31
455.514	93.31
455.734	90.31
455.955	87.31
456.175	99.31
456.395	106.31
456.616	99.31
456.836	86.31
457.056	97.31
457.276	94.31
457.497	81.31
457.717	77.31
457.937	85.31
458.157	95.31
458.377	109.31
458.598	115.31
458.818	184.31
459.038	196.31
459.258	136.31
459.478	102.31
459.698	78.31
459.918	79.31
460.138	79.31
460.358	94.31
460.578	85.31
460.798	105.31
461.018	96.31
461.238	88.31
461.458	84.31
461.678	88.31
461.898	87.31
462.118	83.31
462.338	98.31
462.558	94.31
462.777	83.31
462.997	87.31
463.217	117.31
463.437	96.31
463.657	90.31
463.876	96.31
464.096	93.31
464.316	101.31
464.536	112.31
464.755	99.31
464.975	113.31
465.195	209.31
465.414	220.31
465.634	120.31
465.854	98.31
466.073	95.31
466.293	96.31
466.512	81.31
466.732	77.31
466.951	77.31
467.171	89.31
467.391	101.31
467.61	119.31
467.829	142.31
468.049	301.31
468.268	428.31
468.488	147.31
468.707	96.31
468.927	95.31
469.146	87.31
469.365	90.31
469.585	115.31
469.804	87.31
470.023	114.31
470.243	100.31
470.462	101.31
470.681	130.31
470.901	88.31
471.12	105.31
471.339	101.31
471.558	108.31
471.777	119.31
471.997	198.31
472.216	612.31
472.435	1231.31
472.654	331.31
472.873	117.31
473.092	100.31
473.311	95.31
473.53	88.31
473.749	90.31
473.968	96.31
474.187	109.31
474.406	108.31
474.625	84.31
474.844	87.31
475.063	89.31
475.282	93.31
475.501	85.31
475.72	93.31
475.939	93.31
476.158	89.31
476.377	85.31
476.596	96.31
476.814	96.31
477.033	106.31
477.252	99.31
477.471	93.31
477.69	115.31
477.908	100.31
478.127	90.31
478.346	85.31
478.564	75.31
478.783	96.31
479.002	100.31
479.22	106.31
479.439	124.31
479.658	117.31
479.876	99.31
480.095	106.31
480.313	115.31
480.532	140.31
480.751	174.31
480.969	550.31
481.188	2147.31
481.406	1288.31
481.624	225.31
481.843	112.31
482.061	106.31
482.28	103.31
482.498	95.31
482.717	89.31
482.935	88.31
483.153	85.31
483.372	81.31
483.59	96.31
483.808	111.31
484.027	94.31
484.245	72.31
484.463	92.31
484.681	106.31
484.9	91.31
485.118	84.31
485.336	99.31
485.554	82.31
485.772	100.31
485.99	119.31
486.209	105.31
486.427	103.31
486.645	124.31
486.863	127.31
487.081	97.31
487.299	89.31
487.517	86.31
487.735	91.31
487.953	103.31
488.171	104.31
488.389	91.31
488.607	91.31
488.825	87.31
489.043	89.31
489.261	94.31
489.479	79.31
489.696	91.31
489.914	89.31
490.132	88.31
490.35	100.31
490.568	84.31
490.786	78.31
491.003	87.31
491.221	92.31
491.439	112.31
491.657	104.31
491.874	102.31
492.092	93.31
492.31	98.31
492.527	88.31
492.745	102.31
492.963	77.31
493.18	104.31
493.398	83.31
493.615	86.31
493.833	115.31
494.05	92.31
494.268	83.31
494.485	96.31
494.703	95.31
494.92	89.31
495.138	81.31
495.355	94.31
495.573	87.31
495.79	85.31
496.008	97.31
496.225	82.31
496.442	85.31
496.66	90.31
496.877	92.31
497.094	101.31
497.312	96.31
497.529	88.31
497.746	87.31
497.963	110.31
498.181	100.31
498.398	85.31
498.615	113.31
498.832	128.31
499.049	88.31
499.267	101.31
499.484	86.31
499.701	99.31
499.918	97.31
500.135	105.31
500.352	92.31
500.569	95.31
500.786	105.31
501.003	102.31
501.22	96.31
501.437	85.31
501.654	103.31
501.871	110.31
502.088	81.31
502.305	93.31
502.522	101.31
502.739	85.31
502.956	93.31
503.172	91.31
503.389	115.31
503.606	121.31
503.823	99.31
504.04	95.31
504.256	104.31
504.473	88.31
504.69	110.31
504.907	87.31
505.123	95.31
505.34	79.31
505.557	96.31
505.773	99.31
505.99	103.31
506.207	95.31
506.423	86.31
506.64	80.31
506.856	96.31
507.073	95.31
507.289	93.31
507.506	104.31
507.722	136.31
507.939	135.31
508.155	98.31
508.372	95.31
508.588	103.31
508.805	90.31
509.021	84.31
509.238	100.31
509.454	100.31
509.67	98.31
509.887	110.31
510.103	140.31
510.319	232.31
510.536	835.31
510.752	2873.31
510.968	763.31
511.184	178.31
511.401	116.31
511.617	110.31
511.833	101.31
512.049	97.31
512.265	92.31
512.481	84.31
512.698	88.31
512.914	97.31
513.13	94.31
513.346	97.31
