Data from Circ_1990_H10_HRD10591_00083.txt Node
Date: Wed Jan 03 11:55:20 EST 2024
User: Yrep
Spectrometer: HR+D1059
Trigger mode: 1
Integration Time (sec): 1.000000E-1
Scans to average: 1
Electric dark correction enabled: true
Nonlinearity correction enabled: false
Boxcar width: 0
XAxis mode: Wavelengths
Number of Pixels in Spectrum: 2048
>>>>>Begin Spectral Data<<<<<
223.165	-5.5
223.4	-5.5
223.635	-5.5
223.869	-21.5
224.104	-22.5
224.338	-22.5
224.573	-0.5
224.808	-10.5
225.042	-15.5
225.277	-12.5
225.511	3.5
225.746	5.5
225.98	-6.5
226.215	16.5
226.449	17.5
226.683	11.5
226.918	29.5
227.152	33.5
227.387	51.5
227.621	48.5
227.856	51.5
228.09	51.5
228.324	46.5
228.559	64.5
228.793	61.5
229.027	71.5
229.262	79.5
229.496	70.5
229.73	106.5
229.964	95.5
230.199	101.5
230.433	80.5
230.667	79.5
230.901	80.5
231.136	85.5
231.37	69.5
231.604	78.5
231.838	80.5
232.072	96.5
232.306	72.5
232.541	81.5
232.775	81.5
233.009	96.5
233.243	84.5
233.477	82.5
233.711	88.5
233.945	93.5
234.179	85.5
234.413	81.5
234.647	92.5
234.881	77.5
235.115	88.5
235.349	73.5
235.583	77.5
235.817	80.5
236.051	85.5
236.285	85.5
236.519	85.5
236.753	66.5
236.987	83.5
237.221	85.5
237.455	88.5
237.689	81.5
237.922	83.5
238.156	73.5
238.39	72.5
238.624	85.5
238.858	81.5
239.091	77.5
239.325	86.5
239.559	82.5
239.793	64.5
240.027	94.5
240.26	94.5
240.494	84.5
240.728	83.5
240.961	86.5
241.195	77.5
241.429	75.5
241.662	81.5
241.896	85.5
242.13	75.5
242.363	73.5
242.597	85.5
242.83	83.5
243.064	85.5
243.298	83.5
243.531	77.5
243.765	65.5
243.998	78.5
244.232	81.5
244.465	72.5
244.699	79.5
244.932	96.5
245.166	85.5
245.399	79.5
245.633	82.5
245.866	85.5
246.099	95.5
246.333	82.5
246.566	77.5
246.8	85.5
247.033	84.5
247.266	79.5
247.5	68.5
247.733	83.5
247.966	93.5
248.2	85.5
248.433	88.5
248.666	89.5
248.899	91.5
249.133	86.5
249.366	111.5
249.599	101.5
249.832	91.5
250.066	77.5
250.299	78.5
250.532	103.5
250.765	94.5
250.998	96.5
251.231	93.5
251.465	80.5
251.698	83.5
251.931	78.5
252.164	82.5
252.397	70.5
252.63	84.5
252.863	81.5
253.096	79.5
253.329	73.5
253.562	83.5
253.795	86.5
254.028	84.5
254.261	87.5
254.494	85.5
254.727	82.5
254.96	84.5
255.193	71.5
255.426	98.5
255.659	78.5
255.892	85.5
256.124	94.5
256.357	93.5
256.59	85.5
256.823	89.5
257.056	89.5
257.289	62.5
257.521	95.5
257.754	93.5
257.987	97.5
258.22	90.5
258.452	85.5
258.685	97.5
258.918	97.5
259.151	90.5
259.383	82.5
259.616	82.5
259.849	90.5
260.081	87.5
260.314	82.5
260.547	92.5
260.779	93.5
261.012	97.5
261.244	94.5
261.477	99.5
261.71	94.5
261.942	114.5
262.175	106.5
262.407	88.5
262.64	86.5
262.872	89.5
263.105	87.5
263.337	94.5
263.57	102.5
263.802	88.5
264.035	79.5
264.267	75.5
264.499	92.5
264.732	87.5
264.964	83.5
265.197	81.5
265.429	82.5
265.661	92.5
265.894	90.5
266.126	90.5
266.358	99.5
266.591	81.5
266.823	86.5
267.055	100.5
267.287	99.5
267.52	92.5
267.752	78.5
267.984	84.5
268.216	97.5
268.448	98.5
268.681	91.5
268.913	80.5
269.145	97.5
269.377	93.5
269.609	87.5
269.841	104.5
270.073	92.5
270.306	94.5
270.538	87.5
270.77	81.5
271.002	83.5
271.234	87.5
271.466	99.5
271.698	89.5
271.93	84.5
272.162	70.5
272.394	104.5
272.626	98.5
272.858	78.5
273.09	79.5
273.322	93.5
273.553	97.5
273.785	91.5
274.017	102.5
274.249	88.5
274.481	80.5
274.713	80.5
274.945	82.5
275.176	93.5
275.408	95.5
275.64	95.5
275.872	102.5
276.104	120.5
276.335	97.5
276.567	103.5
276.799	104.5
277.031	127.5
277.262	111.5
277.494	103.5
277.726	97.5
277.957	90.5
278.189	91.5
278.421	99.5
278.652	89.5
278.884	87.5
279.115	91.5
279.347	110.5
279.579	101.5
279.81	106.5
280.042	105.5
280.273	148.5
280.505	95.5
280.736	104.5
280.968	82.5
281.199	100.5
281.431	88.5
281.662	89.5
281.894	81.5
282.125	98.5
282.356	108.5
282.588	139.5
282.819	101.5
283.051	88.5
283.282	107.5
283.513	88.5
283.745	102.5
283.976	92.5
284.207	103.5
284.439	91.5
284.67	88.5
284.901	91.5
285.132	92.5
285.364	100.5
285.595	71.5
285.826	90.5
286.057	89.5
286.288	99.5
286.52	86.5
286.751	97.5
286.982	95.5
287.213	90.5
287.444	94.5
287.675	89.5
287.906	99.5
288.138	95.5
288.369	96.5
288.6	114.5
288.831	85.5
289.062	93.5
289.293	91.5
289.524	84.5
289.755	87.5
289.986	93.5
290.217	79.5
290.448	87.5
290.679	83.5
290.91	85.5
291.141	92.5
291.371	86.5
291.602	105.5
291.833	95.5
292.064	105.5
292.295	91.5
292.526	86.5
292.757	87.5
292.987	90.5
293.218	88.5
293.449	76.5
293.68	85.5
293.91	91.5
294.141	89.5
294.372	91.5
294.603	95.5
294.833	88.5
295.064	107.5
295.295	71.5
295.525	72.5
295.756	103.5
295.987	103.5
296.217	143.5
296.448	129.5
296.679	98.5
296.909	97.5
297.14	85.5
297.37	104.5
297.601	88.5
297.831	103.5
298.062	88.5
298.292	93.5
298.523	99.5
298.753	95.5
298.984	95.5
299.214	86.5
299.445	92.5
299.675	94.5
299.905	104.5
300.136	96.5
300.366	94.5
300.597	95.5
300.827	95.5
301.057	100.5
301.288	101.5
301.518	95.5
301.748	104.5
301.979	119.5
302.209	108.5
302.439	100.5
302.669	89.5
302.9	106.5
303.13	93.5
303.36	124.5
303.59	115.5
303.82	106.5
304.051	113.5
304.281	89.5
304.511	99.5
304.741	111.5
304.971	103.5
305.201	92.5
305.431	91.5
305.661	93.5
305.891	85.5
306.121	99.5
306.352	111.5
306.582	107.5
306.812	114.5
307.042	111.5
307.272	118.5
307.502	119.5
307.731	140.5
307.961	100.5
308.191	104.5
308.421	97.5
308.651	81.5
308.881	85.5
309.111	99.5
309.341	93.5
309.571	91.5
309.8	98.5
310.03	100.5
310.26	86.5
310.49	83.5
310.72	84.5
310.949	111.5
311.179	113.5
311.409	99.5
311.639	97.5
311.868	99.5
312.098	114.5
312.328	92.5
312.557	116.5
312.787	102.5
313.017	110.5
313.246	100.5
313.476	97.5
313.706	98.5
313.935	94.5
314.165	111.5
314.394	93.5
314.624	111.5
314.853	118.5
315.083	87.5
315.312	107.5
315.542	87.5
315.771	98.5
316.001	104.5
316.23	99.5
316.46	93.5
316.689	94.5
316.919	97.5
317.148	106.5
317.377	100.5
317.607	99.5
317.836	98.5
318.065	101.5
318.295	89.5
318.524	97.5
318.753	99.5
318.983	106.5
319.212	104.5
319.441	110.5
319.67	104.5
319.9	105.5
320.129	93.5
320.358	113.5
320.587	91.5
320.816	103.5
321.046	101.5
321.275	101.5
321.504	92.5
321.733	97.5
321.962	110.5
322.191	112.5
322.42	88.5
322.649	119.5
322.878	117.5
323.108	118.5
323.337	137.5
323.566	137.5
323.795	148.5
324.024	210.5
324.253	373.5
324.482	784.5
324.71	1603.5
324.939	2154.5
325.168	784.5
325.397	233.5
325.626	153.5
325.855	120.5
326.084	134.5
326.313	140.5
326.542	157.5
326.77	223.5
326.999	446.5
327.228	901.5
327.457	1654.5
327.686	1297.5
327.914	402.5
328.143	285.5
328.372	303.5
328.6	223.5
328.829	146.5
329.058	145.5
329.287	139.5
329.515	126.5
329.744	144.5
329.972	242.5
330.201	440.5
330.43	578.5
330.658	309.5
330.887	185.5
331.115	136.5
331.344	103.5
331.572	104.5
331.801	113.5
332.03	111.5
332.258	113.5
332.486	91.5
332.715	103.5
332.943	97.5
333.172	106.5
333.4	111.5
333.629	138.5
333.857	165.5
334.085	240.5
334.314	413.5
334.542	746.5
334.771	693.5
334.999	230.5
335.227	128.5
335.455	98.5
335.684	107.5
335.912	97.5
336.14	103.5
336.369	120.5
336.597	96.5
336.825	95.5
337.053	104.5
337.281	112.5
337.51	88.5
337.738	96.5
337.966	109.5
338.194	100.5
338.422	112.5
338.65	96.5
338.878	91.5
339.106	93.5
339.334	95.5
339.562	102.5
339.79	82.5
340.018	101.5
340.246	101.5
340.474	101.5
340.702	91.5
340.93	104.5
341.158	106.5
341.386	102.5
341.614	104.5
341.842	105.5
342.07	86.5
342.298	91.5
342.526	92.5
342.754	87.5
342.981	87.5
343.209	89.5
343.437	100.5
343.665	82.5
343.893	100.5
344.12	110.5
344.348	90.5
344.576	89.5
344.804	78.5
345.031	92.5
345.259	115.5
345.487	90.5
345.714	110.5
345.942	101.5
346.17	84.5
346.397	104.5
346.625	87.5
346.853	97.5
347.08	88.5
347.308	102.5
347.535	104.5
347.763	118.5
347.99	96.5
348.218	101.5
348.445	116.5
348.673	118.5
348.9	95.5
349.128	95.5
349.355	89.5
349.583	96.5
349.81	94.5
350.037	98.5
350.265	96.5
350.492	102.5
350.72	101.5
350.947	93.5
351.174	110.5
351.402	110.5
351.629	111.5
351.856	99.5
352.083	82.5
352.311	108.5
352.538	102.5
352.765	117.5
352.992	101.5
353.22	104.5
353.447	96.5
353.674	111.5
353.901	97.5
354.128	90.5
354.355	89.5
354.583	105.5
354.81	105.5
355.037	87.5
355.264	94.5
355.491	91.5
355.718	90.5
355.945	95.5
356.172	92.5
356.399	102.5
356.626	84.5
356.853	94.5
357.08	104.5
357.307	98.5
357.534	100.5
357.761	97.5
357.988	109.5
358.215	107.5
358.441	87.5
358.668	91.5
358.895	90.5
359.122	87.5
359.349	88.5
359.576	105.5
359.802	111.5
360.029	122.5
360.256	128.5
360.483	95.5
360.709	93.5
360.936	100.5
361.163	107.5
361.39	98.5
361.616	105.5
361.843	97.5
362.07	109.5
362.296	117.5
362.523	84.5
362.749	85.5
362.976	87.5
363.203	95.5
363.429	91.5
363.656	99.5
363.882	95.5
364.109	89.5
364.335	90.5
364.562	110.5
364.788	103.5
365.015	97.5
365.241	105.5
365.468	106.5
365.694	102.5
365.92	102.5
366.147	98.5
366.373	98.5
366.599	96.5
366.826	90.5
367.052	89.5
367.278	77.5
367.505	95.5
367.731	103.5
367.957	94.5
368.184	88.5
368.41	101.5
368.636	99.5
368.862	119.5
369.089	114.5
369.315	108.5
369.541	95.5
369.767	91.5
369.993	103.5
370.219	88.5
370.445	83.5
370.672	83.5
370.898	85.5
371.124	77.5
371.35	87.5
371.576	94.5
371.802	100.5
372.028	98.5
372.254	83.5
372.48	88.5
372.706	97.5
372.932	80.5
373.158	106.5
373.384	90.5
373.61	90.5
373.835	82.5
374.061	99.5
374.287	115.5
374.513	86.5
374.739	103.5
374.965	88.5
375.191	94.5
375.416	98.5
375.642	102.5
375.868	88.5
376.094	93.5
376.319	87.5
376.545	85.5
376.771	82.5
376.997	89.5
377.222	95.5
377.448	81.5
377.674	94.5
377.899	90.5
378.125	88.5
378.35	83.5
378.576	92.5
378.802	89.5
379.027	107.5
379.253	103.5
379.478	96.5
379.704	100.5
379.929	97.5
380.155	99.5
380.38	91.5
380.606	88.5
380.831	106.5
381.057	96.5
381.282	90.5
381.507	95.5
381.733	96.5
381.958	96.5
382.184	113.5
382.409	117.5
382.634	114.5
382.86	107.5
383.085	106.5
383.31	93.5
383.535	98.5
383.761	106.5
383.986	96.5
384.211	85.5
384.436	95.5
384.662	107.5
384.887	97.5
385.112	119.5
385.337	119.5
385.562	117.5
385.787	117.5
386.013	113.5
386.238	113.5
386.463	118.5
386.688	98.5
386.913	109.5
387.138	107.5
387.363	96.5
387.588	102.5
387.813	88.5
388.038	102.5
388.263	122.5
388.488	120.5
388.713	95.5
388.938	103.5
389.163	88.5
389.387	90.5
389.612	85.5
389.837	89.5
390.062	95.5
390.287	90.5
390.512	91.5
390.736	86.5
390.961	101.5
391.186	98.5
391.411	95.5
391.636	97.5
391.86	100.5
392.085	96.5
392.31	104.5
392.534	91.5
392.759	78.5
392.984	83.5
393.208	89.5
393.433	94.5
393.658	80.5
393.882	81.5
394.107	87.5
394.331	83.5
394.556	88.5
394.78	97.5
395.005	98.5
395.229	96.5
395.454	91.5
395.678	79.5
395.903	80.5
396.127	81.5
396.352	90.5
396.576	96.5
396.801	88.5
397.025	84.5
397.249	88.5
397.474	87.5
397.698	98.5
397.922	92.5
398.147	88.5
398.371	75.5
398.595	74.5
398.82	94.5
399.044	77.5
399.268	97.5
399.492	96.5
399.717	85.5
399.941	91.5
400.165	94.5
400.389	83.5
400.613	81.5
400.837	95.5
401.062	94.5
401.286	80.5
401.51	102.5
401.734	98.5
401.958	99.5
402.182	127.5
402.406	169.5
402.63	119.5
402.854	95.5
403.078	101.5
403.302	100.5
403.526	91.5
403.75	74.5
403.974	85.5
404.198	103.5
404.422	97.5
404.645	92.5
404.869	89.5
405.093	121.5
405.317	112.5
405.541	122.5
405.765	96.5
405.988	126.5
406.212	164.5
406.436	228.5
406.66	151.5
406.883	112.5
407.107	96.5
407.331	98.5
407.555	107.5
407.778	103.5
408.002	83.5
408.226	84.5
408.449	84.5
408.673	89.5
408.896	98.5
409.12	105.5
409.344	82.5
409.567	90.5
409.791	90.5
410.014	94.5
410.238	99.5
410.461	102.5
410.685	109.5
410.908	98.5
411.132	110.5
411.355	110.5
411.578	100.5
411.802	92.5
412.025	89.5
412.249	99.5
412.472	103.5
412.695	110.5
412.919	103.5
413.142	92.5
413.365	90.5
413.589	101.5
413.812	101.5
414.035	94.5
414.258	93.5
414.482	105.5
414.705	100.5
414.928	91.5
415.151	94.5
415.374	96.5
415.597	84.5
415.821	89.5
416.044	73.5
416.267	78.5
416.49	87.5
416.713	82.5
416.936	94.5
417.159	85.5
417.382	102.5
417.605	97.5
417.828	99.5
418.051	106.5
418.274	86.5
418.497	90.5
418.72	86.5
418.943	89.5
419.166	74.5
419.389	98.5
419.611	86.5
419.834	95.5
420.057	98.5
420.28	76.5
420.503	86.5
420.726	92.5
420.948	106.5
421.171	101.5
421.394	79.5
421.617	101.5
421.839	96.5
422.062	87.5
422.285	94.5
422.507	99.5
422.73	125.5
422.953	105.5
423.175	83.5
423.398	97.5
423.621	91.5
423.843	80.5
424.066	82.5
424.288	95.5
424.511	83.5
424.733	85.5
424.956	111.5
425.178	106.5
425.401	98.5
425.623	105.5
425.846	102.5
426.068	105.5
426.291	85.5
426.513	102.5
426.735	101.5
426.958	92.5
427.18	119.5
427.402	141.5
427.625	179.5
427.847	177.5
428.069	158.5
428.292	119.5
428.514	79.5
428.736	96.5
428.958	71.5
429.181	87.5
429.403	93.5
429.625	89.5
429.847	93.5
430.069	119.5
430.292	95.5
430.514	78.5
430.736	77.5
430.958	93.5
431.18	82.5
431.402	95.5
431.624	83.5
431.846	82.5
432.068	94.5
432.29	95.5
432.512	91.5
432.734	89.5
432.956	101.5
433.178	98.5
433.4	107.5
433.622	94.5
433.844	91.5
434.066	88.5
434.287	82.5
434.509	89.5
434.731	103.5
434.953	84.5
435.175	90.5
435.397	90.5
435.618	94.5
435.84	100.5
436.062	124.5
436.284	123.5
436.505	93.5
436.727	120.5
436.949	70.5
437.17	102.5
437.392	96.5
437.614	107.5
437.835	111.5
438.057	112.5
438.278	118.5
438.5	110.5
438.721	122.5
438.943	111.5
439.165	100.5
439.386	101.5
439.608	90.5
439.829	113.5
440.05	128.5
440.272	142.5
440.493	105.5
440.715	94.5
440.936	89.5
441.158	95.5
441.379	88.5
441.6	90.5
441.822	94.5
442.043	92.5
442.264	106.5
442.486	106.5
442.707	105.5
442.928	93.5
443.149	143.5
443.371	129.5
443.592	112.5
443.813	115.5
444.034	111.5
444.255	90.5
444.476	84.5
444.698	82.5
444.919	82.5
445.14	142.5
445.361	119.5
445.582	122.5
445.803	160.5
446.024	147.5
446.245	135.5
446.466	120.5
446.687	92.5
446.908	89.5
447.129	90.5
447.35	95.5
447.571	90.5
447.792	89.5
448.013	104.5
448.234	111.5
448.455	102.5
448.675	121.5
448.896	127.5
449.117	105.5
449.338	104.5
449.559	114.5
449.779	133.5
450	97.5
450.221	79.5
450.442	84.5
450.662	88.5
450.883	113.5
451.104	100.5
451.324	102.5
451.545	95.5
451.766	81.5
451.986	101.5
452.207	92.5
452.428	90.5
452.648	106.5
452.869	105.5
453.089	105.5
453.31	126.5
453.53	92.5
453.751	91.5
453.971	100.5
454.192	96.5
454.412	95.5
454.633	79.5
454.853	83.5
455.073	89.5
455.294	83.5
455.514	95.5
455.734	101.5
455.955	78.5
456.175	85.5
456.395	74.5
456.616	95.5
456.836	87.5
457.056	79.5
457.276	77.5
457.497	78.5
457.717	100.5
457.937	80.5
458.157	93.5
458.377	90.5
458.598	108.5
458.818	157.5
459.038	162.5
459.258	136.5
459.478	87.5
459.698	86.5
459.918	100.5
460.138	98.5
460.358	87.5
460.578	91.5
460.798	95.5
461.018	82.5
461.238	95.5
461.458	108.5
461.678	90.5
461.898	86.5
462.118	99.5
462.338	83.5
462.558	90.5
462.777	86.5
462.997	82.5
463.217	93.5
463.437	93.5
463.657	98.5
463.876	98.5
464.096	90.5
464.316	97.5
464.536	100.5
464.755	95.5
464.975	105.5
465.195	174.5
465.414	165.5
465.634	100.5
465.854	89.5
466.073	91.5
466.293	101.5
466.512	87.5
466.732	86.5
466.951	94.5
467.171	91.5
467.391	109.5
467.61	122.5
467.829	145.5
468.049	270.5
468.268	355.5
468.488	113.5
468.707	85.5
468.927	91.5
469.146	91.5
469.365	110.5
469.585	102.5
469.804	82.5
470.023	86.5
470.243	105.5
470.462	103.5
470.681	110.5
470.901	103.5
471.12	86.5
471.339	97.5
471.558	103.5
471.777	122.5
471.997	185.5
472.216	499.5
472.435	1015.5
472.654	282.5
472.873	128.5
473.092	113.5
473.311	88.5
473.53	95.5
473.749	88.5
473.968	104.5
474.187	116.5
474.406	85.5
474.625	90.5
474.844	105.5
475.063	90.5
475.282	75.5
475.501	85.5
475.72	91.5
475.939	83.5
476.158	83.5
476.377	94.5
476.596	94.5
476.814	74.5
477.033	100.5
477.252	79.5
477.471	85.5
477.69	106.5
477.908	94.5
478.127	97.5
478.346	71.5
478.564	87.5
478.783	96.5
479.002	102.5
479.22	98.5
479.439	107.5
479.658	114.5
479.876	119.5
480.095	107.5
480.313	107.5
480.532	127.5
480.751	189.5
480.969	487.5
481.188	1783.5
481.406	1039.5
481.624	187.5
481.843	105.5
482.061	97.5
482.28	104.5
482.498	103.5
482.717	99.5
482.935	78.5
483.153	86.5
483.372	77.5
483.59	74.5
483.808	95.5
484.027	107.5
484.245	95.5
484.463	97.5
484.681	89.5
484.9	93.5
485.118	89.5
485.336	96.5
485.554	102.5
485.772	97.5
485.99	101.5
486.209	95.5
486.427	123.5
486.645	118.5
486.863	118.5
487.081	104.5
487.299	101.5
487.517	97.5
487.735	88.5
487.953	101.5
488.171	89.5
488.389	108.5
488.607	98.5
488.825	99.5
489.043	92.5
489.261	105.5
489.479	100.5
489.696	98.5
489.914	93.5
490.132	93.5
490.35	97.5
490.568	93.5
490.786	77.5
491.003	93.5
491.221	97.5
491.439	74.5
491.657	89.5
491.874	96.5
492.092	101.5
492.31	101.5
492.527	94.5
492.745	102.5
492.963	91.5
493.18	101.5
493.398	106.5
493.615	89.5
493.833	89.5
494.05	94.5
494.268	96.5
494.485	80.5
494.703	99.5
494.92	79.5
495.138	105.5
495.355	93.5
495.573	82.5
495.79	102.5
496.008	99.5
496.225	93.5
496.442	73.5
496.66	85.5
496.877	80.5
497.094	81.5
497.312	90.5
497.529	85.5
497.746	101.5
497.963	95.5
498.181	96.5
498.398	105.5
498.615	110.5
498.832	106.5
499.049	90.5
499.267	95.5
499.484	101.5
499.701	83.5
499.918	97.5
500.135	106.5
500.352	100.5
500.569	90.5
500.786	95.5
501.003	98.5
501.22	96.5
501.437	97.5
501.654	94.5
501.871	100.5
502.088	100.5
502.305	96.5
502.522	94.5
502.739	91.5
502.956	76.5
503.172	91.5
503.389	100.5
503.606	103.5
503.823	103.5
504.04	102.5
504.256	101.5
504.473	91.5
504.69	100.5
504.907	93.5
505.123	82.5
505.34	103.5
505.557	85.5
505.773	85.5
505.99	89.5
506.207	112.5
506.423	95.5
506.64	105.5
506.856	88.5
507.073	86.5
507.289	71.5
507.506	94.5
507.722	105.5
507.939	112.5
508.155	97.5
508.372	81.5
508.588	94.5
508.805	91.5
509.021	101.5
509.238	108.5
509.454	102.5
509.67	110.5
509.887	120.5
510.103	126.5
510.319	216.5
510.536	728.5
510.752	2265.5
510.968	609.5
511.184	154.5
511.401	111.5
511.617	110.5
511.833	107.5
512.049	106.5
512.265	92.5
512.481	96.5
512.698	100.5
512.914	91.5
513.13	107.5
513.346	111.5
513.562	99.5
513.778	105.5
513.994	90.5
514.21	105.5
514.426	123.5
514.642	151.5
514.858	116.5
515.074	175.5
515.29	473.5
515.506	1571.5
515.721	569.5
515.937	159.5
516.153	115.5
516.369	114.5
516.585	108.5
516.801	96.5
517.016	99.5
517.232	102.5
517.448	96.5
517.664	104.5
517.879	104.5
518.095	90.5
518.311	98.5
518.527	100.5
518.742	93.5
518.958	107.5
519.173	100.5
519.389	94.5
519.605	94.5
519.82	95.5
520.036	111.5
520.251	132.5
520.467	123.5
520.682	112.5
520.898	104.5
521.113	121.5
521.329	155.5
521.544	206.5
521.76	575.5
521.975	2611.5
522.19	1511.5
522.406	321.5
522.621	154.5
522.836	103.5
523.052	96.5
523.267	108.5
523.482	92.5
523.698	100.5
523.913	112.5
524.128	105.5
524.343	103.5
524.559	94.5
524.774	85.5
524.989	112.5
525.204	116.5
525.419	102.5
525.634	91.5
525.849	91.5
526.064	91.5
526.28	99.5
526.495	96.5
526.71	99.5
526.925	96.5
527.14	98.5
527.355	91.5
527.57	91.5
527.785	94.5
527.999	88.5
528.214	98.5
528.429	89.5
528.644	91.5
528.859	103.5
529.074	102.5
529.289	121.5
529.503	196.5
529.718	110.5
529.933	90.5
530.148	87.5
530.363	88.5
530.577	83.5
530.792	88.5
531.007	95.5
531.221	93.5
531.436	70.5
531.651	100.5
531.865	100.5
532.08	114.5
532.295	95.5
532.509	84.5
