Data from Circ_1990_H10_HRD10591_00021.txt Node
Date: Wed Jan 03 11:55:08 EST 2024
User: Yrep
Spectrometer: HR+D1059
Trigger mode: 1
Integration Time (sec): 1.000000E-1
Scans to average: 1
Electric dark correction enabled: true
Nonlinearity correction enabled: false
Boxcar width: 0
XAxis mode: Wavelengths
Number of Pixels in Spectrum: 2048
>>>>>Begin Spectral Data<<<<<
223.165	-17.25
223.4	-17.25
223.635	-17.25
223.869	-12.25
224.104	-16.25
224.338	-35.25
224.573	-23.25
224.808	-13.25
225.042	-4.25
225.277	9.75
225.511	-2.25
225.746	-15.25
225.98	6.75
226.215	19.75
226.449	27.75
226.683	18.75
226.918	26.75
227.152	29.75
227.387	33.75
227.621	26.75
227.856	45.75
228.09	38.75
228.324	36.75
228.559	45.75
228.793	53.75
229.027	49.75
229.262	44.75
229.496	59.75
229.73	76.75
229.964	83.75
230.199	54.75
230.433	65.75
230.667	83.75
230.901	68.75
231.136	69.75
231.37	65.75
231.604	75.75
231.838	85.75
232.072	79.75
232.306	101.75
232.541	87.75
232.775	80.75
233.009	79.75
233.243	78.75
233.477	74.75
233.711	95.75
233.945	74.75
234.179	74.75
234.413	91.75
234.647	79.75
234.881	82.75
235.115	91.75
235.349	63.75
235.583	82.75
235.817	64.75
236.051	66.75
236.285	77.75
236.519	83.75
236.753	81.75
236.987	68.75
237.221	81.75
237.455	75.75
237.689	81.75
237.922	84.75
238.156	64.75
238.39	70.75
238.624	79.75
238.858	81.75
239.091	70.75
239.325	72.75
239.559	82.75
239.793	73.75
240.027	89.75
240.26	63.75
240.494	78.75
240.728	62.75
240.961	78.75
241.195	81.75
241.429	79.75
241.662	84.75
241.896	70.75
242.13	69.75
242.363	81.75
242.597	75.75
242.83	82.75
243.064	79.75
243.298	80.75
243.531	81.75
243.765	81.75
243.998	90.75
244.232	59.75
244.465	84.75
244.699	79.75
244.932	72.75
245.166	77.75
245.399	61.75
245.633	73.75
245.866	77.75
246.099	67.75
246.333	81.75
246.566	81.75
246.8	76.75
247.033	64.75
247.266	73.75
247.5	86.75
247.733	76.75
247.966	80.75
248.2	67.75
248.433	83.75
248.666	71.75
248.899	79.75
249.133	85.75
249.366	85.75
249.599	83.75
249.832	85.75
250.066	79.75
250.299	93.75
250.532	73.75
250.765	77.75
250.998	84.75
251.231	70.75
251.465	77.75
251.698	85.75
251.931	87.75
252.164	77.75
252.397	98.75
252.63	71.75
252.863	68.75
253.096	71.75
253.329	84.75
253.562	82.75
253.795	83.75
254.028	73.75
254.261	79.75
254.494	77.75
254.727	82.75
254.96	83.75
255.193	68.75
255.426	75.75
255.659	77.75
255.892	85.75
256.124	78.75
256.357	75.75
256.59	75.75
256.823	77.75
257.056	66.75
257.289	70.75
257.521	79.75
257.754	77.75
257.987	82.75
258.22	66.75
258.452	66.75
258.685	80.75
258.918	77.75
259.151	93.75
259.383	89.75
259.616	91.75
259.849	87.75
260.081	88.75
260.314	92.75
260.547	83.75
260.779	74.75
261.012	82.75
261.244	76.75
261.477	84.75
261.71	76.75
261.942	96.75
262.175	93.75
262.407	80.75
262.64	73.75
262.872	66.75
263.105	84.75
263.337	80.75
263.57	71.75
263.802	81.75
264.035	76.75
264.267	71.75
264.499	79.75
264.732	96.75
264.964	69.75
265.197	80.75
265.429	84.75
265.661	85.75
265.894	87.75
266.126	87.75
266.358	92.75
266.591	94.75
266.823	72.75
267.055	83.75
267.287	71.75
267.52	66.75
267.752	78.75
267.984	78.75
268.216	87.75
268.448	84.75
268.681	68.75
268.913	77.75
269.145	94.75
269.377	83.75
269.609	88.75
269.841	83.75
270.073	68.75
270.306	77.75
270.538	67.75
270.77	79.75
271.002	86.75
271.234	78.75
271.466	90.75
271.698	80.75
271.93	90.75
272.162	95.75
272.394	88.75
272.626	89.75
272.858	76.75
273.09	71.75
273.322	81.75
273.553	79.75
273.785	79.75
274.017	85.75
274.249	94.75
274.481	89.75
274.713	85.75
274.945	88.75
275.176	85.75
275.408	81.75
275.64	101.75
275.872	92.75
276.104	93.75
276.335	94.75
276.567	121.75
276.799	92.75
277.031	91.75
277.262	97.75
277.494	91.75
277.726	76.75
277.957	77.75
278.189	86.75
278.421	86.75
278.652	89.75
278.884	85.75
279.115	78.75
279.347	82.75
279.579	84.75
279.81	78.75
280.042	92.75
280.273	100.75
280.505	88.75
280.736	84.75
280.968	89.75
281.199	92.75
281.431	83.75
281.662	77.75
281.894	83.75
282.125	96.75
282.356	106.75
282.588	114.75
282.819	87.75
283.051	84.75
283.282	87.75
283.513	92.75
283.745	81.75
283.976	74.75
284.207	69.75
284.439	93.75
284.67	95.75
284.901	87.75
285.132	82.75
285.364	82.75
285.595	76.75
285.826	81.75
286.057	97.75
286.288	77.75
286.52	94.75
286.751	87.75
286.982	102.75
287.213	82.75
287.444	99.75
287.675	75.75
287.906	83.75
288.138	105.75
288.369	92.75
288.6	90.75
288.831	79.75
289.062	79.75
289.293	70.75
289.524	73.75
289.755	77.75
289.986	66.75
290.217	71.75
290.448	77.75
290.679	85.75
290.91	70.75
291.141	85.75
291.371	83.75
291.602	94.75
291.833	76.75
292.064	79.75
292.295	85.75
292.526	90.75
292.757	93.75
292.987	92.75
293.218	87.75
293.449	89.75
293.68	77.75
293.91	95.75
294.141	91.75
294.372	79.75
294.603	85.75
294.833	66.75
295.064	93.75
295.295	74.75
295.525	84.75
295.756	78.75
295.987	112.75
296.217	111.75
296.448	113.75
296.679	92.75
296.909	97.75
297.14	102.75
297.37	87.75
297.601	85.75
297.831	75.75
298.062	86.75
298.292	77.75
298.523	92.75
298.753	81.75
298.984	75.75
299.214	89.75
299.445	84.75
299.675	92.75
299.905	98.75
300.136	101.75
300.366	93.75
300.597	83.75
300.827	83.75
301.057	91.75
301.288	93.75
301.518	79.75
301.748	80.75
301.979	102.75
302.209	83.75
302.439	82.75
302.669	86.75
302.9	70.75
303.13	93.75
303.36	102.75
303.59	106.75
303.82	105.75
304.051	99.75
304.281	88.75
304.511	81.75
304.741	82.75
304.971	70.75
305.201	86.75
305.431	77.75
305.661	84.75
305.891	85.75
306.121	108.75
306.352	97.75
306.582	88.75
306.812	109.75
307.042	98.75
307.272	87.75
307.502	94.75
307.731	94.75
307.961	85.75
308.191	88.75
308.421	92.75
308.651	101.75
308.881	92.75
309.111	91.75
309.341	101.75
309.571	109.75
309.8	101.75
310.03	81.75
310.26	93.75
310.49	91.75
310.72	108.75
310.949	92.75
311.179	98.75
311.409	105.75
311.639	93.75
311.868	98.75
312.098	85.75
312.328	90.75
312.557	95.75
312.787	94.75
313.017	95.75
313.246	80.75
313.476	90.75
313.706	93.75
313.935	94.75
314.165	85.75
314.394	96.75
314.624	98.75
314.853	95.75
315.083	103.75
315.312	97.75
315.542	70.75
315.771	87.75
316.001	86.75
316.23	84.75
316.46	83.75
316.689	88.75
316.919	90.75
317.148	95.75
317.377	87.75
317.607	80.75
317.836	96.75
318.065	89.75
318.295	90.75
318.524	83.75
318.753	81.75
318.983	94.75
319.212	95.75
319.441	101.75
319.67	91.75
319.9	98.75
320.129	98.75
320.358	100.75
320.587	92.75
320.816	91.75
321.046	92.75
321.275	87.75
321.504	81.75
321.733	97.75
321.962	90.75
322.191	104.75
322.42	101.75
322.649	92.75
322.878	109.75
323.108	105.75
323.337	126.75
323.566	125.75
323.795	118.75
324.024	170.75
324.253	315.75
324.482	658.75
324.71	1318.75
324.939	1765.75
325.168	666.75
325.397	211.75
325.626	124.75
325.855	117.75
326.084	104.75
326.313	113.75
326.542	137.75
326.77	195.75
326.999	371.75
327.228	784.75
327.457	1364.75
327.686	1101.75
327.914	321.75
328.143	201.75
328.372	183.75
328.6	136.75
328.829	122.75
329.058	114.75
329.287	122.75
329.515	107.75
329.744	109.75
329.972	131.75
330.201	194.75
330.43	246.75
330.658	155.75
330.887	127.75
331.115	116.75
331.344	92.75
331.572	107.75
331.801	105.75
332.03	99.75
332.258	93.75
332.486	89.75
332.715	89.75
332.943	101.75
333.172	75.75
333.4	81.75
333.629	100.75
333.857	114.75
334.085	126.75
334.314	188.75
334.542	295.75
334.771	270.75
334.999	133.75
335.227	105.75
335.455	97.75
335.684	95.75
335.912	98.75
336.14	96.75
336.369	83.75
336.597	97.75
336.825	86.75
337.053	90.75
337.281	97.75
337.51	101.75
337.738	93.75
337.966	87.75
338.194	88.75
338.422	95.75
338.65	90.75
338.878	101.75
339.106	95.75
339.334	78.75
339.562	81.75
339.79	90.75
340.018	87.75
340.246	84.75
340.474	86.75
340.702	91.75
340.93	103.75
341.158	95.75
341.386	98.75
341.614	99.75
341.842	98.75
342.07	90.75
342.298	89.75
342.526	91.75
342.754	109.75
342.981	96.75
343.209	71.75
343.437	121.75
343.665	102.75
343.893	103.75
344.12	89.75
344.348	83.75
344.576	101.75
344.804	98.75
345.031	106.75
345.259	85.75
345.487	102.75
345.714	82.75
345.942	97.75
346.17	89.75
346.397	84.75
346.625	92.75
346.853	101.75
347.08	116.75
347.308	99.75
347.535	100.75
347.763	92.75
347.99	97.75
348.218	100.75
348.445	78.75
348.673	87.75
348.9	84.75
349.128	103.75
349.355	89.75
349.583	87.75
349.81	88.75
350.037	107.75
350.265	110.75
350.492	100.75
350.72	95.75
350.947	96.75
351.174	95.75
351.402	94.75
351.629	95.75
351.856	101.75
352.083	90.75
352.311	94.75
352.538	102.75
352.765	110.75
352.992	118.75
353.22	98.75
353.447	106.75
353.674	96.75
353.901	97.75
354.128	102.75
354.355	98.75
354.583	98.75
354.81	92.75
355.037	85.75
355.264	96.75
355.491	97.75
355.718	106.75
355.945	89.75
356.172	98.75
356.399	88.75
356.626	85.75
356.853	96.75
357.08	90.75
357.307	86.75
357.534	97.75
357.761	97.75
357.988	92.75
358.215	105.75
358.441	115.75
358.668	106.75
358.895	93.75
359.122	107.75
359.349	97.75
359.576	86.75
359.802	96.75
360.029	94.75
360.256	102.75
360.483	100.75
360.709	90.75
360.936	85.75
361.163	93.75
361.39	97.75
361.616	102.75
361.843	90.75
362.07	83.75
362.296	85.75
362.523	65.75
362.749	86.75
362.976	78.75
363.203	100.75
363.429	87.75
363.656	87.75
363.882	84.75
364.109	85.75
364.335	102.75
364.562	95.75
364.788	93.75
365.015	101.75
365.241	98.75
365.468	98.75
365.694	96.75
365.92	92.75
366.147	86.75
366.373	70.75
366.599	80.75
366.826	79.75
367.052	89.75
367.278	90.75
367.505	78.75
367.731	101.75
367.957	94.75
368.184	88.75
368.41	101.75
368.636	99.75
368.862	122.75
369.089	115.75
369.315	97.75
369.541	89.75
369.767	83.75
369.993	94.75
370.219	89.75
370.445	86.75
370.672	91.75
370.898	91.75
371.124	102.75
371.35	84.75
371.576	93.75
371.802	71.75
372.028	81.75
372.254	84.75
372.48	85.75
372.706	90.75
372.932	97.75
373.158	101.75
373.384	91.75
373.61	92.75
373.835	90.75
374.061	82.75
374.287	97.75
374.513	94.75
374.739	101.75
374.965	89.75
375.191	94.75
375.416	71.75
375.642	85.75
375.868	86.75
376.094	100.75
376.319	101.75
376.545	95.75
376.771	89.75
376.997	86.75
377.222	90.75
377.448	109.75
377.674	105.75
377.899	109.75
378.125	100.75
378.35	83.75
378.576	95.75
378.802	91.75
379.027	81.75
379.253	103.75
379.478	95.75
379.704	92.75
379.929	103.75
380.155	89.75
380.38	95.75
380.606	93.75
380.831	101.75
381.057	110.75
381.282	97.75
381.507	109.75
381.733	106.75
381.958	109.75
382.184	102.75
382.409	108.75
382.634	101.75
382.86	121.75
383.085	110.75
383.31	109.75
383.535	115.75
383.761	131.75
383.986	124.75
384.211	111.75
384.436	126.75
384.662	102.75
384.887	136.75
385.112	134.75
385.337	131.75
385.562	127.75
385.787	127.75
386.013	132.75
386.238	153.75
386.463	128.75
386.688	129.75
386.913	120.75
387.138	147.75
387.363	133.75
387.588	119.75
387.813	103.75
388.038	147.75
388.263	155.75
388.488	146.75
388.713	105.75
388.938	85.75
389.163	87.75
389.387	97.75
389.612	89.75
389.837	80.75
390.062	83.75
390.287	108.75
390.512	100.75
390.736	91.75
390.961	98.75
391.186	93.75
391.411	94.75
391.636	91.75
391.86	87.75
392.085	81.75
392.31	101.75
392.534	88.75
392.759	90.75
392.984	100.75
393.208	87.75
393.433	98.75
393.658	86.75
393.882	93.75
394.107	81.75
394.331	89.75
394.556	84.75
394.78	83.75
395.005	89.75
395.229	90.75
395.454	92.75
395.678	100.75
395.903	91.75
396.127	90.75
396.352	98.75
396.576	105.75
396.801	89.75
397.025	87.75
397.249	86.75
397.474	82.75
397.698	74.75
397.922	83.75
398.147	83.75
398.371	82.75
398.595	99.75
398.82	84.75
399.044	81.75
399.268	89.75
399.492	91.75
399.717	98.75
399.941	96.75
400.165	95.75
400.389	93.75
400.613	91.75
400.837	83.75
401.062	83.75
401.286	91.75
401.51	73.75
401.734	89.75
401.958	94.75
402.182	109.75
402.406	138.75
402.63	114.75
402.854	91.75
403.078	91.75
403.302	93.75
403.526	90.75
403.75	83.75
403.974	92.75
404.198	79.75
404.422	86.75
404.645	91.75
404.869	100.75
405.093	88.75
405.317	102.75
405.541	102.75
405.765	98.75
405.988	119.75
406.212	139.75
406.436	186.75
406.66	130.75
406.883	92.75
407.107	79.75
407.331	93.75
407.555	87.75
407.778	103.75
408.002	86.75
408.226	93.75
408.449	92.75
408.673	84.75
408.896	89.75
409.12	100.75
409.344	103.75
409.567	88.75
409.791	101.75
410.014	87.75
410.238	91.75
410.461	103.75
410.685	98.75
410.908	85.75
411.132	109.75
411.355	107.75
411.578	89.75
411.802	86.75
412.025	83.75
412.249	82.75
412.472	99.75
412.695	93.75
412.919	89.75
413.142	89.75
413.365	82.75
413.589	87.75
413.812	90.75
414.035	109.75
414.258	105.75
414.482	91.75
414.705	101.75
414.928	99.75
415.151	95.75
415.374	99.75
415.597	108.75
415.821	84.75
416.044	89.75
416.267	95.75
416.49	76.75
416.713	83.75
416.936	94.75
417.159	92.75
417.382	90.75
417.605	92.75
417.828	95.75
418.051	81.75
418.274	90.75
418.497	85.75
418.72	88.75
418.943	90.75
419.166	66.75
419.389	77.75
419.611	83.75
419.834	73.75
420.057	95.75
420.28	86.75
420.503	81.75
420.726	90.75
420.948	83.75
421.171	98.75
421.394	86.75
421.617	84.75
421.839	83.75
422.062	86.75
422.285	105.75
422.507	98.75
422.73	91.75
422.953	109.75
423.175	73.75
423.398	94.75
423.621	99.75
423.843	86.75
424.066	90.75
424.288	83.75
424.511	77.75
424.733	90.75
424.956	96.75
425.178	92.75
425.401	88.75
425.623	104.75
425.846	74.75
426.068	93.75
426.291	74.75
426.513	78.75
426.735	87.75
426.958	88.75
427.18	94.75
427.402	116.75
427.625	126.75
427.847	133.75
428.069	126.75
428.292	83.75
428.514	97.75
428.736	69.75
428.958	72.75
429.181	85.75
429.403	98.75
429.625	91.75
429.847	81.75
430.069	90.75
430.292	84.75
430.514	91.75
430.736	97.75
430.958	91.75
431.18	97.75
431.402	88.75
431.624	88.75
431.846	74.75
432.068	84.75
432.29	77.75
432.512	90.75
432.734	96.75
432.956	83.75
433.178	91.75
433.4	88.75
433.622	93.75
433.844	82.75
434.066	82.75
434.287	105.75
434.509	83.75
434.731	93.75
434.953	80.75
435.175	96.75
435.397	85.75
435.618	92.75
435.84	98.75
436.062	103.75
436.284	116.75
436.505	99.75
436.727	92.75
436.949	85.75
437.17	86.75
437.392	93.75
437.614	89.75
437.835	103.75
438.057	97.75
438.278	101.75
438.5	87.75
438.721	103.75
438.943	102.75
439.165	81.75
439.386	97.75
439.608	81.75
439.829	85.75
440.05	91.75
440.272	114.75
440.493	96.75
440.715	79.75
440.936	97.75
441.158	92.75
441.379	77.75
441.6	66.75
441.822	91.75
442.043	101.75
442.264	94.75
442.486	88.75
442.707	85.75
442.928	111.75
443.149	100.75
443.371	121.75
443.592	85.75
443.813	101.75
444.034	101.75
444.255	94.75
444.476	89.75
444.698	79.75
444.919	91.75
445.14	146.75
445.361	115.75
445.582	107.75
445.803	117.75
446.024	102.75
446.245	114.75
446.466	83.75
446.687	95.75
446.908	89.75
447.129	79.75
447.35	84.75
447.571	97.75
447.792	97.75
448.013	101.75
448.234	102.75
448.455	96.75
448.675	99.75
448.896	96.75
449.117	105.75
449.338	95.75
449.559	114.75
449.779	107.75
450	78.75
450.221	78.75
450.442	101.75
450.662	79.75
450.883	86.75
451.104	105.75
451.324	95.75
451.545	84.75
451.766	75.75
451.986	86.75
452.207	90.75
452.428	84.75
452.648	82.75
452.869	105.75
453.089	101.75
453.31	98.75
453.53	80.75
453.751	90.75
453.971	85.75
454.192	93.75
454.412	84.75
454.633	78.75
454.853	77.75
455.073	81.75
455.294	100.75
455.514	103.75
455.734	82.75
455.955	73.75
456.175	78.75
456.395	93.75
456.616	104.75
456.836	69.75
457.056	93.75
457.276	84.75
457.497	74.75
457.717	74.75
457.937	78.75
458.157	89.75
458.377	91.75
458.598	92.75
458.818	111.75
459.038	132.75
459.258	107.75
459.478	110.75
459.698	101.75
459.918	81.75
460.138	82.75
460.358	79.75
460.578	73.75
460.798	81.75
461.018	99.75
461.238	85.75
461.458	85.75
461.678	74.75
461.898	86.75
462.118	78.75
462.338	87.75
462.558	87.75
462.777	92.75
462.997	88.75
463.217	90.75
463.437	81.75
463.657	80.75
463.876	79.75
464.096	92.75
464.316	77.75
464.536	83.75
464.755	93.75
464.975	89.75
465.195	127.75
465.414	134.75
465.634	91.75
465.854	86.75
466.073	82.75
466.293	76.75
466.512	85.75
466.732	77.75
466.951	91.75
467.171	85.75
467.391	94.75
467.61	92.75
467.829	96.75
468.049	133.75
468.268	163.75
468.488	99.75
468.707	83.75
468.927	79.75
469.146	99.75
469.365	86.75
469.585	103.75
469.804	88.75
470.023	83.75
470.243	90.75
470.462	102.75
470.681	91.75
470.901	85.75
471.12	90.75
471.339	91.75
471.558	81.75
471.777	80.75
471.997	119.75
472.216	212.75
472.435	370.75
472.654	157.75
472.873	93.75
473.092	98.75
473.311	87.75
473.53	94.75
473.749	91.75
473.968	88.75
474.187	97.75
474.406	95.75
474.625	96.75
474.844	81.75
475.063	82.75
475.282	81.75
475.501	77.75
475.72	95.75
475.939	92.75
476.158	85.75
476.377	90.75
476.596	87.75
476.814	105.75
477.033	81.75
477.252	98.75
477.471	86.75
477.69	92.75
477.908	76.75
478.127	85.75
478.346	107.75
478.564	89.75
478.783	94.75
479.002	92.75
479.22	86.75
479.439	94.75
479.658	83.75
479.876	96.75
480.095	76.75
480.313	102.75
480.532	107.75
480.751	105.75
480.969	213.75
481.188	594.75
481.406	376.75
481.624	123.75
481.843	94.75
482.061	94.75
482.28	93.75
482.498	100.75
482.717	78.75
482.935	99.75
483.153	94.75
483.372	89.75
483.59	86.75
483.808	101.75
484.027	85.75
484.245	81.75
484.463	93.75
484.681	96.75
484.9	97.75
485.118	91.75
485.336	104.75
485.554	89.75
485.772	91.75
485.99	101.75
486.209	96.75
486.427	115.75
486.645	107.75
486.863	91.75
487.081	94.75
487.299	105.75
487.517	85.75
487.735	101.75
487.953	91.75
488.171	94.75
488.389	99.75
488.607	94.75
488.825	69.75
489.043	88.75
489.261	84.75
489.479	80.75
489.696	91.75
489.914	98.75
490.132	91.75
490.35	91.75
490.568	85.75
490.786	85.75
491.003	85.75
491.221	82.75
491.439	93.75
491.657	94.75
491.874	93.75
492.092	95.75
492.31	84.75
492.527	87.75
492.745	83.75
492.963	86.75
493.18	84.75
493.398	96.75
493.615	105.75
493.833	93.75
494.05	82.75
494.268	91.75
494.485	90.75
494.703	94.75
494.92	89.75
495.138	84.75
495.355	98.75
495.573	90.75
495.79	101.75
496.008	82.75
496.225	91.75
496.442	88.75
496.66	99.75
496.877	90.75
497.094	77.75
497.312	83.75
497.529	87.75
497.746	90.75
497.963	91.75
498.181	92.75
498.398	84.75
498.615	114.75
498.832	92.75
499.049	83.75
499.267	95.75
499.484	81.75
499.701	87.75
499.918	95.75
500.135	79.75
500.352	74.75
500.569	85.75
500.786	77.75
501.003	83.75
501.22	90.75
501.437	84.75
501.654	104.75
501.871	88.75
502.088	86.75
502.305	93.75
502.522	92.75
502.739	89.75
502.956	90.75
503.172	77.75
503.389	74.75
503.606	96.75
503.823	83.75
504.04	77.75
504.256	99.75
504.473	76.75
504.69	71.75
504.907	99.75
505.123	101.75
505.34	97.75
505.557	86.75
505.773	85.75
505.99	79.75
506.207	87.75
506.423	77.75
506.64	87.75
506.856	87.75
507.073	80.75
507.289	85.75
507.506	89.75
507.722	92.75
507.939	94.75
508.155	93.75
508.372	79.75
508.588	84.75
508.805	92.75
509.021	91.75
509.238	82.75
509.454	101.75
509.67	97.75
509.887	95.75
510.103	118.75
510.319	175.75
510.536	589.75
510.752	1907.75
510.968	533.75
511.184	137.75
511.401	94.75
511.617	97.75
511.833	92.75
512.049	104.75
512.265	78.75
512.481	97.75
512.698	86.75
512.914	80.75
513.13	93.75
513.346	90.75
513.562	103.75
513.778	90.75
513.994	102.75
514.21	97.75
514.426	110.75
514.642	110.75
514.858	109.75
515.074	136.75
515.29	374.75
515.506	1169.75
515.721	438.75
515.937	139.75
