Data from Circ_1990_H10_HRD10591_00081.txt Node
Date: Wed Jan 03 11:55:20 EST 2024
User: Yrep
Spectrometer: HR+D1059
Trigger mode: 1
Integration Time (sec): 1.000000E-1
Scans to average: 1
Electric dark correction enabled: true
Nonlinearity correction enabled: false
Boxcar width: 0
XAxis mode: Wavelengths
Number of Pixels in Spectrum: 2048
>>>>>Begin Spectral Data<<<<<
223.165	-15.5
223.4	-15.5
223.635	-15.5
223.869	-13.5
224.104	-23.5
224.338	-10.5
224.573	-17.5
224.808	-18.5
225.042	3.5
225.277	-15.5
225.511	4.5
225.746	2.5
225.98	-2.5
226.215	19.5
226.449	4.5
226.683	28.5
226.918	33.5
227.152	20.5
227.387	33.5
227.621	34.5
227.856	48.5
228.09	47.5
228.324	58.5
228.559	57.5
228.793	45.5
229.027	60.5
229.262	77.5
229.496	83.5
229.73	77.5
229.964	92.5
230.199	71.5
230.433	78.5
230.667	80.5
230.901	82.5
231.136	73.5
231.37	73.5
231.604	71.5
231.838	90.5
232.072	78.5
232.306	86.5
232.541	78.5
232.775	82.5
233.009	94.5
233.243	91.5
233.477	102.5
233.711	80.5
233.945	86.5
234.179	84.5
234.413	69.5
234.647	80.5
234.881	74.5
235.115	96.5
235.349	102.5
235.583	89.5
235.817	83.5
236.051	90.5
236.285	68.5
236.519	62.5
236.753	93.5
236.987	87.5
237.221	81.5
237.455	76.5
237.689	77.5
237.922	82.5
238.156	64.5
238.39	73.5
238.624	80.5
238.858	78.5
239.091	92.5
239.325	81.5
239.559	87.5
239.793	89.5
240.027	81.5
240.26	65.5
240.494	79.5
240.728	84.5
240.961	65.5
241.195	89.5
241.429	67.5
241.662	65.5
241.896	72.5
242.13	65.5
242.363	76.5
242.597	78.5
242.83	76.5
243.064	77.5
243.298	85.5
243.531	77.5
243.765	85.5
243.998	81.5
244.232	83.5
244.465	81.5
244.699	77.5
244.932	89.5
245.166	87.5
245.399	74.5
245.633	82.5
245.866	89.5
246.099	70.5
246.333	66.5
246.566	77.5
246.8	69.5
247.033	85.5
247.266	85.5
247.5	82.5
247.733	81.5
247.966	77.5
248.2	90.5
248.433	79.5
248.666	89.5
248.899	90.5
249.133	73.5
249.366	81.5
249.599	96.5
249.832	95.5
250.066	88.5
250.299	89.5
250.532	87.5
250.765	81.5
250.998	72.5
251.231	85.5
251.465	71.5
251.698	78.5
251.931	75.5
252.164	82.5
252.397	85.5
252.63	87.5
252.863	62.5
253.096	68.5
253.329	78.5
253.562	80.5
253.795	86.5
254.028	85.5
254.261	83.5
254.494	78.5
254.727	86.5
254.96	76.5
255.193	93.5
255.426	76.5
255.659	82.5
255.892	90.5
256.124	90.5
256.357	90.5
256.59	85.5
256.823	77.5
257.056	90.5
257.289	97.5
257.521	86.5
257.754	93.5
257.987	88.5
258.22	80.5
258.452	79.5
258.685	82.5
258.918	85.5
259.151	78.5
259.383	90.5
259.616	100.5
259.849	94.5
260.081	77.5
260.314	68.5
260.547	78.5
260.779	96.5
261.012	91.5
261.244	102.5
261.477	92.5
261.71	90.5
261.942	118.5
262.175	126.5
262.407	80.5
262.64	79.5
262.872	95.5
263.105	76.5
263.337	87.5
263.57	81.5
263.802	89.5
264.035	81.5
264.267	89.5
264.499	94.5
264.732	89.5
264.964	88.5
265.197	88.5
265.429	86.5
265.661	87.5
265.894	87.5
266.126	83.5
266.358	97.5
266.591	72.5
266.823	91.5
267.055	88.5
267.287	96.5
267.52	92.5
267.752	84.5
267.984	88.5
268.216	89.5
268.448	89.5
268.681	81.5
268.913	102.5
269.145	84.5
269.377	87.5
269.609	79.5
269.841	87.5
270.073	81.5
270.306	82.5
270.538	76.5
270.77	82.5
271.002	98.5
271.234	84.5
271.466	90.5
271.698	77.5
271.93	88.5
272.162	78.5
272.394	86.5
272.626	82.5
272.858	71.5
273.09	84.5
273.322	76.5
273.553	83.5
273.785	76.5
274.017	87.5
274.249	90.5
274.481	80.5
274.713	83.5
274.945	88.5
275.176	85.5
275.408	88.5
275.64	85.5
275.872	92.5
276.104	94.5
276.335	96.5
276.567	117.5
276.799	122.5
277.031	123.5
277.262	115.5
277.494	107.5
277.726	92.5
277.957	100.5
278.189	96.5
278.421	81.5
278.652	84.5
278.884	94.5
279.115	74.5
279.347	79.5
279.579	96.5
279.81	106.5
280.042	122.5
280.273	156.5
280.505	117.5
280.736	91.5
280.968	80.5
281.199	87.5
281.431	87.5
281.662	95.5
281.894	90.5
282.125	103.5
282.356	136.5
282.588	147.5
282.819	113.5
283.051	96.5
283.282	101.5
283.513	104.5
283.745	97.5
283.976	94.5
284.207	90.5
284.439	84.5
284.67	92.5
284.901	92.5
285.132	99.5
285.364	103.5
285.595	81.5
285.826	95.5
286.057	106.5
286.288	83.5
286.52	92.5
286.751	76.5
286.982	77.5
287.213	79.5
287.444	86.5
287.675	92.5
287.906	94.5
288.138	108.5
288.369	85.5
288.6	83.5
288.831	89.5
289.062	87.5
289.293	85.5
289.524	100.5
289.755	92.5
289.986	88.5
290.217	89.5
290.448	98.5
290.679	80.5
290.91	92.5
291.141	86.5
291.371	89.5
291.602	99.5
291.833	101.5
292.064	92.5
292.295	97.5
292.526	94.5
292.757	99.5
292.987	83.5
293.218	86.5
293.449	99.5
293.68	78.5
293.91	86.5
294.141	84.5
294.372	101.5
294.603	94.5
294.833	84.5
295.064	86.5
295.295	93.5
295.525	95.5
295.756	96.5
295.987	113.5
296.217	142.5
296.448	129.5
296.679	97.5
296.909	83.5
297.14	100.5
297.37	101.5
297.601	96.5
297.831	84.5
298.062	101.5
298.292	97.5
298.523	93.5
298.753	97.5
298.984	80.5
299.214	93.5
299.445	85.5
299.675	85.5
299.905	91.5
300.136	96.5
300.366	93.5
300.597	86.5
300.827	85.5
301.057	94.5
301.288	107.5
301.518	101.5
301.748	87.5
301.979	113.5
302.209	96.5
302.439	98.5
302.669	103.5
302.9	89.5
303.13	102.5
303.36	95.5
303.59	115.5
303.82	116.5
304.051	102.5
304.281	106.5
304.511	86.5
304.741	101.5
304.971	86.5
305.201	92.5
305.431	86.5
305.661	94.5
305.891	94.5
306.121	106.5
306.352	98.5
306.582	113.5
306.812	100.5
307.042	101.5
307.272	117.5
307.502	124.5
307.731	131.5
307.961	117.5
308.191	118.5
308.421	102.5
308.651	88.5
308.881	100.5
309.111	99.5
309.341	86.5
309.571	93.5
309.8	105.5
310.03	100.5
310.26	98.5
310.49	100.5
310.72	106.5
310.949	113.5
311.179	109.5
311.409	94.5
311.639	86.5
311.868	104.5
312.098	104.5
312.328	98.5
312.557	101.5
312.787	112.5
313.017	100.5
313.246	88.5
313.476	85.5
313.706	92.5
313.935	95.5
314.165	107.5
314.394	94.5
314.624	106.5
314.853	88.5
315.083	103.5
315.312	106.5
315.542	91.5
315.771	93.5
316.001	90.5
316.23	92.5
316.46	86.5
316.689	87.5
316.919	93.5
317.148	105.5
317.377	86.5
317.607	99.5
317.836	92.5
318.065	90.5
318.295	106.5
318.524	101.5
318.753	105.5
318.983	97.5
319.212	91.5
319.441	104.5
319.67	94.5
319.9	100.5
320.129	97.5
320.358	95.5
320.587	107.5
320.816	106.5
321.046	103.5
321.275	85.5
321.504	101.5
321.733	89.5
321.962	95.5
322.191	98.5
322.42	114.5
322.649	111.5
322.878	110.5
323.108	125.5
323.337	113.5
323.566	125.5
323.795	146.5
324.024	232.5
324.253	391.5
324.482	851.5
324.71	1763.5
324.939	2368.5
325.168	869.5
325.397	259.5
325.626	148.5
325.855	140.5
326.084	113.5
326.313	153.5
326.542	159.5
326.77	239.5
326.999	481.5
327.228	1002.5
327.457	1781.5
327.686	1443.5
327.914	437.5
328.143	302.5
328.372	332.5
328.6	201.5
328.829	136.5
329.058	163.5
329.287	165.5
329.515	145.5
329.744	171.5
329.972	243.5
330.201	432.5
330.43	593.5
330.658	291.5
330.887	190.5
331.115	140.5
331.344	106.5
331.572	111.5
331.801	98.5
332.03	118.5
332.258	98.5
332.486	103.5
332.715	124.5
332.943	113.5
333.172	115.5
333.4	114.5
333.629	134.5
333.857	153.5
334.085	237.5
334.314	412.5
334.542	770.5
334.771	706.5
334.999	230.5
335.227	134.5
335.455	105.5
335.684	112.5
335.912	101.5
336.14	114.5
336.369	105.5
336.597	101.5
336.825	99.5
337.053	107.5
337.281	97.5
337.51	92.5
337.738	99.5
337.966	82.5
338.194	104.5
338.422	105.5
338.65	111.5
338.878	99.5
339.106	91.5
339.334	109.5
339.562	102.5
339.79	98.5
340.018	98.5
340.246	94.5
340.474	104.5
340.702	87.5
340.93	79.5
341.158	100.5
341.386	120.5
341.614	108.5
341.842	89.5
342.07	93.5
342.298	95.5
342.526	86.5
342.754	96.5
342.981	90.5
343.209	91.5
343.437	111.5
343.665	94.5
343.893	89.5
344.12	93.5
344.348	96.5
344.576	81.5
344.804	100.5
345.031	112.5
345.259	103.5
345.487	101.5
345.714	100.5
345.942	102.5
346.17	114.5
346.397	98.5
346.625	98.5
346.853	97.5
347.08	93.5
347.308	105.5
347.535	92.5
347.763	112.5
347.99	97.5
348.218	95.5
348.445	104.5
348.673	106.5
348.9	97.5
349.128	79.5
349.355	101.5
349.583	102.5
349.81	80.5
350.037	96.5
350.265	96.5
350.492	93.5
350.72	102.5
350.947	110.5
351.174	114.5
351.402	113.5
351.629	106.5
351.856	105.5
352.083	117.5
352.311	105.5
352.538	101.5
352.765	112.5
352.992	102.5
353.22	98.5
353.447	117.5
353.674	95.5
353.901	99.5
354.128	100.5
354.355	96.5
354.583	92.5
354.81	104.5
355.037	103.5
355.264	97.5
355.491	93.5
355.718	95.5
355.945	102.5
356.172	88.5
356.399	89.5
356.626	94.5
356.853	102.5
357.08	96.5
357.307	98.5
357.534	92.5
357.761	93.5
357.988	78.5
358.215	109.5
358.441	95.5
358.668	103.5
358.895	114.5
359.122	88.5
359.349	74.5
359.576	101.5
359.802	113.5
360.029	94.5
360.256	118.5
360.483	101.5
360.709	85.5
360.936	86.5
361.163	90.5
361.39	98.5
361.616	91.5
361.843	81.5
362.07	105.5
362.296	114.5
362.523	114.5
362.749	109.5
362.976	104.5
363.203	92.5
363.429	95.5
363.656	101.5
363.882	101.5
364.109	94.5
364.335	104.5
364.562	95.5
364.788	88.5
365.015	101.5
365.241	108.5
365.468	121.5
365.694	116.5
365.92	109.5
366.147	92.5
366.373	87.5
366.599	90.5
366.826	89.5
367.052	93.5
367.278	108.5
367.505	95.5
367.731	91.5
367.957	89.5
368.184	71.5
368.41	96.5
368.636	105.5
368.862	118.5
369.089	100.5
369.315	91.5
369.541	93.5
369.767	92.5
369.993	93.5
370.219	101.5
370.445	93.5
370.672	98.5
370.898	98.5
371.124	87.5
371.35	99.5
371.576	90.5
371.802	96.5
372.028	89.5
372.254	100.5
372.48	80.5
372.706	104.5
372.932	96.5
373.158	92.5
373.384	101.5
373.61	94.5
373.835	103.5
374.061	93.5
374.287	99.5
374.513	85.5
374.739	93.5
374.965	86.5
375.191	92.5
375.416	97.5
375.642	105.5
375.868	96.5
376.094	85.5
376.319	87.5
376.545	104.5
376.771	89.5
376.997	100.5
377.222	83.5
377.448	93.5
377.674	101.5
377.899	98.5
378.125	84.5
378.35	88.5
378.576	86.5
378.802	83.5
379.027	92.5
379.253	103.5
379.478	95.5
379.704	102.5
379.929	94.5
380.155	110.5
380.38	99.5
380.606	100.5
380.831	111.5
381.057	94.5
381.282	89.5
381.507	110.5
381.733	101.5
381.958	93.5
382.184	93.5
382.409	93.5
382.634	106.5
382.86	87.5
383.085	113.5
383.31	102.5
383.535	105.5
383.761	116.5
383.986	104.5
384.211	97.5
384.436	106.5
384.662	108.5
384.887	97.5
385.112	107.5
385.337	101.5
385.562	103.5
385.787	100.5
386.013	123.5
386.238	129.5
386.463	121.5
386.688	106.5
386.913	105.5
387.138	105.5
387.363	101.5
387.588	106.5
387.813	104.5
388.038	118.5
388.263	119.5
388.488	113.5
388.713	105.5
388.938	98.5
389.163	106.5
389.387	98.5
389.612	101.5
389.837	103.5
390.062	98.5
390.287	91.5
390.512	96.5
390.736	81.5
390.961	80.5
391.186	94.5
391.411	89.5
391.636	100.5
391.86	94.5
392.085	94.5
392.31	92.5
392.534	98.5
392.759	90.5
392.984	106.5
393.208	87.5
393.433	83.5
393.658	88.5
393.882	92.5
394.107	81.5
394.331	91.5
394.556	85.5
394.78	86.5
395.005	74.5
395.229	89.5
395.454	73.5
395.678	70.5
395.903	92.5
396.127	99.5
396.352	87.5
396.576	85.5
396.801	78.5
397.025	99.5
397.249	86.5
397.474	93.5
397.698	85.5
397.922	87.5
398.147	92.5
398.371	82.5
398.595	98.5
398.82	82.5
399.044	84.5
399.268	99.5
399.492	80.5
399.717	90.5
399.941	95.5
400.165	89.5
400.389	92.5
400.613	80.5
400.837	87.5
401.062	86.5
401.286	76.5
401.51	98.5
401.734	101.5
401.958	105.5
402.182	134.5
402.406	156.5
402.63	115.5
402.854	97.5
403.078	86.5
403.302	92.5
403.526	92.5
403.75	91.5
403.974	92.5
404.198	89.5
404.422	94.5
404.645	89.5
404.869	85.5
405.093	108.5
405.317	116.5
405.541	114.5
405.765	105.5
405.988	112.5
406.212	185.5
406.436	235.5
406.66	140.5
406.883	103.5
407.107	94.5
407.331	98.5
407.555	118.5
407.778	110.5
408.002	93.5
408.226	82.5
408.449	84.5
408.673	77.5
408.896	110.5
409.12	88.5
409.344	80.5
409.567	95.5
409.791	98.5
410.014	86.5
410.238	90.5
410.461	92.5
410.685	92.5
410.908	97.5
411.132	99.5
411.355	106.5
411.578	99.5
411.802	86.5
412.025	96.5
412.249	103.5
412.472	106.5
412.695	124.5
412.919	97.5
413.142	82.5
413.365	104.5
413.589	95.5
413.812	90.5
414.035	106.5
414.258	92.5
414.482	91.5
414.705	83.5
414.928	84.5
415.151	91.5
415.374	86.5
415.597	85.5
415.821	104.5
416.044	105.5
416.267	86.5
416.49	90.5
416.713	86.5
416.936	90.5
417.159	95.5
417.382	96.5
417.605	98.5
417.828	101.5
418.051	93.5
418.274	94.5
418.497	92.5
418.72	95.5
418.943	110.5
419.166	86.5
419.389	90.5
419.611	83.5
419.834	93.5
420.057	86.5
420.28	76.5
420.503	91.5
420.726	92.5
420.948	103.5
421.171	92.5
421.394	90.5
421.617	101.5
421.839	90.5
422.062	87.5
422.285	96.5
422.507	111.5
422.73	110.5
422.953	95.5
423.175	104.5
423.398	99.5
423.621	96.5
423.843	91.5
424.066	81.5
424.288	94.5
424.511	96.5
424.733	95.5
424.956	104.5
425.178	95.5
425.401	111.5
425.623	98.5
425.846	94.5
426.068	108.5
426.291	105.5
426.513	98.5
426.735	97.5
426.958	82.5
427.18	123.5
427.402	145.5
427.625	187.5
427.847	180.5
428.069	163.5
428.292	124.5
428.514	95.5
428.736	98.5
428.958	88.5
429.181	92.5
429.403	94.5
429.625	92.5
429.847	102.5
430.069	108.5
430.292	92.5
430.514	88.5
430.736	90.5
430.958	98.5
431.18	87.5
431.402	84.5
431.624	76.5
431.846	80.5
432.068	86.5
432.29	81.5
432.512	85.5
432.734	88.5
432.956	106.5
433.178	96.5
433.4	109.5
433.622	88.5
433.844	86.5
434.066	76.5
434.287	89.5
434.509	94.5
434.731	86.5
434.953	86.5
435.175	87.5
435.397	81.5
435.618	89.5
435.84	82.5
436.062	120.5
436.284	108.5
436.505	100.5
436.727	102.5
436.949	86.5
437.17	77.5
437.392	95.5
437.614	89.5
437.835	105.5
438.057	128.5
438.278	114.5
438.5	111.5
438.721	123.5
438.943	84.5
439.165	84.5
439.386	79.5
439.608	87.5
439.829	102.5
440.05	128.5
440.272	143.5
440.493	106.5
440.715	93.5
440.936	93.5
441.158	97.5
441.379	95.5
441.6	95.5
441.822	108.5
442.043	120.5
442.264	109.5
442.486	106.5
442.707	96.5
442.928	100.5
443.149	146.5
443.371	140.5
443.592	113.5
443.813	107.5
444.034	113.5
444.255	105.5
444.476	88.5
444.698	95.5
444.919	88.5
445.14	133.5
445.361	133.5
445.582	121.5
445.803	147.5
446.024	156.5
446.245	144.5
446.466	118.5
446.687	97.5
446.908	93.5
447.129	82.5
447.35	84.5
447.571	93.5
447.792	73.5
448.013	114.5
448.234	108.5
448.455	84.5
448.675	118.5
448.896	127.5
449.117	103.5
449.338	110.5
449.559	133.5
449.779	124.5
450	99.5
450.221	84.5
450.442	88.5
450.662	92.5
450.883	108.5
451.104	116.5
451.324	88.5
451.545	87.5
451.766	95.5
451.986	80.5
452.207	97.5
452.428	102.5
452.648	103.5
452.869	112.5
453.089	108.5
453.31	117.5
453.53	97.5
453.751	97.5
453.971	123.5
454.192	117.5
454.412	90.5
454.633	85.5
454.853	80.5
455.073	94.5
455.294	87.5
455.514	92.5
455.734	95.5
455.955	89.5
456.175	92.5
456.395	80.5
456.616	79.5
456.836	85.5
457.056	83.5
457.276	104.5
457.497	88.5
457.717	76.5
457.937	92.5
458.157	98.5
458.377	90.5
458.598	103.5
458.818	162.5
459.038	172.5
459.258	116.5
459.478	95.5
459.698	81.5
459.918	85.5
460.138	81.5
460.358	85.5
460.578	84.5
460.798	90.5
461.018	100.5
461.238	73.5
461.458	85.5
461.678	86.5
461.898	89.5
462.118	89.5
462.338	97.5
462.558	77.5
462.777	81.5
462.997	84.5
463.217	100.5
463.437	94.5
463.657	108.5
463.876	97.5
464.096	106.5
464.316	88.5
464.536	101.5
464.755	85.5
464.975	102.5
465.195	171.5
465.414	177.5
465.634	100.5
465.854	96.5
466.073	90.5
466.293	89.5
466.512	78.5
466.732	105.5
466.951	94.5
467.171	96.5
467.391	91.5
467.61	116.5
467.829	133.5
468.049	277.5
468.268	378.5
468.488	137.5
468.707	96.5
468.927	91.5
469.146	88.5
469.365	78.5
469.585	88.5
469.804	100.5
470.023	108.5
470.243	85.5
470.462	97.5
470.681	109.5
470.901	84.5
471.12	90.5
471.339	95.5
471.558	104.5
471.777	125.5
471.997	180.5
472.216	536.5
472.435	1048.5
472.654	271.5
472.873	133.5
473.092	94.5
473.311	87.5
473.53	90.5
473.749	98.5
473.968	105.5
474.187	116.5
474.406	100.5
474.625	90.5
474.844	92.5
475.063	86.5
475.282	90.5
475.501	76.5
475.72	88.5
475.939	85.5
476.158	105.5
476.377	99.5
476.596	76.5
476.814	105.5
477.033	94.5
477.252	88.5
477.471	88.5
477.69	85.5
477.908	100.5
478.127	92.5
478.346	86.5
478.564	76.5
478.783	79.5
479.002	81.5
479.22	94.5
479.439	105.5
479.658	102.5
479.876	106.5
480.095	102.5
480.313	103.5
480.532	119.5
480.751	189.5
480.969	490.5
481.188	1838.5
481.406	1047.5
481.624	198.5
481.843	125.5
482.061	91.5
482.28	109.5
482.498	85.5
482.717	96.5
482.935	91.5
483.153	88.5
483.372	97.5
483.59	90.5
483.808	93.5
484.027	90.5
484.245	100.5
484.463	93.5
484.681	89.5
484.9	107.5
485.118	95.5
485.336	92.5
485.554	104.5
485.772	92.5
485.99	96.5
486.209	106.5
486.427	110.5
486.645	120.5
486.863	113.5
487.081	93.5
487.299	100.5
487.517	95.5
487.735	88.5
487.953	98.5
488.171	95.5
488.389	105.5
488.607	111.5
488.825	99.5
489.043	89.5
489.261	88.5
489.479	101.5
489.696	101.5
489.914	79.5
490.132	100.5
490.35	101.5
490.568	92.5
490.786	91.5
491.003	101.5
491.221	84.5
491.439	96.5
491.657	84.5
491.874	86.5
492.092	95.5
492.31	88.5
492.527	95.5
492.745	111.5
492.963	101.5
493.18	99.5
493.398	84.5
493.615	100.5
493.833	95.5
494.05	104.5
494.268	96.5
494.485	101.5
494.703	92.5
494.92	103.5
495.138	85.5
495.355	92.5
495.573	86.5
495.79	95.5
496.008	84.5
496.225	78.5
496.442	101.5
496.66	100.5
496.877	84.5
497.094	94.5
497.312	94.5
497.529	90.5
497.746	90.5
497.963	91.5
498.181	85.5
498.398	109.5
498.615	116.5
498.832	106.5
499.049	102.5
499.267	95.5
499.484	89.5
499.701	88.5
499.918	95.5
500.135	94.5
500.352	98.5
500.569	88.5
500.786	85.5
501.003	98.5
501.22	99.5
501.437	88.5
501.654	88.5
501.871	111.5
502.088	92.5
502.305	80.5
502.522	86.5
502.739	104.5
502.956	103.5
503.172	100.5
503.389	106.5
503.606	101.5
503.823	96.5
504.04	80.5
504.256	87.5
504.473	93.5
504.69	97.5
504.907	98.5
505.123	94.5
505.34	94.5
505.557	86.5
505.773	82.5
505.99	94.5
506.207	93.5
506.423	94.5
506.64	91.5
506.856	89.5
507.073	85.5
507.289	99.5
507.506	104.5
507.722	115.5
507.939	126.5
508.155	96.5
508.372	98.5
508.588	97.5
508.805	87.5
509.021	89.5
509.238	92.5
509.454	103.5
509.67	103.5
509.887	112.5
510.103	133.5
510.319	190.5
510.536	714.5
510.752	2212.5
510.968	601.5
511.184	166.5
511.401	114.5
511.617	98.5
511.833	80.5
512.049	93.5
512.265	90.5
512.481	94.5
512.698	87.5
512.914	103.5
513.13	92.5
513.346	105.5
513.562	94.5
513.778	103.5
513.994	96.5
514.21	106.5
514.426	122.5
514.642	140.5
514.858	116.5
515.074	171.5
515.29	487.5
515.506	1578.5
515.721	554.5
515.937	166.5
516.153	121.5
516.369	111.5
516.585	89.5
516.801	91.5
517.016	100.5
517.232	88.5
517.448	105.5
517.664	98.5
517.879	109.5
518.095	80.5
518.311	109.5
518.527	102.5
518.742	96.5
518.958	101.5
519.173	100.5
519.389	90.5
519.605	98.5
519.82	102.5
520.036	99.5
520.251	118.5
520.467	119.5
520.682	97.5
520.898	123.5
521.113	118.5
521.329	156.5
521.544	224.5
521.76	593.5
521.975	2620.5
522.19	1574.5
522.406	337.5
522.621	133.5
522.836	118.5
523.052	107.5
523.267	101.5
523.482	86.5
523.698	95.5
523.913	132.5
524.128	116.5
524.343	107.5
524.559	93.5
524.774	98.5
524.989	95.5
525.204	98.5
525.419	93.5
525.634	98.5
525.849	94.5
526.064	95.5
526.28	97.5
526.495	97.5
526.71	98.5
526.925	80.5
527.14	95.5
527.355	95.5
527.57	92.5
527.785	87.5
527.999	89.5
528.214	98.5
528.429	95.5
528.644	92.5
528.859	97.5
529.074	107.5
529.289	128.5
529.503	190.5
529.718	114.5
529.933	91.5
530.148	81.5
530.363	98.5
530.577	84.5
530.792	101.5
531.007	92.5
531.221	97.5
531.436	93.5
531.651	97.5
531.865	92.5
532.08	92.5
532.295	102.5
532.509	99.5
532.724	89.5
532.938	89.5
