Data from Circ_1990_H10_HRD10591_00015.txt Node
Date: Wed Jan 03 11:55:07 EST 2024
User: Yrep
Spectrometer: HR+D1059
Trigger mode: 1
Integration Time (sec): 1.000000E-1
Scans to average: 1
Electric dark correction enabled: true
Nonlinearity correction enabled: false
Boxcar width: 0
XAxis mode: Wavelengths
Number of Pixels in Spectrum: 2048
>>>>>Begin Spectral Data<<<<<
223.165	-3.5
223.4	-3.5
223.635	-3.5
223.869	-17.5
224.104	-24.5
224.338	-22.5
224.573	-10.5
224.808	-8.5
225.042	-5.5
225.277	-7.5
225.511	-6.5
225.746	2.5
225.98	7.5
226.215	14.5
226.449	10.5
226.683	24.5
226.918	22.5
227.152	24.5
227.387	48.5
227.621	39.5
227.856	44.5
228.09	37.5
228.324	49.5
228.559	61.5
228.793	61.5
229.027	63.5
229.262	69.5
229.496	76.5
229.73	73.5
229.964	74.5
230.199	69.5
230.433	76.5
230.667	71.5
230.901	83.5
231.136	66.5
231.37	82.5
231.604	79.5
231.838	83.5
232.072	80.5
232.306	93.5
232.541	87.5
232.775	68.5
233.009	68.5
233.243	73.5
233.477	87.5
233.711	86.5
233.945	86.5
234.179	82.5
234.413	86.5
234.647	77.5
234.881	79.5
235.115	79.5
235.349	61.5
235.583	70.5
235.817	70.5
236.051	78.5
236.285	78.5
236.519	80.5
236.753	70.5
236.987	80.5
237.221	86.5
237.455	64.5
237.689	73.5
237.922	76.5
238.156	66.5
238.39	85.5
238.624	83.5
238.858	80.5
239.091	72.5
239.325	82.5
239.559	87.5
239.793	86.5
240.027	71.5
240.26	84.5
240.494	96.5
240.728	70.5
240.961	80.5
241.195	71.5
241.429	78.5
241.662	96.5
241.896	90.5
242.13	80.5
242.363	91.5
242.597	72.5
242.83	79.5
243.064	67.5
243.298	79.5
243.531	75.5
243.765	86.5
243.998	97.5
244.232	81.5
244.465	99.5
244.699	73.5
244.932	78.5
245.166	90.5
245.399	69.5
245.633	75.5
245.866	87.5
246.099	82.5
246.333	94.5
246.566	76.5
246.8	66.5
247.033	74.5
247.266	96.5
247.5	76.5
247.733	89.5
247.966	76.5
248.2	83.5
248.433	90.5
248.666	79.5
248.899	87.5
249.133	84.5
249.366	96.5
249.599	107.5
249.832	86.5
250.066	76.5
250.299	70.5
250.532	79.5
250.765	90.5
250.998	86.5
251.231	77.5
251.465	75.5
251.698	73.5
251.931	86.5
252.164	97.5
252.397	87.5
252.63	73.5
252.863	76.5
253.096	83.5
253.329	85.5
253.562	74.5
253.795	104.5
254.028	88.5
254.261	80.5
254.494	86.5
254.727	83.5
254.96	80.5
255.193	80.5
255.426	77.5
255.659	77.5
255.892	66.5
256.124	80.5
256.357	91.5
256.59	84.5
256.823	80.5
257.056	88.5
257.289	74.5
257.521	76.5
257.754	87.5
257.987	94.5
258.22	78.5
258.452	81.5
258.685	85.5
258.918	91.5
259.151	80.5
259.383	85.5
259.616	82.5
259.849	82.5
260.081	88.5
260.314	85.5
260.547	76.5
260.779	86.5
261.012	87.5
261.244	76.5
261.477	80.5
261.71	80.5
261.942	107.5
262.175	107.5
262.407	83.5
262.64	73.5
262.872	76.5
263.105	80.5
263.337	93.5
263.57	89.5
263.802	84.5
264.035	97.5
264.267	84.5
264.499	90.5
264.732	74.5
264.964	85.5
265.197	81.5
265.429	89.5
265.661	67.5
265.894	72.5
266.126	82.5
266.358	84.5
266.591	76.5
266.823	96.5
267.055	77.5
267.287	76.5
267.52	78.5
267.752	93.5
267.984	91.5
268.216	70.5
268.448	80.5
268.681	88.5
268.913	90.5
269.145	82.5
269.377	97.5
269.609	95.5
269.841	73.5
270.073	80.5
270.306	82.5
270.538	93.5
270.77	102.5
271.002	76.5
271.234	77.5
271.466	72.5
271.698	87.5
271.93	85.5
272.162	97.5
272.394	87.5
272.626	73.5
272.858	81.5
273.09	82.5
273.322	73.5
273.553	81.5
273.785	81.5
274.017	70.5
274.249	93.5
274.481	72.5
274.713	84.5
274.945	104.5
275.176	79.5
275.408	98.5
275.64	95.5
275.872	94.5
276.104	79.5
276.335	99.5
276.567	99.5
276.799	99.5
277.031	111.5
277.262	92.5
277.494	88.5
277.726	97.5
277.957	80.5
278.189	90.5
278.421	89.5
278.652	81.5
278.884	92.5
279.115	72.5
279.347	98.5
279.579	108.5
279.81	82.5
280.042	96.5
280.273	102.5
280.505	103.5
280.736	93.5
280.968	83.5
281.199	88.5
281.431	105.5
281.662	93.5
281.894	99.5
282.125	99.5
282.356	109.5
282.588	136.5
282.819	114.5
283.051	86.5
283.282	84.5
283.513	90.5
283.745	80.5
283.976	79.5
284.207	89.5
284.439	85.5
284.67	99.5
284.901	90.5
285.132	89.5
285.364	93.5
285.595	94.5
285.826	88.5
286.057	93.5
286.288	81.5
286.52	92.5
286.751	85.5
286.982	82.5
287.213	94.5
287.444	84.5
287.675	97.5
287.906	96.5
288.138	79.5
288.369	106.5
288.6	81.5
288.831	83.5
289.062	89.5
289.293	102.5
289.524	74.5
289.755	90.5
289.986	101.5
290.217	82.5
290.448	99.5
290.679	95.5
290.91	95.5
291.141	69.5
291.371	94.5
291.602	90.5
291.833	85.5
292.064	79.5
292.295	92.5
292.526	85.5
292.757	94.5
292.987	100.5
293.218	89.5
293.449	94.5
293.68	84.5
293.91	99.5
294.141	84.5
294.372	88.5
294.603	86.5
294.833	94.5
295.064	79.5
295.295	106.5
295.525	99.5
295.756	87.5
295.987	118.5
296.217	134.5
296.448	133.5
296.679	87.5
296.909	88.5
297.14	89.5
297.37	88.5
297.601	81.5
297.831	73.5
298.062	88.5
298.292	88.5
298.523	86.5
298.753	82.5
298.984	95.5
299.214	89.5
299.445	104.5
299.675	80.5
299.905	94.5
300.136	94.5
300.366	82.5
300.597	89.5
300.827	93.5
301.057	101.5
301.288	91.5
301.518	98.5
301.748	90.5
301.979	99.5
302.209	90.5
302.439	85.5
302.669	88.5
302.9	81.5
303.13	95.5
303.36	100.5
303.59	104.5
303.82	108.5
304.051	96.5
304.281	92.5
304.511	81.5
304.741	97.5
304.971	90.5
305.201	87.5
305.431	101.5
305.661	86.5
305.891	99.5
306.121	105.5
306.352	108.5
306.582	101.5
306.812	98.5
307.042	98.5
307.272	79.5
307.502	96.5
307.731	100.5
307.961	96.5
308.191	95.5
308.421	86.5
308.651	83.5
308.881	100.5
309.111	85.5
309.341	106.5
309.571	96.5
309.8	93.5
310.03	92.5
310.26	94.5
310.49	98.5
310.72	99.5
310.949	102.5
311.179	89.5
311.409	93.5
311.639	84.5
311.868	92.5
312.098	90.5
312.328	95.5
312.557	115.5
312.787	107.5
313.017	102.5
313.246	94.5
313.476	89.5
313.706	100.5
313.935	101.5
314.165	102.5
314.394	95.5
314.624	96.5
314.853	101.5
315.083	88.5
315.312	96.5
315.542	100.5
315.771	96.5
316.001	83.5
316.23	93.5
316.46	97.5
316.689	94.5
316.919	99.5
317.148	91.5
317.377	93.5
317.607	89.5
317.836	83.5
318.065	101.5
318.295	99.5
318.524	87.5
318.753	82.5
318.983	89.5
319.212	79.5
319.441	115.5
319.67	93.5
319.9	74.5
320.129	86.5
320.358	96.5
320.587	86.5
320.816	90.5
321.046	96.5
321.275	86.5
321.504	82.5
321.733	103.5
321.962	102.5
322.191	102.5
322.42	99.5
322.649	101.5
322.878	98.5
323.108	111.5
323.337	117.5
323.566	121.5
323.795	142.5
324.024	188.5
324.253	320.5
324.482	716.5
324.71	1460.5
324.939	1887.5
325.168	686.5
325.397	230.5
325.626	140.5
325.855	114.5
326.084	116.5
326.313	128.5
326.542	142.5
326.77	202.5
326.999	389.5
327.228	806.5
327.457	1486.5
327.686	1196.5
327.914	345.5
328.143	196.5
328.372	181.5
328.6	137.5
328.829	116.5
329.058	111.5
329.287	133.5
329.515	110.5
329.744	131.5
329.972	129.5
330.201	198.5
330.43	271.5
330.658	172.5
330.887	137.5
331.115	125.5
331.344	110.5
331.572	95.5
331.801	97.5
332.03	107.5
332.258	100.5
332.486	84.5
332.715	89.5
332.943	103.5
333.172	86.5
333.4	97.5
333.629	118.5
333.857	124.5
334.085	145.5
334.314	210.5
334.542	302.5
334.771	290.5
334.999	133.5
335.227	104.5
335.455	109.5
335.684	111.5
335.912	96.5
336.14	106.5
336.369	92.5
336.597	101.5
336.825	97.5
337.053	107.5
337.281	91.5
337.51	100.5
337.738	100.5
337.966	97.5
338.194	92.5
338.422	97.5
338.65	94.5
338.878	90.5
339.106	89.5
339.334	94.5
339.562	99.5
339.79	88.5
340.018	104.5
340.246	94.5
340.474	104.5
340.702	96.5
340.93	92.5
341.158	91.5
341.386	103.5
341.614	106.5
341.842	90.5
342.07	78.5
342.298	93.5
342.526	88.5
342.754	88.5
342.981	85.5
343.209	90.5
343.437	99.5
343.665	87.5
343.893	93.5
344.12	91.5
344.348	90.5
344.576	88.5
344.804	105.5
345.031	106.5
345.259	107.5
345.487	96.5
345.714	95.5
345.942	92.5
346.17	105.5
346.397	91.5
346.625	98.5
346.853	90.5
347.08	93.5
347.308	98.5
347.535	103.5
347.763	96.5
347.99	88.5
348.218	106.5
348.445	96.5
348.673	105.5
348.9	98.5
349.128	110.5
349.355	90.5
349.583	104.5
349.81	96.5
350.037	85.5
350.265	89.5
350.492	109.5
350.72	92.5
350.947	104.5
351.174	110.5
351.402	102.5
351.629	106.5
351.856	102.5
352.083	96.5
352.311	114.5
352.538	99.5
352.765	117.5
352.992	108.5
353.22	118.5
353.447	109.5
353.674	99.5
353.901	95.5
354.128	99.5
354.355	100.5
354.583	93.5
354.81	103.5
355.037	100.5
355.264	96.5
355.491	102.5
355.718	100.5
355.945	112.5
356.172	88.5
356.399	98.5
356.626	95.5
356.853	106.5
357.08	112.5
357.307	92.5
357.534	96.5
357.761	85.5
357.988	91.5
358.215	113.5
358.441	116.5
358.668	100.5
358.895	105.5
359.122	92.5
359.349	84.5
359.576	92.5
359.802	94.5
360.029	117.5
360.256	102.5
360.483	91.5
360.709	87.5
360.936	98.5
361.163	105.5
361.39	105.5
361.616	92.5
361.843	103.5
362.07	98.5
362.296	105.5
362.523	96.5
362.749	105.5
362.976	85.5
363.203	84.5
363.429	97.5
363.656	91.5
363.882	101.5
364.109	88.5
364.335	99.5
364.562	99.5
364.788	104.5
365.015	88.5
365.241	93.5
365.468	113.5
365.694	101.5
365.92	92.5
366.147	92.5
366.373	81.5
366.599	92.5
366.826	84.5
367.052	90.5
367.278	82.5
367.505	79.5
367.731	88.5
367.957	86.5
368.184	93.5
368.41	121.5
368.636	108.5
368.862	106.5
369.089	113.5
369.315	90.5
369.541	88.5
369.767	87.5
369.993	83.5
370.219	88.5
370.445	92.5
370.672	82.5
370.898	99.5
371.124	106.5
371.35	89.5
371.576	98.5
371.802	88.5
372.028	82.5
372.254	85.5
372.48	98.5
372.706	88.5
372.932	88.5
373.158	90.5
373.384	94.5
373.61	95.5
373.835	85.5
374.061	94.5
374.287	87.5
374.513	100.5
374.739	95.5
374.965	90.5
375.191	91.5
375.416	87.5
375.642	101.5
375.868	92.5
376.094	96.5
376.319	97.5
376.545	98.5
376.771	113.5
376.997	99.5
377.222	99.5
377.448	112.5
377.674	99.5
377.899	114.5
378.125	86.5
378.35	105.5
378.576	97.5
378.802	100.5
379.027	101.5
379.253	97.5
379.478	94.5
379.704	105.5
379.929	112.5
380.155	106.5
380.38	88.5
380.606	103.5
380.831	111.5
381.057	105.5
381.282	128.5
381.507	103.5
381.733	100.5
381.958	113.5
382.184	112.5
382.409	113.5
382.634	110.5
382.86	126.5
383.085	123.5
383.31	110.5
383.535	112.5
383.761	127.5
383.986	115.5
384.211	120.5
384.436	122.5
384.662	140.5
384.887	154.5
385.112	140.5
385.337	158.5
385.562	131.5
385.787	136.5
386.013	153.5
386.238	138.5
386.463	143.5
386.688	140.5
386.913	135.5
387.138	144.5
387.363	137.5
387.588	125.5
387.813	118.5
388.038	148.5
388.263	167.5
388.488	157.5
388.713	101.5
388.938	94.5
389.163	84.5
389.387	97.5
389.612	100.5
389.837	96.5
390.062	90.5
390.287	99.5
390.512	106.5
390.736	108.5
390.961	101.5
391.186	96.5
391.411	96.5
391.636	85.5
391.86	78.5
392.085	82.5
392.31	82.5
392.534	91.5
392.759	96.5
392.984	100.5
393.208	89.5
393.433	92.5
393.658	110.5
393.882	102.5
394.107	92.5
394.331	89.5
394.556	76.5
394.78	92.5
395.005	85.5
395.229	90.5
395.454	105.5
395.678	78.5
395.903	78.5
396.127	88.5
396.352	89.5
396.576	90.5
396.801	100.5
397.025	110.5
397.249	98.5
397.474	93.5
397.698	96.5
397.922	99.5
398.147	80.5
398.371	85.5
398.595	86.5
398.82	82.5
399.044	94.5
399.268	94.5
399.492	80.5
399.717	93.5
399.941	81.5
400.165	95.5
400.389	84.5
400.613	87.5
400.837	81.5
401.062	68.5
401.286	71.5
401.51	98.5
401.734	86.5
401.958	87.5
402.182	116.5
402.406	153.5
402.63	96.5
402.854	99.5
403.078	104.5
403.302	85.5
403.526	84.5
403.75	101.5
403.974	92.5
404.198	81.5
404.422	84.5
404.645	98.5
404.869	88.5
405.093	91.5
405.317	89.5
405.541	102.5
405.765	95.5
405.988	101.5
406.212	160.5
406.436	207.5
406.66	145.5
406.883	89.5
407.107	106.5
407.331	97.5
407.555	105.5
407.778	118.5
408.002	101.5
408.226	97.5
408.449	98.5
408.673	102.5
408.896	93.5
409.12	96.5
409.344	91.5
409.567	76.5
409.791	85.5
410.014	83.5
410.238	100.5
410.461	85.5
410.685	94.5
410.908	91.5
411.132	102.5
411.355	84.5
411.578	87.5
411.802	92.5
412.025	87.5
412.249	93.5
412.472	91.5
412.695	113.5
412.919	93.5
413.142	88.5
413.365	97.5
413.589	76.5
413.812	100.5
414.035	100.5
414.258	90.5
414.482	106.5
414.705	82.5
414.928	90.5
415.151	76.5
415.374	104.5
415.597	101.5
415.821	93.5
416.044	94.5
416.267	96.5
416.49	98.5
416.713	90.5
416.936	94.5
417.159	73.5
417.382	76.5
417.605	92.5
417.828	103.5
418.051	87.5
418.274	105.5
418.497	90.5
418.72	86.5
418.943	81.5
419.166	98.5
419.389	84.5
419.611	95.5
419.834	80.5
420.057	99.5
420.28	86.5
420.503	87.5
420.726	92.5
420.948	88.5
421.171	95.5
421.394	104.5
421.617	94.5
421.839	79.5
422.062	94.5
422.285	76.5
422.507	93.5
422.73	103.5
422.953	96.5
423.175	87.5
423.398	90.5
423.621	100.5
423.843	97.5
424.066	97.5
424.288	92.5
424.511	88.5
424.733	111.5
424.956	96.5
425.178	103.5
425.401	93.5
425.623	95.5
425.846	87.5
426.068	94.5
426.291	105.5
426.513	93.5
426.735	96.5
426.958	87.5
427.18	104.5
427.402	133.5
427.625	160.5
427.847	141.5
428.069	125.5
428.292	94.5
428.514	85.5
428.736	88.5
428.958	84.5
429.181	88.5
429.403	94.5
429.625	98.5
429.847	93.5
430.069	78.5
430.292	106.5
430.514	97.5
430.736	80.5
430.958	86.5
431.18	81.5
431.402	90.5
431.624	86.5
431.846	96.5
432.068	92.5
432.29	85.5
432.512	84.5
432.734	77.5
432.956	106.5
433.178	112.5
433.4	106.5
433.622	89.5
433.844	89.5
434.066	88.5
434.287	99.5
434.509	99.5
434.731	98.5
434.953	96.5
435.175	78.5
435.397	81.5
435.618	97.5
435.84	105.5
436.062	132.5
436.284	122.5
436.505	102.5
436.727	102.5
436.949	82.5
437.17	85.5
437.392	93.5
437.614	102.5
437.835	102.5
438.057	112.5
438.278	102.5
438.5	118.5
438.721	94.5
438.943	99.5
439.165	81.5
439.386	100.5
439.608	95.5
439.829	97.5
440.05	117.5
440.272	135.5
440.493	99.5
440.715	84.5
440.936	85.5
441.158	90.5
441.379	87.5
441.6	92.5
441.822	104.5
442.043	87.5
442.264	102.5
442.486	100.5
442.707	95.5
442.928	108.5
443.149	137.5
443.371	127.5
443.592	114.5
443.813	111.5
444.034	109.5
444.255	71.5
444.476	88.5
444.698	69.5
444.919	98.5
445.14	129.5
445.361	116.5
445.582	98.5
445.803	122.5
446.024	120.5
446.245	137.5
446.466	124.5
446.687	83.5
446.908	95.5
447.129	96.5
447.35	98.5
447.571	88.5
447.792	90.5
448.013	97.5
448.234	105.5
448.455	92.5
448.675	108.5
448.896	119.5
449.117	83.5
449.338	96.5
449.559	129.5
449.779	124.5
450	106.5
450.221	95.5
450.442	102.5
450.662	92.5
450.883	108.5
451.104	109.5
451.324	101.5
451.545	85.5
451.766	101.5
451.986	83.5
452.207	95.5
452.428	88.5
452.648	88.5
452.869	111.5
453.089	113.5
453.31	112.5
453.53	93.5
453.751	94.5
453.971	98.5
454.192	101.5
454.412	92.5
454.633	89.5
454.853	96.5
455.073	87.5
455.294	99.5
455.514	105.5
455.734	101.5
455.955	83.5
456.175	77.5
456.395	85.5
456.616	81.5
456.836	92.5
457.056	97.5
457.276	74.5
457.497	104.5
457.717	85.5
457.937	92.5
458.157	91.5
458.377	83.5
458.598	98.5
458.818	132.5
459.038	153.5
459.258	99.5
459.478	82.5
459.698	92.5
459.918	97.5
460.138	89.5
460.358	82.5
460.578	103.5
460.798	89.5
461.018	84.5
461.238	96.5
461.458	78.5
461.678	81.5
461.898	86.5
462.118	78.5
462.338	98.5
462.558	89.5
462.777	85.5
462.997	89.5
463.217	91.5
463.437	101.5
463.657	101.5
463.876	79.5
464.096	80.5
464.316	92.5
464.536	85.5
464.755	105.5
464.975	110.5
465.195	161.5
465.414	137.5
465.634	99.5
465.854	79.5
466.073	70.5
466.293	92.5
466.512	76.5
466.732	77.5
466.951	84.5
467.171	97.5
467.391	103.5
467.61	106.5
467.829	110.5
468.049	142.5
468.268	171.5
468.488	92.5
468.707	77.5
468.927	80.5
469.146	92.5
469.365	93.5
469.585	112.5
469.804	92.5
470.023	90.5
470.243	98.5
470.462	101.5
470.681	104.5
470.901	93.5
471.12	97.5
471.339	101.5
471.558	98.5
471.777	94.5
471.997	113.5
472.216	209.5
472.435	398.5
472.654	166.5
472.873	104.5
473.092	95.5
473.311	92.5
473.53	87.5
473.749	80.5
473.968	108.5
474.187	111.5
474.406	109.5
474.625	97.5
474.844	92.5
475.063	84.5
475.282	81.5
475.501	79.5
475.72	101.5
475.939	92.5
476.158	88.5
476.377	92.5
476.596	86.5
476.814	87.5
477.033	83.5
477.252	94.5
477.471	99.5
477.69	95.5
477.908	86.5
478.127	91.5
478.346	99.5
478.564	82.5
478.783	110.5
479.002	105.5
479.22	98.5
479.439	82.5
479.658	103.5
479.876	103.5
480.095	86.5
480.313	105.5
480.532	90.5
480.751	124.5
480.969	213.5
481.188	628.5
481.406	413.5
481.624	126.5
481.843	92.5
482.061	90.5
482.28	93.5
482.498	92.5
482.717	97.5
482.935	82.5
483.153	82.5
483.372	89.5
483.59	97.5
483.808	94.5
484.027	93.5
484.245	105.5
484.463	99.5
484.681	91.5
484.9	97.5
485.118	96.5
485.336	101.5
485.554	85.5
485.772	114.5
485.99	110.5
486.209	109.5
486.427	98.5
486.645	120.5
486.863	111.5
487.081	104.5
487.299	96.5
487.517	106.5
487.735	85.5
487.953	92.5
488.171	100.5
488.389	104.5
488.607	95.5
488.825	93.5
489.043	99.5
489.261	94.5
489.479	86.5
489.696	81.5
489.914	84.5
490.132	93.5
490.35	100.5
490.568	93.5
490.786	93.5
491.003	93.5
491.221	81.5
491.439	90.5
491.657	96.5
491.874	101.5
492.092	91.5
492.31	98.5
492.527	95.5
492.745	89.5
492.963	92.5
493.18	88.5
493.398	107.5
493.615	93.5
493.833	85.5
494.05	76.5
494.268	85.5
494.485	88.5
494.703	103.5
494.92	94.5
495.138	94.5
495.355	83.5
495.573	97.5
495.79	92.5
496.008	96.5
496.225	101.5
496.442	100.5
496.66	86.5
496.877	97.5
497.094	86.5
497.312	72.5
497.529	94.5
497.746	96.5
497.963	84.5
498.181	90.5
498.398	92.5
498.615	112.5
498.832	100.5
499.049	98.5
499.267	84.5
499.484	93.5
499.701	91.5
499.918	92.5
500.135	88.5
500.352	94.5
500.569	92.5
500.786	96.5
501.003	93.5
501.22	83.5
501.437	95.5
501.654	99.5
501.871	105.5
502.088	94.5
502.305	81.5
502.522	86.5
502.739	92.5
502.956	81.5
503.172	89.5
503.389	104.5
503.606	102.5
503.823	104.5
504.04	95.5
504.256	99.5
504.473	80.5
504.69	84.5
504.907	84.5
505.123	94.5
505.34	86.5
505.557	91.5
505.773	92.5
505.99	89.5
506.207	98.5
506.423	86.5
506.64	103.5
506.856	94.5
507.073	86.5
507.289	92.5
507.506	99.5
507.722	108.5
507.939	96.5
508.155	101.5
508.372	89.5
508.588	90.5
508.805	101.5
509.021	108.5
509.238	98.5
509.454	105.5
509.67	85.5
509.887	110.5
510.103	123.5
510.319	201.5
510.536	624.5
510.752	1958.5
510.968	556.5
511.184	142.5
511.401	109.5
511.617	112.5
511.833	84.5
512.049	88.5
512.265	81.5
512.481	71.5
512.698	81.5
512.914	102.5
513.13	92.5
513.346	100.5
513.562	89.5
513.778	86.5
513.994	92.5
514.21	105.5
514.426	123.5
514.642	154.5
514.858	125.5
515.074	163.5
515.29	389.5
515.506	1237.5
515.721	458.5
515.937	156.5
516.153	103.5
516.369	102.5
516.585	99.5
516.801	88.5
517.016	102.5
517.232	91.5
517.448	81.5
517.664	88.5
517.879	82.5
518.095	102.5
518.311	102.5
518.527	84.5
518.742	92.5
518.958	100.5
519.173	89.5
519.389	89.5
519.605	106.5
519.82	105.5
520.036	103.5
520.251	120.5
520.467	113.5
520.682	99.5
520.898	100.5
521.113	127.5
521.329	141.5
521.544	197.5
521.76	503.5
521.975	2097.5
522.19	1295.5
522.406	293.5
522.621	124.5
522.836	105.5
523.052	90.5
523.267	96.5
523.482	82.5
523.698	97.5
523.913	132.5
524.128	94.5
524.343	96.5
524.559	89.5
524.774	94.5
524.989	95.5
525.204	93.5
525.419	94.5
525.634	88.5
525.849	92.5
526.064	87.5
526.28	92.5
526.495	88.5
526.71	85.5
526.925	94.5
527.14	99.5
527.355	92.5
527.57	97.5
527.785	95.5
527.999	85.5
528.214	84.5
528.429	71.5
528.644	84.5
528.859	92.5
529.074	101.5
529.289	116.5
529.503	158.5
529.718	120.5
529.933	95.5
530.148	88.5
530.363	82.5
530.577	83.5
530.792	92.5
531.007	87.5
531.221	73.5
531.436	89.5
531.651	93.5
531.865	97.5
532.08	104.5
532.295	106.5
532.509	84.5
532.724	89.5
532.938	73.5
533.153	91.5
533.367	106.5
533.582	101.5
533.796	106.5
534.011	93.5
534.225	99.5
