Data from Circ_1990_H10_HRD10591_00020.txt Node
Date: Wed Jan 03 11:55:08 EST 2024
User: Yrep
Spectrometer: HR+D1059
Trigger mode: 1
Integration Time (sec): 1.000000E-1
Scans to average: 1
Electric dark correction enabled: true
Nonlinearity correction enabled: false
Boxcar width: 0
XAxis mode: Wavelengths
Number of Pixels in Spectrum: 2048
>>>>>Begin Spectral Data<<<<<
223.165	-15.56
223.4	-15.56
223.635	-15.56
223.869	-18.56
224.104	-20.56
224.338	-17.56
224.573	-7.56
224.808	-9.56
225.042	-12.56
225.277	-8.56
225.511	-9.56
225.746	6.44
225.98	11.44
226.215	4.44
226.449	21.44
226.683	15.44
226.918	27.44
227.152	33.44
227.387	33.44
227.621	39.44
227.856	37.44
228.09	60.44
228.324	47.44
228.559	49.44
228.793	53.44
229.027	77.44
229.262	69.44
229.496	76.44
229.73	87.44
229.964	89.44
230.199	81.44
230.433	63.44
230.667	65.44
230.901	78.44
231.136	72.44
231.37	79.44
231.604	84.44
231.838	85.44
232.072	71.44
232.306	85.44
232.541	81.44
232.775	77.44
233.009	91.44
233.243	87.44
233.477	77.44
233.711	77.44
233.945	80.44
234.179	63.44
234.413	79.44
234.647	81.44
234.881	88.44
235.115	82.44
235.349	68.44
235.583	78.44
235.817	77.44
236.051	77.44
236.285	86.44
236.519	83.44
236.753	68.44
236.987	74.44
237.221	84.44
237.455	85.44
237.689	72.44
237.922	87.44
238.156	88.44
238.39	85.44
238.624	68.44
238.858	83.44
239.091	77.44
239.325	94.44
239.559	85.44
239.793	97.44
240.027	91.44
240.26	85.44
240.494	83.44
240.728	69.44
240.961	72.44
241.195	68.44
241.429	65.44
241.662	85.44
241.896	89.44
242.13	81.44
242.363	63.44
242.597	78.44
242.83	83.44
243.064	77.44
243.298	90.44
243.531	69.44
243.765	81.44
243.998	79.44
244.232	89.44
244.465	91.44
244.699	87.44
244.932	97.44
245.166	80.44
245.399	82.44
245.633	89.44
245.866	88.44
246.099	83.44
246.333	80.44
246.566	87.44
246.8	73.44
247.033	60.44
247.266	84.44
247.5	74.44
247.733	78.44
247.966	86.44
248.2	81.44
248.433	84.44
248.666	61.44
248.899	91.44
249.133	82.44
249.366	98.44
249.599	89.44
249.832	79.44
250.066	87.44
250.299	79.44
250.532	82.44
250.765	80.44
250.998	66.44
251.231	81.44
251.465	72.44
251.698	65.44
251.931	95.44
252.164	85.44
252.397	77.44
252.63	74.44
252.863	71.44
253.096	95.44
253.329	90.44
253.562	85.44
253.795	87.44
254.028	93.44
254.261	86.44
254.494	76.44
254.727	98.44
254.96	83.44
255.193	82.44
255.426	79.44
255.659	78.44
255.892	93.44
256.124	85.44
256.357	83.44
256.59	78.44
256.823	93.44
257.056	87.44
257.289	58.44
257.521	81.44
257.754	79.44
257.987	88.44
258.22	88.44
258.452	90.44
258.685	89.44
258.918	85.44
259.151	75.44
259.383	79.44
259.616	100.44
259.849	69.44
260.081	82.44
260.314	90.44
260.547	85.44
260.779	75.44
261.012	91.44
261.244	95.44
261.477	80.44
261.71	88.44
261.942	111.44
262.175	107.44
262.407	93.44
262.64	85.44
262.872	96.44
263.105	71.44
263.337	69.44
263.57	97.44
263.802	96.44
264.035	91.44
264.267	81.44
264.499	71.44
264.732	78.44
264.964	63.44
265.197	85.44
265.429	80.44
265.661	95.44
265.894	86.44
266.126	84.44
266.358	93.44
266.591	91.44
266.823	86.44
267.055	88.44
267.287	85.44
267.52	87.44
267.752	75.44
267.984	79.44
268.216	87.44
268.448	86.44
268.681	85.44
268.913	79.44
269.145	78.44
269.377	65.44
269.609	85.44
269.841	77.44
270.073	68.44
270.306	83.44
270.538	91.44
270.77	71.44
271.002	82.44
271.234	81.44
271.466	83.44
271.698	80.44
271.93	95.44
272.162	91.44
272.394	76.44
272.626	79.44
272.858	84.44
273.09	84.44
273.322	73.44
273.553	86.44
273.785	93.44
274.017	82.44
274.249	70.44
274.481	94.44
274.713	93.44
274.945	73.44
275.176	84.44
275.408	95.44
275.64	81.44
275.872	79.44
276.104	96.44
276.335	98.44
276.567	97.44
276.799	107.44
277.031	109.44
277.262	102.44
277.494	91.44
277.726	80.44
277.957	82.44
278.189	86.44
278.421	71.44
278.652	83.44
278.884	83.44
279.115	83.44
279.347	95.44
279.579	99.44
279.81	89.44
280.042	108.44
280.273	112.44
280.505	109.44
280.736	81.44
280.968	86.44
281.199	83.44
281.431	87.44
281.662	76.44
281.894	89.44
282.125	106.44
282.356	101.44
282.588	138.44
282.819	115.44
283.051	93.44
283.282	85.44
283.513	81.44
283.745	85.44
283.976	84.44
284.207	86.44
284.439	95.44
284.67	100.44
284.901	89.44
285.132	103.44
285.364	82.44
285.595	87.44
285.826	96.44
286.057	88.44
286.288	78.44
286.52	87.44
286.751	93.44
286.982	89.44
287.213	83.44
287.444	81.44
287.675	93.44
287.906	84.44
288.138	85.44
288.369	85.44
288.6	96.44
288.831	98.44
289.062	82.44
289.293	72.44
289.524	95.44
289.755	95.44
289.986	75.44
290.217	77.44
290.448	86.44
290.679	86.44
290.91	91.44
291.141	95.44
291.371	96.44
291.602	86.44
291.833	95.44
292.064	78.44
292.295	104.44
292.526	87.44
292.757	85.44
292.987	85.44
293.218	86.44
293.449	87.44
293.68	94.44
293.91	86.44
294.141	95.44
294.372	100.44
294.603	95.44
294.833	79.44
295.064	88.44
295.295	92.44
295.525	88.44
295.756	107.44
295.987	118.44
296.217	139.44
296.448	118.44
296.679	92.44
296.909	95.44
297.14	77.44
297.37	89.44
297.601	78.44
297.831	99.44
298.062	80.44
298.292	78.44
298.523	86.44
298.753	88.44
298.984	99.44
299.214	99.44
299.445	85.44
299.675	81.44
299.905	91.44
300.136	82.44
300.366	85.44
300.597	100.44
300.827	93.44
301.057	105.44
301.288	104.44
301.518	96.44
301.748	106.44
301.979	108.44
302.209	99.44
302.439	95.44
302.669	111.44
302.9	89.44
303.13	97.44
303.36	89.44
303.59	98.44
303.82	116.44
304.051	103.44
304.281	84.44
304.511	85.44
304.741	95.44
304.971	84.44
305.201	82.44
305.431	96.44
305.661	104.44
305.891	91.44
306.121	85.44
306.352	95.44
306.582	105.44
306.812	100.44
307.042	95.44
307.272	93.44
307.502	100.44
307.731	110.44
307.961	89.44
308.191	95.44
308.421	86.44
308.651	92.44
308.881	96.44
309.111	76.44
309.341	95.44
309.571	112.44
309.8	107.44
310.03	94.44
310.26	105.44
310.49	101.44
310.72	95.44
310.949	91.44
311.179	101.44
311.409	107.44
311.639	96.44
311.868	102.44
312.098	85.44
312.328	94.44
312.557	110.44
312.787	104.44
313.017	96.44
313.246	100.44
313.476	87.44
313.706	91.44
313.935	103.44
314.165	93.44
314.394	107.44
314.624	113.44
314.853	96.44
315.083	104.44
315.312	97.44
315.542	88.44
315.771	97.44
316.001	89.44
316.23	96.44
316.46	100.44
316.689	86.44
316.919	107.44
317.148	86.44
317.377	89.44
317.607	92.44
317.836	88.44
318.065	91.44
318.295	98.44
318.524	97.44
318.753	93.44
318.983	95.44
319.212	97.44
319.441	109.44
319.67	105.44
319.9	82.44
320.129	89.44
320.358	79.44
320.587	95.44
320.816	103.44
321.046	108.44
321.275	88.44
321.504	100.44
321.733	88.44
321.962	83.44
322.191	104.44
322.42	107.44
322.649	110.44
322.878	109.44
323.108	113.44
323.337	126.44
323.566	148.44
323.795	162.44
324.024	188.44
324.253	391.44
324.482	780.44
324.71	1643.44
324.939	2185.44
325.168	803.44
325.397	234.44
325.626	150.44
325.855	111.44
326.084	123.44
326.313	130.44
326.542	145.44
326.77	237.44
326.999	438.44
327.228	910.44
327.457	1679.44
327.686	1345.44
327.914	374.44
328.143	237.44
328.372	251.44
328.6	172.44
328.829	151.44
329.058	121.44
329.287	148.44
329.515	110.44
329.744	130.44
329.972	187.44
330.201	275.44
330.43	390.44
330.658	248.44
330.887	169.44
331.115	135.44
331.344	103.44
331.572	110.44
331.801	97.44
332.03	96.44
332.258	104.44
332.486	92.44
332.715	100.44
332.943	93.44
333.172	115.44
333.4	97.44
333.629	130.44
333.857	140.44
334.085	174.44
334.314	294.44
334.542	491.44
334.771	460.44
334.999	191.44
335.227	110.44
335.455	104.44
335.684	97.44
335.912	102.44
336.14	100.44
336.369	102.44
336.597	92.44
336.825	96.44
337.053	89.44
337.281	95.44
337.51	99.44
337.738	105.44
337.966	95.44
338.194	98.44
338.422	99.44
338.65	88.44
338.878	81.44
339.106	81.44
339.334	98.44
339.562	81.44
339.79	91.44
340.018	90.44
340.246	98.44
340.474	88.44
340.702	92.44
340.93	102.44
341.158	95.44
341.386	84.44
341.614	99.44
341.842	92.44
342.07	100.44
342.298	92.44
342.526	90.44
342.754	99.44
342.981	96.44
343.209	93.44
343.437	88.44
343.665	83.44
343.893	91.44
344.12	93.44
344.348	96.44
344.576	81.44
344.804	78.44
345.031	94.44
345.259	117.44
345.487	99.44
345.714	93.44
345.942	93.44
346.17	91.44
346.397	103.44
346.625	87.44
346.853	102.44
347.08	93.44
347.308	84.44
347.535	102.44
347.763	82.44
347.99	97.44
348.218	95.44
348.445	105.44
348.673	93.44
348.9	95.44
349.128	88.44
349.355	86.44
349.583	97.44
349.81	103.44
350.037	101.44
350.265	112.44
350.492	98.44
350.72	104.44
350.947	85.44
351.174	87.44
351.402	111.44
351.629	88.44
351.856	101.44
352.083	104.44
352.311	111.44
352.538	103.44
352.765	104.44
352.992	132.44
353.22	115.44
353.447	99.44
353.674	101.44
353.901	81.44
354.128	94.44
354.355	90.44
354.583	95.44
354.81	93.44
355.037	101.44
355.264	93.44
355.491	104.44
355.718	101.44
355.945	97.44
356.172	91.44
356.399	99.44
356.626	96.44
356.853	93.44
357.08	102.44
357.307	92.44
357.534	102.44
357.761	107.44
357.988	104.44
358.215	102.44
358.441	104.44
358.668	114.44
358.895	98.44
359.122	85.44
359.349	96.44
359.576	80.44
359.802	103.44
360.029	112.44
360.256	110.44
360.483	97.44
360.709	96.44
360.936	108.44
361.163	88.44
361.39	92.44
361.616	93.44
361.843	84.44
362.07	95.44
362.296	88.44
362.523	100.44
362.749	107.44
362.976	101.44
363.203	95.44
363.429	106.44
363.656	102.44
363.882	91.44
364.109	94.44
364.335	87.44
364.562	93.44
364.788	93.44
365.015	100.44
365.241	94.44
365.468	128.44
365.694	93.44
365.92	105.44
366.147	92.44
366.373	101.44
366.599	86.44
366.826	88.44
367.052	85.44
367.278	87.44
367.505	90.44
367.731	97.44
367.957	103.44
368.184	113.44
368.41	108.44
368.636	110.44
368.862	117.44
369.089	98.44
369.315	99.44
369.541	90.44
369.767	111.44
369.993	95.44
370.219	89.44
370.445	76.44
370.672	97.44
370.898	82.44
371.124	103.44
371.35	95.44
371.576	79.44
371.802	80.44
372.028	84.44
372.254	91.44
372.48	93.44
372.706	88.44
372.932	85.44
373.158	93.44
373.384	92.44
373.61	104.44
373.835	87.44
374.061	102.44
374.287	99.44
374.513	101.44
374.739	87.44
374.965	97.44
375.191	79.44
375.416	89.44
375.642	93.44
375.868	89.44
376.094	110.44
376.319	98.44
376.545	83.44
376.771	96.44
376.997	102.44
377.222	107.44
377.448	103.44
377.674	91.44
377.899	91.44
378.125	82.44
378.35	99.44
378.576	96.44
378.802	102.44
379.027	105.44
379.253	103.44
379.478	92.44
379.704	109.44
379.929	100.44
380.155	99.44
380.38	106.44
380.606	122.44
380.831	107.44
381.057	120.44
381.282	103.44
381.507	119.44
381.733	116.44
381.958	123.44
382.184	116.44
382.409	106.44
382.634	139.44
382.86	142.44
383.085	126.44
383.31	116.44
383.535	120.44
383.761	116.44
383.986	113.44
384.211	121.44
384.436	124.44
384.662	130.44
384.887	142.44
385.112	145.44
385.337	134.44
385.562	140.44
385.787	120.44
386.013	137.44
386.238	152.44
386.463	128.44
386.688	153.44
386.913	141.44
387.138	144.44
387.363	133.44
387.588	108.44
387.813	107.44
388.038	145.44
388.263	167.44
388.488	159.44
388.713	107.44
388.938	104.44
389.163	105.44
389.387	93.44
389.612	85.44
389.837	84.44
390.062	88.44
390.287	98.44
390.512	93.44
390.736	93.44
390.961	92.44
391.186	99.44
391.411	95.44
391.636	96.44
391.86	88.44
392.085	80.44
392.31	90.44
392.534	99.44
392.759	88.44
392.984	94.44
393.208	88.44
393.433	98.44
393.658	95.44
393.882	88.44
394.107	80.44
394.331	101.44
394.556	107.44
394.78	87.44
395.005	82.44
395.229	96.44
395.454	103.44
395.678	85.44
395.903	92.44
396.127	93.44
396.352	99.44
396.576	89.44
396.801	89.44
397.025	112.44
397.249	109.44
397.474	86.44
397.698	80.44
397.922	73.44
398.147	92.44
398.371	83.44
398.595	89.44
398.82	98.44
399.044	97.44
399.268	76.44
399.492	86.44
399.717	100.44
399.941	86.44
400.165	95.44
400.389	102.44
400.613	86.44
400.837	90.44
401.062	92.44
401.286	89.44
401.51	93.44
401.734	92.44
401.958	98.44
402.182	116.44
402.406	147.44
402.63	135.44
402.854	91.44
403.078	98.44
403.302	98.44
403.526	79.44
403.75	89.44
403.974	97.44
404.198	99.44
404.422	77.44
404.645	96.44
404.869	89.44
405.093	103.44
405.317	115.44
405.541	117.44
405.765	110.44
405.988	120.44
406.212	163.44
406.436	213.44
406.66	148.44
406.883	109.44
407.107	94.44
407.331	101.44
407.555	101.44
407.778	89.44
408.002	92.44
408.226	100.44
408.449	91.44
408.673	97.44
408.896	102.44
409.12	100.44
409.344	91.44
409.567	100.44
409.791	97.44
410.014	95.44
410.238	108.44
410.461	95.44
410.685	95.44
410.908	109.44
411.132	107.44
411.355	103.44
411.578	94.44
411.802	79.44
412.025	80.44
412.249	112.44
412.472	110.44
412.695	113.44
412.919	101.44
413.142	98.44
413.365	96.44
413.589	87.44
413.812	88.44
414.035	96.44
414.258	107.44
414.482	106.44
414.705	99.44
414.928	106.44
415.151	89.44
415.374	90.44
415.597	82.44
415.821	94.44
416.044	108.44
416.267	98.44
416.49	97.44
416.713	95.44
416.936	90.44
417.159	85.44
417.382	83.44
417.605	91.44
417.828	93.44
418.051	98.44
418.274	95.44
418.497	93.44
418.72	81.44
418.943	96.44
419.166	100.44
419.389	88.44
419.611	109.44
419.834	100.44
420.057	95.44
420.28	92.44
420.503	96.44
420.726	92.44
420.948	110.44
421.171	106.44
421.394	104.44
421.617	89.44
421.839	80.44
422.062	83.44
422.285	89.44
422.507	111.44
422.73	109.44
422.953	116.44
423.175	79.44
423.398	80.44
423.621	85.44
423.843	93.44
424.066	93.44
424.288	100.44
424.511	90.44
424.733	109.44
424.956	115.44
425.178	103.44
425.401	109.44
425.623	103.44
425.846	94.44
426.068	93.44
426.291	94.44
426.513	90.44
426.735	93.44
426.958	101.44
427.18	108.44
427.402	152.44
427.625	186.44
427.847	152.44
428.069	158.44
428.292	104.44
428.514	109.44
428.736	85.44
428.958	90.44
429.181	81.44
429.403	83.44
429.625	81.44
429.847	94.44
430.069	103.44
430.292	95.44
430.514	104.44
430.736	91.44
430.958	91.44
431.18	88.44
431.402	93.44
431.624	86.44
431.846	100.44
432.068	92.44
432.29	91.44
432.512	105.44
432.734	72.44
432.956	92.44
433.178	87.44
433.4	99.44
433.622	99.44
433.844	94.44
434.066	87.44
434.287	87.44
434.509	92.44
434.731	89.44
434.953	94.44
435.175	88.44
435.397	82.44
435.618	87.44
435.84	116.44
436.062	134.44
436.284	139.44
436.505	126.44
436.727	116.44
436.949	98.44
437.17	94.44
437.392	83.44
437.614	96.44
437.835	110.44
438.057	127.44
438.278	119.44
438.5	110.44
438.721	128.44
438.943	95.44
439.165	83.44
439.386	93.44
439.608	97.44
439.829	105.44
440.05	130.44
440.272	139.44
440.493	96.44
440.715	99.44
440.936	95.44
441.158	97.44
441.379	100.44
441.6	97.44
441.822	85.44
442.043	104.44
442.264	113.44
442.486	112.44
442.707	96.44
442.928	111.44
443.149	138.44
443.371	144.44
443.592	111.44
443.813	122.44
444.034	122.44
444.255	101.44
444.476	99.44
444.698	104.44
444.919	88.44
445.14	146.44
445.361	130.44
445.582	106.44
445.803	151.44
446.024	132.44
446.245	142.44
446.466	120.44
446.687	85.44
446.908	95.44
447.129	96.44
447.35	104.44
447.571	102.44
447.792	95.44
448.013	104.44
448.234	116.44
448.455	95.44
448.675	105.44
448.896	113.44
449.117	97.44
449.338	103.44
449.559	139.44
449.779	136.44
450	107.44
450.221	91.44
450.442	87.44
450.662	98.44
450.883	111.44
451.104	108.44
451.324	91.44
451.545	98.44
451.766	97.44
451.986	89.44
452.207	86.44
452.428	95.44
452.648	100.44
452.869	124.44
453.089	115.44
453.31	133.44
453.53	94.44
453.751	94.44
453.971	105.44
454.192	120.44
454.412	85.44
454.633	91.44
454.853	88.44
455.073	73.44
455.294	106.44
455.514	107.44
455.734	95.44
455.955	77.44
456.175	89.44
456.395	94.44
456.616	90.44
456.836	79.44
457.056	91.44
457.276	88.44
457.497	84.44
457.717	92.44
457.937	84.44
458.157	94.44
458.377	95.44
458.598	118.44
458.818	148.44
459.038	162.44
459.258	131.44
459.478	94.44
459.698	86.44
459.918	90.44
460.138	104.44
460.358	88.44
460.578	87.44
460.798	85.44
461.018	91.44
461.238	88.44
461.458	81.44
461.678	73.44
461.898	95.44
462.118	78.44
462.338	85.44
462.558	94.44
462.777	84.44
462.997	86.44
463.217	94.44
463.437	75.44
463.657	90.44
463.876	80.44
464.096	91.44
464.316	95.44
464.536	89.44
464.755	97.44
464.975	108.44
465.195	165.44
465.414	169.44
465.634	105.44
465.854	85.44
466.073	77.44
466.293	96.44
466.512	71.44
466.732	78.44
466.951	94.44
467.171	99.44
467.391	94.44
467.61	119.44
467.829	101.44
468.049	180.44
468.268	222.44
468.488	95.44
468.707	91.44
468.927	93.44
469.146	84.44
469.365	92.44
469.585	97.44
469.804	112.44
470.023	104.44
470.243	94.44
470.462	103.44
470.681	99.44
470.901	91.44
471.12	94.44
471.339	99.44
471.558	85.44
471.777	93.44
471.997	130.44
472.216	309.44
472.435	593.44
472.654	196.44
472.873	98.44
473.092	83.44
473.311	81.44
473.53	88.44
473.749	77.44
473.968	75.44
474.187	93.44
474.406	90.44
474.625	81.44
474.844	84.44
475.063	73.44
475.282	76.44
475.501	94.44
475.72	95.44
475.939	97.44
476.158	100.44
476.377	88.44
476.596	116.44
476.814	102.44
477.033	97.44
477.252	91.44
477.471	106.44
477.69	88.44
477.908	87.44
478.127	92.44
478.346	82.44
478.564	88.44
478.783	98.44
479.002	96.44
479.22	95.44
479.439	109.44
479.658	104.44
479.876	106.44
480.095	90.44
480.313	104.44
480.532	97.44
480.751	149.44
480.969	297.44
481.188	1037.44
481.406	626.44
481.624	151.44
481.843	101.44
482.061	95.44
482.28	99.44
482.498	91.44
482.717	92.44
482.935	105.44
483.153	95.44
483.372	90.44
483.59	92.44
483.808	92.44
484.027	80.44
484.245	107.44
484.463	100.44
484.681	94.44
484.9	88.44
485.118	88.44
485.336	102.44
485.554	102.44
485.772	111.44
485.99	112.44
486.209	110.44
486.427	118.44
486.645	117.44
486.863	104.44
487.081	104.44
487.299	106.44
487.517	97.44
487.735	91.44
487.953	110.44
488.171	93.44
488.389	84.44
488.607	92.44
488.825	86.44
489.043	95.44
489.261	89.44
489.479	86.44
489.696	94.44
489.914	86.44
490.132	85.44
490.35	96.44
490.568	90.44
490.786	97.44
491.003	90.44
491.221	105.44
491.439	98.44
491.657	93.44
491.874	78.44
492.092	102.44
492.31	101.44
492.527	88.44
492.745	95.44
492.963	89.44
493.18	98.44
493.398	86.44
493.615	100.44
493.833	102.44
494.05	91.44
494.268	86.44
494.485	91.44
494.703	81.44
494.92	91.44
495.138	87.44
495.355	80.44
495.573	91.44
495.79	87.44
496.008	110.44
496.225	111.44
496.442	85.44
496.66	91.44
496.877	86.44
497.094	95.44
497.312	101.44
497.529	96.44
497.746	95.44
497.963	81.44
498.181	85.44
498.398	97.44
498.615	99.44
498.832	103.44
499.049	99.44
499.267	89.44
499.484	97.44
499.701	92.44
499.918	78.44
500.135	89.44
500.352	94.44
500.569	95.44
500.786	101.44
501.003	92.44
501.22	93.44
501.437	95.44
501.654	105.44
501.871	102.44
502.088	101.44
502.305	79.44
502.522	96.44
502.739	90.44
502.956	91.44
503.172	88.44
503.389	95.44
503.606	114.44
503.823	105.44
504.04	81.44
504.256	91.44
504.473	103.44
504.69	87.44
504.907	103.44
505.123	100.44
505.34	104.44
505.557	93.44
505.773	96.44
505.99	84.44
506.207	83.44
506.423	89.44
506.64	87.44
506.856	92.44
507.073	82.44
507.289	82.44
507.506	107.44
507.722	116.44
507.939	101.44
508.155	87.44
508.372	87.44
508.588	91.44
508.805	101.44
509.021	94.44
509.238	100.44
509.454	111.44
509.67	106.44
509.887	108.44
510.103	130.44
510.319	192.44
510.536	688.44
510.752	2094.44
510.968	590.44
511.184	152.44
511.401	108.44
511.617	87.44
511.833	102.44
512.049	88.44
512.265	92.44
512.481	103.44
512.698	81.44
512.914	96.44
513.13	101.44
513.346	105.44
513.562	83.44
513.778	96.44
513.994	103.44
514.21	96.44
