Data from Circ_1990_H10_HRD10591_00039.txt Node
Date: Wed Jan 03 11:55:11 EST 2024
User: Yrep
Spectrometer: HR+D1059
Trigger mode: 1
Integration Time (sec): 1.000000E-1
Scans to average: 1
Electric dark correction enabled: true
Nonlinearity correction enabled: false
Boxcar width: 0
XAxis mode: Wavelengths
Number of Pixels in Spectrum: 2048
>>>>>Begin Spectral Data<<<<<
223.165	-11.5
223.4	-11.5
223.635	-11.5
223.869	-26.5
224.104	-0.5
224.338	-16.5
224.573	-20.5
224.808	-4.5
225.042	-12.5
225.277	-6.5
225.511	-16.5
225.746	10.5
225.98	0.5
226.215	17.5
226.449	4.5
226.683	25.5
226.918	25.5
227.152	31.5
227.387	29.5
227.621	27.5
227.856	23.5
228.09	37.5
228.324	46.5
228.559	54.5
228.793	53.5
229.027	51.5
229.262	65.5
229.496	62.5
229.73	74.5
229.964	96.5
230.199	74.5
230.433	70.5
230.667	78.5
230.901	77.5
231.136	65.5
231.37	85.5
231.604	71.5
231.838	76.5
232.072	76.5
232.306	79.5
232.541	86.5
232.775	90.5
233.009	80.5
233.243	72.5
233.477	77.5
233.711	78.5
233.945	60.5
234.179	80.5
234.413	81.5
234.647	73.5
234.881	84.5
235.115	94.5
235.349	82.5
235.583	85.5
235.817	91.5
236.051	61.5
236.285	78.5
236.519	64.5
236.753	79.5
236.987	81.5
237.221	64.5
237.455	85.5
237.689	75.5
237.922	67.5
238.156	91.5
238.39	85.5
238.624	84.5
238.858	84.5
239.091	82.5
239.325	92.5
239.559	77.5
239.793	77.5
240.027	67.5
240.26	60.5
240.494	68.5
240.728	68.5
240.961	80.5
241.195	75.5
241.429	86.5
241.662	67.5
241.896	69.5
242.13	73.5
242.363	69.5
242.597	56.5
242.83	78.5
243.064	80.5
243.298	71.5
243.531	75.5
243.765	89.5
243.998	87.5
244.232	89.5
244.465	81.5
244.699	91.5
244.932	81.5
245.166	84.5
245.399	91.5
245.633	65.5
245.866	83.5
246.099	85.5
246.333	67.5
246.566	71.5
246.8	90.5
247.033	68.5
247.266	91.5
247.5	77.5
247.733	85.5
247.966	78.5
248.2	79.5
248.433	77.5
248.666	86.5
248.899	80.5
249.133	64.5
249.366	87.5
249.599	81.5
249.832	97.5
250.066	84.5
250.299	79.5
250.532	80.5
250.765	82.5
250.998	87.5
251.231	79.5
251.465	84.5
251.698	71.5
251.931	77.5
252.164	83.5
252.397	83.5
252.63	71.5
252.863	77.5
253.096	78.5
253.329	98.5
253.562	74.5
253.795	84.5
254.028	83.5
254.261	74.5
254.494	90.5
254.727	88.5
254.96	77.5
255.193	81.5
255.426	88.5
255.659	82.5
255.892	84.5
256.124	89.5
256.357	80.5
256.59	81.5
256.823	70.5
257.056	71.5
257.289	70.5
257.521	87.5
257.754	85.5
257.987	70.5
258.22	80.5
258.452	86.5
258.685	62.5
258.918	83.5
259.151	86.5
259.383	85.5
259.616	87.5
259.849	85.5
260.081	86.5
260.314	85.5
260.547	85.5
260.779	85.5
261.012	78.5
261.244	79.5
261.477	86.5
261.71	98.5
261.942	101.5
262.175	102.5
262.407	90.5
262.64	79.5
262.872	82.5
263.105	84.5
263.337	80.5
263.57	87.5
263.802	79.5
264.035	73.5
264.267	66.5
264.499	69.5
264.732	77.5
264.964	69.5
265.197	89.5
265.429	81.5
265.661	84.5
265.894	81.5
266.126	74.5
266.358	89.5
266.591	95.5
266.823	85.5
267.055	78.5
267.287	81.5
267.52	84.5
267.752	92.5
267.984	80.5
268.216	70.5
268.448	78.5
268.681	77.5
268.913	91.5
269.145	77.5
269.377	91.5
269.609	83.5
269.841	73.5
270.073	82.5
270.306	80.5
270.538	75.5
270.77	83.5
271.002	82.5
271.234	85.5
271.466	75.5
271.698	94.5
271.93	82.5
272.162	86.5
272.394	81.5
272.626	87.5
272.858	81.5
273.09	79.5
273.322	75.5
273.553	86.5
273.785	77.5
274.017	70.5
274.249	70.5
274.481	85.5
274.713	85.5
274.945	85.5
275.176	88.5
275.408	82.5
275.64	73.5
275.872	82.5
276.104	92.5
276.335	81.5
276.567	81.5
276.799	94.5
277.031	96.5
277.262	100.5
277.494	94.5
277.726	95.5
277.957	84.5
278.189	69.5
278.421	92.5
278.652	87.5
278.884	95.5
279.115	86.5
279.347	85.5
279.579	73.5
279.81	83.5
280.042	106.5
280.273	113.5
280.505	85.5
280.736	76.5
280.968	91.5
281.199	78.5
281.431	78.5
281.662	89.5
281.894	72.5
282.125	92.5
282.356	121.5
282.588	115.5
282.819	117.5
283.051	82.5
283.282	86.5
283.513	84.5
283.745	91.5
283.976	78.5
284.207	83.5
284.439	84.5
284.67	87.5
284.901	89.5
285.132	93.5
285.364	83.5
285.595	81.5
285.826	86.5
286.057	82.5
286.288	73.5
286.52	91.5
286.751	86.5
286.982	91.5
287.213	83.5
287.444	99.5
287.675	89.5
287.906	89.5
288.138	84.5
288.369	82.5
288.6	95.5
288.831	90.5
289.062	84.5
289.293	88.5
289.524	83.5
289.755	91.5
289.986	92.5
290.217	73.5
290.448	80.5
290.679	91.5
290.91	95.5
291.141	93.5
291.371	81.5
291.602	72.5
291.833	61.5
292.064	92.5
292.295	91.5
292.526	86.5
292.757	86.5
292.987	90.5
293.218	93.5
293.449	98.5
293.68	97.5
293.91	83.5
294.141	93.5
294.372	80.5
294.603	78.5
294.833	90.5
295.064	91.5
295.295	84.5
295.525	86.5
295.756	95.5
295.987	101.5
296.217	115.5
296.448	109.5
296.679	92.5
296.909	95.5
297.14	90.5
297.37	83.5
297.601	93.5
297.831	94.5
298.062	91.5
298.292	93.5
298.523	93.5
298.753	86.5
298.984	94.5
299.214	98.5
299.445	85.5
299.675	90.5
299.905	99.5
300.136	91.5
300.366	93.5
300.597	92.5
300.827	91.5
301.057	97.5
301.288	93.5
301.518	96.5
301.748	87.5
301.979	93.5
302.209	93.5
302.439	86.5
302.669	92.5
302.9	91.5
303.13	88.5
303.36	99.5
303.59	106.5
303.82	99.5
304.051	89.5
304.281	96.5
304.511	83.5
304.741	97.5
304.971	87.5
305.201	86.5
305.431	90.5
305.661	92.5
305.891	100.5
306.121	99.5
306.352	99.5
306.582	103.5
306.812	87.5
307.042	92.5
307.272	109.5
307.502	99.5
307.731	121.5
307.961	98.5
308.191	89.5
308.421	109.5
308.651	94.5
308.881	91.5
309.111	87.5
309.341	89.5
309.571	90.5
309.8	101.5
310.03	95.5
310.26	93.5
310.49	87.5
310.72	102.5
310.949	102.5
311.179	91.5
311.409	90.5
311.639	103.5
311.868	78.5
312.098	98.5
312.328	98.5
312.557	92.5
312.787	99.5
313.017	83.5
313.246	94.5
313.476	76.5
313.706	108.5
313.935	90.5
314.165	102.5
314.394	94.5
314.624	94.5
314.853	96.5
315.083	94.5
315.312	101.5
315.542	82.5
315.771	97.5
316.001	87.5
316.23	80.5
316.46	89.5
316.689	93.5
316.919	93.5
317.148	96.5
317.377	98.5
317.607	85.5
317.836	99.5
318.065	87.5
318.295	76.5
318.524	95.5
318.753	92.5
318.983	87.5
319.212	97.5
319.441	102.5
319.67	111.5
319.9	80.5
320.129	88.5
320.358	84.5
320.587	89.5
320.816	92.5
321.046	93.5
321.275	94.5
321.504	83.5
321.733	91.5
321.962	85.5
322.191	114.5
322.42	92.5
322.649	101.5
322.878	105.5
323.108	100.5
323.337	117.5
323.566	119.5
323.795	142.5
324.024	162.5
324.253	346.5
324.482	696.5
324.71	1399.5
324.939	1884.5
325.168	694.5
325.397	224.5
325.626	150.5
325.855	113.5
326.084	113.5
326.313	125.5
326.542	140.5
326.77	213.5
326.999	395.5
327.228	783.5
327.457	1457.5
327.686	1169.5
327.914	333.5
328.143	218.5
328.372	205.5
328.6	139.5
328.829	125.5
329.058	126.5
329.287	126.5
329.515	107.5
329.744	123.5
329.972	155.5
330.201	252.5
330.43	332.5
330.658	187.5
330.887	147.5
331.115	116.5
331.344	98.5
331.572	103.5
331.801	96.5
332.03	102.5
332.258	90.5
332.486	101.5
332.715	106.5
332.943	89.5
333.172	86.5
333.4	95.5
333.629	101.5
333.857	130.5
334.085	161.5
334.314	241.5
334.542	400.5
334.771	384.5
334.999	161.5
335.227	113.5
335.455	111.5
335.684	123.5
335.912	102.5
336.14	108.5
336.369	91.5
336.597	109.5
336.825	93.5
337.053	74.5
337.281	106.5
337.51	87.5
337.738	90.5
337.966	85.5
338.194	101.5
338.422	101.5
338.65	91.5
338.878	94.5
339.106	99.5
339.334	94.5
339.562	90.5
339.79	92.5
340.018	90.5
340.246	86.5
340.474	97.5
340.702	103.5
340.93	95.5
341.158	86.5
341.386	106.5
341.614	80.5
341.842	66.5
342.07	98.5
342.298	96.5
342.526	78.5
342.754	92.5
342.981	75.5
343.209	89.5
343.437	99.5
343.665	90.5
343.893	80.5
344.12	85.5
344.348	83.5
344.576	99.5
344.804	90.5
345.031	96.5
345.259	90.5
345.487	104.5
345.714	90.5
345.942	94.5
346.17	88.5
346.397	98.5
346.625	99.5
346.853	90.5
347.08	98.5
347.308	81.5
347.535	87.5
347.763	109.5
347.99	103.5
348.218	95.5
348.445	106.5
348.673	84.5
348.9	82.5
349.128	80.5
349.355	91.5
349.583	104.5
349.81	90.5
350.037	98.5
350.265	96.5
350.492	90.5
350.72	106.5
350.947	109.5
351.174	114.5
351.402	102.5
351.629	97.5
351.856	95.5
352.083	99.5
352.311	96.5
352.538	105.5
352.765	114.5
352.992	99.5
353.22	101.5
353.447	101.5
353.674	103.5
353.901	107.5
354.128	103.5
354.355	88.5
354.583	102.5
354.81	90.5
355.037	84.5
355.264	93.5
355.491	91.5
355.718	89.5
355.945	84.5
356.172	91.5
356.399	101.5
356.626	103.5
356.853	89.5
357.08	98.5
357.307	100.5
357.534	98.5
357.761	98.5
357.988	87.5
358.215	103.5
358.441	97.5
358.668	100.5
358.895	92.5
359.122	79.5
359.349	79.5
359.576	80.5
359.802	91.5
360.029	101.5
360.256	106.5
360.483	93.5
360.709	70.5
360.936	87.5
361.163	99.5
361.39	80.5
361.616	84.5
361.843	103.5
362.07	88.5
362.296	85.5
362.523	82.5
362.749	86.5
362.976	98.5
363.203	87.5
363.429	83.5
363.656	90.5
363.882	84.5
364.109	101.5
364.335	107.5
364.562	84.5
364.788	73.5
365.015	111.5
365.241	97.5
365.468	108.5
365.694	90.5
365.92	89.5
366.147	83.5
366.373	89.5
366.599	93.5
366.826	76.5
367.052	86.5
367.278	89.5
367.505	79.5
367.731	94.5
367.957	93.5
368.184	89.5
368.41	105.5
368.636	114.5
368.862	115.5
369.089	91.5
369.315	80.5
369.541	88.5
369.767	80.5
369.993	90.5
370.219	84.5
370.445	99.5
370.672	88.5
370.898	88.5
371.124	93.5
371.35	84.5
371.576	86.5
371.802	87.5
372.028	90.5
372.254	91.5
372.48	94.5
372.706	80.5
372.932	95.5
373.158	86.5
373.384	86.5
373.61	99.5
373.835	84.5
374.061	91.5
374.287	99.5
374.513	90.5
374.739	94.5
374.965	94.5
375.191	89.5
375.416	101.5
375.642	80.5
375.868	97.5
376.094	94.5
376.319	89.5
376.545	85.5
376.771	94.5
376.997	73.5
377.222	100.5
377.448	82.5
377.674	91.5
377.899	90.5
378.125	76.5
378.35	105.5
378.576	80.5
378.802	73.5
379.027	87.5
379.253	92.5
379.478	94.5
379.704	103.5
379.929	97.5
380.155	95.5
380.38	100.5
380.606	90.5
380.831	96.5
381.057	95.5
381.282	93.5
381.507	105.5
381.733	98.5
381.958	106.5
382.184	108.5
382.409	112.5
382.634	110.5
382.86	102.5
383.085	113.5
383.31	110.5
383.535	95.5
383.761	100.5
383.986	101.5
384.211	93.5
384.436	98.5
384.662	102.5
384.887	113.5
385.112	117.5
385.337	130.5
385.562	107.5
385.787	124.5
386.013	129.5
386.238	124.5
386.463	126.5
386.688	120.5
386.913	112.5
387.138	109.5
387.363	118.5
387.588	103.5
387.813	103.5
388.038	118.5
388.263	128.5
388.488	123.5
388.713	89.5
388.938	91.5
389.163	97.5
389.387	99.5
389.612	96.5
389.837	90.5
390.062	92.5
390.287	91.5
390.512	98.5
390.736	97.5
390.961	82.5
391.186	84.5
391.411	89.5
391.636	93.5
391.86	85.5
392.085	85.5
392.31	76.5
392.534	89.5
392.759	88.5
392.984	77.5
393.208	81.5
393.433	83.5
393.658	92.5
393.882	88.5
394.107	91.5
394.331	84.5
394.556	86.5
394.78	87.5
395.005	91.5
395.229	86.5
395.454	79.5
395.678	88.5
395.903	94.5
396.127	90.5
396.352	89.5
396.576	93.5
396.801	90.5
397.025	70.5
397.249	81.5
397.474	79.5
397.698	83.5
397.922	98.5
398.147	87.5
398.371	90.5
398.595	92.5
398.82	81.5
399.044	79.5
399.268	88.5
399.492	83.5
399.717	86.5
399.941	92.5
400.165	91.5
400.389	83.5
400.613	84.5
400.837	84.5
401.062	87.5
401.286	92.5
401.51	76.5
401.734	78.5
401.958	104.5
402.182	115.5
402.406	134.5
402.63	99.5
402.854	91.5
403.078	84.5
403.302	102.5
403.526	89.5
403.75	86.5
403.974	107.5
404.198	85.5
404.422	96.5
404.645	95.5
404.869	84.5
405.093	108.5
405.317	105.5
405.541	100.5
405.765	112.5
405.988	109.5
406.212	148.5
406.436	192.5
406.66	129.5
406.883	102.5
407.107	97.5
407.331	104.5
407.555	88.5
407.778	99.5
408.002	103.5
408.226	76.5
408.449	75.5
408.673	79.5
408.896	93.5
409.12	111.5
409.344	80.5
409.567	95.5
409.791	94.5
410.014	96.5
410.238	95.5
410.461	107.5
410.685	101.5
410.908	109.5
411.132	97.5
411.355	91.5
411.578	97.5
411.802	81.5
412.025	90.5
412.249	91.5
412.472	99.5
412.695	99.5
412.919	86.5
413.142	103.5
413.365	94.5
413.589	77.5
413.812	87.5
414.035	88.5
414.258	97.5
414.482	83.5
414.705	79.5
414.928	104.5
415.151	97.5
415.374	95.5
415.597	75.5
415.821	93.5
416.044	95.5
416.267	83.5
416.49	94.5
416.713	93.5
416.936	96.5
417.159	86.5
417.382	98.5
417.605	101.5
417.828	98.5
418.051	74.5
418.274	90.5
418.497	86.5
418.72	94.5
418.943	90.5
419.166	91.5
419.389	89.5
419.611	98.5
419.834	82.5
420.057	98.5
420.28	106.5
420.503	93.5
420.726	91.5
420.948	83.5
421.171	85.5
421.394	84.5
421.617	102.5
421.839	87.5
422.062	93.5
422.285	81.5
422.507	101.5
422.73	101.5
422.953	100.5
423.175	92.5
423.398	95.5
423.621	94.5
423.843	87.5
424.066	85.5
424.288	79.5
424.511	97.5
424.733	103.5
424.956	95.5
425.178	98.5
425.401	92.5
425.623	74.5
425.846	70.5
426.068	90.5
426.291	86.5
426.513	87.5
426.735	89.5
426.958	91.5
427.18	107.5
427.402	118.5
427.625	151.5
427.847	144.5
428.069	126.5
428.292	107.5
428.514	86.5
428.736	83.5
428.958	96.5
429.181	79.5
429.403	86.5
429.625	80.5
429.847	95.5
430.069	87.5
430.292	98.5
430.514	98.5
430.736	97.5
430.958	76.5
431.18	79.5
431.402	81.5
431.624	75.5
431.846	88.5
432.068	79.5
432.29	87.5
432.512	73.5
432.734	88.5
432.956	90.5
433.178	93.5
433.4	88.5
433.622	84.5
433.844	86.5
434.066	85.5
434.287	86.5
434.509	108.5
434.731	78.5
434.953	81.5
435.175	85.5
435.397	96.5
435.618	94.5
435.84	98.5
436.062	112.5
436.284	114.5
436.505	96.5
436.727	86.5
436.949	81.5
437.17	86.5
437.392	80.5
437.614	85.5
437.835	101.5
438.057	107.5
438.278	107.5
438.5	96.5
438.721	107.5
438.943	91.5
439.165	83.5
439.386	85.5
439.608	83.5
439.829	101.5
440.05	101.5
440.272	127.5
440.493	89.5
440.715	90.5
440.936	95.5
441.158	90.5
441.379	80.5
441.6	97.5
441.822	91.5
442.043	84.5
442.264	101.5
442.486	117.5
442.707	95.5
442.928	108.5
443.149	118.5
443.371	121.5
443.592	98.5
443.813	108.5
444.034	113.5
444.255	88.5
444.476	94.5
444.698	86.5
444.919	83.5
445.14	146.5
445.361	114.5
445.582	98.5
445.803	133.5
446.024	127.5
446.245	132.5
446.466	107.5
446.687	103.5
446.908	95.5
447.129	90.5
447.35	83.5
447.571	84.5
447.792	100.5
448.013	94.5
448.234	111.5
448.455	100.5
448.675	125.5
448.896	98.5
449.117	92.5
449.338	102.5
449.559	120.5
449.779	125.5
450	95.5
450.221	89.5
450.442	82.5
450.662	88.5
450.883	105.5
451.104	116.5
451.324	81.5
451.545	84.5
451.766	101.5
451.986	74.5
452.207	79.5
452.428	98.5
452.648	94.5
452.869	100.5
453.089	116.5
453.31	112.5
453.53	106.5
453.751	95.5
453.971	108.5
454.192	119.5
454.412	86.5
454.633	88.5
454.853	96.5
455.073	91.5
455.294	100.5
455.514	94.5
455.734	73.5
455.955	82.5
456.175	89.5
456.395	96.5
456.616	78.5
456.836	83.5
457.056	77.5
457.276	82.5
457.497	91.5
457.717	92.5
457.937	86.5
458.157	82.5
458.377	85.5
458.598	97.5
458.818	128.5
459.038	149.5
459.258	93.5
459.478	83.5
459.698	86.5
459.918	95.5
460.138	87.5
460.358	96.5
460.578	105.5
460.798	98.5
461.018	91.5
461.238	91.5
461.458	90.5
461.678	90.5
461.898	90.5
462.118	85.5
462.338	78.5
462.558	89.5
462.777	94.5
462.997	89.5
463.217	92.5
463.437	74.5
463.657	75.5
463.876	91.5
464.096	99.5
464.316	93.5
464.536	90.5
464.755	89.5
464.975	90.5
465.195	137.5
465.414	153.5
465.634	69.5
465.854	89.5
466.073	84.5
466.293	97.5
466.512	93.5
466.732	84.5
466.951	83.5
467.171	85.5
467.391	89.5
467.61	94.5
467.829	99.5
468.049	175.5
468.268	222.5
468.488	107.5
468.707	91.5
468.927	92.5
469.146	88.5
469.365	85.5
469.585	100.5
469.804	102.5
470.023	103.5
470.243	95.5
470.462	92.5
470.681	115.5
470.901	98.5
471.12	79.5
471.339	81.5
471.558	89.5
471.777	106.5
471.997	124.5
472.216	306.5
472.435	558.5
472.654	186.5
472.873	103.5
473.092	85.5
473.311	94.5
473.53	91.5
473.749	97.5
473.968	107.5
474.187	83.5
474.406	98.5
474.625	93.5
474.844	82.5
475.063	94.5
475.282	94.5
475.501	83.5
475.72	93.5
475.939	91.5
476.158	92.5
476.377	91.5
476.596	95.5
476.814	90.5
477.033	87.5
477.252	92.5
477.471	81.5
477.69	77.5
477.908	94.5
478.127	99.5
478.346	82.5
478.564	105.5
478.783	107.5
479.002	97.5
479.22	85.5
479.439	115.5
479.658	102.5
479.876	97.5
480.095	93.5
480.313	108.5
480.532	104.5
480.751	128.5
480.969	285.5
481.188	901.5
481.406	556.5
481.624	150.5
481.843	114.5
482.061	93.5
482.28	77.5
482.498	86.5
482.717	81.5
482.935	84.5
483.153	107.5
483.372	99.5
483.59	93.5
483.808	92.5
484.027	108.5
484.245	84.5
484.463	99.5
484.681	98.5
484.9	89.5
485.118	99.5
485.336	82.5
485.554	108.5
485.772	84.5
485.99	103.5
486.209	108.5
486.427	112.5
486.645	103.5
486.863	104.5
487.081	88.5
487.299	86.5
487.517	100.5
487.735	93.5
487.953	91.5
488.171	94.5
488.389	91.5
488.607	100.5
488.825	82.5
489.043	92.5
489.261	99.5
489.479	83.5
489.696	79.5
489.914	89.5
490.132	87.5
490.35	88.5
490.568	97.5
490.786	91.5
491.003	95.5
491.221	105.5
491.439	105.5
491.657	93.5
491.874	79.5
492.092	79.5
492.31	92.5
492.527	75.5
492.745	107.5
492.963	90.5
493.18	98.5
493.398	91.5
493.615	92.5
493.833	94.5
494.05	91.5
494.268	85.5
494.485	101.5
494.703	86.5
494.92	75.5
495.138	81.5
495.355	81.5
495.573	107.5
495.79	86.5
496.008	107.5
496.225	98.5
496.442	95.5
496.66	79.5
496.877	86.5
497.094	95.5
497.312	95.5
497.529	100.5
497.746	86.5
497.963	90.5
498.181	98.5
498.398	87.5
498.615	103.5
498.832	106.5
499.049	77.5
499.267	81.5
499.484	85.5
499.701	88.5
499.918	92.5
500.135	85.5
500.352	94.5
500.569	87.5
500.786	86.5
501.003	86.5
501.22	93.5
501.437	97.5
501.654	93.5
501.871	103.5
502.088	103.5
502.305	96.5
502.522	101.5
502.739	99.5
502.956	100.5
503.172	93.5
503.389	100.5
503.606	110.5
503.823	90.5
504.04	87.5
504.256	94.5
504.473	85.5
504.69	75.5
504.907	102.5
505.123	89.5
505.34	76.5
505.557	89.5
505.773	89.5
505.99	92.5
506.207	86.5
506.423	84.5
506.64	92.5
506.856	89.5
507.073	93.5
507.289	96.5
507.506	93.5
507.722	103.5
507.939	86.5
508.155	92.5
508.372	86.5
508.588	81.5
508.805	86.5
509.021	101.5
509.238	91.5
509.454	94.5
509.67	87.5
509.887	102.5
510.103	115.5
510.319	178.5
510.536	615.5
510.752	1900.5
510.968	543.5
511.184	151.5
511.401	113.5
511.617	101.5
511.833	83.5
512.049	91.5
512.265	101.5
512.481	91.5
512.698	90.5
512.914	100.5
513.13	90.5
513.346	98.5
513.562	95.5
513.778	98.5
513.994	98.5
514.21	93.5
514.426	101.5
514.642	126.5
514.858	122.5
515.074	152.5
515.29	385.5
515.506	1195.5
515.721	445.5
515.937	143.5
516.153	109.5
516.369	85.5
516.585	79.5
516.801	85.5
517.016	102.5
517.232	97.5
517.448	91.5
517.664	91.5
517.879	90.5
518.095	97.5
518.311	93.5
518.527	92.5
518.742	89.5
518.958	77.5
519.173	80.5
519.389	93.5
519.605	89.5
519.82	93.5
520.036	98.5
520.251	109.5
520.467	110.5
520.682	95.5
520.898	96.5
521.113	110.5
521.329	129.5
521.544	210.5
521.76	477.5
521.975	2009.5
522.19	1158.5
522.406	269.5
522.621	103.5
522.836	106.5
523.052	89.5
523.267	103.5
523.482	99.5
523.698	99.5
523.913	114.5
524.128	106.5
524.343	95.5
524.559	103.5
524.774	94.5
524.989	103.5
525.204	107.5
525.419	99.5
525.634	92.5
525.849	96.5
526.064	94.5
526.28	84.5
526.495	84.5
526.71	98.5
526.925	70.5
527.14	86.5
527.355	90.5
527.57	95.5
527.785	95.5
527.999	88.5
528.214	96.5
528.429	93.5
528.644	79.5
528.859	87.5
529.074	101.5
529.289	111.5
529.503	160.5
529.718	104.5
529.933	79.5
530.148	83.5
530.363	78.5
530.577	90.5
530.792	74.5
531.007	81.5
531.221	76.5
531.436	94.5
531.651	83.5
531.865	92.5
532.08	93.5
532.295	90.5
532.509	97.5
532.724	86.5
532.938	101.5
533.153	94.5
533.367	95.5
533.582	84.5
533.796	90.5
534.011	95.5
534.225	85.5
534.44	89.5
534.654	97.5
534.868	83.5
535.083	93.5
535.297	97.5
