Data from Circ_1990_H10_HRD10591_00023.txt Node
Date: Wed Jan 03 11:55:08 EST 2024
User: Yrep
Spectrometer: HR+D1059
Trigger mode: 1
Integration Time (sec): 1.000000E-1
Scans to average: 1
Electric dark correction enabled: true
Nonlinearity correction enabled: false
Boxcar width: 0
XAxis mode: Wavelengths
Number of Pixels in Spectrum: 2048
>>>>>Begin Spectral Data<<<<<
223.165	-19.56
223.4	-19.56
223.635	-19.56
223.869	-17.56
224.104	-26.56
224.338	-17.56
224.573	-7.56
224.808	-21.56
225.042	-6.56
225.277	5.44
225.511	0.44
225.746	-4.56
225.98	3.44
226.215	9.44
226.449	15.44
226.683	23.44
226.918	17.44
227.152	46.44
227.387	46.44
227.621	44.44
227.856	46.44
228.09	56.44
228.324	40.44
228.559	60.44
228.793	60.44
229.027	68.44
229.262	67.44
229.496	82.44
229.73	71.44
229.964	84.44
230.199	85.44
230.433	75.44
230.667	76.44
230.901	67.44
231.136	86.44
231.37	69.44
231.604	72.44
231.838	88.44
232.072	78.44
232.306	77.44
232.541	79.44
232.775	86.44
233.009	88.44
233.243	66.44
233.477	75.44
233.711	85.44
233.945	76.44
234.179	67.44
234.413	72.44
234.647	77.44
234.881	73.44
235.115	96.44
235.349	69.44
235.583	92.44
235.817	77.44
236.051	69.44
236.285	67.44
236.519	78.44
236.753	85.44
236.987	79.44
237.221	76.44
237.455	83.44
237.689	60.44
237.922	83.44
238.156	71.44
238.39	76.44
238.624	91.44
238.858	89.44
239.091	68.44
239.325	68.44
239.559	71.44
239.793	76.44
240.027	89.44
240.26	79.44
240.494	75.44
240.728	72.44
240.961	75.44
241.195	88.44
241.429	69.44
241.662	88.44
241.896	78.44
242.13	86.44
242.363	83.44
242.597	87.44
242.83	91.44
243.064	71.44
243.298	79.44
243.531	82.44
243.765	79.44
243.998	75.44
244.232	70.44
244.465	80.44
244.699	78.44
244.932	77.44
245.166	91.44
245.399	76.44
245.633	74.44
245.866	72.44
246.099	67.44
246.333	80.44
246.566	69.44
246.8	73.44
247.033	75.44
247.266	83.44
247.5	61.44
247.733	80.44
247.966	76.44
248.2	88.44
248.433	93.44
248.666	84.44
248.899	75.44
249.133	86.44
249.366	81.44
249.599	76.44
249.832	79.44
250.066	83.44
250.299	73.44
250.532	73.44
250.765	84.44
250.998	74.44
251.231	91.44
251.465	93.44
251.698	66.44
251.931	82.44
252.164	72.44
252.397	78.44
252.63	85.44
252.863	64.44
253.096	85.44
253.329	72.44
253.562	75.44
253.795	85.44
254.028	68.44
254.261	77.44
254.494	70.44
254.727	92.44
254.96	93.44
255.193	72.44
255.426	81.44
255.659	71.44
255.892	83.44
256.124	96.44
256.357	85.44
256.59	82.44
256.823	80.44
257.056	84.44
257.289	71.44
257.521	65.44
257.754	87.44
257.987	80.44
258.22	98.44
258.452	99.44
258.685	79.44
258.918	81.44
259.151	77.44
259.383	78.44
259.616	72.44
259.849	83.44
260.081	94.44
260.314	77.44
260.547	83.44
260.779	69.44
261.012	89.44
261.244	81.44
261.477	86.44
261.71	88.44
261.942	87.44
262.175	96.44
262.407	88.44
262.64	71.44
262.872	80.44
263.105	69.44
263.337	77.44
263.57	81.44
263.802	83.44
264.035	79.44
264.267	75.44
264.499	81.44
264.732	76.44
264.964	84.44
265.197	87.44
265.429	85.44
265.661	72.44
265.894	83.44
266.126	77.44
266.358	91.44
266.591	76.44
266.823	85.44
267.055	85.44
267.287	78.44
267.52	89.44
267.752	87.44
267.984	84.44
268.216	77.44
268.448	89.44
268.681	97.44
268.913	85.44
269.145	80.44
269.377	79.44
269.609	83.44
269.841	76.44
270.073	93.44
270.306	83.44
270.538	91.44
270.77	81.44
271.002	104.44
271.234	83.44
271.466	81.44
271.698	81.44
271.93	87.44
272.162	86.44
272.394	72.44
272.626	86.44
272.858	86.44
273.09	67.44
273.322	87.44
273.553	85.44
273.785	84.44
274.017	92.44
274.249	77.44
274.481	94.44
274.713	71.44
274.945	81.44
275.176	87.44
275.408	79.44
275.64	77.44
275.872	85.44
276.104	86.44
276.335	87.44
276.567	86.44
276.799	87.44
277.031	93.44
277.262	83.44
277.494	102.44
277.726	93.44
277.957	85.44
278.189	93.44
278.421	80.44
278.652	82.44
278.884	72.44
279.115	86.44
279.347	80.44
279.579	89.44
279.81	86.44
280.042	93.44
280.273	91.44
280.505	90.44
280.736	72.44
280.968	77.44
281.199	90.44
281.431	80.44
281.662	85.44
281.894	85.44
282.125	88.44
282.356	107.44
282.588	107.44
282.819	96.44
283.051	89.44
283.282	93.44
283.513	94.44
283.745	88.44
283.976	77.44
284.207	82.44
284.439	93.44
284.67	76.44
284.901	92.44
285.132	94.44
285.364	108.44
285.595	84.44
285.826	101.44
286.057	76.44
286.288	79.44
286.52	91.44
286.751	98.44
286.982	80.44
287.213	84.44
287.444	93.44
287.675	88.44
287.906	87.44
288.138	111.44
288.369	100.44
288.6	88.44
288.831	86.44
289.062	95.44
289.293	84.44
289.524	95.44
289.755	95.44
289.986	88.44
290.217	94.44
290.448	83.44
290.679	87.44
290.91	99.44
291.141	69.44
291.371	91.44
291.602	91.44
291.833	79.44
292.064	88.44
292.295	87.44
292.526	91.44
292.757	92.44
292.987	99.44
293.218	81.44
293.449	89.44
293.68	90.44
293.91	74.44
294.141	86.44
294.372	99.44
294.603	80.44
294.833	91.44
295.064	100.44
295.295	72.44
295.525	101.44
295.756	97.44
295.987	94.44
296.217	108.44
296.448	109.44
296.679	105.44
296.909	82.44
297.14	91.44
297.37	89.44
297.601	85.44
297.831	91.44
298.062	104.44
298.292	80.44
298.523	85.44
298.753	82.44
298.984	94.44
299.214	85.44
299.445	88.44
299.675	99.44
299.905	88.44
300.136	89.44
300.366	89.44
300.597	89.44
300.827	98.44
301.057	91.44
301.288	95.44
301.518	96.44
301.748	97.44
301.979	96.44
302.209	80.44
302.439	96.44
302.669	98.44
302.9	86.44
303.13	100.44
303.36	98.44
303.59	96.44
303.82	95.44
304.051	88.44
304.281	93.44
304.511	83.44
304.741	81.44
304.971	85.44
305.201	87.44
305.431	92.44
305.661	96.44
305.891	79.44
306.121	104.44
306.352	112.44
306.582	102.44
306.812	100.44
307.042	104.44
307.272	85.44
307.502	97.44
307.731	122.44
307.961	102.44
308.191	93.44
308.421	107.44
308.651	67.44
308.881	96.44
309.111	75.44
309.341	103.44
309.571	98.44
309.8	75.44
310.03	82.44
310.26	94.44
310.49	98.44
310.72	85.44
310.949	97.44
311.179	103.44
311.409	103.44
311.639	99.44
311.868	92.44
312.098	93.44
312.328	92.44
312.557	92.44
312.787	84.44
313.017	78.44
313.246	94.44
313.476	87.44
313.706	92.44
313.935	97.44
314.165	85.44
314.394	91.44
314.624	84.44
314.853	93.44
315.083	81.44
315.312	84.44
315.542	88.44
315.771	89.44
316.001	93.44
316.23	84.44
316.46	70.44
316.689	82.44
316.919	105.44
317.148	92.44
317.377	101.44
317.607	101.44
317.836	80.44
318.065	93.44
318.295	108.44
318.524	90.44
318.753	104.44
318.983	97.44
319.212	100.44
319.441	95.44
319.67	82.44
319.9	79.44
320.129	84.44
320.358	91.44
320.587	86.44
320.816	93.44
321.046	97.44
321.275	93.44
321.504	109.44
321.733	89.44
321.962	104.44
322.191	82.44
322.42	98.44
322.649	96.44
322.878	109.44
323.108	103.44
323.337	106.44
323.566	129.44
323.795	128.44
324.024	172.44
324.253	281.44
324.482	584.44
324.71	1148.44
324.939	1484.44
325.168	569.44
325.397	178.44
325.626	141.44
325.855	121.44
326.084	111.44
326.313	112.44
326.542	127.44
326.77	173.44
326.999	332.44
327.228	633.44
327.457	1219.44
327.686	957.44
327.914	289.44
328.143	175.44
328.372	166.44
328.6	130.44
328.829	92.44
329.058	104.44
329.287	130.44
329.515	106.44
329.744	110.44
329.972	136.44
330.201	169.44
330.43	216.44
330.658	160.44
330.887	113.44
331.115	122.44
331.344	92.44
331.572	101.44
331.801	91.44
332.03	95.44
332.258	93.44
332.486	91.44
332.715	98.44
332.943	87.44
333.172	99.44
333.4	99.44
333.629	104.44
333.857	101.44
334.085	131.44
334.314	173.44
334.542	253.44
334.771	236.44
334.999	129.44
335.227	102.44
335.455	94.44
335.684	105.44
335.912	87.44
336.14	95.44
336.369	99.44
336.597	97.44
336.825	100.44
337.053	88.44
337.281	102.44
337.51	98.44
337.738	97.44
337.966	97.44
338.194	94.44
338.422	94.44
338.65	89.44
338.878	88.44
339.106	87.44
339.334	100.44
339.562	78.44
339.79	85.44
340.018	84.44
340.246	86.44
340.474	96.44
340.702	93.44
340.93	89.44
341.158	92.44
341.386	96.44
341.614	81.44
341.842	104.44
342.07	87.44
342.298	88.44
342.526	90.44
342.754	91.44
342.981	100.44
343.209	96.44
343.437	105.44
343.665	102.44
343.893	87.44
344.12	97.44
344.348	95.44
344.576	76.44
344.804	93.44
345.031	93.44
345.259	87.44
345.487	105.44
345.714	88.44
345.942	95.44
346.17	77.44
346.397	86.44
346.625	104.44
346.853	89.44
347.08	85.44
347.308	101.44
347.535	109.44
347.763	116.44
347.99	102.44
348.218	92.44
348.445	96.44
348.673	104.44
348.9	106.44
349.128	108.44
349.355	91.44
349.583	93.44
349.81	108.44
350.037	91.44
350.265	101.44
350.492	81.44
350.72	97.44
350.947	83.44
351.174	87.44
351.402	92.44
351.629	112.44
351.856	105.44
352.083	105.44
352.311	117.44
352.538	112.44
352.765	100.44
352.992	117.44
353.22	100.44
353.447	108.44
353.674	94.44
353.901	110.44
354.128	92.44
354.355	98.44
354.583	94.44
354.81	103.44
355.037	104.44
355.264	105.44
355.491	94.44
355.718	97.44
355.945	71.44
356.172	109.44
356.399	91.44
356.626	108.44
356.853	85.44
357.08	100.44
357.307	97.44
357.534	103.44
357.761	94.44
357.988	111.44
358.215	106.44
358.441	102.44
358.668	101.44
358.895	85.44
359.122	95.44
359.349	99.44
359.576	100.44
359.802	95.44
360.029	108.44
360.256	87.44
360.483	83.44
360.709	72.44
360.936	75.44
361.163	95.44
361.39	99.44
361.616	101.44
361.843	104.44
362.07	110.44
362.296	93.44
362.523	79.44
362.749	83.44
362.976	84.44
363.203	85.44
363.429	96.44
363.656	72.44
363.882	111.44
364.109	91.44
364.335	95.44
364.562	84.44
364.788	97.44
365.015	92.44
365.241	95.44
365.468	93.44
365.694	93.44
365.92	94.44
366.147	97.44
366.373	80.44
366.599	88.44
366.826	89.44
367.052	93.44
367.278	84.44
367.505	94.44
367.731	76.44
367.957	107.44
368.184	98.44
368.41	86.44
368.636	101.44
368.862	104.44
369.089	94.44
369.315	103.44
369.541	86.44
369.767	78.44
369.993	90.44
370.219	93.44
370.445	104.44
370.672	97.44
370.898	98.44
371.124	78.44
371.35	87.44
371.576	93.44
371.802	92.44
372.028	95.44
372.254	100.44
372.48	90.44
372.706	110.44
372.932	92.44
373.158	91.44
373.384	95.44
373.61	95.44
373.835	81.44
374.061	71.44
374.287	86.44
374.513	107.44
374.739	92.44
374.965	93.44
375.191	71.44
375.416	103.44
375.642	97.44
375.868	104.44
376.094	99.44
376.319	95.44
376.545	81.44
376.771	97.44
376.997	105.44
377.222	82.44
377.448	94.44
377.674	91.44
377.899	93.44
378.125	98.44
378.35	87.44
378.576	102.44
378.802	100.44
379.027	95.44
379.253	102.44
379.478	109.44
379.704	81.44
379.929	107.44
380.155	104.44
380.38	92.44
380.606	81.44
380.831	105.44
381.057	124.44
381.282	84.44
381.507	113.44
381.733	114.44
381.958	100.44
382.184	100.44
382.409	106.44
382.634	109.44
382.86	116.44
383.085	101.44
383.31	131.44
383.535	104.44
383.761	116.44
383.986	119.44
384.211	110.44
384.436	118.44
384.662	96.44
384.887	122.44
385.112	125.44
385.337	125.44
385.562	129.44
385.787	129.44
386.013	136.44
386.238	133.44
386.463	139.44
386.688	128.44
386.913	122.44
387.138	126.44
387.363	104.44
387.588	105.44
387.813	118.44
388.038	130.44
388.263	145.44
388.488	145.44
388.713	108.44
388.938	84.44
389.163	91.44
389.387	85.44
389.612	83.44
389.837	101.44
390.062	100.44
390.287	83.44
390.512	92.44
390.736	86.44
390.961	84.44
391.186	99.44
391.411	85.44
391.636	99.44
391.86	82.44
392.085	95.44
392.31	92.44
392.534	90.44
392.759	100.44
392.984	85.44
393.208	85.44
393.433	111.44
393.658	92.44
393.882	90.44
394.107	85.44
394.331	97.44
394.556	71.44
394.78	76.44
395.005	88.44
395.229	81.44
395.454	75.44
395.678	78.44
395.903	91.44
396.127	96.44
396.352	84.44
396.576	95.44
396.801	91.44
397.025	92.44
397.249	100.44
397.474	87.44
397.698	87.44
397.922	82.44
398.147	85.44
398.371	86.44
398.595	96.44
398.82	85.44
399.044	88.44
399.268	91.44
399.492	98.44
399.717	87.44
399.941	79.44
400.165	83.44
400.389	77.44
400.613	86.44
400.837	97.44
401.062	86.44
401.286	94.44
401.51	91.44
401.734	98.44
401.958	98.44
402.182	108.44
402.406	103.44
402.63	101.44
402.854	101.44
403.078	97.44
403.302	88.44
403.526	93.44
403.75	98.44
403.974	105.44
404.198	80.44
404.422	92.44
404.645	84.44
404.869	91.44
405.093	94.44
405.317	109.44
405.541	108.44
405.765	94.44
405.988	108.44
406.212	131.44
406.436	165.44
406.66	125.44
406.883	91.44
407.107	84.44
407.331	91.44
407.555	94.44
407.778	73.44
408.002	85.44
408.226	100.44
408.449	93.44
408.673	73.44
408.896	98.44
409.12	87.44
409.344	96.44
409.567	89.44
409.791	79.44
410.014	77.44
410.238	88.44
410.461	81.44
410.685	90.44
410.908	92.44
411.132	95.44
411.355	101.44
411.578	99.44
411.802	86.44
412.025	101.44
412.249	80.44
412.472	95.44
412.695	106.44
412.919	90.44
413.142	93.44
413.365	101.44
413.589	95.44
413.812	100.44
414.035	79.44
414.258	101.44
414.482	88.44
414.705	102.44
414.928	103.44
415.151	96.44
415.374	95.44
415.597	94.44
415.821	82.44
416.044	80.44
416.267	86.44
416.49	89.44
416.713	102.44
416.936	105.44
417.159	88.44
417.382	93.44
417.605	89.44
417.828	86.44
418.051	75.44
418.274	86.44
418.497	85.44
418.72	77.44
418.943	85.44
419.166	98.44
419.389	94.44
419.611	75.44
419.834	87.44
420.057	71.44
420.28	88.44
420.503	79.44
420.726	87.44
420.948	95.44
421.171	87.44
421.394	97.44
421.617	96.44
421.839	86.44
422.062	95.44
422.285	91.44
422.507	114.44
422.73	95.44
422.953	85.44
423.175	84.44
423.398	94.44
423.621	85.44
423.843	83.44
424.066	84.44
424.288	85.44
424.511	99.44
424.733	86.44
424.956	99.44
425.178	90.44
425.401	93.44
425.623	100.44
425.846	83.44
426.068	88.44
426.291	88.44
426.513	93.44
426.735	97.44
426.958	93.44
427.18	92.44
427.402	136.44
427.625	134.44
427.847	131.44
428.069	113.44
428.292	84.44
428.514	96.44
428.736	80.44
428.958	77.44
429.181	70.44
429.403	91.44
429.625	80.44
429.847	96.44
430.069	90.44
430.292	89.44
430.514	88.44
430.736	88.44
430.958	88.44
431.18	93.44
431.402	93.44
431.624	86.44
431.846	85.44
432.068	86.44
432.29	83.44
432.512	85.44
432.734	89.44
432.956	93.44
433.178	87.44
433.4	86.44
433.622	103.44
433.844	87.44
434.066	89.44
434.287	81.44
434.509	88.44
434.731	92.44
434.953	83.44
435.175	83.44
435.397	88.44
435.618	88.44
435.84	94.44
436.062	110.44
436.284	109.44
436.505	109.44
436.727	95.44
436.949	87.44
437.17	71.44
437.392	92.44
437.614	78.44
437.835	92.44
438.057	97.44
438.278	90.44
438.5	83.44
438.721	84.44
438.943	95.44
439.165	85.44
439.386	102.44
439.608	94.44
439.829	89.44
440.05	119.44
440.272	124.44
440.493	101.44
440.715	75.44
440.936	97.44
441.158	90.44
441.379	84.44
441.6	85.44
441.822	87.44
442.043	96.44
442.264	102.44
442.486	98.44
442.707	81.44
442.928	89.44
443.149	104.44
443.371	104.44
443.592	93.44
443.813	106.44
444.034	108.44
444.255	92.44
444.476	78.44
444.698	81.44
444.919	82.44
445.14	138.44
445.361	116.44
445.582	112.44
445.803	114.44
446.024	123.44
446.245	103.44
446.466	89.44
446.687	95.44
446.908	79.44
447.129	85.44
447.35	81.44
447.571	88.44
447.792	82.44
448.013	98.44
448.234	110.44
448.455	98.44
448.675	113.44
448.896	106.44
449.117	88.44
449.338	99.44
449.559	118.44
449.779	128.44
450	96.44
450.221	101.44
450.442	88.44
450.662	91.44
450.883	88.44
451.104	111.44
451.324	91.44
451.545	80.44
451.766	83.44
451.986	89.44
452.207	89.44
452.428	99.44
452.648	94.44
452.869	94.44
453.089	88.44
453.31	109.44
453.53	99.44
453.751	87.44
453.971	88.44
454.192	94.44
454.412	98.44
454.633	84.44
454.853	85.44
455.073	70.44
455.294	80.44
455.514	97.44
455.734	87.44
455.955	69.44
456.175	69.44
456.395	81.44
456.616	92.44
456.836	91.44
457.056	78.44
457.276	85.44
457.497	68.44
457.717	88.44
457.937	81.44
458.157	80.44
458.377	80.44
458.598	103.44
458.818	116.44
459.038	117.44
459.258	103.44
459.478	89.44
459.698	79.44
459.918	77.44
460.138	98.44
460.358	94.44
460.578	76.44
460.798	79.44
461.018	77.44
461.238	87.44
461.458	78.44
461.678	87.44
461.898	80.44
462.118	80.44
462.338	92.44
462.558	85.44
462.777	73.44
462.997	95.44
463.217	91.44
463.437	84.44
463.657	79.44
463.876	93.44
464.096	91.44
464.316	85.44
464.536	85.44
464.755	93.44
464.975	86.44
465.195	126.44
465.414	126.44
465.634	86.44
465.854	94.44
466.073	83.44
466.293	86.44
466.512	96.44
466.732	80.44
466.951	94.44
467.171	83.44
467.391	102.44
467.61	97.44
467.829	103.44
468.049	140.44
468.268	149.44
468.488	107.44
468.707	75.44
468.927	91.44
469.146	95.44
469.365	95.44
469.585	90.44
469.804	85.44
470.023	93.44
470.243	87.44
470.462	89.44
470.681	101.44
470.901	91.44
471.12	86.44
471.339	94.44
471.558	91.44
471.777	103.44
471.997	123.44
472.216	190.44
472.435	306.44
472.654	139.44
472.873	95.44
473.092	88.44
473.311	88.44
473.53	94.44
473.749	80.44
473.968	97.44
474.187	87.44
474.406	87.44
474.625	86.44
474.844	78.44
475.063	85.44
475.282	85.44
475.501	83.44
475.72	79.44
475.939	84.44
476.158	87.44
476.377	82.44
476.596	87.44
476.814	89.44
477.033	90.44
477.252	97.44
477.471	96.44
477.69	91.44
477.908	87.44
478.127	85.44
478.346	99.44
478.564	88.44
478.783	91.44
479.002	106.44
479.22	81.44
479.439	99.44
479.658	95.44
479.876	87.44
480.095	101.44
480.313	73.44
480.532	118.44
480.751	120.44
480.969	200.44
481.188	509.44
481.406	346.44
481.624	116.44
481.843	94.44
482.061	86.44
482.28	71.44
482.498	84.44
482.717	90.44
482.935	83.44
483.153	90.44
483.372	82.44
483.59	96.44
483.808	90.44
484.027	97.44
484.245	89.44
484.463	97.44
484.681	91.44
484.9	86.44
485.118	100.44
485.336	94.44
485.554	102.44
485.772	92.44
485.99	106.44
486.209	109.44
486.427	116.44
486.645	109.44
486.863	108.44
487.081	102.44
487.299	87.44
487.517	102.44
487.735	89.44
487.953	90.44
488.171	88.44
488.389	91.44
488.607	98.44
488.825	87.44
489.043	99.44
489.261	83.44
489.479	79.44
489.696	88.44
489.914	87.44
490.132	97.44
490.35	90.44
490.568	104.44
490.786	95.44
491.003	99.44
491.221	80.44
491.439	91.44
491.657	84.44
491.874	100.44
492.092	87.44
492.31	95.44
492.527	97.44
492.745	92.44
492.963	90.44
493.18	70.44
493.398	86.44
493.615	105.44
493.833	95.44
494.05	85.44
494.268	88.44
494.485	98.44
494.703	82.44
494.92	88.44
495.138	91.44
495.355	82.44
495.573	83.44
495.79	84.44
496.008	85.44
496.225	96.44
496.442	87.44
496.66	96.44
496.877	93.44
497.094	87.44
497.312	109.44
497.529	88.44
497.746	82.44
497.963	97.44
498.181	87.44
498.398	91.44
498.615	93.44
498.832	89.44
499.049	105.44
499.267	84.44
499.484	94.44
499.701	79.44
499.918	90.44
500.135	87.44
500.352	75.44
500.569	71.44
500.786	79.44
501.003	80.44
501.22	85.44
501.437	91.44
501.654	89.44
501.871	97.44
502.088	94.44
502.305	90.44
502.522	89.44
502.739	98.44
502.956	87.44
503.172	83.44
503.389	104.44
503.606	89.44
503.823	92.44
504.04	85.44
504.256	87.44
504.473	74.44
504.69	88.44
504.907	88.44
505.123	80.44
505.34	96.44
505.557	76.44
505.773	87.44
505.99	86.44
506.207	88.44
506.423	88.44
506.64	81.44
506.856	68.44
507.073	81.44
507.289	95.44
507.506	88.44
507.722	106.44
507.939	95.44
508.155	85.44
508.372	91.44
508.588	93.44
508.805	88.44
509.021	78.44
509.238	97.44
509.454	92.44
509.67	95.44
509.887	94.44
510.103	101.44
510.319	161.44
510.536	507.44
510.752	1485.44
510.968	429.44
511.184	131.44
511.401	106.44
511.617	106.44
511.833	95.44
512.049	96.44
512.265	83.44
512.481	99.44
512.698	86.44
512.914	83.44
513.13	88.44
513.346	92.44
513.562	89.44
513.778	88.44
513.994	91.44
514.21	91.44
514.426	94.44
514.642	102.44
514.858	106.44
515.074	126.44
515.29	270.44
515.506	867.44
515.721	337.44
515.937	130.44
