Data from Circ_1990_H10_HRD10591_00044.txt Node
Date: Wed Jan 03 11:55:12 EST 2024
User: Yrep
Spectrometer: HR+D1059
Trigger mode: 1
Integration Time (sec): 1.000000E-1
Scans to average: 1
Electric dark correction enabled: true
Nonlinearity correction enabled: false
Boxcar width: 0
XAxis mode: Wavelengths
Number of Pixels in Spectrum: 2048
>>>>>Begin Spectral Data<<<<<
223.165	-23.44
223.4	-23.44
223.635	-23.44
223.869	-19.44
224.104	-7.44
224.338	-25.44
224.573	-25.44
224.808	-21.44
225.042	-1.44
225.277	4.56
225.511	10.56
225.746	13.56
225.98	8.56
226.215	9.56
226.449	1.56
226.683	17.56
226.918	24.56
227.152	33.56
227.387	31.56
227.621	40.56
227.856	37.56
228.09	36.56
228.324	33.56
228.559	57.56
228.793	45.56
229.027	61.56
229.262	66.56
229.496	74.56
229.73	77.56
229.964	80.56
230.199	78.56
230.433	64.56
230.667	68.56
230.901	79.56
231.136	84.56
231.37	79.56
231.604	80.56
231.838	69.56
232.072	75.56
232.306	88.56
232.541	77.56
232.775	73.56
233.009	82.56
233.243	82.56
233.477	76.56
233.711	80.56
233.945	70.56
234.179	89.56
234.413	72.56
234.647	66.56
234.881	82.56
235.115	88.56
235.349	77.56
235.583	84.56
235.817	80.56
236.051	67.56
236.285	85.56
236.519	76.56
236.753	78.56
236.987	86.56
237.221	90.56
237.455	92.56
237.689	67.56
237.922	78.56
238.156	80.56
238.39	86.56
238.624	54.56
238.858	72.56
239.091	86.56
239.325	79.56
239.559	78.56
239.793	84.56
240.027	65.56
240.26	78.56
240.494	78.56
240.728	85.56
240.961	63.56
241.195	72.56
241.429	83.56
241.662	88.56
241.896	69.56
242.13	58.56
242.363	80.56
242.597	74.56
242.83	77.56
243.064	77.56
243.298	79.56
243.531	78.56
243.765	65.56
243.998	62.56
244.232	89.56
244.465	72.56
244.699	92.56
244.932	61.56
245.166	70.56
245.399	67.56
245.633	80.56
245.866	69.56
246.099	76.56
246.333	83.56
246.566	80.56
246.8	76.56
247.033	86.56
247.266	69.56
247.5	80.56
247.733	62.56
247.966	72.56
248.2	66.56
248.433	75.56
248.666	76.56
248.899	78.56
249.133	89.56
249.366	78.56
249.599	95.56
249.832	77.56
250.066	79.56
250.299	80.56
250.532	82.56
250.765	91.56
250.998	76.56
251.231	73.56
251.465	78.56
251.698	72.56
251.931	89.56
252.164	82.56
252.397	76.56
252.63	70.56
252.863	77.56
253.096	68.56
253.329	90.56
253.562	85.56
253.795	85.56
254.028	84.56
254.261	76.56
254.494	76.56
254.727	75.56
254.96	92.56
255.193	86.56
255.426	72.56
255.659	71.56
255.892	81.56
256.124	77.56
256.357	86.56
256.59	85.56
256.823	98.56
257.056	87.56
257.289	72.56
257.521	85.56
257.754	70.56
257.987	72.56
258.22	90.56
258.452	80.56
258.685	66.56
258.918	83.56
259.151	68.56
259.383	86.56
259.616	80.56
259.849	83.56
260.081	96.56
260.314	80.56
260.547	77.56
260.779	94.56
261.012	83.56
261.244	82.56
261.477	70.56
261.71	88.56
261.942	101.56
262.175	123.56
262.407	82.56
262.64	83.56
262.872	77.56
263.105	80.56
263.337	88.56
263.57	89.56
263.802	96.56
264.035	73.56
264.267	80.56
264.499	93.56
264.732	81.56
264.964	91.56
265.197	82.56
265.429	84.56
265.661	73.56
265.894	97.56
266.126	87.56
266.358	74.56
266.591	83.56
266.823	83.56
267.055	80.56
267.287	80.56
267.52	83.56
267.752	76.56
267.984	81.56
268.216	75.56
268.448	78.56
268.681	85.56
268.913	90.56
269.145	84.56
269.377	81.56
269.609	70.56
269.841	75.56
270.073	74.56
270.306	74.56
270.538	70.56
270.77	83.56
271.002	86.56
271.234	87.56
271.466	84.56
271.698	85.56
271.93	74.56
272.162	85.56
272.394	90.56
272.626	81.56
272.858	80.56
273.09	85.56
273.322	92.56
273.553	80.56
273.785	90.56
274.017	77.56
274.249	89.56
274.481	88.56
274.713	75.56
274.945	73.56
275.176	82.56
275.408	77.56
275.64	86.56
275.872	97.56
276.104	70.56
276.335	87.56
276.567	101.56
276.799	98.56
277.031	97.56
277.262	100.56
277.494	94.56
277.726	84.56
277.957	86.56
278.189	82.56
278.421	94.56
278.652	80.56
278.884	80.56
279.115	76.56
279.347	74.56
279.579	80.56
279.81	89.56
280.042	90.56
280.273	112.56
280.505	107.56
280.736	79.56
280.968	87.56
281.199	86.56
281.431	91.56
281.662	87.56
281.894	94.56
282.125	101.56
282.356	109.56
282.588	140.56
282.819	113.56
283.051	89.56
283.282	64.56
283.513	92.56
283.745	80.56
283.976	73.56
284.207	80.56
284.439	67.56
284.67	97.56
284.901	72.56
285.132	84.56
285.364	78.56
285.595	91.56
285.826	101.56
286.057	93.56
286.288	89.56
286.52	82.56
286.751	96.56
286.982	84.56
287.213	91.56
287.444	93.56
287.675	95.56
287.906	94.56
288.138	62.56
288.369	90.56
288.6	92.56
288.831	88.56
289.062	84.56
289.293	91.56
289.524	75.56
289.755	81.56
289.986	94.56
290.217	97.56
290.448	96.56
290.679	88.56
290.91	81.56
291.141	94.56
291.371	90.56
291.602	79.56
291.833	83.56
292.064	95.56
292.295	84.56
292.526	89.56
292.757	84.56
292.987	73.56
293.218	79.56
293.449	88.56
293.68	84.56
293.91	73.56
294.141	94.56
294.372	95.56
294.603	94.56
294.833	91.56
295.064	83.56
295.295	94.56
295.525	98.56
295.756	95.56
295.987	92.56
296.217	117.56
296.448	124.56
296.679	92.56
296.909	101.56
297.14	90.56
297.37	85.56
297.601	93.56
297.831	90.56
298.062	92.56
298.292	86.56
298.523	97.56
298.753	90.56
298.984	74.56
299.214	83.56
299.445	98.56
299.675	78.56
299.905	85.56
300.136	76.56
300.366	98.56
300.597	80.56
300.827	92.56
301.057	79.56
301.288	100.56
301.518	78.56
301.748	106.56
301.979	102.56
302.209	86.56
302.439	88.56
302.669	88.56
302.9	79.56
303.13	74.56
303.36	95.56
303.59	109.56
303.82	108.56
304.051	96.56
304.281	82.56
304.511	89.56
304.741	87.56
304.971	88.56
305.201	88.56
305.431	82.56
305.661	105.56
305.891	89.56
306.121	89.56
306.352	87.56
306.582	96.56
306.812	82.56
307.042	112.56
307.272	100.56
307.502	100.56
307.731	103.56
307.961	113.56
308.191	82.56
308.421	90.56
308.651	88.56
308.881	94.56
309.111	93.56
309.341	92.56
309.571	101.56
309.8	110.56
310.03	96.56
310.26	88.56
310.49	83.56
310.72	99.56
310.949	93.56
311.179	99.56
311.409	90.56
311.639	98.56
311.868	82.56
312.098	94.56
312.328	92.56
312.557	95.56
312.787	100.56
313.017	100.56
313.246	82.56
313.476	81.56
313.706	96.56
313.935	69.56
314.165	101.56
314.394	101.56
314.624	82.56
314.853	76.56
315.083	85.56
315.312	91.56
315.542	89.56
315.771	94.56
316.001	92.56
316.23	97.56
316.46	94.56
316.689	91.56
316.919	89.56
317.148	76.56
317.377	84.56
317.607	91.56
317.836	78.56
318.065	88.56
318.295	91.56
318.524	91.56
318.753	86.56
318.983	105.56
319.212	93.56
319.441	97.56
319.67	110.56
319.9	85.56
320.129	99.56
320.358	94.56
320.587	105.56
320.816	97.56
321.046	91.56
321.275	106.56
321.504	97.56
321.733	87.56
321.962	105.56
322.191	96.56
322.42	87.56
322.649	93.56
322.878	122.56
323.108	102.56
323.337	110.56
323.566	117.56
323.795	145.56
324.024	188.56
324.253	346.56
324.482	705.56
324.71	1436.56
324.939	1874.56
325.168	702.56
325.397	218.56
325.626	156.56
325.855	128.56
326.084	123.56
326.313	138.56
326.542	146.56
326.77	212.56
326.999	390.56
327.228	793.56
327.457	1433.56
327.686	1152.56
327.914	368.56
328.143	238.56
328.372	244.56
328.6	155.56
328.829	105.56
329.058	121.56
329.287	123.56
329.515	108.56
329.744	137.56
329.972	188.56
330.201	299.56
330.43	418.56
330.658	230.56
330.887	154.56
331.115	124.56
331.344	101.56
331.572	104.56
331.801	100.56
332.03	102.56
332.258	83.56
332.486	91.56
332.715	99.56
332.943	95.56
333.172	102.56
333.4	106.56
333.629	117.56
333.857	156.56
334.085	182.56
334.314	289.56
334.542	518.56
334.771	493.56
334.999	170.56
335.227	101.56
335.455	78.56
335.684	101.56
335.912	101.56
336.14	99.56
336.369	91.56
336.597	93.56
336.825	93.56
337.053	88.56
337.281	105.56
337.51	79.56
337.738	99.56
337.966	81.56
338.194	95.56
338.422	85.56
338.65	85.56
338.878	104.56
339.106	79.56
339.334	83.56
339.562	96.56
339.79	88.56
340.018	85.56
340.246	82.56
340.474	84.56
340.702	97.56
340.93	93.56
341.158	96.56
341.386	100.56
341.614	86.56
341.842	100.56
342.07	96.56
342.298	95.56
342.526	81.56
342.754	84.56
342.981	83.56
343.209	81.56
343.437	78.56
343.665	90.56
343.893	93.56
344.12	89.56
344.348	96.56
344.576	88.56
344.804	84.56
345.031	84.56
345.259	93.56
345.487	78.56
345.714	92.56
345.942	104.56
346.17	98.56
346.397	85.56
346.625	92.56
346.853	79.56
347.08	74.56
347.308	90.56
347.535	90.56
347.763	90.56
347.99	89.56
348.218	105.56
348.445	97.56
348.673	82.56
348.9	98.56
349.128	94.56
349.355	58.56
349.583	81.56
349.81	106.56
350.037	101.56
350.265	81.56
350.492	94.56
350.72	88.56
350.947	86.56
351.174	97.56
351.402	115.56
351.629	78.56
351.856	95.56
352.083	103.56
352.311	109.56
352.538	112.56
352.765	114.56
352.992	108.56
353.22	115.56
353.447	118.56
353.674	99.56
353.901	106.56
354.128	99.56
354.355	106.56
354.583	103.56
354.81	90.56
355.037	80.56
355.264	95.56
355.491	99.56
355.718	100.56
355.945	94.56
356.172	92.56
356.399	86.56
356.626	102.56
356.853	81.56
357.08	110.56
357.307	100.56
357.534	86.56
357.761	85.56
357.988	93.56
358.215	96.56
358.441	86.56
358.668	81.56
358.895	109.56
359.122	93.56
359.349	74.56
359.576	75.56
359.802	91.56
360.029	100.56
360.256	120.56
360.483	109.56
360.709	92.56
360.936	88.56
361.163	82.56
361.39	101.56
361.616	95.56
361.843	94.56
362.07	85.56
362.296	102.56
362.523	94.56
362.749	81.56
362.976	80.56
363.203	78.56
363.429	91.56
363.656	96.56
363.882	78.56
364.109	85.56
364.335	89.56
364.562	77.56
364.788	90.56
365.015	89.56
365.241	97.56
365.468	93.56
365.694	98.56
365.92	88.56
366.147	101.56
366.373	79.56
366.599	97.56
366.826	97.56
367.052	94.56
367.278	88.56
367.505	81.56
367.731	97.56
367.957	102.56
368.184	95.56
368.41	102.56
368.636	110.56
368.862	113.56
369.089	97.56
369.315	81.56
369.541	112.56
369.767	80.56
369.993	104.56
370.219	94.56
370.445	78.56
370.672	75.56
370.898	85.56
371.124	83.56
371.35	83.56
371.576	78.56
371.802	96.56
372.028	85.56
372.254	94.56
372.48	80.56
372.706	77.56
372.932	85.56
373.158	101.56
373.384	93.56
373.61	106.56
373.835	69.56
374.061	80.56
374.287	60.56
374.513	92.56
374.739	95.56
374.965	80.56
375.191	85.56
375.416	98.56
375.642	90.56
375.868	101.56
376.094	82.56
376.319	85.56
376.545	90.56
376.771	91.56
376.997	76.56
377.222	85.56
377.448	80.56
377.674	101.56
377.899	94.56
378.125	92.56
378.35	88.56
378.576	91.56
378.802	85.56
379.027	89.56
379.253	93.56
379.478	85.56
379.704	70.56
379.929	92.56
380.155	105.56
380.38	92.56
380.606	100.56
380.831	107.56
381.057	96.56
381.282	98.56
381.507	86.56
381.733	105.56
381.958	78.56
382.184	112.56
382.409	106.56
382.634	105.56
382.86	107.56
383.085	112.56
383.31	106.56
383.535	102.56
383.761	96.56
383.986	119.56
384.211	91.56
384.436	109.56
384.662	105.56
384.887	109.56
385.112	125.56
385.337	96.56
385.562	104.56
385.787	108.56
386.013	124.56
386.238	129.56
386.463	110.56
386.688	113.56
386.913	115.56
387.138	106.56
387.363	106.56
387.588	115.56
387.813	102.56
388.038	101.56
388.263	127.56
388.488	114.56
388.713	91.56
388.938	94.56
389.163	91.56
389.387	89.56
389.612	94.56
389.837	93.56
390.062	97.56
390.287	62.56
390.512	92.56
390.736	106.56
390.961	83.56
391.186	86.56
391.411	91.56
391.636	93.56
391.86	78.56
392.085	79.56
392.31	80.56
392.534	86.56
392.759	86.56
392.984	93.56
393.208	97.56
393.433	90.56
393.658	88.56
393.882	76.56
394.107	84.56
394.331	68.56
394.556	76.56
394.78	102.56
395.005	99.56
395.229	85.56
395.454	83.56
395.678	88.56
395.903	85.56
396.127	84.56
396.352	88.56
396.576	82.56
396.801	89.56
397.025	82.56
397.249	101.56
397.474	84.56
397.698	92.56
397.922	75.56
398.147	81.56
398.371	84.56
398.595	90.56
398.82	79.56
399.044	78.56
399.268	90.56
399.492	74.56
399.717	73.56
399.941	80.56
400.165	91.56
400.389	76.56
400.613	82.56
400.837	74.56
401.062	92.56
401.286	101.56
401.51	76.56
401.734	87.56
401.958	111.56
402.182	99.56
402.406	133.56
402.63	119.56
402.854	95.56
403.078	81.56
403.302	70.56
403.526	79.56
403.75	84.56
403.974	88.56
404.198	91.56
404.422	88.56
404.645	91.56
404.869	98.56
405.093	92.56
405.317	121.56
405.541	104.56
405.765	101.56
405.988	117.56
406.212	163.56
406.436	219.56
406.66	150.56
406.883	97.56
407.107	92.56
407.331	95.56
407.555	89.56
407.778	82.56
408.002	97.56
408.226	93.56
408.449	80.56
408.673	93.56
408.896	95.56
409.12	86.56
409.344	101.56
409.567	92.56
409.791	83.56
410.014	89.56
410.238	83.56
410.461	108.56
410.685	83.56
410.908	85.56
411.132	97.56
411.355	96.56
411.578	93.56
411.802	89.56
412.025	92.56
412.249	91.56
412.472	80.56
412.695	104.56
412.919	88.56
413.142	97.56
413.365	78.56
413.589	93.56
413.812	100.56
414.035	85.56
414.258	96.56
414.482	89.56
414.705	90.56
414.928	92.56
415.151	90.56
415.374	98.56
415.597	94.56
415.821	77.56
416.044	89.56
416.267	75.56
416.49	82.56
416.713	82.56
416.936	92.56
417.159	89.56
417.382	90.56
417.605	92.56
417.828	94.56
418.051	101.56
418.274	58.56
418.497	73.56
418.72	77.56
418.943	91.56
419.166	81.56
419.389	76.56
419.611	81.56
419.834	91.56
420.057	93.56
420.28	90.56
420.503	107.56
420.726	66.56
420.948	83.56
421.171	84.56
421.394	83.56
421.617	91.56
421.839	83.56
422.062	78.56
422.285	96.56
422.507	98.56
422.73	107.56
422.953	101.56
423.175	82.56
423.398	85.56
423.621	92.56
423.843	100.56
424.066	93.56
424.288	76.56
424.511	94.56
424.733	97.56
424.956	85.56
425.178	99.56
425.401	104.56
425.623	97.56
425.846	85.56
426.068	84.56
426.291	97.56
426.513	90.56
426.735	83.56
426.958	76.56
427.18	108.56
427.402	107.56
427.625	152.56
427.847	138.56
428.069	138.56
428.292	107.56
428.514	92.56
428.736	80.56
428.958	81.56
429.181	93.56
429.403	83.56
429.625	91.56
429.847	95.56
430.069	96.56
430.292	84.56
430.514	73.56
430.736	74.56
430.958	90.56
431.18	64.56
431.402	90.56
431.624	83.56
431.846	89.56
432.068	78.56
432.29	76.56
432.512	86.56
432.734	77.56
432.956	83.56
433.178	79.56
433.4	95.56
433.622	78.56
433.844	112.56
434.066	84.56
434.287	96.56
434.509	99.56
434.731	89.56
434.953	92.56
435.175	90.56
435.397	100.56
435.618	101.56
435.84	101.56
436.062	104.56
436.284	120.56
436.505	105.56
436.727	97.56
436.949	87.56
437.17	82.56
437.392	83.56
437.614	92.56
437.835	99.56
438.057	112.56
438.278	106.56
438.5	105.56
438.721	101.56
438.943	89.56
439.165	77.56
439.386	82.56
439.608	72.56
439.829	101.56
440.05	120.56
440.272	131.56
440.493	108.56
440.715	80.56
440.936	88.56
441.158	85.56
441.379	87.56
441.6	88.56
441.822	89.56
442.043	93.56
442.264	88.56
442.486	83.56
442.707	85.56
442.928	98.56
443.149	125.56
443.371	124.56
443.592	103.56
443.813	94.56
444.034	106.56
444.255	90.56
444.476	92.56
444.698	88.56
444.919	88.56
445.14	140.56
445.361	121.56
445.582	112.56
445.803	131.56
446.024	122.56
446.245	127.56
446.466	112.56
446.687	93.56
446.908	67.56
447.129	96.56
447.35	81.56
447.571	79.56
447.792	101.56
448.013	98.56
448.234	110.56
448.455	84.56
448.675	106.56
448.896	100.56
449.117	103.56
449.338	93.56
449.559	108.56
449.779	118.56
450	86.56
450.221	79.56
450.442	86.56
450.662	85.56
450.883	93.56
451.104	129.56
451.324	100.56
451.545	83.56
451.766	78.56
451.986	78.56
452.207	94.56
452.428	94.56
452.648	97.56
452.869	104.56
453.089	106.56
453.31	100.56
453.53	95.56
453.751	88.56
453.971	109.56
454.192	105.56
454.412	92.56
454.633	82.56
454.853	75.56
455.073	74.56
455.294	75.56
455.514	77.56
455.734	67.56
455.955	88.56
456.175	78.56
456.395	84.56
456.616	76.56
456.836	91.56
457.056	76.56
457.276	91.56
457.497	62.56
457.717	87.56
457.937	84.56
458.157	95.56
458.377	90.56
458.598	93.56
458.818	134.56
459.038	148.56
459.258	96.56
459.478	72.56
459.698	86.56
459.918	81.56
460.138	80.56
460.358	91.56
460.578	87.56
460.798	82.56
461.018	84.56
461.238	98.56
461.458	90.56
461.678	90.56
461.898	80.56
462.118	90.56
462.338	76.56
462.558	80.56
462.777	87.56
462.997	84.56
463.217	80.56
463.437	90.56
463.657	81.56
463.876	83.56
464.096	69.56
464.316	84.56
464.536	89.56
464.755	93.56
464.975	99.56
465.195	168.56
465.414	157.56
465.634	103.56
465.854	80.56
466.073	94.56
466.293	93.56
466.512	81.56
466.732	88.56
466.951	82.56
467.171	95.56
467.391	105.56
467.61	103.56
467.829	117.56
468.049	196.56
468.268	260.56
468.488	116.56
468.707	83.56
468.927	88.56
469.146	83.56
469.365	87.56
469.585	91.56
469.804	86.56
470.023	95.56
470.243	88.56
470.462	101.56
470.681	108.56
470.901	89.56
471.12	94.56
471.339	88.56
471.558	99.56
471.777	96.56
471.997	139.56
472.216	343.56
472.435	704.56
472.654	220.56
472.873	109.56
473.092	98.56
473.311	93.56
473.53	90.56
473.749	97.56
473.968	106.56
474.187	93.56
474.406	92.56
474.625	92.56
474.844	85.56
475.063	84.56
475.282	92.56
475.501	90.56
475.72	99.56
475.939	82.56
476.158	88.56
476.377	83.56
476.596	84.56
476.814	85.56
477.033	101.56
477.252	91.56
477.471	77.56
477.69	76.56
477.908	76.56
478.127	91.56
478.346	74.56
478.564	88.56
478.783	102.56
479.002	90.56
479.22	92.56
479.439	96.56
479.658	96.56
479.876	101.56
480.095	94.56
480.313	95.56
480.532	101.56
480.751	163.56
480.969	339.56
481.188	1212.56
481.406	718.56
481.624	161.56
481.843	82.56
482.061	83.56
482.28	88.56
482.498	85.56
482.717	74.56
482.935	77.56
483.153	82.56
483.372	93.56
483.59	86.56
483.808	75.56
484.027	76.56
484.245	97.56
484.463	73.56
484.681	88.56
484.9	93.56
485.118	97.56
485.336	88.56
485.554	82.56
485.772	96.56
485.99	100.56
486.209	96.56
486.427	111.56
486.645	108.56
486.863	115.56
487.081	93.56
487.299	93.56
487.517	113.56
487.735	83.56
487.953	91.56
488.171	104.56
488.389	90.56
488.607	97.56
488.825	99.56
489.043	82.56
489.261	80.56
489.479	80.56
489.696	99.56
489.914	70.56
490.132	76.56
490.35	96.56
490.568	88.56
490.786	81.56
491.003	81.56
491.221	95.56
491.439	79.56
491.657	85.56
491.874	94.56
492.092	91.56
492.31	80.56
492.527	83.56
492.745	84.56
492.963	102.56
493.18	99.56
493.398	89.56
493.615	93.56
493.833	105.56
494.05	96.56
494.268	88.56
494.485	92.56
494.703	90.56
494.92	101.56
495.138	96.56
495.355	82.56
495.573	88.56
495.79	88.56
496.008	89.56
496.225	86.56
496.442	88.56
496.66	84.56
496.877	68.56
497.094	84.56
497.312	96.56
497.529	96.56
497.746	88.56
497.963	91.56
498.181	88.56
498.398	92.56
498.615	108.56
498.832	100.56
499.049	86.56
499.267	99.56
499.484	90.56
499.701	89.56
499.918	89.56
500.135	82.56
500.352	94.56
500.569	86.56
500.786	82.56
501.003	91.56
501.22	91.56
501.437	84.56
501.654	80.56
501.871	109.56
502.088	82.56
502.305	92.56
502.522	92.56
502.739	88.56
502.956	108.56
503.172	84.56
503.389	97.56
503.606	98.56
503.823	108.56
504.04	105.56
504.256	90.56
504.473	83.56
504.69	81.56
504.907	92.56
505.123	78.56
505.34	84.56
505.557	88.56
505.773	81.56
505.99	89.56
506.207	81.56
506.423	85.56
506.64	92.56
506.856	102.56
507.073	77.56
507.289	88.56
507.506	86.56
507.722	107.56
507.939	98.56
508.155	89.56
508.372	86.56
508.588	89.56
508.805	101.56
509.021	96.56
509.238	85.56
509.454	92.56
509.67	112.56
509.887	116.56
510.103	112.56
510.319	188.56
510.536	651.56
510.752	2094.56
510.968	580.56
511.184	121.56
511.401	116.56
511.617	112.56
511.833	102.56
512.049	96.56
512.265	77.56
512.481	88.56
512.698	81.56
512.914	72.56
513.13	97.56
513.346	100.56
513.562	91.56
513.778	102.56
513.994	93.56
514.21	99.56
514.426	112.56
514.642	115.56
514.858	98.56
515.074	168.56
515.29	418.56
515.506	1362.56
515.721	507.56
515.937	139.56
