Data from Circ_1990_H10_HRD10591_00073.txt Node
Date: Wed Jan 03 11:55:18 EST 2024
User: Yrep
Spectrometer: HR+D1059
Trigger mode: 1
Integration Time (sec): 1.000000E-1
Scans to average: 1
Electric dark correction enabled: true
Nonlinearity correction enabled: false
Boxcar width: 0
XAxis mode: Wavelengths
Number of Pixels in Spectrum: 2048
>>>>>Begin Spectral Data<<<<<
223.165	-25.94
223.4	-25.94
223.635	-25.94
223.869	-3.94
224.104	-19.94
224.338	-8.94
224.573	-8.94
224.808	-13.94
225.042	2.06
225.277	-3.94
225.511	-9.94
225.746	10.06
225.98	-1.94
226.215	11.06
226.449	-1.94
226.683	24.06
226.918	30.06
227.152	22.06
227.387	33.06
227.621	46.06
227.856	60.06
228.09	40.06
228.324	40.06
228.559	57.06
228.793	66.06
229.027	57.06
229.262	67.06
229.496	87.06
229.73	83.06
229.964	69.06
230.199	87.06
230.433	73.06
230.667	76.06
230.901	83.06
231.136	85.06
231.37	75.06
231.604	82.06
231.838	72.06
232.072	69.06
232.306	80.06
232.541	69.06
232.775	79.06
233.009	71.06
233.243	71.06
233.477	97.06
233.711	80.06
233.945	73.06
234.179	71.06
234.413	83.06
234.647	71.06
234.881	85.06
235.115	78.06
235.349	81.06
235.583	82.06
235.817	77.06
236.051	65.06
236.285	78.06
236.519	82.06
236.753	82.06
236.987	80.06
237.221	89.06
237.455	88.06
237.689	82.06
237.922	81.06
238.156	82.06
238.39	67.06
238.624	77.06
238.858	86.06
239.091	62.06
239.325	78.06
239.559	80.06
239.793	87.06
240.027	79.06
240.26	94.06
240.494	72.06
240.728	67.06
240.961	77.06
241.195	89.06
241.429	71.06
241.662	73.06
241.896	86.06
242.13	73.06
242.363	79.06
242.597	80.06
242.83	90.06
243.064	80.06
243.298	78.06
243.531	70.06
243.765	74.06
243.998	77.06
244.232	85.06
244.465	100.06
244.699	68.06
244.932	75.06
245.166	90.06
245.399	82.06
245.633	81.06
245.866	73.06
246.099	76.06
246.333	80.06
246.566	88.06
246.8	90.06
247.033	82.06
247.266	89.06
247.5	83.06
247.733	67.06
247.966	81.06
248.2	92.06
248.433	73.06
248.666	92.06
248.899	85.06
249.133	64.06
249.366	92.06
249.599	93.06
249.832	89.06
250.066	72.06
250.299	84.06
250.532	68.06
250.765	68.06
250.998	74.06
251.231	87.06
251.465	78.06
251.698	68.06
251.931	88.06
252.164	78.06
252.397	69.06
252.63	84.06
252.863	84.06
253.096	91.06
253.329	89.06
253.562	82.06
253.795	76.06
254.028	78.06
254.261	85.06
254.494	84.06
254.727	78.06
254.96	85.06
255.193	92.06
255.426	71.06
255.659	85.06
255.892	96.06
256.124	92.06
256.357	78.06
256.59	82.06
256.823	105.06
257.056	80.06
257.289	83.06
257.521	80.06
257.754	92.06
257.987	88.06
258.22	89.06
258.452	81.06
258.685	90.06
258.918	72.06
259.151	77.06
259.383	87.06
259.616	88.06
259.849	86.06
260.081	80.06
260.314	74.06
260.547	78.06
260.779	82.06
261.012	73.06
261.244	86.06
261.477	102.06
261.71	80.06
261.942	106.06
262.175	106.06
262.407	100.06
262.64	84.06
262.872	86.06
263.105	90.06
263.337	89.06
263.57	88.06
263.802	90.06
264.035	92.06
264.267	88.06
264.499	80.06
264.732	79.06
264.964	85.06
265.197	91.06
265.429	87.06
265.661	91.06
265.894	80.06
266.126	77.06
266.358	82.06
266.591	78.06
266.823	77.06
267.055	79.06
267.287	88.06
267.52	82.06
267.752	97.06
267.984	92.06
268.216	78.06
268.448	98.06
268.681	90.06
268.913	68.06
269.145	101.06
269.377	89.06
269.609	87.06
269.841	97.06
270.073	87.06
270.306	70.06
270.538	80.06
270.77	89.06
271.002	91.06
271.234	73.06
271.466	74.06
271.698	87.06
271.93	89.06
272.162	84.06
272.394	87.06
272.626	73.06
272.858	74.06
273.09	78.06
273.322	92.06
273.553	93.06
273.785	91.06
274.017	78.06
274.249	99.06
274.481	85.06
274.713	84.06
274.945	92.06
275.176	86.06
275.408	86.06
275.64	94.06
275.872	95.06
276.104	94.06
276.335	101.06
276.567	88.06
276.799	113.06
277.031	106.06
277.262	117.06
277.494	108.06
277.726	94.06
277.957	83.06
278.189	73.06
278.421	71.06
278.652	66.06
278.884	78.06
279.115	77.06
279.347	81.06
279.579	83.06
279.81	104.06
280.042	117.06
280.273	104.06
280.505	113.06
280.736	80.06
280.968	95.06
281.199	78.06
281.431	94.06
281.662	87.06
281.894	100.06
282.125	103.06
282.356	92.06
282.588	121.06
282.819	102.06
283.051	81.06
283.282	86.06
283.513	97.06
283.745	86.06
283.976	88.06
284.207	94.06
284.439	88.06
284.67	96.06
284.901	81.06
285.132	89.06
285.364	96.06
285.595	90.06
285.826	86.06
286.057	101.06
286.288	87.06
286.52	90.06
286.751	94.06
286.982	87.06
287.213	84.06
287.444	92.06
287.675	76.06
287.906	95.06
288.138	95.06
288.369	85.06
288.6	80.06
288.831	83.06
289.062	86.06
289.293	92.06
289.524	88.06
289.755	96.06
289.986	85.06
290.217	95.06
290.448	86.06
290.679	90.06
290.91	91.06
291.141	82.06
291.371	101.06
291.602	87.06
291.833	88.06
292.064	92.06
292.295	91.06
292.526	92.06
292.757	96.06
292.987	95.06
293.218	101.06
293.449	85.06
293.68	83.06
293.91	82.06
294.141	81.06
294.372	94.06
294.603	88.06
294.833	84.06
295.064	77.06
295.295	94.06
295.525	89.06
295.756	102.06
295.987	109.06
296.217	136.06
296.448	121.06
296.679	95.06
296.909	90.06
297.14	80.06
297.37	89.06
297.601	91.06
297.831	93.06
298.062	82.06
298.292	88.06
298.523	96.06
298.753	82.06
298.984	89.06
299.214	103.06
299.445	92.06
299.675	81.06
299.905	87.06
300.136	95.06
300.366	82.06
300.597	102.06
300.827	89.06
301.057	106.06
301.288	113.06
301.518	94.06
301.748	99.06
301.979	103.06
302.209	93.06
302.439	94.06
302.669	86.06
302.9	86.06
303.13	88.06
303.36	87.06
303.59	101.06
303.82	106.06
304.051	95.06
304.281	85.06
304.511	94.06
304.741	96.06
304.971	83.06
305.201	97.06
305.431	76.06
305.661	92.06
305.891	97.06
306.121	97.06
306.352	104.06
306.582	97.06
306.812	87.06
307.042	86.06
307.272	90.06
307.502	97.06
307.731	118.06
307.961	111.06
308.191	103.06
308.421	95.06
308.651	110.06
308.881	89.06
309.111	88.06
309.341	95.06
309.571	88.06
309.8	84.06
310.03	70.06
310.26	86.06
310.49	97.06
310.72	99.06
310.949	103.06
311.179	95.06
311.409	76.06
311.639	102.06
311.868	88.06
312.098	82.06
312.328	97.06
312.557	95.06
312.787	98.06
313.017	111.06
313.246	109.06
313.476	91.06
313.706	92.06
313.935	84.06
314.165	101.06
314.394	100.06
314.624	90.06
314.853	87.06
315.083	92.06
315.312	90.06
315.542	115.06
315.771	93.06
316.001	79.06
316.23	82.06
316.46	85.06
316.689	98.06
316.919	95.06
317.148	95.06
317.377	94.06
317.607	96.06
317.836	94.06
318.065	103.06
318.295	109.06
318.524	97.06
318.753	98.06
318.983	106.06
319.212	108.06
319.441	104.06
319.67	95.06
319.9	86.06
320.129	87.06
320.358	104.06
320.587	96.06
320.816	96.06
321.046	100.06
321.275	106.06
321.504	91.06
321.733	94.06
321.962	94.06
322.191	84.06
322.42	99.06
322.649	108.06
322.878	98.06
323.108	106.06
323.337	127.06
323.566	120.06
323.795	132.06
324.024	202.06
324.253	363.06
324.482	721.06
324.71	1463.06
324.939	1943.06
325.168	709.06
325.397	220.06
325.626	135.06
325.855	112.06
326.084	135.06
326.313	120.06
326.542	151.06
326.77	224.06
326.999	404.06
327.228	796.06
327.457	1464.06
327.686	1216.06
327.914	362.06
328.143	244.06
328.372	244.06
328.6	177.06
328.829	131.06
329.058	112.06
329.287	130.06
329.515	114.06
329.744	143.06
329.972	186.06
330.201	313.06
330.43	402.06
330.658	228.06
330.887	147.06
331.115	127.06
331.344	99.06
331.572	101.06
331.801	96.06
332.03	109.06
332.258	95.06
332.486	107.06
332.715	105.06
332.943	92.06
333.172	78.06
333.4	102.06
333.629	121.06
333.857	124.06
334.085	182.06
334.314	300.06
334.542	497.06
334.771	466.06
334.999	183.06
335.227	124.06
335.455	96.06
335.684	106.06
335.912	91.06
336.14	114.06
336.369	97.06
336.597	105.06
336.825	100.06
337.053	100.06
337.281	96.06
337.51	93.06
337.738	98.06
337.966	91.06
338.194	96.06
338.422	96.06
338.65	108.06
338.878	84.06
339.106	90.06
339.334	93.06
339.562	100.06
339.79	102.06
340.018	109.06
340.246	92.06
340.474	90.06
340.702	97.06
340.93	91.06
341.158	97.06
341.386	109.06
341.614	94.06
341.842	98.06
342.07	90.06
342.298	91.06
342.526	98.06
342.754	91.06
342.981	82.06
343.209	82.06
343.437	106.06
343.665	93.06
343.893	106.06
344.12	97.06
344.348	103.06
344.576	86.06
344.804	83.06
345.031	108.06
345.259	100.06
345.487	93.06
345.714	78.06
345.942	91.06
346.17	93.06
346.397	91.06
346.625	94.06
346.853	95.06
347.08	96.06
347.308	102.06
347.535	95.06
347.763	105.06
347.99	100.06
348.218	100.06
348.445	97.06
348.673	98.06
348.9	94.06
349.128	92.06
349.355	85.06
349.583	95.06
349.81	103.06
350.037	100.06
350.265	90.06
350.492	98.06
350.72	85.06
350.947	103.06
351.174	107.06
351.402	79.06
351.629	95.06
351.856	102.06
352.083	97.06
352.311	102.06
352.538	106.06
352.765	109.06
352.992	117.06
353.22	106.06
353.447	105.06
353.674	99.06
353.901	98.06
354.128	104.06
354.355	80.06
354.583	109.06
354.81	102.06
355.037	101.06
355.264	81.06
355.491	101.06
355.718	91.06
355.945	89.06
356.172	90.06
356.399	91.06
356.626	91.06
356.853	93.06
357.08	95.06
357.307	101.06
357.534	105.06
357.761	86.06
357.988	110.06
358.215	83.06
358.441	92.06
358.668	105.06
358.895	98.06
359.122	83.06
359.349	92.06
359.576	90.06
359.802	106.06
360.029	105.06
360.256	113.06
360.483	106.06
360.709	101.06
360.936	80.06
361.163	84.06
361.39	96.06
361.616	90.06
361.843	85.06
362.07	99.06
362.296	81.06
362.523	81.06
362.749	98.06
362.976	84.06
363.203	93.06
363.429	93.06
363.656	88.06
363.882	83.06
364.109	96.06
364.335	79.06
364.562	86.06
364.788	82.06
365.015	98.06
365.241	113.06
365.468	90.06
365.694	108.06
365.92	98.06
366.147	97.06
366.373	79.06
366.599	86.06
366.826	89.06
367.052	80.06
367.278	93.06
367.505	97.06
367.731	89.06
367.957	89.06
368.184	96.06
368.41	97.06
368.636	85.06
368.862	113.06
369.089	103.06
369.315	102.06
369.541	80.06
369.767	100.06
369.993	92.06
370.219	87.06
370.445	80.06
370.672	90.06
370.898	101.06
371.124	99.06
371.35	90.06
371.576	97.06
371.802	80.06
372.028	82.06
372.254	99.06
372.48	88.06
372.706	76.06
372.932	91.06
373.158	97.06
373.384	94.06
373.61	97.06
373.835	101.06
374.061	97.06
374.287	111.06
374.513	78.06
374.739	78.06
374.965	109.06
375.191	86.06
375.416	93.06
375.642	97.06
375.868	95.06
376.094	87.06
376.319	94.06
376.545	89.06
376.771	107.06
376.997	89.06
377.222	91.06
377.448	71.06
377.674	90.06
377.899	94.06
378.125	88.06
378.35	81.06
378.576	96.06
378.802	78.06
379.027	96.06
379.253	96.06
379.478	91.06
379.704	107.06
379.929	87.06
380.155	96.06
380.38	92.06
380.606	99.06
380.831	93.06
381.057	100.06
381.282	92.06
381.507	93.06
381.733	109.06
381.958	101.06
382.184	95.06
382.409	97.06
382.634	90.06
382.86	99.06
383.085	104.06
383.31	113.06
383.535	96.06
383.761	111.06
383.986	95.06
384.211	105.06
384.436	106.06
384.662	122.06
384.887	111.06
385.112	93.06
385.337	118.06
385.562	102.06
385.787	106.06
386.013	122.06
386.238	126.06
386.463	113.06
386.688	116.06
386.913	108.06
387.138	90.06
387.363	113.06
387.588	100.06
387.813	112.06
388.038	104.06
388.263	118.06
388.488	103.06
388.713	97.06
388.938	107.06
389.163	93.06
389.387	103.06
389.612	81.06
389.837	98.06
390.062	90.06
390.287	96.06
390.512	105.06
390.736	80.06
390.961	72.06
391.186	95.06
391.411	80.06
391.636	86.06
391.86	103.06
392.085	77.06
392.31	81.06
392.534	84.06
392.759	88.06
392.984	100.06
393.208	73.06
393.433	85.06
393.658	88.06
393.882	89.06
394.107	96.06
394.331	93.06
394.556	96.06
394.78	96.06
395.005	88.06
395.229	68.06
395.454	95.06
395.678	83.06
395.903	90.06
396.127	96.06
396.352	89.06
396.576	74.06
396.801	97.06
397.025	88.06
397.249	90.06
397.474	78.06
397.698	101.06
397.922	106.06
398.147	82.06
398.371	102.06
398.595	96.06
398.82	78.06
399.044	95.06
399.268	92.06
399.492	81.06
399.717	83.06
399.941	85.06
400.165	105.06
400.389	96.06
400.613	87.06
400.837	101.06
401.062	84.06
401.286	85.06
401.51	94.06
401.734	106.06
401.958	90.06
402.182	120.06
402.406	149.06
402.63	110.06
402.854	110.06
403.078	92.06
403.302	95.06
403.526	88.06
403.75	92.06
403.974	87.06
404.198	80.06
404.422	88.06
404.645	84.06
404.869	100.06
405.093	117.06
405.317	120.06
405.541	119.06
405.765	89.06
405.988	114.06
406.212	140.06
406.436	197.06
406.66	130.06
406.883	99.06
407.107	92.06
407.331	83.06
407.555	88.06
407.778	95.06
408.002	86.06
408.226	84.06
408.449	96.06
408.673	88.06
408.896	98.06
409.12	98.06
409.344	97.06
409.567	89.06
409.791	101.06
410.014	104.06
410.238	104.06
410.461	96.06
410.685	92.06
410.908	94.06
411.132	104.06
411.355	93.06
411.578	92.06
411.802	94.06
412.025	80.06
412.249	99.06
412.472	88.06
412.695	121.06
412.919	94.06
413.142	98.06
413.365	100.06
413.589	90.06
413.812	79.06
414.035	82.06
414.258	95.06
414.482	98.06
414.705	76.06
414.928	90.06
415.151	100.06
415.374	85.06
415.597	94.06
415.821	84.06
416.044	100.06
416.267	102.06
416.49	78.06
416.713	85.06
416.936	89.06
417.159	93.06
417.382	92.06
417.605	105.06
417.828	92.06
418.051	98.06
418.274	95.06
418.497	100.06
418.72	97.06
418.943	86.06
419.166	88.06
419.389	90.06
419.611	94.06
419.834	100.06
420.057	94.06
420.28	85.06
420.503	94.06
420.726	92.06
420.948	82.06
421.171	95.06
421.394	100.06
421.617	86.06
421.839	87.06
422.062	94.06
422.285	83.06
422.507	96.06
422.73	98.06
422.953	95.06
423.175	97.06
423.398	101.06
423.621	95.06
423.843	90.06
424.066	80.06
424.288	96.06
424.511	92.06
424.733	102.06
424.956	112.06
425.178	94.06
425.401	105.06
425.623	96.06
425.846	77.06
426.068	88.06
426.291	86.06
426.513	83.06
426.735	84.06
426.958	78.06
427.18	105.06
427.402	123.06
427.625	166.06
427.847	141.06
428.069	134.06
428.292	85.06
428.514	92.06
428.736	89.06
428.958	93.06
429.181	92.06
429.403	76.06
429.625	93.06
429.847	95.06
430.069	94.06
430.292	102.06
430.514	74.06
430.736	86.06
430.958	80.06
431.18	97.06
431.402	89.06
431.624	80.06
431.846	86.06
432.068	85.06
432.29	83.06
432.512	95.06
432.734	91.06
432.956	72.06
433.178	99.06
433.4	104.06
433.622	96.06
433.844	92.06
434.066	95.06
434.287	85.06
434.509	88.06
434.731	81.06
434.953	80.06
435.175	94.06
435.397	100.06
435.618	103.06
435.84	105.06
436.062	116.06
436.284	97.06
436.505	96.06
436.727	101.06
436.949	90.06
437.17	96.06
437.392	93.06
437.614	90.06
437.835	110.06
438.057	93.06
438.278	105.06
438.5	96.06
438.721	110.06
438.943	103.06
439.165	105.06
439.386	84.06
439.608	98.06
439.829	90.06
440.05	110.06
440.272	130.06
440.493	107.06
440.715	104.06
440.936	88.06
441.158	86.06
441.379	89.06
441.6	97.06
441.822	102.06
442.043	92.06
442.264	93.06
442.486	106.06
442.707	81.06
442.928	89.06
443.149	122.06
443.371	120.06
443.592	111.06
443.813	113.06
444.034	105.06
444.255	98.06
444.476	92.06
444.698	84.06
444.919	99.06
445.14	126.06
445.361	122.06
445.582	104.06
445.803	131.06
446.024	118.06
446.245	121.06
446.466	110.06
446.687	98.06
446.908	94.06
447.129	82.06
447.35	96.06
447.571	104.06
447.792	93.06
448.013	96.06
448.234	108.06
448.455	103.06
448.675	114.06
448.896	94.06
449.117	104.06
449.338	84.06
449.559	115.06
449.779	111.06
450	97.06
450.221	86.06
450.442	88.06
450.662	101.06
450.883	107.06
451.104	103.06
451.324	96.06
451.545	82.06
451.766	89.06
451.986	84.06
452.207	78.06
452.428	85.06
452.648	97.06
452.869	102.06
453.089	116.06
453.31	120.06
453.53	83.06
453.751	106.06
453.971	104.06
454.192	97.06
454.412	94.06
454.633	81.06
454.853	88.06
455.073	80.06
455.294	86.06
455.514	84.06
455.734	98.06
455.955	84.06
456.175	88.06
456.395	88.06
456.616	99.06
456.836	101.06
457.056	91.06
457.276	90.06
457.497	84.06
457.717	95.06
457.937	78.06
458.157	92.06
458.377	92.06
458.598	99.06
458.818	143.06
459.038	138.06
459.258	103.06
459.478	88.06
459.698	101.06
459.918	73.06
460.138	85.06
460.358	89.06
460.578	82.06
460.798	84.06
461.018	93.06
461.238	80.06
461.458	74.06
461.678	87.06
461.898	76.06
462.118	87.06
462.338	77.06
462.558	86.06
462.777	83.06
462.997	90.06
463.217	93.06
463.437	95.06
463.657	96.06
463.876	98.06
464.096	100.06
464.316	80.06
464.536	95.06
464.755	97.06
464.975	104.06
465.195	135.06
465.414	141.06
465.634	82.06
465.854	74.06
466.073	87.06
466.293	93.06
466.512	90.06
466.732	77.06
466.951	88.06
467.171	92.06
467.391	92.06
467.61	100.06
467.829	128.06
468.049	204.06
468.268	263.06
468.488	126.06
468.707	87.06
468.927	86.06
469.146	99.06
469.365	89.06
469.585	82.06
469.804	92.06
470.023	93.06
470.243	104.06
470.462	93.06
470.681	102.06
470.901	84.06
471.12	106.06
471.339	100.06
471.558	93.06
471.777	103.06
471.997	151.06
472.216	365.06
472.435	682.06
472.654	199.06
472.873	112.06
473.092	77.06
473.311	83.06
473.53	102.06
473.749	97.06
473.968	90.06
474.187	102.06
474.406	105.06
474.625	94.06
474.844	97.06
475.063	96.06
475.282	74.06
475.501	95.06
475.72	94.06
475.939	90.06
476.158	84.06
476.377	78.06
476.596	83.06
476.814	100.06
477.033	88.06
477.252	89.06
477.471	97.06
477.69	86.06
477.908	92.06
478.127	97.06
478.346	83.06
478.564	89.06
478.783	95.06
479.002	87.06
479.22	98.06
479.439	99.06
479.658	105.06
479.876	98.06
480.095	88.06
480.313	90.06
480.532	122.06
480.751	138.06
480.969	364.06
481.188	1206.06
481.406	684.06
481.624	168.06
481.843	109.06
482.061	96.06
482.28	97.06
482.498	88.06
482.717	100.06
482.935	84.06
483.153	86.06
483.372	94.06
483.59	82.06
483.808	93.06
484.027	87.06
484.245	94.06
484.463	94.06
484.681	101.06
484.9	88.06
485.118	96.06
485.336	87.06
485.554	100.06
485.772	102.06
485.99	111.06
486.209	96.06
486.427	102.06
486.645	110.06
486.863	109.06
487.081	79.06
487.299	100.06
487.517	104.06
487.735	98.06
487.953	85.06
488.171	85.06
488.389	95.06
488.607	99.06
488.825	90.06
489.043	84.06
489.261	105.06
489.479	91.06
489.696	83.06
489.914	84.06
490.132	89.06
490.35	96.06
490.568	102.06
490.786	86.06
491.003	93.06
491.221	94.06
491.439	98.06
491.657	93.06
491.874	100.06
492.092	95.06
492.31	96.06
492.527	89.06
492.745	93.06
492.963	91.06
493.18	109.06
493.398	87.06
493.615	101.06
493.833	104.06
494.05	97.06
494.268	96.06
494.485	100.06
494.703	81.06
494.92	90.06
495.138	89.06
495.355	92.06
495.573	101.06
495.79	81.06
496.008	102.06
496.225	99.06
496.442	94.06
496.66	90.06
496.877	94.06
497.094	86.06
497.312	77.06
497.529	98.06
497.746	93.06
497.963	101.06
498.181	94.06
498.398	85.06
498.615	101.06
498.832	88.06
499.049	84.06
499.267	98.06
499.484	91.06
499.701	80.06
499.918	98.06
500.135	92.06
500.352	80.06
500.569	93.06
500.786	96.06
501.003	92.06
501.22	77.06
501.437	92.06
501.654	93.06
501.871	96.06
502.088	102.06
502.305	104.06
502.522	90.06
502.739	91.06
502.956	91.06
503.172	102.06
503.389	87.06
503.606	102.06
503.823	82.06
504.04	94.06
504.256	84.06
504.473	103.06
504.69	95.06
504.907	104.06
505.123	81.06
505.34	96.06
505.557	97.06
505.773	81.06
505.99	84.06
506.207	97.06
506.423	94.06
506.64	106.06
506.856	97.06
507.073	96.06
507.289	93.06
507.506	90.06
507.722	99.06
507.939	105.06
508.155	100.06
508.372	84.06
508.588	101.06
508.805	75.06
509.021	87.06
509.238	90.06
509.454	93.06
509.67	94.06
509.887	108.06
510.103	124.06
510.319	204.06
510.536	664.06
510.752	1961.06
510.968	563.06
511.184	150.06
511.401	112.06
511.617	110.06
511.833	106.06
512.049	101.06
512.265	103.06
512.481	91.06
512.698	97.06
512.914	85.06
513.13	86.06
513.346	89.06
513.562	94.06
513.778	92.06
513.994	103.06
514.21	93.06
514.426	110.06
514.642	123.06
514.858	114.06
515.074	147.06
