Data from Circ_1990_H10_HRD10591_00041.txt Node
Date: Wed Jan 03 11:55:12 EST 2024
User: Yrep
Spectrometer: HR+D1059
Trigger mode: 1
Integration Time (sec): 1.000000E-1
Scans to average: 1
Electric dark correction enabled: true
Nonlinearity correction enabled: false
Boxcar width: 0
XAxis mode: Wavelengths
Number of Pixels in Spectrum: 2048
>>>>>Begin Spectral Data<<<<<
223.165	-17.94
223.4	-17.94
223.635	-17.94
223.869	-26.94
224.104	-12.94
224.338	-11.94
224.573	-25.94
224.808	-17.94
225.042	-3.94
225.277	-8.94
225.511	9.06
225.746	6.06
225.98	18.06
226.215	15.06
226.449	16.06
226.683	17.06
226.918	18.06
227.152	27.06
227.387	38.06
227.621	35.06
227.856	45.06
228.09	47.06
228.324	51.06
228.559	55.06
228.793	65.06
229.027	63.06
229.262	66.06
229.496	66.06
229.73	90.06
229.964	85.06
230.199	77.06
230.433	84.06
230.667	75.06
230.901	66.06
231.136	82.06
231.37	73.06
231.604	79.06
231.838	80.06
232.072	80.06
232.306	72.06
232.541	84.06
232.775	81.06
233.009	74.06
233.243	84.06
233.477	83.06
233.711	79.06
233.945	71.06
234.179	77.06
234.413	94.06
234.647	77.06
234.881	85.06
235.115	77.06
235.349	64.06
235.583	80.06
235.817	76.06
236.051	75.06
236.285	84.06
236.519	76.06
236.753	67.06
236.987	88.06
237.221	70.06
237.455	84.06
237.689	83.06
237.922	76.06
238.156	75.06
238.39	70.06
238.624	71.06
238.858	73.06
239.091	81.06
239.325	74.06
239.559	75.06
239.793	86.06
240.027	82.06
240.26	54.06
240.494	68.06
240.728	63.06
240.961	74.06
241.195	62.06
241.429	76.06
241.662	82.06
241.896	75.06
242.13	66.06
242.363	63.06
242.597	80.06
242.83	79.06
243.064	84.06
243.298	79.06
243.531	83.06
243.765	75.06
243.998	66.06
244.232	89.06
244.465	86.06
244.699	83.06
244.932	79.06
245.166	73.06
245.399	75.06
245.633	83.06
245.866	79.06
246.099	74.06
246.333	80.06
246.566	78.06
246.8	66.06
247.033	86.06
247.266	81.06
247.5	79.06
247.733	88.06
247.966	89.06
248.2	85.06
248.433	83.06
248.666	89.06
248.899	71.06
249.133	86.06
249.366	103.06
249.599	97.06
249.832	77.06
250.066	97.06
250.299	81.06
250.532	76.06
250.765	85.06
250.998	85.06
251.231	76.06
251.465	60.06
251.698	82.06
251.931	76.06
252.164	91.06
252.397	87.06
252.63	74.06
252.863	86.06
253.096	82.06
253.329	76.06
253.562	79.06
253.795	75.06
254.028	84.06
254.261	75.06
254.494	85.06
254.727	81.06
254.96	93.06
255.193	71.06
255.426	65.06
255.659	77.06
255.892	90.06
256.124	74.06
256.357	85.06
256.59	78.06
256.823	77.06
257.056	86.06
257.289	76.06
257.521	74.06
257.754	92.06
257.987	87.06
258.22	101.06
258.452	93.06
258.685	87.06
258.918	72.06
259.151	87.06
259.383	90.06
259.616	76.06
259.849	70.06
260.081	93.06
260.314	87.06
260.547	82.06
260.779	87.06
261.012	106.06
261.244	89.06
261.477	94.06
261.71	86.06
261.942	133.06
262.175	128.06
262.407	102.06
262.64	88.06
262.872	81.06
263.105	73.06
263.337	71.06
263.57	86.06
263.802	82.06
264.035	78.06
264.267	93.06
264.499	73.06
264.732	84.06
264.964	81.06
265.197	85.06
265.429	85.06
265.661	84.06
265.894	85.06
266.126	73.06
266.358	91.06
266.591	85.06
266.823	76.06
267.055	79.06
267.287	85.06
267.52	83.06
267.752	71.06
267.984	80.06
268.216	68.06
268.448	83.06
268.681	80.06
268.913	73.06
269.145	78.06
269.377	78.06
269.609	66.06
269.841	86.06
270.073	80.06
270.306	84.06
270.538	91.06
270.77	89.06
271.002	96.06
271.234	80.06
271.466	84.06
271.698	99.06
271.93	79.06
272.162	95.06
272.394	84.06
272.626	80.06
272.858	85.06
273.09	87.06
273.322	87.06
273.553	81.06
273.785	77.06
274.017	84.06
274.249	72.06
274.481	96.06
274.713	76.06
274.945	89.06
275.176	81.06
275.408	83.06
275.64	97.06
275.872	103.06
276.104	93.06
276.335	82.06
276.567	105.06
276.799	129.06
277.031	118.06
277.262	133.06
277.494	108.06
277.726	92.06
277.957	84.06
278.189	93.06
278.421	79.06
278.652	87.06
278.884	93.06
279.115	77.06
279.347	97.06
279.579	100.06
279.81	97.06
280.042	122.06
280.273	140.06
280.505	111.06
280.736	104.06
280.968	84.06
281.199	86.06
281.431	78.06
281.662	86.06
281.894	78.06
282.125	109.06
282.356	123.06
282.588	156.06
282.819	134.06
283.051	104.06
283.282	88.06
283.513	99.06
283.745	90.06
283.976	80.06
284.207	79.06
284.439	69.06
284.67	82.06
284.901	85.06
285.132	91.06
285.364	83.06
285.595	86.06
285.826	78.06
286.057	93.06
286.288	91.06
286.52	84.06
286.751	77.06
286.982	78.06
287.213	99.06
287.444	93.06
287.675	81.06
287.906	101.06
288.138	83.06
288.369	89.06
288.6	97.06
288.831	86.06
289.062	77.06
289.293	81.06
289.524	94.06
289.755	90.06
289.986	90.06
290.217	88.06
290.448	93.06
290.679	77.06
290.91	108.06
291.141	87.06
291.371	78.06
291.602	95.06
291.833	84.06
292.064	92.06
292.295	86.06
292.526	98.06
292.757	89.06
292.987	91.06
293.218	84.06
293.449	91.06
293.68	87.06
293.91	91.06
294.141	99.06
294.372	79.06
294.603	82.06
294.833	82.06
295.064	92.06
295.295	96.06
295.525	91.06
295.756	117.06
295.987	120.06
296.217	161.06
296.448	131.06
296.679	99.06
296.909	91.06
297.14	100.06
297.37	77.06
297.601	97.06
297.831	66.06
298.062	86.06
298.292	84.06
298.523	73.06
298.753	80.06
298.984	88.06
299.214	86.06
299.445	87.06
299.675	86.06
299.905	90.06
300.136	98.06
300.366	89.06
300.597	78.06
300.827	93.06
301.057	102.06
301.288	107.06
301.518	92.06
301.748	94.06
301.979	109.06
302.209	95.06
302.439	88.06
302.669	93.06
302.9	79.06
303.13	91.06
303.36	111.06
303.59	114.06
303.82	130.06
304.051	82.06
304.281	97.06
304.511	96.06
304.741	87.06
304.971	91.06
305.201	95.06
305.431	81.06
305.661	94.06
305.891	98.06
306.121	92.06
306.352	109.06
306.582	109.06
306.812	89.06
307.042	101.06
307.272	126.06
307.502	128.06
307.731	105.06
307.961	98.06
308.191	108.06
308.421	92.06
308.651	93.06
308.881	91.06
309.111	90.06
309.341	92.06
309.571	106.06
309.8	91.06
310.03	100.06
310.26	103.06
310.49	92.06
310.72	103.06
310.949	114.06
311.179	113.06
311.409	95.06
311.639	100.06
311.868	106.06
312.098	105.06
312.328	112.06
312.557	105.06
312.787	106.06
313.017	101.06
313.246	98.06
313.476	97.06
313.706	106.06
313.935	96.06
314.165	101.06
314.394	109.06
314.624	98.06
314.853	94.06
315.083	83.06
315.312	82.06
315.542	98.06
315.771	96.06
316.001	104.06
316.23	92.06
316.46	97.06
316.689	101.06
316.919	92.06
317.148	97.06
317.377	90.06
317.607	93.06
317.836	89.06
318.065	96.06
318.295	86.06
318.524	82.06
318.753	93.06
318.983	92.06
319.212	109.06
319.441	117.06
319.67	101.06
319.9	93.06
320.129	79.06
320.358	101.06
320.587	103.06
320.816	113.06
321.046	109.06
321.275	95.06
321.504	95.06
321.733	98.06
321.962	105.06
322.191	101.06
322.42	100.06
322.649	112.06
322.878	99.06
323.108	118.06
323.337	141.06
323.566	147.06
323.795	177.06
324.024	228.06
324.253	463.06
324.482	949.06
324.71	1964.06
324.939	2635.06
325.168	951.06
325.397	290.06
325.626	159.06
325.855	139.06
326.084	139.06
326.313	144.06
326.542	161.06
326.77	270.06
326.999	483.06
327.228	1067.06
327.457	1959.06
327.686	1568.06
327.914	473.06
328.143	340.06
328.372	357.06
328.6	222.06
328.829	171.06
329.058	165.06
329.287	185.06
329.515	130.06
329.744	187.06
329.972	258.06
330.201	486.06
330.43	698.06
330.658	357.06
330.887	239.06
331.115	161.06
331.344	98.06
331.572	115.06
331.801	133.06
332.03	135.06
332.258	97.06
332.486	116.06
332.715	101.06
332.943	103.06
333.172	110.06
333.4	107.06
333.629	129.06
333.857	160.06
334.085	274.06
334.314	463.06
334.542	878.06
334.771	786.06
334.999	261.06
335.227	125.06
335.455	114.06
335.684	113.06
335.912	109.06
336.14	110.06
336.369	96.06
336.597	100.06
336.825	93.06
337.053	95.06
337.281	98.06
337.51	91.06
337.738	100.06
337.966	84.06
338.194	114.06
338.422	92.06
338.65	99.06
338.878	91.06
339.106	89.06
339.334	97.06
339.562	93.06
339.79	95.06
340.018	93.06
340.246	91.06
340.474	85.06
340.702	87.06
340.93	78.06
341.158	90.06
341.386	111.06
341.614	93.06
341.842	92.06
342.07	97.06
342.298	82.06
342.526	91.06
342.754	78.06
342.981	88.06
343.209	89.06
343.437	97.06
343.665	87.06
343.893	95.06
344.12	102.06
344.348	85.06
344.576	88.06
344.804	99.06
345.031	98.06
345.259	110.06
345.487	111.06
345.714	114.06
345.942	101.06
346.17	97.06
346.397	90.06
346.625	108.06
346.853	87.06
347.08	89.06
347.308	97.06
347.535	107.06
347.763	113.06
347.99	99.06
348.218	102.06
348.445	109.06
348.673	101.06
348.9	85.06
349.128	90.06
349.355	93.06
349.583	87.06
349.81	102.06
350.037	100.06
350.265	98.06
350.492	108.06
350.72	103.06
350.947	96.06
351.174	114.06
351.402	117.06
351.629	119.06
351.856	116.06
352.083	123.06
352.311	125.06
352.538	121.06
352.765	111.06
352.992	119.06
353.22	105.06
353.447	114.06
353.674	99.06
353.901	101.06
354.128	103.06
354.355	78.06
354.583	107.06
354.81	93.06
355.037	88.06
355.264	84.06
355.491	93.06
355.718	97.06
355.945	91.06
356.172	100.06
356.399	93.06
356.626	85.06
356.853	99.06
357.08	84.06
357.307	89.06
357.534	99.06
357.761	99.06
357.988	94.06
358.215	99.06
358.441	91.06
358.668	99.06
358.895	95.06
359.122	83.06
359.349	102.06
359.576	102.06
359.802	128.06
360.029	140.06
360.256	129.06
360.483	109.06
360.709	97.06
360.936	87.06
361.163	97.06
361.39	95.06
361.616	106.06
361.843	106.06
362.07	103.06
362.296	111.06
362.523	91.06
362.749	98.06
362.976	105.06
363.203	99.06
363.429	95.06
363.656	84.06
363.882	85.06
364.109	103.06
364.335	77.06
364.562	84.06
364.788	98.06
365.015	106.06
365.241	98.06
365.468	124.06
365.694	120.06
365.92	108.06
366.147	102.06
366.373	105.06
366.599	86.06
366.826	100.06
367.052	102.06
367.278	97.06
367.505	96.06
367.731	98.06
367.957	114.06
368.184	90.06
368.41	101.06
368.636	124.06
368.862	145.06
369.089	111.06
369.315	96.06
369.541	88.06
369.767	98.06
369.993	91.06
370.219	103.06
370.445	93.06
370.672	89.06
370.898	79.06
371.124	96.06
371.35	90.06
371.576	102.06
371.802	90.06
372.028	96.06
372.254	86.06
372.48	89.06
372.706	86.06
372.932	81.06
373.158	93.06
373.384	89.06
373.61	89.06
373.835	108.06
374.061	108.06
374.287	80.06
374.513	93.06
374.739	93.06
374.965	88.06
375.191	97.06
375.416	98.06
375.642	85.06
375.868	88.06
376.094	99.06
376.319	76.06
376.545	90.06
376.771	94.06
376.997	82.06
377.222	98.06
377.448	96.06
377.674	93.06
377.899	89.06
378.125	86.06
378.35	89.06
378.576	95.06
378.802	94.06
379.027	98.06
379.253	112.06
379.478	99.06
379.704	96.06
379.929	90.06
380.155	93.06
380.38	97.06
380.606	112.06
380.831	94.06
381.057	83.06
381.282	118.06
381.507	116.06
381.733	95.06
381.958	104.06
382.184	106.06
382.409	98.06
382.634	102.06
382.86	117.06
383.085	117.06
383.31	107.06
383.535	110.06
383.761	97.06
383.986	107.06
384.211	112.06
384.436	114.06
384.662	128.06
384.887	108.06
385.112	124.06
385.337	106.06
385.562	122.06
385.787	119.06
386.013	123.06
386.238	115.06
386.463	115.06
386.688	110.06
386.913	116.06
387.138	117.06
387.363	127.06
387.588	102.06
387.813	108.06
388.038	111.06
388.263	121.06
388.488	124.06
388.713	97.06
388.938	106.06
389.163	97.06
389.387	93.06
389.612	99.06
389.837	95.06
390.062	83.06
390.287	95.06
390.512	85.06
390.736	75.06
390.961	101.06
391.186	101.06
391.411	98.06
391.636	92.06
391.86	84.06
392.085	90.06
392.31	102.06
392.534	100.06
392.759	82.06
392.984	92.06
393.208	99.06
393.433	87.06
393.658	92.06
393.882	87.06
394.107	95.06
394.331	81.06
394.556	81.06
394.78	87.06
395.005	91.06
395.229	84.06
395.454	85.06
395.678	92.06
395.903	81.06
396.127	81.06
396.352	76.06
396.576	95.06
396.801	93.06
397.025	81.06
397.249	93.06
397.474	91.06
397.698	85.06
397.922	103.06
398.147	86.06
398.371	86.06
398.595	95.06
398.82	81.06
399.044	81.06
399.268	90.06
399.492	86.06
399.717	103.06
399.941	83.06
400.165	96.06
400.389	103.06
400.613	75.06
400.837	82.06
401.062	103.06
401.286	95.06
401.51	90.06
401.734	97.06
401.958	103.06
402.182	138.06
402.406	200.06
402.63	148.06
402.854	98.06
403.078	89.06
403.302	94.06
403.526	92.06
403.75	83.06
403.974	90.06
404.198	97.06
404.422	86.06
404.645	85.06
404.869	93.06
405.093	108.06
405.317	119.06
405.541	114.06
405.765	117.06
405.988	126.06
406.212	206.06
406.436	303.06
406.66	188.06
406.883	107.06
407.107	90.06
407.331	109.06
407.555	116.06
407.778	95.06
408.002	103.06
408.226	89.06
408.449	102.06
408.673	88.06
408.896	97.06
409.12	90.06
409.344	93.06
409.567	77.06
409.791	85.06
410.014	98.06
410.238	94.06
410.461	94.06
410.685	108.06
410.908	102.06
411.132	107.06
411.355	108.06
411.578	96.06
411.802	78.06
412.025	85.06
412.249	93.06
412.472	102.06
412.695	104.06
412.919	99.06
413.142	79.06
413.365	89.06
413.589	80.06
413.812	87.06
414.035	97.06
414.258	86.06
414.482	86.06
414.705	96.06
414.928	111.06
415.151	86.06
415.374	88.06
415.597	91.06
415.821	93.06
416.044	93.06
416.267	80.06
416.49	103.06
416.713	79.06
416.936	93.06
417.159	95.06
417.382	106.06
417.605	85.06
417.828	87.06
418.051	101.06
418.274	107.06
418.497	97.06
418.72	106.06
418.943	78.06
419.166	85.06
419.389	93.06
419.611	94.06
419.834	104.06
420.057	88.06
420.28	91.06
420.503	100.06
420.726	90.06
420.948	100.06
421.171	107.06
421.394	93.06
421.617	95.06
421.839	90.06
422.062	90.06
422.285	97.06
422.507	106.06
422.73	102.06
422.953	106.06
423.175	94.06
423.398	79.06
423.621	87.06
423.843	84.06
424.066	90.06
424.288	78.06
424.511	100.06
424.733	99.06
424.956	124.06
425.178	109.06
425.401	103.06
425.623	95.06
425.846	90.06
426.068	102.06
426.291	77.06
426.513	96.06
426.735	104.06
426.958	94.06
427.18	121.06
427.402	156.06
427.625	221.06
427.847	197.06
428.069	166.06
428.292	111.06
428.514	101.06
428.736	87.06
428.958	85.06
429.181	83.06
429.403	90.06
429.625	92.06
429.847	82.06
430.069	114.06
430.292	103.06
430.514	95.06
430.736	75.06
430.958	73.06
431.18	83.06
431.402	84.06
431.624	77.06
431.846	98.06
432.068	94.06
432.29	77.06
432.512	98.06
432.734	87.06
432.956	90.06
433.178	96.06
433.4	89.06
433.622	92.06
433.844	100.06
434.066	85.06
434.287	97.06
434.509	90.06
434.731	84.06
434.953	82.06
435.175	92.06
435.397	95.06
435.618	103.06
435.84	116.06
436.062	134.06
436.284	128.06
436.505	105.06
436.727	100.06
436.949	81.06
437.17	80.06
437.392	86.06
437.614	93.06
437.835	116.06
438.057	134.06
438.278	118.06
438.5	103.06
438.721	123.06
438.943	101.06
439.165	83.06
439.386	90.06
439.608	112.06
439.829	94.06
440.05	128.06
440.272	170.06
440.493	105.06
440.715	104.06
440.936	100.06
441.158	92.06
441.379	94.06
441.6	82.06
441.822	93.06
442.043	112.06
442.264	108.06
442.486	119.06
442.707	93.06
442.928	115.06
443.149	158.06
443.371	156.06
443.592	117.06
443.813	117.06
444.034	111.06
444.255	108.06
444.476	93.06
444.698	107.06
444.919	82.06
445.14	137.06
445.361	137.06
445.582	124.06
445.803	151.06
446.024	155.06
446.245	135.06
446.466	118.06
446.687	99.06
446.908	67.06
447.129	89.06
447.35	94.06
447.571	114.06
447.792	94.06
448.013	106.06
448.234	111.06
448.455	103.06
448.675	116.06
448.896	116.06
449.117	101.06
449.338	119.06
449.559	126.06
449.779	135.06
450	97.06
450.221	102.06
450.442	103.06
450.662	112.06
450.883	125.06
451.104	118.06
451.324	106.06
451.545	90.06
451.766	85.06
451.986	91.06
452.207	89.06
452.428	89.06
452.648	103.06
452.869	115.06
453.089	141.06
453.31	127.06
453.53	92.06
453.751	96.06
453.971	109.06
454.192	131.06
454.412	98.06
454.633	100.06
454.853	81.06
455.073	81.06
455.294	93.06
455.514	113.06
455.734	97.06
455.955	95.06
456.175	81.06
456.395	85.06
456.616	90.06
456.836	81.06
457.056	82.06
457.276	85.06
457.497	87.06
457.717	77.06
457.937	93.06
458.157	90.06
458.377	101.06
458.598	127.06
458.818	183.06
459.038	211.06
459.258	146.06
459.478	101.06
459.698	83.06
459.918	87.06
460.138	80.06
460.358	85.06
460.578	94.06
460.798	97.06
461.018	85.06
461.238	83.06
461.458	82.06
461.678	82.06
461.898	82.06
462.118	93.06
462.338	82.06
462.558	79.06
462.777	91.06
462.997	87.06
463.217	95.06
463.437	86.06
463.657	94.06
463.876	83.06
464.096	89.06
464.316	84.06
464.536	93.06
464.755	95.06
464.975	118.06
465.195	210.06
465.414	213.06
465.634	104.06
465.854	96.06
466.073	93.06
466.293	89.06
466.512	90.06
466.732	99.06
466.951	93.06
467.171	111.06
467.391	103.06
467.61	126.06
467.829	129.06
468.049	295.06
468.268	405.06
468.488	137.06
468.707	86.06
468.927	89.06
469.146	91.06
469.365	91.06
469.585	86.06
469.804	105.06
470.023	97.06
470.243	94.06
470.462	109.06
470.681	132.06
470.901	119.06
471.12	103.06
471.339	87.06
471.558	91.06
471.777	111.06
471.997	192.06
472.216	547.06
472.435	1164.06
472.654	309.06
472.873	120.06
473.092	97.06
473.311	86.06
473.53	86.06
473.749	88.06
473.968	98.06
474.187	100.06
474.406	100.06
474.625	84.06
474.844	83.06
475.063	71.06
475.282	80.06
475.501	90.06
475.72	106.06
475.939	101.06
476.158	95.06
476.377	98.06
476.596	94.06
476.814	94.06
477.033	100.06
477.252	93.06
477.471	98.06
477.69	83.06
477.908	88.06
478.127	94.06
478.346	98.06
478.564	93.06
478.783	100.06
479.002	89.06
479.22	110.06
479.439	125.06
479.658	133.06
479.876	110.06
480.095	94.06
480.313	102.06
480.532	118.06
480.751	168.06
480.969	507.06
481.188	2011.06
481.406	1193.06
481.624	198.06
481.843	113.06
482.061	92.06
482.28	98.06
482.498	102.06
482.717	98.06
482.935	99.06
483.153	86.06
483.372	93.06
483.59	83.06
483.808	74.06
484.027	103.06
484.245	92.06
484.463	105.06
484.681	102.06
484.9	99.06
485.118	83.06
485.336	94.06
485.554	103.06
485.772	98.06
485.99	109.06
486.209	119.06
486.427	115.06
486.645	124.06
486.863	115.06
487.081	105.06
487.299	106.06
487.517	98.06
487.735	79.06
487.953	92.06
488.171	93.06
488.389	111.06
488.607	102.06
488.825	94.06
489.043	107.06
489.261	90.06
489.479	88.06
489.696	83.06
489.914	98.06
490.132	95.06
490.35	94.06
490.568	85.06
490.786	104.06
491.003	78.06
491.221	95.06
491.439	90.06
491.657	80.06
491.874	96.06
492.092	99.06
492.31	87.06
492.527	99.06
492.745	93.06
492.963	86.06
493.18	94.06
493.398	99.06
493.615	96.06
493.833	99.06
494.05	107.06
494.268	92.06
494.485	100.06
494.703	86.06
494.92	93.06
495.138	93.06
495.355	83.06
495.573	90.06
495.79	88.06
496.008	97.06
496.225	80.06
496.442	90.06
496.66	99.06
496.877	90.06
497.094	101.06
497.312	90.06
497.529	85.06
497.746	91.06
497.963	91.06
498.181	87.06
498.398	99.06
498.615	108.06
498.832	89.06
499.049	79.06
499.267	97.06
499.484	89.06
499.701	95.06
499.918	99.06
500.135	87.06
500.352	87.06
500.569	84.06
500.786	90.06
501.003	89.06
501.22	92.06
501.437	104.06
501.654	90.06
501.871	128.06
502.088	103.06
502.305	91.06
502.522	96.06
502.739	75.06
502.956	90.06
503.172	96.06
503.389	108.06
503.606	111.06
503.823	97.06
504.04	90.06
504.256	94.06
504.473	91.06
504.69	84.06
504.907	103.06
505.123	89.06
505.34	93.06
505.557	93.06
505.773	92.06
505.99	87.06
506.207	79.06
506.423	81.06
506.64	88.06
506.856	76.06
507.073	84.06
507.289	102.06
507.506	90.06
507.722	132.06
507.939	123.06
508.155	109.06
508.372	84.06
508.588	98.06
508.805	103.06
509.021	97.06
509.238	98.06
509.454	85.06
509.67	112.06
509.887	117.06
510.103	146.06
510.319	245.06
510.536	895.06
510.752	3034.06
510.968	821.06
511.184	190.06
511.401	124.06
511.617	108.06
511.833	95.06
512.049	81.06
512.265	85.06
512.481	99.06
512.698	97.06
512.914	98.06
513.13	81.06
513.346	82.06
513.562	105.06
513.778	106.06
