Data from Circ_1990_H10_HRD10591_00086.txt Node
Date: Wed Jan 03 11:55:21 EST 2024
User: Yrep
Spectrometer: HR+D1059
Trigger mode: 1
Integration Time (sec): 1.000000E-1
Scans to average: 1
Electric dark correction enabled: true
Nonlinearity correction enabled: false
Boxcar width: 0
XAxis mode: Wavelengths
Number of Pixels in Spectrum: 2048
>>>>>Begin Spectral Data<<<<<
223.165	-6.25
223.4	-6.25
223.635	-6.25
223.869	-23.25
224.104	-18.25
224.338	-10.25
224.573	-12.25
224.808	-18.25
225.042	-17.25
225.277	0.75
225.511	-2.25
225.746	4.75
225.98	6.75
226.215	-3.25
226.449	19.75
226.683	25.75
226.918	30.75
227.152	22.75
227.387	39.75
227.621	30.75
227.856	48.75
228.09	62.75
228.324	52.75
228.559	52.75
228.793	54.75
229.027	65.75
229.262	59.75
229.496	74.75
229.73	85.75
229.964	78.75
230.199	70.75
230.433	72.75
230.667	75.75
230.901	78.75
231.136	79.75
231.37	79.75
231.604	88.75
231.838	74.75
232.072	66.75
232.306	76.75
232.541	76.75
232.775	73.75
233.009	74.75
233.243	91.75
233.477	88.75
233.711	81.75
233.945	75.75
234.179	85.75
234.413	82.75
234.647	70.75
234.881	67.75
235.115	75.75
235.349	82.75
235.583	93.75
235.817	88.75
236.051	61.75
236.285	84.75
236.519	76.75
236.753	78.75
236.987	73.75
237.221	66.75
237.455	78.75
237.689	83.75
237.922	78.75
238.156	76.75
238.39	74.75
238.624	79.75
238.858	87.75
239.091	76.75
239.325	80.75
239.559	60.75
239.793	76.75
240.027	76.75
240.26	69.75
240.494	58.75
240.728	83.75
240.961	69.75
241.195	78.75
241.429	72.75
241.662	74.75
241.896	79.75
242.13	74.75
242.363	73.75
242.597	72.75
242.83	71.75
243.064	65.75
243.298	76.75
243.531	78.75
243.765	77.75
243.998	81.75
244.232	81.75
244.465	89.75
244.699	73.75
244.932	79.75
245.166	74.75
245.399	69.75
245.633	74.75
245.866	68.75
246.099	78.75
246.333	89.75
246.566	76.75
246.8	74.75
247.033	85.75
247.266	61.75
247.5	72.75
247.733	76.75
247.966	69.75
248.2	68.75
248.433	69.75
248.666	85.75
248.899	75.75
249.133	86.75
249.366	96.75
249.599	83.75
249.832	84.75
250.066	89.75
250.299	77.75
250.532	92.75
250.765	82.75
250.998	90.75
251.231	76.75
251.465	72.75
251.698	78.75
251.931	72.75
252.164	76.75
252.397	72.75
252.63	69.75
252.863	66.75
253.096	75.75
253.329	81.75
253.562	82.75
253.795	75.75
254.028	89.75
254.261	77.75
254.494	65.75
254.727	85.75
254.96	72.75
255.193	81.75
255.426	68.75
255.659	70.75
255.892	90.75
256.124	77.75
256.357	76.75
256.59	64.75
256.823	77.75
257.056	76.75
257.289	80.75
257.521	83.75
257.754	87.75
257.987	100.75
258.22	83.75
258.452	75.75
258.685	89.75
258.918	74.75
259.151	65.75
259.383	86.75
259.616	88.75
259.849	76.75
260.081	89.75
260.314	81.75
260.547	77.75
260.779	91.75
261.012	90.75
261.244	87.75
261.477	84.75
261.71	100.75
261.942	107.75
262.175	101.75
262.407	79.75
262.64	75.75
262.872	82.75
263.105	88.75
263.337	102.75
263.57	84.75
263.802	79.75
264.035	75.75
264.267	74.75
264.499	87.75
264.732	81.75
264.964	95.75
265.197	80.75
265.429	88.75
265.661	89.75
265.894	82.75
266.126	81.75
266.358	75.75
266.591	81.75
266.823	87.75
267.055	81.75
267.287	72.75
267.52	76.75
267.752	83.75
267.984	69.75
268.216	64.75
268.448	81.75
268.681	80.75
268.913	80.75
269.145	84.75
269.377	84.75
269.609	77.75
269.841	85.75
270.073	75.75
270.306	97.75
270.538	78.75
270.77	84.75
271.002	100.75
271.234	85.75
271.466	67.75
271.698	86.75
271.93	83.75
272.162	85.75
272.394	88.75
272.626	98.75
272.858	81.75
273.09	91.75
273.322	76.75
273.553	74.75
273.785	89.75
274.017	84.75
274.249	90.75
274.481	88.75
274.713	67.75
274.945	83.75
275.176	104.75
275.408	101.75
275.64	99.75
275.872	86.75
276.104	97.75
276.335	82.75
276.567	106.75
276.799	101.75
277.031	113.75
277.262	128.75
277.494	117.75
277.726	69.75
277.957	84.75
278.189	77.75
278.421	74.75
278.652	78.75
278.884	88.75
279.115	75.75
279.347	88.75
279.579	89.75
279.81	95.75
280.042	107.75
280.273	133.75
280.505	104.75
280.736	86.75
280.968	93.75
281.199	88.75
281.431	76.75
281.662	79.75
281.894	87.75
282.125	95.75
282.356	120.75
282.588	129.75
282.819	109.75
283.051	87.75
283.282	90.75
283.513	104.75
283.745	98.75
283.976	84.75
284.207	85.75
284.439	93.75
284.67	86.75
284.901	90.75
285.132	84.75
285.364	90.75
285.595	84.75
285.826	76.75
286.057	84.75
286.288	65.75
286.52	89.75
286.751	81.75
286.982	84.75
287.213	82.75
287.444	93.75
287.675	76.75
287.906	99.75
288.138	97.75
288.369	104.75
288.6	98.75
288.831	84.75
289.062	82.75
289.293	82.75
289.524	79.75
289.755	88.75
289.986	73.75
290.217	80.75
290.448	82.75
290.679	88.75
290.91	92.75
291.141	85.75
291.371	107.75
291.602	88.75
291.833	77.75
292.064	80.75
292.295	74.75
292.526	83.75
292.757	80.75
292.987	96.75
293.218	85.75
293.449	108.75
293.68	81.75
293.91	74.75
294.141	97.75
294.372	80.75
294.603	102.75
294.833	98.75
295.064	91.75
295.295	87.75
295.525	93.75
295.756	99.75
295.987	93.75
296.217	144.75
296.448	132.75
296.679	94.75
296.909	83.75
297.14	92.75
297.37	84.75
297.601	91.75
297.831	84.75
298.062	97.75
298.292	92.75
298.523	84.75
298.753	83.75
298.984	69.75
299.214	88.75
299.445	85.75
299.675	86.75
299.905	86.75
300.136	73.75
300.366	91.75
300.597	98.75
300.827	93.75
301.057	86.75
301.288	93.75
301.518	87.75
301.748	84.75
301.979	80.75
302.209	100.75
302.439	78.75
302.669	91.75
302.9	84.75
303.13	89.75
303.36	97.75
303.59	109.75
303.82	100.75
304.051	94.75
304.281	89.75
304.511	89.75
304.741	90.75
304.971	81.75
305.201	90.75
305.431	84.75
305.661	99.75
305.891	82.75
306.121	93.75
306.352	101.75
306.582	95.75
306.812	102.75
307.042	101.75
307.272	112.75
307.502	120.75
307.731	117.75
307.961	97.75
308.191	77.75
308.421	78.75
308.651	83.75
308.881	91.75
309.111	97.75
309.341	105.75
309.571	104.75
309.8	91.75
310.03	84.75
310.26	93.75
310.49	94.75
310.72	106.75
310.949	104.75
311.179	109.75
311.409	91.75
311.639	94.75
311.868	97.75
312.098	87.75
312.328	104.75
312.557	100.75
312.787	96.75
313.017	117.75
313.246	90.75
313.476	98.75
313.706	90.75
313.935	87.75
314.165	87.75
314.394	94.75
314.624	115.75
314.853	100.75
315.083	95.75
315.312	91.75
315.542	75.75
315.771	97.75
316.001	100.75
316.23	94.75
316.46	74.75
316.689	78.75
316.919	85.75
317.148	84.75
317.377	100.75
317.607	96.75
317.836	85.75
318.065	88.75
318.295	81.75
318.524	85.75
318.753	85.75
318.983	96.75
319.212	90.75
319.441	121.75
319.67	104.75
319.9	89.75
320.129	90.75
320.358	85.75
320.587	96.75
320.816	102.75
321.046	98.75
321.275	86.75
321.504	103.75
321.733	93.75
321.962	92.75
322.191	91.75
322.42	94.75
322.649	113.75
322.878	107.75
323.108	110.75
323.337	110.75
323.566	127.75
323.795	131.75
324.024	199.75
324.253	348.75
324.482	768.75
324.71	1628.75
324.939	2165.75
325.168	770.75
325.397	239.75
325.626	149.75
325.855	128.75
326.084	138.75
326.313	120.75
326.542	160.75
326.77	219.75
326.999	452.75
327.228	889.75
327.457	1613.75
327.686	1316.75
327.914	378.75
328.143	272.75
328.372	291.75
328.6	205.75
328.829	131.75
329.058	127.75
329.287	141.75
329.515	113.75
329.744	156.75
329.972	226.75
330.201	389.75
330.43	534.75
330.658	280.75
330.887	169.75
331.115	148.75
331.344	109.75
331.572	100.75
331.801	106.75
332.03	101.75
332.258	93.75
332.486	97.75
332.715	102.75
332.943	109.75
333.172	94.75
333.4	100.75
333.629	112.75
333.857	138.75
334.085	198.75
334.314	372.75
334.542	681.75
334.771	652.75
334.999	204.75
335.227	136.75
335.455	105.75
335.684	99.75
335.912	96.75
336.14	108.75
336.369	82.75
336.597	91.75
336.825	98.75
337.053	97.75
337.281	95.75
337.51	89.75
337.738	82.75
337.966	100.75
338.194	92.75
338.422	106.75
338.65	91.75
338.878	80.75
339.106	82.75
339.334	81.75
339.562	84.75
339.79	91.75
340.018	86.75
340.246	88.75
340.474	98.75
340.702	84.75
340.93	96.75
341.158	105.75
341.386	94.75
341.614	91.75
341.842	96.75
342.07	85.75
342.298	77.75
342.526	76.75
342.754	75.75
342.981	80.75
343.209	84.75
343.437	97.75
343.665	104.75
343.893	80.75
344.12	91.75
344.348	80.75
344.576	83.75
344.804	86.75
345.031	90.75
345.259	97.75
345.487	99.75
345.714	93.75
345.942	82.75
346.17	78.75
346.397	75.75
346.625	92.75
346.853	72.75
347.08	73.75
347.308	85.75
347.535	81.75
347.763	103.75
347.99	93.75
348.218	84.75
348.445	89.75
348.673	105.75
348.9	84.75
349.128	107.75
349.355	83.75
349.583	78.75
349.81	89.75
350.037	80.75
350.265	95.75
350.492	89.75
350.72	107.75
350.947	93.75
351.174	104.75
351.402	118.75
351.629	90.75
351.856	100.75
352.083	98.75
352.311	87.75
352.538	92.75
352.765	109.75
352.992	94.75
353.22	109.75
353.447	105.75
353.674	97.75
353.901	89.75
354.128	84.75
354.355	93.75
354.583	94.75
354.81	97.75
355.037	98.75
355.264	81.75
355.491	95.75
355.718	95.75
355.945	96.75
356.172	95.75
356.399	93.75
356.626	96.75
356.853	94.75
357.08	88.75
357.307	83.75
357.534	94.75
357.761	72.75
357.988	94.75
358.215	98.75
358.441	92.75
358.668	85.75
358.895	84.75
359.122	88.75
359.349	92.75
359.576	86.75
359.802	92.75
360.029	110.75
360.256	108.75
360.483	94.75
360.709	87.75
360.936	94.75
361.163	100.75
361.39	84.75
361.616	86.75
361.843	94.75
362.07	93.75
362.296	89.75
362.523	97.75
362.749	98.75
362.976	88.75
363.203	84.75
363.429	100.75
363.656	94.75
363.882	78.75
364.109	87.75
364.335	92.75
364.562	78.75
364.788	80.75
365.015	85.75
365.241	94.75
365.468	106.75
365.694	101.75
365.92	102.75
366.147	80.75
366.373	93.75
366.599	85.75
366.826	94.75
367.052	96.75
367.278	86.75
367.505	95.75
367.731	97.75
367.957	79.75
368.184	86.75
368.41	88.75
368.636	102.75
368.862	110.75
369.089	94.75
369.315	78.75
369.541	101.75
369.767	91.75
369.993	83.75
370.219	87.75
370.445	90.75
370.672	90.75
370.898	93.75
371.124	88.75
371.35	92.75
371.576	73.75
371.802	99.75
372.028	83.75
372.254	65.75
372.48	72.75
372.706	92.75
372.932	88.75
373.158	86.75
373.384	92.75
373.61	90.75
373.835	84.75
374.061	84.75
374.287	87.75
374.513	82.75
374.739	75.75
374.965	96.75
375.191	90.75
375.416	106.75
375.642	84.75
375.868	78.75
376.094	70.75
376.319	81.75
376.545	93.75
376.771	91.75
376.997	88.75
377.222	89.75
377.448	89.75
377.674	74.75
377.899	88.75
378.125	82.75
378.35	84.75
378.576	93.75
378.802	97.75
379.027	90.75
379.253	117.75
379.478	83.75
379.704	81.75
379.929	92.75
380.155	84.75
380.38	88.75
380.606	83.75
380.831	89.75
381.057	95.75
381.282	106.75
381.507	93.75
381.733	92.75
381.958	96.75
382.184	78.75
382.409	92.75
382.634	104.75
382.86	103.75
383.085	96.75
383.31	99.75
383.535	96.75
383.761	84.75
383.986	106.75
384.211	111.75
384.436	83.75
384.662	97.75
384.887	108.75
385.112	110.75
385.337	107.75
385.562	105.75
385.787	102.75
386.013	126.75
386.238	118.75
386.463	117.75
386.688	113.75
386.913	112.75
387.138	95.75
387.363	100.75
387.588	97.75
387.813	99.75
388.038	92.75
388.263	105.75
388.488	104.75
388.713	89.75
388.938	99.75
389.163	95.75
389.387	86.75
389.612	94.75
389.837	89.75
390.062	93.75
390.287	109.75
390.512	92.75
390.736	88.75
390.961	100.75
391.186	109.75
391.411	100.75
391.636	97.75
391.86	79.75
392.085	67.75
392.31	89.75
392.534	88.75
392.759	72.75
392.984	82.75
393.208	96.75
393.433	89.75
393.658	86.75
393.882	82.75
394.107	92.75
394.331	84.75
394.556	86.75
394.78	65.75
395.005	89.75
395.229	94.75
395.454	83.75
395.678	85.75
395.903	85.75
396.127	93.75
396.352	94.75
396.576	88.75
396.801	89.75
397.025	78.75
397.249	99.75
397.474	81.75
397.698	102.75
397.922	88.75
398.147	80.75
398.371	84.75
398.595	69.75
398.82	83.75
399.044	85.75
399.268	105.75
399.492	76.75
399.717	85.75
399.941	81.75
400.165	99.75
400.389	96.75
400.613	86.75
400.837	83.75
401.062	85.75
401.286	84.75
401.51	91.75
401.734	99.75
401.958	100.75
402.182	110.75
402.406	153.75
402.63	110.75
402.854	96.75
403.078	88.75
403.302	76.75
403.526	91.75
403.75	85.75
403.974	88.75
404.198	88.75
404.422	91.75
404.645	78.75
404.869	99.75
405.093	97.75
405.317	122.75
405.541	111.75
405.765	95.75
405.988	109.75
406.212	168.75
406.436	214.75
406.66	152.75
406.883	106.75
407.107	98.75
407.331	90.75
407.555	108.75
407.778	96.75
408.002	95.75
408.226	87.75
408.449	86.75
408.673	81.75
408.896	64.75
409.12	96.75
409.344	86.75
409.567	77.75
409.791	93.75
410.014	96.75
410.238	94.75
410.461	95.75
410.685	94.75
410.908	109.75
411.132	100.75
411.355	99.75
411.578	95.75
411.802	64.75
412.025	88.75
412.249	107.75
412.472	102.75
412.695	107.75
412.919	100.75
413.142	87.75
413.365	85.75
413.589	92.75
413.812	85.75
414.035	85.75
414.258	74.75
414.482	82.75
414.705	74.75
414.928	77.75
415.151	89.75
415.374	97.75
415.597	88.75
415.821	74.75
416.044	91.75
416.267	92.75
416.49	83.75
416.713	94.75
416.936	93.75
417.159	96.75
417.382	90.75
417.605	91.75
417.828	88.75
418.051	84.75
418.274	98.75
418.497	94.75
418.72	79.75
418.943	83.75
419.166	90.75
419.389	86.75
419.611	93.75
419.834	87.75
420.057	90.75
420.28	98.75
420.503	92.75
420.726	90.75
420.948	76.75
421.171	90.75
421.394	88.75
421.617	88.75
421.839	87.75
422.062	92.75
422.285	95.75
422.507	115.75
422.73	109.75
422.953	90.75
423.175	85.75
423.398	93.75
423.621	92.75
423.843	82.75
424.066	89.75
424.288	90.75
424.511	82.75
424.733	99.75
424.956	112.75
425.178	93.75
425.401	104.75
425.623	98.75
425.846	92.75
426.068	94.75
426.291	94.75
426.513	92.75
426.735	80.75
426.958	90.75
427.18	109.75
427.402	132.75
427.625	178.75
427.847	158.75
428.069	151.75
428.292	92.75
428.514	95.75
428.736	84.75
428.958	84.75
429.181	95.75
429.403	90.75
429.625	73.75
429.847	92.75
430.069	103.75
430.292	87.75
430.514	84.75
430.736	88.75
430.958	92.75
431.18	73.75
431.402	76.75
431.624	88.75
431.846	85.75
432.068	90.75
432.29	100.75
432.512	83.75
432.734	73.75
432.956	87.75
433.178	105.75
433.4	99.75
433.622	90.75
433.844	77.75
434.066	97.75
434.287	93.75
434.509	83.75
434.731	86.75
434.953	78.75
435.175	89.75
435.397	86.75
435.618	82.75
435.84	91.75
436.062	109.75
436.284	110.75
436.505	97.75
436.727	102.75
436.949	88.75
437.17	90.75
437.392	74.75
437.614	88.75
437.835	93.75
438.057	109.75
438.278	120.75
438.5	101.75
438.721	116.75
438.943	98.75
439.165	93.75
439.386	85.75
439.608	92.75
439.829	96.75
440.05	124.75
440.272	154.75
440.493	97.75
440.715	93.75
440.936	85.75
441.158	89.75
441.379	88.75
441.6	95.75
441.822	88.75
442.043	102.75
442.264	101.75
442.486	104.75
442.707	79.75
442.928	101.75
443.149	144.75
443.371	136.75
443.592	99.75
443.813	112.75
444.034	94.75
444.255	88.75
444.476	87.75
444.698	89.75
444.919	92.75
445.14	152.75
445.361	113.75
445.582	133.75
445.803	141.75
446.024	127.75
446.245	137.75
446.466	118.75
446.687	96.75
446.908	77.75
447.129	88.75
447.35	92.75
447.571	90.75
447.792	89.75
448.013	109.75
448.234	102.75
448.455	99.75
448.675	99.75
448.896	100.75
449.117	89.75
449.338	109.75
449.559	136.75
449.779	150.75
450	93.75
450.221	84.75
450.442	78.75
450.662	93.75
450.883	93.75
451.104	105.75
451.324	110.75
451.545	97.75
451.766	78.75
451.986	92.75
452.207	91.75
452.428	93.75
452.648	82.75
452.869	113.75
453.089	108.75
453.31	114.75
453.53	89.75
453.751	91.75
453.971	116.75
454.192	110.75
454.412	92.75
454.633	102.75
454.853	78.75
455.073	84.75
455.294	85.75
455.514	104.75
455.734	78.75
455.955	77.75
456.175	84.75
456.395	68.75
456.616	88.75
456.836	81.75
457.056	70.75
457.276	74.75
457.497	76.75
457.717	79.75
457.937	96.75
458.157	85.75
458.377	92.75
458.598	106.75
458.818	126.75
459.038	152.75
459.258	122.75
459.478	100.75
459.698	82.75
459.918	97.75
460.138	82.75
460.358	81.75
460.578	94.75
460.798	92.75
461.018	93.75
461.238	74.75
461.458	80.75
461.678	85.75
461.898	97.75
462.118	84.75
462.338	69.75
462.558	82.75
462.777	98.75
462.997	78.75
463.217	95.75
463.437	88.75
463.657	85.75
463.876	81.75
464.096	86.75
464.316	86.75
464.536	94.75
464.755	86.75
464.975	95.75
465.195	163.75
465.414	166.75
465.634	104.75
465.854	81.75
466.073	80.75
466.293	82.75
466.512	92.75
466.732	81.75
466.951	89.75
467.171	88.75
467.391	96.75
467.61	114.75
467.829	130.75
468.049	252.75
468.268	332.75
468.488	124.75
468.707	81.75
468.927	72.75
469.146	71.75
469.365	76.75
469.585	90.75
469.804	85.75
470.023	105.75
470.243	86.75
470.462	88.75
470.681	102.75
470.901	102.75
471.12	86.75
471.339	90.75
471.558	98.75
471.777	101.75
471.997	170.75
472.216	474.75
472.435	933.75
472.654	272.75
472.873	116.75
473.092	96.75
473.311	88.75
473.53	79.75
473.749	88.75
473.968	97.75
474.187	102.75
474.406	88.75
474.625	92.75
474.844	90.75
475.063	82.75
475.282	94.75
475.501	80.75
475.72	79.75
475.939	79.75
476.158	91.75
476.377	81.75
476.596	95.75
476.814	83.75
477.033	84.75
477.252	98.75
477.471	83.75
477.69	90.75
477.908	75.75
478.127	96.75
478.346	83.75
478.564	86.75
478.783	99.75
479.002	102.75
479.22	83.75
479.439	95.75
479.658	101.75
479.876	88.75
480.095	93.75
480.313	108.75
480.532	127.75
480.751	154.75
480.969	437.75
481.188	1664.75
481.406	967.75
481.624	196.75
481.843	108.75
482.061	84.75
482.28	93.75
482.498	79.75
482.717	86.75
482.935	91.75
483.153	91.75
483.372	93.75
483.59	95.75
483.808	82.75
484.027	92.75
484.245	75.75
484.463	83.75
484.681	94.75
484.9	84.75
485.118	102.75
485.336	88.75
485.554	90.75
485.772	96.75
485.99	113.75
486.209	89.75
486.427	107.75
486.645	111.75
486.863	124.75
487.081	109.75
487.299	90.75
487.517	95.75
487.735	100.75
487.953	86.75
488.171	78.75
488.389	92.75
488.607	99.75
488.825	86.75
489.043	90.75
489.261	99.75
489.479	81.75
489.696	80.75
489.914	76.75
490.132	92.75
490.35	92.75
490.568	85.75
490.786	88.75
491.003	81.75
491.221	85.75
491.439	79.75
491.657	90.75
491.874	92.75
492.092	83.75
492.31	95.75
492.527	82.75
492.745	91.75
492.963	96.75
493.18	91.75
493.398	100.75
493.615	90.75
493.833	113.75
494.05	93.75
494.268	99.75
494.485	83.75
494.703	96.75
494.92	84.75
495.138	90.75
495.355	88.75
495.573	100.75
495.79	78.75
496.008	86.75
496.225	91.75
496.442	88.75
496.66	100.75
496.877	90.75
497.094	105.75
497.312	82.75
497.529	84.75
497.746	85.75
497.963	89.75
498.181	92.75
498.398	91.75
498.615	105.75
498.832	98.75
499.049	79.75
499.267	82.75
499.484	84.75
499.701	80.75
499.918	96.75
500.135	73.75
500.352	84.75
500.569	96.75
500.786	86.75
501.003	92.75
501.22	78.75
501.437	74.75
501.654	90.75
501.871	108.75
502.088	84.75
502.305	93.75
502.522	84.75
502.739	98.75
502.956	94.75
503.172	100.75
503.389	84.75
503.606	94.75
503.823	95.75
504.04	94.75
504.256	94.75
504.473	107.75
504.69	90.75
504.907	107.75
505.123	93.75
505.34	82.75
505.557	91.75
505.773	90.75
505.99	94.75
506.207	91.75
506.423	98.75
506.64	96.75
506.856	84.75
507.073	101.75
507.289	75.75
507.506	99.75
507.722	120.75
507.939	96.75
508.155	88.75
508.372	92.75
508.588	96.75
508.805	90.75
509.021	102.75
509.238	76.75
509.454	87.75
509.67	94.75
509.887	105.75
510.103	118.75
510.319	190.75
510.536	674.75
510.752	2103.75
510.968	570.75
511.184	154.75
511.401	118.75
511.617	106.75
511.833	97.75
512.049	89.75
512.265	97.75
512.481	74.75
512.698	85.75
512.914	96.75
513.13	95.75
513.346	96.75
513.562	95.75
513.778	99.75
513.994	89.75
514.21	95.75
514.426	127.75
514.642	122.75
514.858	118.75
515.074	155.75
515.29	444.75
515.506	1419.75
515.721	505.75
515.937	172.75
