Data from Circ_1990_H10_HRD10591_00001.txt Node
Date: Wed Jan 03 11:55:04 EST 2024
User: Yrep
Spectrometer: HR+D1059
Trigger mode: 1
Integration Time (sec): 1.000000E-1
Scans to average: 1
Electric dark correction enabled: true
Nonlinearity correction enabled: false
Boxcar width: 0
XAxis mode: Wavelengths
Number of Pixels in Spectrum: 2048
>>>>>Begin Spectral Data<<<<<
223.165	-20
223.4	-20
223.635	-20
223.869	-22
224.104	-23
224.338	-13
224.573	-13
224.808	-4
225.042	1
225.277	2
225.511	0
225.746	7
225.98	8
226.215	14
226.449	-1
226.683	12
226.918	25
227.152	27
227.387	43
227.621	39
227.856	39
228.09	38
228.324	56
228.559	48
228.793	76
229.027	59
229.262	65
229.496	69
229.73	78
229.964	94
230.199	79
230.433	76
230.667	72
230.901	67
231.136	76
231.37	85
231.604	79
231.838	74
232.072	76
232.306	69
232.541	86
232.775	90
233.009	78
233.243	76
233.477	79
233.711	85
233.945	83
234.179	78
234.413	73
234.647	88
234.881	82
235.115	85
235.349	80
235.583	64
235.817	77
236.051	88
236.285	78
236.519	80
236.753	81
236.987	81
237.221	77
237.455	82
237.689	79
237.922	69
238.156	76
238.39	72
238.624	71
238.858	67
239.091	80
239.325	80
239.559	67
239.793	66
240.027	77
240.26	66
240.494	66
240.728	67
240.961	81
241.195	68
241.429	80
241.662	84
241.896	72
242.13	54
242.363	76
242.597	79
242.83	70
243.064	77
243.298	78
243.531	69
243.765	68
243.998	74
244.232	85
244.465	84
244.699	85
244.932	83
245.166	70
245.399	80
245.633	70
245.866	87
246.099	101
246.333	76
246.566	62
246.8	77
247.033	66
247.266	64
247.5	77
247.733	83
247.966	72
248.2	93
248.433	86
248.666	91
248.899	82
249.133	78
249.366	88
249.599	74
249.832	82
250.066	85
250.299	93
250.532	81
250.765	83
250.998	61
251.231	76
251.465	80
251.698	87
251.931	76
252.164	70
252.397	89
252.63	80
252.863	69
253.096	69
253.329	85
253.562	72
253.795	86
254.028	80
254.261	85
254.494	83
254.727	79
254.96	77
255.193	88
255.426	76
255.659	74
255.892	99
256.124	80
256.357	87
256.59	78
256.823	89
257.056	78
257.289	89
257.521	100
257.754	85
257.987	89
258.22	97
258.452	66
258.685	84
258.918	72
259.151	70
259.383	80
259.616	71
259.849	67
260.081	81
260.314	89
260.547	73
260.779	93
261.012	86
261.244	88
261.477	81
261.71	97
261.942	101
262.175	85
262.407	111
262.64	78
262.872	75
263.105	79
263.337	93
263.57	88
263.802	92
264.035	95
264.267	94
264.499	88
264.732	70
264.964	70
265.197	88
265.429	80
265.661	81
265.894	79
266.126	75
266.358	79
266.591	84
266.823	91
267.055	70
267.287	82
267.52	86
267.752	86
267.984	84
268.216	84
268.448	97
268.681	83
268.913	80
269.145	88
269.377	89
269.609	82
269.841	90
270.073	85
270.306	62
270.538	78
270.77	97
271.002	105
271.234	92
271.466	99
271.698	88
271.93	81
272.162	79
272.394	90
272.626	64
272.858	79
273.09	78
273.322	89
273.553	93
273.785	80
274.017	79
274.249	90
274.481	93
274.713	70
274.945	95
275.176	85
275.408	87
275.64	88
275.872	99
276.104	88
276.335	96
276.567	92
276.799	90
277.031	96
277.262	91
277.494	89
277.726	89
277.957	78
278.189	90
278.421	91
278.652	86
278.884	62
279.115	79
279.347	97
279.579	89
279.81	98
280.042	90
280.273	80
280.505	83
280.736	85
280.968	88
281.199	89
281.431	97
281.662	92
281.894	97
282.125	102
282.356	110
282.588	121
282.819	101
283.051	82
283.282	89
283.513	96
283.745	86
283.976	88
284.207	86
284.439	90
284.67	97
284.901	100
285.132	77
285.364	91
285.595	92
285.826	78
286.057	79
286.288	83
286.52	84
286.751	84
286.982	97
287.213	95
287.444	97
287.675	90
287.906	86
288.138	102
288.369	104
288.6	94
288.831	85
289.062	85
289.293	81
289.524	92
289.755	86
289.986	85
290.217	89
290.448	96
290.679	85
290.91	81
291.141	85
291.371	94
291.602	98
291.833	87
292.064	99
292.295	80
292.526	86
292.757	81
292.987	80
293.218	78
293.449	90
293.68	88
293.91	90
294.141	89
294.372	89
294.603	91
294.833	85
295.064	81
295.295	83
295.525	89
295.756	95
295.987	106
296.217	130
296.448	115
296.679	94
296.909	98
297.14	69
297.37	84
297.601	89
297.831	82
298.062	94
298.292	94
298.523	93
298.753	86
298.984	98
299.214	87
299.445	96
299.675	80
299.905	90
300.136	98
300.366	99
300.597	105
300.827	89
301.057	96
301.288	94
301.518	96
301.748	93
301.979	88
302.209	98
302.439	106
302.669	105
302.9	93
303.13	92
303.36	93
303.59	107
303.82	113
304.051	88
304.281	78
304.511	96
304.741	89
304.971	102
305.201	94
305.431	99
305.661	86
305.891	103
306.121	103
306.352	102
306.582	97
306.812	85
307.042	72
307.272	90
307.502	96
307.731	86
307.961	73
308.191	85
308.421	102
308.651	92
308.881	85
309.111	89
309.341	90
309.571	107
309.8	107
310.03	98
310.26	107
310.49	87
310.72	89
310.949	91
311.179	92
311.409	95
311.639	83
311.868	95
312.098	99
312.328	99
312.557	85
312.787	98
313.017	90
313.246	85
313.476	92
313.706	88
313.935	92
314.165	113
314.394	108
314.624	94
314.853	104
315.083	93
315.312	92
315.542	101
315.771	101
316.001	127
316.23	88
316.46	87
316.689	94
316.919	103
317.148	101
317.377	88
317.607	93
317.836	69
318.065	96
318.295	95
318.524	93
318.753	94
318.983	92
319.212	95
319.441	85
319.67	100
319.9	73
320.129	89
320.358	98
320.587	98
320.816	102
321.046	93
321.275	98
321.504	87
321.733	92
321.962	86
322.191	86
322.42	100
322.649	105
322.878	106
323.108	118
323.337	105
323.566	116
323.795	144
324.024	180
324.253	310
324.482	609
324.71	1283
324.939	1690
325.168	633
325.397	192
325.626	126
325.855	127
326.084	133
326.313	133
326.542	140
326.77	186
326.999	380
327.228	756
327.457	1336
327.686	1071
327.914	304
328.143	184
328.372	145
328.6	121
328.829	110
329.058	100
329.287	122
329.515	108
329.744	111
329.972	109
330.201	120
330.43	146
330.658	126
330.887	124
331.115	125
331.344	103
331.572	102
331.801	93
332.03	98
332.258	84
332.486	81
332.715	97
332.943	99
333.172	95
333.4	94
333.629	92
333.857	113
334.085	110
334.314	121
334.542	138
334.771	147
334.999	98
335.227	96
335.455	99
335.684	82
335.912	96
336.14	106
336.369	92
336.597	94
336.825	101
337.053	91
337.281	85
337.51	95
337.738	97
337.966	94
338.194	100
338.422	96
338.65	86
338.878	96
339.106	96
339.334	92
339.562	97
339.79	84
340.018	88
340.246	97
340.474	88
340.702	92
340.93	88
341.158	73
341.386	96
341.614	84
341.842	101
342.07	88
342.298	96
342.526	89
342.754	89
342.981	96
343.209	90
343.437	85
343.665	88
343.893	106
344.12	94
344.348	98
344.576	84
344.804	86
345.031	92
345.259	101
345.487	87
345.714	104
345.942	93
346.17	102
346.397	96
346.625	100
346.853	99
347.08	85
347.308	85
347.535	89
347.763	92
347.99	95
348.218	95
348.445	89
348.673	85
348.9	99
349.128	102
349.355	103
349.583	92
349.81	98
350.037	91
350.265	90
350.492	91
350.72	92
350.947	107
351.174	97
351.402	101
351.629	101
351.856	113
352.083	112
352.311	101
352.538	116
352.765	112
352.992	112
353.22	122
353.447	112
353.674	102
353.901	106
354.128	93
354.355	105
354.583	116
354.81	112
355.037	104
355.264	117
355.491	105
355.718	105
355.945	112
356.172	113
356.399	124
356.626	97
356.853	101
357.08	97
357.307	104
357.534	84
357.761	81
357.988	116
358.215	117
358.441	106
358.668	118
358.895	115
359.122	117
359.349	87
359.576	85
359.802	103
360.029	112
360.256	103
360.483	105
360.709	89
360.936	89
361.163	98
361.39	80
361.616	80
361.843	104
362.07	95
362.296	95
362.523	97
362.749	107
362.976	92
363.203	86
363.429	90
363.656	86
363.882	93
364.109	99
364.335	98
364.562	78
364.788	94
365.015	96
365.241	98
365.468	99
365.694	87
365.92	82
366.147	72
366.373	80
366.599	79
366.826	85
367.052	95
367.278	101
367.505	97
367.731	106
367.957	87
368.184	95
368.41	96
368.636	112
368.862	114
369.089	100
369.315	88
369.541	77
369.767	70
369.993	81
370.219	79
370.445	95
370.672	90
370.898	92
371.124	93
371.35	94
371.576	102
371.802	100
372.028	101
372.254	95
372.48	104
372.706	100
372.932	91
373.158	95
373.384	101
373.61	100
373.835	100
374.061	95
374.287	101
374.513	112
374.739	92
374.965	96
375.191	113
375.416	104
375.642	103
375.868	101
376.094	111
376.319	97
376.545	103
376.771	117
376.997	114
377.222	108
377.448	104
377.674	106
377.899	112
378.125	103
378.35	114
378.576	90
378.802	95
379.027	110
379.253	110
379.478	115
379.704	120
379.929	111
380.155	125
380.38	122
380.606	127
380.831	129
381.057	121
381.282	129
381.507	126
381.733	133
381.958	137
382.184	143
382.409	152
382.634	142
382.86	145
383.085	142
383.31	146
383.535	139
383.761	142
383.986	161
384.211	146
384.436	157
384.662	152
384.887	182
385.112	194
385.337	183
385.562	182
385.787	178
386.013	188
386.238	207
386.463	164
386.688	182
386.913	184
387.138	193
387.363	177
387.588	152
387.813	159
388.038	194
388.263	241
388.488	205
388.713	110
388.938	94
389.163	103
389.387	114
389.612	101
389.837	92
390.062	92
390.287	94
390.512	101
390.736	95
390.961	94
391.186	98
391.411	97
391.636	108
391.86	88
392.085	89
392.31	97
392.534	100
392.759	81
392.984	101
393.208	94
393.433	114
393.658	110
393.882	85
394.107	88
394.331	92
394.556	94
394.78	96
395.005	92
395.229	82
395.454	83
395.678	82
395.903	86
396.127	109
396.352	101
396.576	80
396.801	80
397.025	88
397.249	82
397.474	87
397.698	82
397.922	89
398.147	81
398.371	84
398.595	94
398.82	89
399.044	97
399.268	83
399.492	94
399.717	107
399.941	94
400.165	84
400.389	91
400.613	86
400.837	86
401.062	97
401.286	72
401.51	82
401.734	91
401.958	103
402.182	113
402.406	144
402.63	103
402.854	85
403.078	103
403.302	111
403.526	97
403.75	95
403.974	86
404.198	92
404.422	88
404.645	81
404.869	76
405.093	89
405.317	120
405.541	85
405.765	85
405.988	113
406.212	159
406.436	189
406.66	133
406.883	91
407.107	102
407.331	91
407.555	73
407.778	101
408.002	103
408.226	95
408.449	98
408.673	90
408.896	84
409.12	87
409.344	93
409.567	88
409.791	106
410.014	104
410.238	104
410.461	94
410.685	112
410.908	89
411.132	108
411.355	97
411.578	107
411.802	108
412.025	89
412.249	104
412.472	96
412.695	108
412.919	94
413.142	113
413.365	93
413.589	88
413.812	92
414.035	98
414.258	89
414.482	87
414.705	98
414.928	111
415.151	110
415.374	104
415.597	96
415.821	103
416.044	102
416.267	90
416.49	95
416.713	106
416.936	108
417.159	102
417.382	105
417.605	102
417.828	100
418.051	99
418.274	87
418.497	96
418.72	112
418.943	109
419.166	98
419.389	95
419.611	108
419.834	107
420.057	95
420.28	90
420.503	86
420.726	100
420.948	88
421.171	89
421.394	91
421.617	95
421.839	101
422.062	87
422.285	98
422.507	103
422.73	112
422.953	116
423.175	102
423.398	89
423.621	87
423.843	95
424.066	99
424.288	86
424.511	100
424.733	82
424.956	91
425.178	88
425.401	108
425.623	97
425.846	97
426.068	102
426.291	94
426.513	95
426.735	100
426.958	87
427.18	113
427.402	120
427.625	129
427.847	106
428.069	106
428.292	94
428.514	92
428.736	87
428.958	87
429.181	85
429.403	88
429.625	76
429.847	95
430.069	87
430.292	85
430.514	100
430.736	94
430.958	85
431.18	86
431.402	89
431.624	101
431.846	111
432.068	92
432.29	97
432.512	90
432.734	90
432.956	97
433.178	103
433.4	84
433.622	108
433.844	101
434.066	96
434.287	90
434.509	89
434.731	90
434.953	102
435.175	96
435.397	86
435.618	86
435.84	85
436.062	104
436.284	108
436.505	101
436.727	95
436.949	96
437.17	101
437.392	95
437.614	96
437.835	94
438.057	105
438.278	101
438.5	89
438.721	97
438.943	89
439.165	105
439.386	95
439.608	102
439.829	89
440.05	89
440.272	105
440.493	96
440.715	91
440.936	102
441.158	73
441.379	88
441.6	81
441.822	92
442.043	93
442.264	98
442.486	89
442.707	77
442.928	101
443.149	106
443.371	113
443.592	108
443.813	106
444.034	94
444.255	78
444.476	81
444.698	87
444.919	95
445.14	140
445.361	123
445.582	112
445.803	127
446.024	114
446.245	129
446.466	128
446.687	73
446.908	94
447.129	99
447.35	101
447.571	87
447.792	106
448.013	98
448.234	100
448.455	103
448.675	98
448.896	117
449.117	95
449.338	109
449.559	119
449.779	129
450	103
450.221	72
450.442	84
450.662	100
450.883	104
451.104	114
451.324	98
451.545	85
451.766	92
451.986	105
452.207	96
452.428	96
452.648	88
452.869	101
453.089	101
453.31	117
453.53	88
453.751	81
453.971	98
454.192	108
454.412	102
454.633	77
454.853	94
455.073	100
455.294	79
455.514	99
455.734	98
455.955	93
456.175	94
456.395	82
456.616	96
456.836	101
457.056	77
457.276	89
457.497	76
457.717	72
457.937	95
458.157	86
458.377	84
458.598	98
458.818	121
459.038	116
459.258	99
459.478	84
459.698	88
459.918	92
460.138	71
460.358	85
460.578	95
460.798	85
461.018	78
461.238	84
461.458	88
461.678	84
461.898	88
462.118	95
462.338	86
462.558	87
462.777	87
462.997	85
463.217	85
463.437	76
463.657	86
463.876	79
464.096	85
464.316	93
464.536	83
464.755	94
464.975	94
465.195	146
465.414	132
465.634	98
465.854	85
466.073	83
466.293	86
466.512	95
466.732	85
466.951	81
467.171	85
467.391	93
467.61	101
467.829	99
468.049	109
468.268	118
468.488	96
468.707	110
468.927	88
469.146	88
469.365	80
469.585	97
469.804	102
470.023	111
470.243	102
470.462	98
470.681	111
470.901	92
471.12	97
471.339	85
471.558	94
471.777	82
471.997	92
472.216	109
472.435	162
472.654	97
472.873	101
473.092	88
473.311	77
473.53	83
473.749	79
473.968	90
474.187	106
474.406	99
474.625	88
474.844	89
475.063	89
475.282	91
475.501	81
475.72	96
475.939	77
476.158	80
476.377	81
476.596	93
476.814	96
477.033	87
477.252	82
477.471	90
477.69	86
477.908	95
478.127	97
478.346	85
478.564	98
478.783	92
479.002	80
479.22	89
479.439	96
479.658	95
479.876	96
480.095	80
480.313	84
480.532	107
480.751	98
480.969	122
481.188	226
481.406	176
481.624	96
481.843	92
482.061	97
482.28	90
482.498	85
482.717	77
482.935	84
483.153	90
483.372	97
483.59	93
483.808	77
484.027	91
484.245	87
484.463	106
484.681	81
484.9	97
485.118	112
485.336	85
485.554	115
485.772	94
485.99	98
486.209	106
486.427	115
486.645	120
486.863	113
487.081	106
487.299	102
487.517	91
487.735	94
487.953	90
488.171	111
488.389	103
488.607	90
488.825	90
489.043	99
489.261	94
489.479	93
489.696	82
489.914	95
490.132	90
490.35	89
490.568	89
490.786	71
491.003	87
491.221	93
491.439	95
491.657	96
491.874	87
492.092	83
492.31	79
492.527	70
492.745	94
492.963	110
493.18	105
493.398	94
493.615	100
493.833	88
494.05	100
494.268	96
494.485	104
494.703	82
494.92	88
495.138	92
495.355	81
495.573	88
495.79	95
496.008	115
496.225	99
496.442	86
496.66	82
496.877	98
497.094	84
497.312	94
497.529	100
497.746	96
497.963	88
498.181	88
498.398	100
498.615	112
498.832	93
499.049	92
499.267	93
499.484	98
499.701	101
499.918	103
500.135	78
500.352	92
500.569	102
500.786	89
501.003	84
501.22	75
501.437	80
501.654	84
501.871	102
502.088	88
502.305	99
502.522	96
502.739	82
502.956	89
503.172	95
503.389	99
503.606	87
503.823	94
504.04	88
504.256	97
504.473	93
504.69	84
504.907	101
505.123	89
505.34	91
505.557	95
505.773	89
505.99	89
506.207	89
506.423	87
506.64	93
506.856	78
507.073	83
507.289	89
507.506	95
507.722	108
507.939	89
508.155	105
508.372	81
508.588	101
508.805	99
509.021	85
509.238	87
509.454	96
509.67	80
509.887	86
510.103	110
510.319	166
510.536	579
510.752	1742
510.968	489
511.184	135
511.401	101
511.617	106
511.833	98
512.049	84
512.265	103
512.481	112
512.698	98
512.914	99
513.13	93
513.346	92
513.562	99
513.778	93
513.994	95
514.21	97
514.426	108
514.642	117
514.858	103
515.074	149
515.29	339
515.506	1039
515.721	402
515.937	121
516.153	114
516.369	101
516.585	97
516.801	97
517.016	92
517.232	97
517.448	100
517.664	86
517.879	90
518.095	92
518.311	94
518.527	90
518.742	93
518.958	97
519.173	82
519.389	85
519.605	101
519.82	103
520.036	102
520.251	117
520.467	114
520.682	110
520.898	104
521.113	119
521.329	131
521.544	160
521.76	414
521.975	1643
522.19	1020
522.406	241
522.621	111
522.836	98
523.052	98
523.267	91
523.482	89
523.698	93
523.913	114
524.128	102
524.343	82
524.559	81
524.774	87
524.989	98
525.204	114
525.419	104
525.634	87
525.849	84
526.064	96
526.28	82
526.495	94
526.71	81
526.925	82
527.14	84
527.355	88
527.57	101
527.785	88
527.999	92
528.214	90
528.429	71
528.644	90
528.859	92
529.074	94
529.289	119
529.503	134
529.718	110
529.933	102
530.148	95
530.363	95
530.577	89
530.792	92
531.007	111
531.221	89
531.436	96
531.651	92
531.865	106
532.08	89
532.295	82
532.509	101
532.724	106
532.938	86
533.153	103
533.367	98
533.582	86
533.796	88
534.011	94
534.225	86
534.44	91
534.654	97
534.868	83
535.083	92
535.297	88
535.511	78
535.726	96
535.94	90
536.154	104
536.369	88
536.583	84
536.797	88
537.011	90
537.225	102
537.44	110
537.654	90
537.868	89
538.082	88
538.296	87
538.51	96
538.724	93
538.938	89
539.153	89
539.367	92
539.581	94
539.795	95
540.009	94
540.222	92
540.436	99
540.65	84
540.864	75
541.078	86
541.292	83
541.506	98
541.72	102
541.934	88
542.147	91
542.361	89
542.575	88
542.789	78
543.002	86
543.216	93
543.43	95
543.644	103
543.857	94
544.071	103
544.285	94
544.498	81
544.712	82
544.925	72
545.139	92
545.352	96
545.566	85
545.779	86
545.993	88
546.206	94
546.42	85
546.633	91
546.847	90
547.06	94
547.274	77
547.487	101
547.7	88
547.914	84
548.127	86
548.34	97
548.554	83
548.767	95
548.98	84
549.193	90
549.407	97
549.62	91
549.833	89
550.046	86
550.259	72
550.473	87
550.686	96
550.899	93
551.112	97
551.325	92
551.538	83
551.751	82
551.964	99
552.177	96
552.39	78
552.603	94
552.816	105
553.029	97
553.242	93
553.455	90
553.667	102
553.88	99
554.093	100
554.306	90
554.519	80
554.732	94
554.944	91
555.157	92
555.37	95
555.583	99
555.795	86
556.008	92
556.221	90
556.433	98
556.646	94
556.859	97
557.071	89
557.284	87
557.496	90
557.709	97
557.921	92
558.134	85
558.346	96
558.559	96
558.771	95
558.984	83
559.196	82
559.409	98
559.621	93
559.833	92
560.046	94
560.258	85
560.47	101
560.683	87
560.895	87
561.107	100
561.32	98
561.532	85
561.744	92
561.956	83
562.168	89
562.381	88
562.593	93
562.805	94
563.017	80
563.229	100
563.441	92
563.653	87
563.865	80
564.077	84
564.289	93
564.501	101
564.713	108
564.925	103
565.137	90
565.349	81
565.561	90
565.773	94
565.985	99
566.197	80
566.408	86
566.62	96
566.832	85
567.044	92
567.255	92
567.467	93
567.679	84
567.891	78
568.102	78
568.314	79
568.526	82
568.737	89
568.949	92
569.161	89
569.372	84
569.584	88
569.795	100
570.007	113
570.218	204
570.43	104
570.641	87
570.853	87
571.064	88
571.276	97
571.487	94
571.698	74
571.91	73
572.121	80
572.333	104
572.544	98
572.755	87
572.966	91
573.178	88
573.389	88
573.6	83
573.811	98
574.023	96
574.234	83
574.445	84
574.656	87
574.867	92
575.078	86
575.289	86
575.501	91
575.712	79
575.923	82
576.134	89
576.345	85
576.556	78
576.767	98
576.978	93
577.188	98
577.399	107
577.61	92
577.821	111
578.032	103
578.243	231
578.454	573
578.665	188
578.875	117
579.086	95
579.297	71
579.508	96
579.718	89
579.929	83
580.14	92
580.35	87
580.561	74
580.772	88
580.982	84
581.193	88
581.403	83
581.614	84
581.825	88
582.035	103
582.246	90
582.456	82
582.667	103
582.877	101
583.087	92
