Data from Circ_1990_H10_HRD10591_00071.txt Node
Date: Wed Jan 03 11:55:18 EST 2024
User: Yrep
Spectrometer: HR+D1059
Trigger mode: 1
Integration Time (sec): 1.000000E-1
Scans to average: 1
Electric dark correction enabled: true
Nonlinearity correction enabled: false
Boxcar width: 0
XAxis mode: Wavelengths
Number of Pixels in Spectrum: 2048
>>>>>Begin Spectral Data<<<<<
223.165	-10.38
223.4	-10.38
223.635	-10.38
223.869	-32.38
224.104	-16.38
224.338	-11.38
224.573	-13.38
224.808	-15.38
225.042	-13.38
225.277	-11.38
225.511	13.62
225.746	1.62
225.98	11.62
226.215	15.62
226.449	15.62
226.683	13.62
226.918	24.62
227.152	27.62
227.387	41.62
227.621	21.62
227.856	44.62
228.09	47.62
228.324	64.62
228.559	70.62
228.793	56.62
229.027	62.62
229.262	68.62
229.496	72.62
229.73	76.62
229.964	82.62
230.199	65.62
230.433	83.62
230.667	70.62
230.901	72.62
231.136	79.62
231.37	76.62
231.604	89.62
231.838	83.62
232.072	86.62
232.306	82.62
232.541	76.62
232.775	94.62
233.009	78.62
233.243	81.62
233.477	81.62
233.711	65.62
233.945	81.62
234.179	85.62
234.413	95.62
234.647	83.62
234.881	76.62
235.115	71.62
235.349	71.62
235.583	72.62
235.817	58.62
236.051	67.62
236.285	86.62
236.519	75.62
236.753	78.62
236.987	93.62
237.221	89.62
237.455	95.62
237.689	89.62
237.922	65.62
238.156	77.62
238.39	77.62
238.624	68.62
238.858	86.62
239.091	73.62
239.325	69.62
239.559	93.62
239.793	89.62
240.027	71.62
240.26	75.62
240.494	84.62
240.728	70.62
240.961	95.62
241.195	74.62
241.429	82.62
241.662	85.62
241.896	77.62
242.13	96.62
242.363	73.62
242.597	82.62
242.83	73.62
243.064	77.62
243.298	84.62
243.531	71.62
243.765	90.62
243.998	76.62
244.232	87.62
244.465	79.62
244.699	84.62
244.932	77.62
245.166	89.62
245.399	71.62
245.633	80.62
245.866	80.62
246.099	76.62
246.333	90.62
246.566	99.62
246.8	76.62
247.033	85.62
247.266	80.62
247.5	86.62
247.733	81.62
247.966	75.62
248.2	87.62
248.433	78.62
248.666	91.62
248.899	85.62
249.133	85.62
249.366	98.62
249.599	101.62
249.832	87.62
250.066	86.62
250.299	70.62
250.532	80.62
250.765	81.62
250.998	91.62
251.231	79.62
251.465	69.62
251.698	84.62
251.931	69.62
252.164	86.62
252.397	88.62
252.63	76.62
252.863	89.62
253.096	78.62
253.329	95.62
253.562	87.62
253.795	92.62
254.028	84.62
254.261	81.62
254.494	77.62
254.727	89.62
254.96	86.62
255.193	78.62
255.426	70.62
255.659	87.62
255.892	90.62
256.124	89.62
256.357	85.62
256.59	84.62
256.823	79.62
257.056	86.62
257.289	92.62
257.521	84.62
257.754	83.62
257.987	82.62
258.22	89.62
258.452	71.62
258.685	85.62
258.918	79.62
259.151	65.62
259.383	75.62
259.616	92.62
259.849	80.62
260.081	90.62
260.314	88.62
260.547	84.62
260.779	72.62
261.012	97.62
261.244	86.62
261.477	90.62
261.71	98.62
261.942	99.62
262.175	113.62
262.407	99.62
262.64	75.62
262.872	87.62
263.105	82.62
263.337	85.62
263.57	89.62
263.802	92.62
264.035	88.62
264.267	92.62
264.499	95.62
264.732	76.62
264.964	82.62
265.197	103.62
265.429	88.62
265.661	100.62
265.894	96.62
266.126	91.62
266.358	92.62
266.591	96.62
266.823	85.62
267.055	71.62
267.287	88.62
267.52	88.62
267.752	84.62
267.984	80.62
268.216	82.62
268.448	80.62
268.681	80.62
268.913	83.62
269.145	86.62
269.377	76.62
269.609	84.62
269.841	98.62
270.073	83.62
270.306	87.62
270.538	81.62
270.77	71.62
271.002	86.62
271.234	79.62
271.466	101.62
271.698	92.62
271.93	86.62
272.162	89.62
272.394	87.62
272.626	73.62
272.858	87.62
273.09	94.62
273.322	88.62
273.553	82.62
273.785	88.62
274.017	95.62
274.249	76.62
274.481	71.62
274.713	76.62
274.945	95.62
275.176	85.62
275.408	95.62
275.64	113.62
275.872	100.62
276.104	79.62
276.335	96.62
276.567	94.62
276.799	111.62
277.031	120.62
277.262	125.62
277.494	109.62
277.726	107.62
277.957	86.62
278.189	83.62
278.421	104.62
278.652	91.62
278.884	87.62
279.115	93.62
279.347	83.62
279.579	85.62
279.81	113.62
280.042	119.62
280.273	156.62
280.505	115.62
280.736	98.62
280.968	84.62
281.199	99.62
281.431	95.62
281.662	101.62
281.894	110.62
282.125	92.62
282.356	98.62
282.588	137.62
282.819	109.62
283.051	104.62
283.282	88.62
283.513	85.62
283.745	95.62
283.976	81.62
284.207	89.62
284.439	83.62
284.67	79.62
284.901	91.62
285.132	79.62
285.364	85.62
285.595	93.62
285.826	91.62
286.057	99.62
286.288	89.62
286.52	73.62
286.751	84.62
286.982	95.62
287.213	89.62
287.444	102.62
287.675	88.62
287.906	95.62
288.138	79.62
288.369	101.62
288.6	91.62
288.831	77.62
289.062	75.62
289.293	73.62
289.524	81.62
289.755	84.62
289.986	85.62
290.217	88.62
290.448	91.62
290.679	90.62
290.91	92.62
291.141	80.62
291.371	87.62
291.602	99.62
291.833	96.62
292.064	94.62
292.295	94.62
292.526	95.62
292.757	84.62
292.987	90.62
293.218	103.62
293.449	82.62
293.68	88.62
293.91	77.62
294.141	99.62
294.372	83.62
294.603	87.62
294.833	93.62
295.064	89.62
295.295	88.62
295.525	77.62
295.756	93.62
295.987	133.62
296.217	139.62
296.448	118.62
296.679	91.62
296.909	89.62
297.14	81.62
297.37	73.62
297.601	83.62
297.831	95.62
298.062	107.62
298.292	93.62
298.523	88.62
298.753	85.62
298.984	95.62
299.214	60.62
299.445	97.62
299.675	102.62
299.905	109.62
300.136	81.62
300.366	89.62
300.597	89.62
300.827	85.62
301.057	121.62
301.288	104.62
301.518	94.62
301.748	87.62
301.979	111.62
302.209	100.62
302.439	80.62
302.669	80.62
302.9	92.62
303.13	103.62
303.36	111.62
303.59	98.62
303.82	111.62
304.051	76.62
304.281	85.62
304.511	93.62
304.741	71.62
304.971	95.62
305.201	98.62
305.431	88.62
305.661	96.62
305.891	81.62
306.121	84.62
306.352	99.62
306.582	104.62
306.812	104.62
307.042	101.62
307.272	116.62
307.502	116.62
307.731	117.62
307.961	109.62
308.191	84.62
308.421	88.62
308.651	79.62
308.881	104.62
309.111	88.62
309.341	104.62
309.571	99.62
309.8	88.62
310.03	105.62
310.26	100.62
310.49	84.62
310.72	104.62
310.949	105.62
311.179	106.62
311.409	91.62
311.639	91.62
311.868	82.62
312.098	100.62
312.328	111.62
312.557	98.62
312.787	101.62
313.017	112.62
313.246	93.62
313.476	87.62
313.706	97.62
313.935	106.62
314.165	112.62
314.394	100.62
314.624	93.62
314.853	88.62
315.083	93.62
315.312	108.62
315.542	101.62
315.771	114.62
316.001	85.62
316.23	92.62
316.46	73.62
316.689	87.62
316.919	92.62
317.148	99.62
317.377	90.62
317.607	109.62
317.836	90.62
318.065	96.62
318.295	90.62
318.524	105.62
318.753	94.62
318.983	89.62
319.212	91.62
319.441	103.62
319.67	117.62
319.9	96.62
320.129	85.62
320.358	83.62
320.587	89.62
320.816	91.62
321.046	101.62
321.275	109.62
321.504	95.62
321.733	105.62
321.962	104.62
322.191	100.62
322.42	101.62
322.649	111.62
322.878	107.62
323.108	110.62
323.337	122.62
323.566	132.62
323.795	157.62
324.024	211.62
324.253	395.62
324.482	856.62
324.71	1788.62
324.939	2293.62
325.168	855.62
325.397	251.62
325.626	147.62
325.855	128.62
326.084	142.62
326.313	125.62
326.542	163.62
326.77	238.62
326.999	476.62
327.228	953.62
327.457	1817.62
327.686	1445.62
327.914	427.62
328.143	297.62
328.372	326.62
328.6	218.62
328.829	165.62
329.058	149.62
329.287	160.62
329.515	125.62
329.744	168.62
329.972	247.62
330.201	480.62
330.43	680.62
330.658	324.62
330.887	195.62
331.115	149.62
331.344	106.62
331.572	109.62
331.801	113.62
332.03	102.62
332.258	96.62
332.486	103.62
332.715	104.62
332.943	103.62
333.172	105.62
333.4	110.62
333.629	123.62
333.857	177.62
334.085	235.62
334.314	458.62
334.542	851.62
334.771	787.62
334.999	231.62
335.227	132.62
335.455	109.62
335.684	100.62
335.912	112.62
336.14	103.62
336.369	100.62
336.597	112.62
336.825	89.62
337.053	99.62
337.281	82.62
337.51	96.62
337.738	83.62
337.966	99.62
338.194	79.62
338.422	92.62
338.65	105.62
338.878	89.62
339.106	91.62
339.334	79.62
339.562	94.62
339.79	86.62
340.018	87.62
340.246	97.62
340.474	92.62
340.702	81.62
340.93	87.62
341.158	107.62
341.386	94.62
341.614	87.62
341.842	83.62
342.07	85.62
342.298	85.62
342.526	91.62
342.754	91.62
342.981	99.62
343.209	90.62
343.437	102.62
343.665	96.62
343.893	87.62
344.12	91.62
344.348	94.62
344.576	89.62
344.804	91.62
345.031	100.62
345.259	100.62
345.487	94.62
345.714	91.62
345.942	87.62
346.17	97.62
346.397	89.62
346.625	100.62
346.853	98.62
347.08	95.62
347.308	96.62
347.535	87.62
347.763	115.62
347.99	99.62
348.218	99.62
348.445	107.62
348.673	101.62
348.9	85.62
349.128	106.62
349.355	108.62
349.583	88.62
349.81	84.62
350.037	104.62
350.265	92.62
350.492	103.62
350.72	97.62
350.947	95.62
351.174	96.62
351.402	106.62
351.629	95.62
351.856	91.62
352.083	98.62
352.311	113.62
352.538	114.62
352.765	112.62
352.992	113.62
353.22	115.62
353.447	111.62
353.674	117.62
353.901	110.62
354.128	83.62
354.355	90.62
354.583	97.62
354.81	93.62
355.037	101.62
355.264	95.62
355.491	89.62
355.718	88.62
355.945	100.62
356.172	97.62
356.399	86.62
356.626	98.62
356.853	89.62
357.08	101.62
357.307	95.62
357.534	87.62
357.761	95.62
357.988	101.62
358.215	101.62
358.441	87.62
358.668	99.62
358.895	84.62
359.122	82.62
359.349	99.62
359.576	96.62
359.802	108.62
360.029	115.62
360.256	119.62
360.483	91.62
360.709	96.62
360.936	104.62
361.163	93.62
361.39	81.62
361.616	99.62
361.843	93.62
362.07	96.62
362.296	101.62
362.523	101.62
362.749	92.62
362.976	87.62
363.203	98.62
363.429	97.62
363.656	106.62
363.882	93.62
364.109	87.62
364.335	89.62
364.562	88.62
364.788	78.62
365.015	101.62
365.241	109.62
365.468	101.62
365.694	102.62
365.92	91.62
366.147	81.62
366.373	101.62
366.599	89.62
366.826	98.62
367.052	87.62
367.278	86.62
367.505	102.62
367.731	105.62
367.957	102.62
368.184	89.62
368.41	119.62
368.636	102.62
368.862	121.62
369.089	105.62
369.315	101.62
369.541	82.62
369.767	89.62
369.993	101.62
370.219	93.62
370.445	85.62
370.672	88.62
370.898	90.62
371.124	101.62
371.35	87.62
371.576	83.62
371.802	80.62
372.028	88.62
372.254	96.62
372.48	80.62
372.706	78.62
372.932	91.62
373.158	79.62
373.384	79.62
373.61	79.62
373.835	92.62
374.061	94.62
374.287	95.62
374.513	100.62
374.739	93.62
374.965	88.62
375.191	79.62
375.416	81.62
375.642	94.62
375.868	92.62
376.094	91.62
376.319	104.62
376.545	93.62
376.771	81.62
376.997	88.62
377.222	95.62
377.448	95.62
377.674	101.62
377.899	110.62
378.125	78.62
378.35	88.62
378.576	108.62
378.802	93.62
379.027	88.62
379.253	95.62
379.478	104.62
379.704	95.62
379.929	105.62
380.155	85.62
380.38	90.62
380.606	105.62
380.831	108.62
381.057	117.62
381.282	86.62
381.507	93.62
381.733	87.62
381.958	91.62
382.184	105.62
382.409	93.62
382.634	89.62
382.86	114.62
383.085	106.62
383.31	112.62
383.535	112.62
383.761	76.62
383.986	106.62
384.211	92.62
384.436	95.62
384.662	113.62
384.887	104.62
385.112	94.62
385.337	103.62
385.562	108.62
385.787	109.62
386.013	107.62
386.238	124.62
386.463	111.62
386.688	121.62
386.913	105.62
387.138	115.62
387.363	104.62
387.588	98.62
387.813	116.62
388.038	101.62
388.263	121.62
388.488	113.62
388.713	106.62
388.938	100.62
389.163	93.62
389.387	101.62
389.612	83.62
389.837	92.62
390.062	93.62
390.287	103.62
390.512	87.62
390.736	93.62
390.961	101.62
391.186	102.62
391.411	89.62
391.636	87.62
391.86	87.62
392.085	81.62
392.31	93.62
392.534	87.62
392.759	78.62
392.984	87.62
393.208	93.62
393.433	96.62
393.658	93.62
393.882	83.62
394.107	78.62
394.331	83.62
394.556	65.62
394.78	72.62
395.005	85.62
395.229	81.62
395.454	86.62
395.678	86.62
395.903	86.62
396.127	95.62
396.352	89.62
396.576	89.62
396.801	85.62
397.025	95.62
397.249	93.62
397.474	83.62
397.698	81.62
397.922	98.62
398.147	97.62
398.371	85.62
398.595	82.62
398.82	73.62
399.044	75.62
399.268	82.62
399.492	102.62
399.717	101.62
399.941	97.62
400.165	101.62
400.389	89.62
400.613	87.62
400.837	83.62
401.062	94.62
401.286	91.62
401.51	85.62
401.734	86.62
401.958	96.62
402.182	122.62
402.406	168.62
402.63	118.62
402.854	97.62
403.078	102.62
403.302	75.62
403.526	88.62
403.75	92.62
403.974	81.62
404.198	95.62
404.422	92.62
404.645	80.62
404.869	94.62
405.093	108.62
405.317	106.62
405.541	114.62
405.765	103.62
405.988	117.62
406.212	157.62
406.436	243.62
406.66	146.62
406.883	118.62
407.107	104.62
407.331	100.62
407.555	99.62
407.778	101.62
408.002	105.62
408.226	98.62
408.449	86.62
408.673	83.62
408.896	98.62
409.12	96.62
409.344	89.62
409.567	89.62
409.791	102.62
410.014	98.62
410.238	101.62
410.461	97.62
410.685	95.62
410.908	83.62
411.132	104.62
411.355	105.62
411.578	101.62
411.802	83.62
412.025	86.62
412.249	88.62
412.472	102.62
412.695	115.62
412.919	98.62
413.142	87.62
413.365	94.62
413.589	89.62
413.812	79.62
414.035	94.62
414.258	96.62
414.482	90.62
414.705	96.62
414.928	88.62
415.151	73.62
415.374	87.62
415.597	85.62
415.821	81.62
416.044	93.62
416.267	88.62
416.49	79.62
416.713	91.62
416.936	93.62
417.159	99.62
417.382	103.62
417.605	93.62
417.828	105.62
418.051	98.62
418.274	79.62
418.497	83.62
418.72	82.62
418.943	93.62
419.166	89.62
419.389	94.62
419.611	108.62
419.834	93.62
420.057	77.62
420.28	94.62
420.503	91.62
420.726	89.62
420.948	79.62
421.171	96.62
421.394	89.62
421.617	93.62
421.839	69.62
422.062	94.62
422.285	103.62
422.507	97.62
422.73	111.62
422.953	101.62
423.175	88.62
423.398	109.62
423.621	94.62
423.843	75.62
424.066	81.62
424.288	91.62
424.511	102.62
424.733	103.62
424.956	104.62
425.178	93.62
425.401	107.62
425.623	97.62
425.846	91.62
426.068	84.62
426.291	79.62
426.513	92.62
426.735	83.62
426.958	103.62
427.18	104.62
427.402	141.62
427.625	209.62
427.847	176.62
428.069	175.62
428.292	94.62
428.514	104.62
428.736	107.62
428.958	89.62
429.181	80.62
429.403	79.62
429.625	86.62
429.847	105.62
430.069	103.62
430.292	96.62
430.514	78.62
430.736	84.62
430.958	96.62
431.18	95.62
431.402	85.62
431.624	92.62
431.846	86.62
432.068	100.62
432.29	87.62
432.512	87.62
432.734	94.62
432.956	95.62
433.178	103.62
433.4	108.62
433.622	96.62
433.844	77.62
434.066	81.62
434.287	89.62
434.509	85.62
434.731	91.62
434.953	92.62
435.175	97.62
435.397	90.62
435.618	101.62
435.84	102.62
436.062	124.62
436.284	105.62
436.505	112.62
436.727	100.62
436.949	88.62
437.17	86.62
437.392	93.62
437.614	87.62
437.835	103.62
438.057	133.62
438.278	115.62
438.5	112.62
438.721	146.62
438.943	112.62
439.165	99.62
439.386	79.62
439.608	81.62
439.829	110.62
440.05	133.62
440.272	162.62
440.493	104.62
440.715	94.62
440.936	79.62
441.158	89.62
441.379	83.62
441.6	83.62
441.822	91.62
442.043	103.62
442.264	124.62
442.486	117.62
442.707	101.62
442.928	118.62
443.149	139.62
443.371	127.62
443.592	115.62
443.813	115.62
444.034	115.62
444.255	94.62
444.476	99.62
444.698	109.62
444.919	96.62
445.14	144.62
445.361	123.62
445.582	132.62
445.803	150.62
446.024	156.62
446.245	149.62
446.466	113.62
446.687	98.62
446.908	85.62
447.129	88.62
447.35	81.62
447.571	110.62
447.792	94.62
448.013	105.62
448.234	114.62
448.455	96.62
448.675	118.62
448.896	138.62
449.117	101.62
449.338	101.62
449.559	156.62
449.779	133.62
450	104.62
450.221	81.62
450.442	91.62
450.662	89.62
450.883	101.62
451.104	112.62
451.324	91.62
451.545	87.62
451.766	103.62
451.986	101.62
452.207	100.62
452.428	96.62
452.648	80.62
452.869	112.62
453.089	129.62
453.31	126.62
453.53	83.62
453.751	91.62
453.971	107.62
454.192	112.62
454.412	106.62
454.633	85.62
454.853	89.62
455.073	104.62
455.294	97.62
455.514	118.62
455.734	98.62
455.955	95.62
456.175	78.62
456.395	92.62
456.616	78.62
456.836	97.62
457.056	96.62
457.276	83.62
457.497	86.62
457.717	87.62
457.937	99.62
458.157	79.62
458.377	101.62
458.598	106.62
458.818	170.62
459.038	183.62
459.258	122.62
459.478	94.62
459.698	87.62
459.918	76.62
460.138	92.62
460.358	99.62
460.578	93.62
460.798	83.62
461.018	88.62
461.238	87.62
461.458	85.62
461.678	104.62
461.898	84.62
462.118	94.62
462.338	88.62
462.558	91.62
462.777	89.62
462.997	83.62
463.217	88.62
463.437	100.62
463.657	85.62
463.876	92.62
464.096	88.62
464.316	97.62
464.536	89.62
464.755	96.62
464.975	115.62
465.195	189.62
465.414	169.62
465.634	111.62
465.854	104.62
466.073	78.62
466.293	93.62
466.512	91.62
466.732	99.62
466.951	109.62
467.171	101.62
467.391	91.62
467.61	108.62
467.829	140.62
468.049	286.62
468.268	377.62
468.488	155.62
468.707	101.62
468.927	93.62
469.146	88.62
469.365	91.62
469.585	97.62
469.804	91.62
470.023	78.62
470.243	97.62
470.462	79.62
470.681	100.62
470.901	105.62
471.12	91.62
471.339	101.62
471.558	97.62
471.777	108.62
471.997	163.62
472.216	524.62
472.435	1087.62
472.654	310.62
472.873	114.62
473.092	93.62
473.311	75.62
473.53	100.62
473.749	96.62
473.968	111.62
474.187	105.62
474.406	117.62
474.625	91.62
474.844	95.62
475.063	79.62
475.282	78.62
475.501	101.62
475.72	91.62
475.939	78.62
476.158	84.62
476.377	89.62
476.596	104.62
476.814	95.62
477.033	103.62
477.252	92.62
477.471	95.62
477.69	103.62
477.908	96.62
478.127	80.62
478.346	78.62
478.564	83.62
478.783	100.62
479.002	99.62
479.22	112.62
479.439	94.62
479.658	117.62
479.876	110.62
480.095	109.62
480.313	105.62
480.532	128.62
480.751	166.62
480.969	486.62
481.188	1894.62
481.406	1086.62
481.624	209.62
481.843	103.62
482.061	100.62
482.28	92.62
482.498	109.62
482.717	75.62
482.935	80.62
483.153	100.62
483.372	102.62
483.59	90.62
483.808	94.62
484.027	86.62
484.245	89.62
484.463	85.62
484.681	88.62
484.9	91.62
485.118	97.62
485.336	98.62
485.554	108.62
485.772	101.62
485.99	105.62
486.209	104.62
486.427	107.62
486.645	107.62
486.863	123.62
487.081	124.62
487.299	98.62
487.517	100.62
487.735	87.62
487.953	91.62
488.171	93.62
488.389	92.62
488.607	106.62
488.825	77.62
489.043	92.62
489.261	94.62
489.479	102.62
489.696	84.62
489.914	89.62
490.132	81.62
490.35	88.62
490.568	87.62
490.786	85.62
491.003	69.62
491.221	100.62
491.439	88.62
491.657	96.62
491.874	98.62
492.092	102.62
492.31	92.62
492.527	86.62
492.745	83.62
492.963	93.62
493.18	111.62
493.398	103.62
493.615	89.62
493.833	89.62
494.05	85.62
494.268	116.62
494.485	99.62
494.703	90.62
494.92	98.62
495.138	85.62
495.355	81.62
495.573	80.62
495.79	99.62
496.008	93.62
496.225	99.62
496.442	94.62
496.66	95.62
496.877	85.62
497.094	81.62
497.312	95.62
497.529	91.62
497.746	81.62
497.963	95.62
498.181	103.62
498.398	89.62
498.615	116.62
498.832	106.62
499.049	99.62
499.267	96.62
499.484	87.62
499.701	97.62
499.918	94.62
500.135	93.62
500.352	76.62
500.569	111.62
500.786	97.62
501.003	102.62
501.22	89.62
501.437	104.62
501.654	105.62
501.871	107.62
502.088	92.62
502.305	99.62
502.522	96.62
502.739	91.62
502.956	81.62
503.172	83.62
503.389	82.62
503.606	107.62
503.823	113.62
504.04	97.62
504.256	80.62
504.473	89.62
504.69	92.62
504.907	84.62
505.123	86.62
505.34	96.62
505.557	103.62
505.773	95.62
505.99	80.62
506.207	84.62
506.423	92.62
506.64	84.62
506.856	96.62
507.073	99.62
507.289	96.62
507.506	111.62
507.722	118.62
507.939	120.62
508.155	93.62
508.372	94.62
508.588	91.62
508.805	100.62
509.021	89.62
509.238	110.62
509.454	91.62
509.67	103.62
509.887	101.62
510.103	128.62
510.319	188.62
510.536	673.62
510.752	2169.62
510.968	625.62
511.184	144.62
511.401	118.62
511.617	103.62
511.833	110.62
512.049	104.62
512.265	91.62
512.481	80.62
512.698	101.62
512.914	95.62
513.13	87.62
513.346	88.62
513.562	103.62
513.778	93.62
