Data from Circ_1990_H10_HRD10591_00064.txt Node
Date: Wed Jan 03 11:55:16 EST 2024
User: Yrep
Spectrometer: HR+D1059
Trigger mode: 1
Integration Time (sec): 1.000000E-1
Scans to average: 1
Electric dark correction enabled: true
Nonlinearity correction enabled: false
Boxcar width: 0
XAxis mode: Wavelengths
Number of Pixels in Spectrum: 2048
>>>>>Begin Spectral Data<<<<<
223.165	-12.44
223.4	-12.44
223.635	-12.44
223.869	-15.44
224.104	-19.44
224.338	-23.44
224.573	-24.44
224.808	-20.44
225.042	-3.44
225.277	-9.44
225.511	-1.44
225.746	9.56
225.98	-5.44
226.215	23.56
226.449	18.56
226.683	19.56
226.918	27.56
227.152	36.56
227.387	37.56
227.621	35.56
227.856	55.56
228.09	53.56
228.324	56.56
228.559	59.56
228.793	166.56
229.027	486.56
229.262	534.56
229.496	616.56
229.73	828.56
229.964	829.56
230.199	553.56
230.433	500.56
230.667	479.56
230.901	465.56
231.136	485.56
231.37	481.56
231.604	482.56
231.838	495.56
232.072	475.56
232.306	498.56
232.541	512.56
232.775	498.56
233.009	495.56
233.243	503.56
233.477	502.56
233.711	526.56
233.945	536.56
234.179	536.56
234.413	548.56
234.647	539.56
234.881	549.56
235.115	558.56
235.349	584.56
235.583	593.56
235.817	601.56
236.051	681.56
236.285	655.56
236.519	641.56
236.753	725.56
236.987	964.56
237.221	1368.56
237.455	1501.56
237.689	907.56
237.922	781.56
238.156	767.56
238.39	722.56
238.624	697.56
238.858	723.56
239.091	715.56
239.325	744.56
239.559	737.56
239.793	767.56
240.027	856.56
240.26	988.56
240.494	1020.56
240.728	1021.56
240.961	947.56
241.195	872.56
241.429	863.56
241.662	824.56
241.896	840.56
242.13	849.56
242.363	850.56
242.597	896.56
242.83	929.56
243.064	935.56
243.298	914.56
243.531	904.56
243.765	905.56
243.998	949.56
244.232	974.56
244.465	1014.56
244.699	976.56
244.932	998.56
245.166	1006.56
245.399	1023.56
245.633	969.56
245.866	1013.56
246.099	1013.56
246.333	1003.56
246.566	1051.56
246.8	1078.56
247.033	1123.56
247.266	1157.56
247.5	1175.56
247.733	1233.56
247.966	1229.56
248.2	1236.56
248.433	1242.56
248.666	1333.56
248.899	1467.56
249.133	1564.56
249.366	1611.56
249.599	1535.56
249.832	1495.56
250.066	1597.56
250.299	1965.56
250.532	2496.56
250.765	2448.56
250.998	2207.56
251.231	1955.56
251.465	1714.56
251.698	1652.56
251.931	1608.56
252.164	1542.56
252.397	1577.56
252.63	1597.56
252.863	1699.56
253.096	1798.56
253.329	1826.56
253.562	1741.56
253.795	1719.56
254.028	1712.56
254.261	1776.56
254.494	2014.56
254.727	2333.56
254.96	2392.56
255.193	2200.56
255.426	2182.56
255.659	2413.56
255.892	3318.56
256.124	4165.56
256.357	3556.56
256.59	2717.56
256.823	2327.56
257.056	2075.56
257.289	1987.56
257.521	1916.56
257.754	1861.56
257.987	1820.56
258.22	1783.56
258.452	1783.56
258.685	1748.56
258.918	1788.56
259.151	1797.56
259.383	1887.56
259.616	1871.56
259.849	1951.56
260.081	2039.56
260.314	2227.56
260.547	2164.56
260.779	1966.56
261.012	1935.56
261.244	1858.56
261.477	1846.56
261.71	1850.56
261.942	1890.56
262.175	1937.56
262.407	1915.56
262.64	1833.56
262.872	1819.56
263.105	1756.56
263.337	1787.56
263.57	1824.56
263.802	1842.56
264.035	1793.56
264.267	1837.56
264.499	1843.56
264.732	1832.56
264.964	1874.56
265.197	1861.56
265.429	1897.56
265.661	1870.56
265.894	1881.56
266.126	1897.56
266.358	1959.56
266.591	1926.56
266.823	2020.56
267.055	2039.56
267.287	2000.56
267.52	1982.56
267.752	2017.56
267.984	2012.56
268.216	2100.56
268.448	2073.56
268.681	2124.56
268.913	2267.56
269.145	2465.56
269.377	2483.56
269.609	2441.56
269.841	2351.56
270.073	2515.56
270.306	2744.56
270.538	2862.56
270.77	2695.56
271.002	2597.56
271.234	2589.56
271.466	2751.56
271.698	2874.56
271.93	2873.56
272.162	2828.56
272.394	2772.56
272.626	2648.56
272.858	2477.56
273.09	2477.56
273.322	2459.56
273.553	2409.56
273.785	2479.56
274.017	2438.56
274.249	2488.56
274.481	2485.56
274.713	2542.56
274.945	2523.56
275.176	2511.56
275.408	2560.56
275.64	2543.56
275.872	2526.56
276.104	2613.56
276.335	2587.56
276.567	2755.56
276.799	2943.56
277.031	3223.56
277.262	3385.56
277.494	3163.56
277.726	2904.56
277.957	2799.56
278.189	2794.56
278.421	2739.56
278.652	2686.56
278.884	2654.56
279.115	2627.56
279.347	2687.56
279.579	2731.56
279.81	2747.56
280.042	2905.56
280.273	3089.56
280.505	2996.56
280.736	2875.56
280.968	2800.56
281.199	2798.56
281.431	2749.56
281.662	2761.56
281.894	2784.56
282.125	2793.56
282.356	3007.56
282.588	3133.56
282.819	2938.56
283.051	2821.56
283.282	2754.56
283.513	2806.56
283.745	2921.56
283.976	2880.56
284.207	2891.56
284.439	2801.56
284.67	2853.56
284.901	2863.56
285.132	2829.56
285.364	2854.56
285.595	2861.56
285.826	2895.56
286.057	2939.56
286.288	2904.56
286.52	2895.56
286.751	2919.56
286.982	2963.56
287.213	2936.56
287.444	3026.56
287.675	3052.56
287.906	3172.56
288.138	3216.56
288.369	3153.56
288.6	3137.56
288.831	3099.56
289.062	3011.56
289.293	3084.56
289.524	3044.56
289.755	3032.56
289.986	2988.56
290.217	3037.56
290.448	3052.56
290.679	2992.56
290.91	3092.56
291.141	3043.56
291.371	3043.56
291.602	3032.56
291.833	3083.56
292.064	3030.56
292.295	3033.56
292.526	3038.56
292.757	2995.56
292.987	3011.56
293.218	2993.56
293.449	3058.56
293.68	3020.56
293.91	3033.56
294.141	3058.56
294.372	3054.56
294.603	3092.56
294.833	3113.56
295.064	3073.56
295.295	3147.56
295.525	3144.56
295.756	3185.56
295.987	3210.56
296.217	3450.56
296.448	3336.56
296.679	3153.56
296.909	3120.56
297.14	3220.56
297.37	3230.56
297.601	3233.56
297.831	3258.56
298.062	3255.56
298.292	3254.56
298.523	3369.56
298.753	3320.56
298.984	3311.56
299.214	3333.56
299.445	3292.56
299.675	3305.56
299.905	3385.56
300.136	3375.56
300.366	3384.56
300.597	3400.56
300.827	3566.56
301.057	3566.56
301.288	3609.56
301.518	3542.56
301.748	3606.56
301.979	3646.56
302.209	3631.56
302.439	3619.56
302.669	3567.56
302.9	3572.56
303.13	3460.56
303.36	3563.56
303.59	3671.56
303.82	3700.56
304.051	3641.56
304.281	3591.56
304.511	3584.56
304.741	3584.56
304.971	3571.56
305.201	3471.56
305.431	3528.56
305.661	3502.56
305.891	3483.56
306.121	3487.56
306.352	3610.56
306.582	3571.56
306.812	3443.56
307.042	3578.56
307.272	3614.56
307.502	3716.56
307.731	3636.56
307.961	3604.56
308.191	3519.56
308.421	3527.56
308.651	3595.56
308.881	3564.56
309.111	3622.56
309.341	3620.56
309.571	3709.56
309.8	3802.56
310.03	3844.56
310.26	3864.56
310.49	3841.56
310.72	3985.56
310.949	4088.56
311.179	4056.56
311.409	3950.56
311.639	3887.56
311.868	3916.56
312.098	3933.56
312.328	4071.56
312.557	4239.56
312.787	4302.56
313.017	4165.56
313.246	4081.56
313.476	3976.56
313.706	4089.56
313.935	4176.56
314.165	4240.56
314.394	4272.56
314.624	4189.56
314.853	4104.56
315.083	4049.56
315.312	4047.56
315.542	3950.56
315.771	3955.56
316.001	3884.56
316.23	3877.56
316.46	3899.56
316.689	4002.56
316.919	4047.56
317.148	4072.56
317.377	4099.56
317.607	4039.56
317.836	3990.56
318.065	3908.56
318.295	3906.56
318.524	3976.56
318.753	3947.56
318.983	3956.56
319.212	3984.56
319.441	4006.56
319.67	4070.56
319.9	3961.56
320.129	4037.56
320.358	3997.56
320.587	4045.56
320.816	4073.56
321.046	4178.56
321.275	4130.56
321.504	4142.56
321.733	4236.56
321.962	4261.56
322.191	4349.56
322.42	4474.56
322.649	4595.56
322.878	4645.56
323.108	4807.56
323.337	5010.56
323.566	5128.56
323.795	5588.56
324.024	6161.56
324.253	7927.56
324.482	11788.56
324.71	15625.56
324.939	15625.56
325.168	13671.56
325.397	7134.56
325.626	5774.56
325.855	5358.56
326.084	5330.56
326.313	5284.56
326.542	5524.56
326.77	6183.56
326.999	7856.56
327.228	11295.56
327.457	15142.56
327.686	14687.56
327.914	9077.56
328.143	8376.56
328.372	8569.56
328.6	7347.56
328.829	6628.56
329.058	6819.56
329.287	6836.56
329.515	6783.56
329.744	7247.56
329.972	8734.56
330.201	11008.56
330.43	12157.56
330.658	9384.56
330.887	7921.56
331.115	6912.56
331.344	6157.56
331.572	5989.56
331.801	6006.56
332.03	5996.56
332.258	5878.56
332.486	5907.56
332.715	6115.56
332.943	6343.56
333.172	6619.56
333.4	7007.56
333.629	7463.56
333.857	8440.56
334.085	9846.56
334.314	12468.56
334.542	14544.56
334.771	13733.56
334.999	9041.56
335.227	7357.56
335.455	6660.56
335.684	6327.56
335.912	6055.56
336.14	5753.56
336.369	5735.56
336.597	5732.56
336.825	5545.56
337.053	5502.56
337.281	5300.56
337.51	5189.56
337.738	5239.56
337.966	5225.56
338.194	5201.56
338.422	5122.56
338.65	4989.56
338.878	4908.56
339.106	4847.56
339.334	4892.56
339.562	4866.56
339.79	4767.56
340.018	4737.56
340.246	4787.56
340.474	4837.56
340.702	4724.56
340.93	4756.56
341.158	4725.56
341.386	4740.56
341.614	4765.56
341.842	4669.56
342.07	4649.56
342.298	4609.56
342.526	4613.56
342.754	4556.56
342.981	4640.56
343.209	4701.56
343.437	4947.56
343.665	5183.56
343.893	5437.56
344.12	5490.56
344.348	5229.56
344.576	5083.56
344.804	5001.56
345.031	4965.56
345.259	4928.56
345.487	4764.56
345.714	4621.56
345.942	4521.56
346.17	4547.56
346.397	4484.56
346.625	4487.56
346.853	4411.56
347.08	4428.56
347.308	4526.56
347.535	4555.56
347.763	4636.56
347.99	4589.56
348.218	4584.56
348.445	4660.56
348.673	4508.56
348.9	4463.56
349.128	4321.56
349.355	4333.56
349.583	4367.56
349.81	4259.56
350.037	4286.56
350.265	4308.56
350.492	4328.56
350.72	4286.56
350.947	4344.56
351.174	4443.56
351.402	4533.56
351.629	4462.56
351.856	4458.56
352.083	4538.56
352.311	4588.56
352.538	4565.56
352.765	4563.56
352.992	4515.56
353.22	4318.56
353.447	4383.56
353.674	4315.56
353.901	4225.56
354.128	4198.56
354.355	4157.56
354.583	4280.56
354.81	4203.56
355.037	4159.56
355.264	4210.56
355.491	4222.56
355.718	4197.56
355.945	4161.56
356.172	4241.56
356.399	4183.56
356.626	4192.56
356.853	4244.56
357.08	4200.56
357.307	4168.56
357.534	4233.56
357.761	4209.56
357.988	4332.56
358.215	4237.56
358.441	4190.56
358.668	4281.56
358.895	4285.56
359.122	4357.56
359.349	4393.56
359.576	4580.56
359.802	4744.56
360.029	4980.56
360.256	4930.56
360.483	4742.56
360.709	4452.56
360.936	4437.56
361.163	4494.56
361.39	4503.56
361.616	4546.56
361.843	4406.56
362.07	4455.56
362.296	4529.56
362.523	4405.56
362.749	4427.56
362.976	4425.56
363.203	4297.56
363.429	4276.56
363.656	4382.56
363.882	4308.56
364.109	4253.56
364.335	4329.56
364.562	4287.56
364.788	4279.56
365.015	4330.56
365.241	4239.56
365.468	4314.56
365.694	4341.56
365.92	4334.56
366.147	4328.56
366.373	4337.56
366.599	4269.56
366.826	4264.56
367.052	4240.56
367.278	4269.56
367.505	4340.56
367.731	4308.56
367.957	4307.56
368.184	4471.56
368.41	4498.56
368.636	4455.56
368.862	4534.56
369.089	4440.56
369.315	4447.56
369.541	4387.56
369.767	4423.56
369.993	4455.56
370.219	4430.56
370.445	4435.56
370.672	4408.56
370.898	4420.56
371.124	4555.56
371.35	4540.56
371.576	4540.56
371.802	4533.56
372.028	4472.56
372.254	4559.56
372.48	4606.56
372.706	4747.56
372.932	4702.56
373.158	4620.56
373.384	4584.56
373.61	4571.56
373.835	4625.56
374.061	4555.56
374.287	4685.56
374.513	4721.56
374.739	4892.56
374.965	4990.56
375.191	4965.56
375.416	4934.56
375.642	4716.56
375.868	4719.56
376.094	4654.56
376.319	4587.56
376.545	4591.56
376.771	4662.56
376.997	4512.56
377.222	4561.56
377.448	4521.56
377.674	4552.56
377.899	4448.56
378.125	4477.56
378.35	4415.56
378.576	4424.56
378.802	4456.56
379.027	4486.56
379.253	4534.56
379.478	4455.56
379.704	4435.56
379.929	4540.56
380.155	4566.56
380.38	4583.56
380.606	4531.56
380.831	4487.56
381.057	4573.56
381.282	4575.56
381.507	4620.56
381.733	4623.56
381.958	4649.56
382.184	4632.56
382.409	4742.56
382.634	4778.56
382.86	4749.56
383.085	4913.56
383.31	4912.56
383.535	5028.56
383.761	5058.56
383.986	5026.56
384.211	5224.56
384.436	5241.56
384.662	5327.56
384.887	5352.56
385.112	5441.56
385.337	5477.56
385.562	5421.56
385.787	5448.56
386.013	5581.56
386.238	5605.56
386.463	5535.56
386.688	5453.56
386.913	5390.56
387.138	5370.56
387.363	5447.56
387.588	5309.56
387.813	5334.56
388.038	5405.56
388.263	5385.56
388.488	5445.56
388.713	5303.56
388.938	5379.56
389.163	5399.56
389.387	5311.56
389.612	5269.56
389.837	5235.56
390.062	5255.56
390.287	5323.56
390.512	5326.56
390.736	5405.56
390.961	5513.56
391.186	5513.56
391.411	5763.56
391.636	5814.56
391.86	5968.56
392.085	6032.56
392.31	5924.56
392.534	5774.56
392.759	5717.56
392.984	5670.56
393.208	5623.56
393.433	5613.56
393.658	5567.56
393.882	5618.56
394.107	5688.56
394.331	5672.56
394.556	5653.56
394.78	5675.56
395.005	5802.56
395.229	5801.56
395.454	5949.56
395.678	6097.56
395.903	6078.56
396.127	6175.56
396.352	5950.56
396.576	5744.56
396.801	5675.56
397.025	5761.56
397.249	5992.56
397.474	6069.56
397.698	6084.56
397.922	6202.56
398.147	6352.56
398.371	6491.56
398.595	6549.56
398.82	6822.56
399.044	7426.56
399.268	8188.56
399.492	9249.56
399.717	9793.56
399.941	9626.56
400.165	9059.56
400.389	8331.56
400.613	7623.56
400.837	7139.56
401.062	7040.56
401.286	6866.56
401.51	6751.56
401.734	6799.56
401.958	6963.56
402.182	7007.56
402.406	7194.56
402.63	7197.56
402.854	7249.56
403.078	7327.56
403.302	7521.56
403.526	7683.56
403.75	7722.56
403.974	7899.56
404.198	7839.56
404.422	7976.56
404.645	8133.56
404.869	8209.56
405.093	8801.56
405.317	9352.56
405.541	9231.56
405.765	8313.56
405.988	7872.56
406.212	8095.56
406.436	8068.56
406.66	8184.56
406.883	8157.56
407.107	8562.56
407.331	9233.56
407.555	9683.56
407.778	9400.56
408.002	8613.56
408.226	8217.56
408.449	8123.56
408.673	8069.56
408.896	8228.56
409.12	8305.56
409.344	7913.56
409.567	7451.56
409.791	7416.56
410.014	7383.56
410.238	7387.56
410.461	7429.56
410.685	7448.56
410.908	7423.56
411.132	7703.56
411.355	7746.56
411.578	7488.56
411.802	7268.56
412.025	7411.56
412.249	7895.56
412.472	8513.56
412.695	9023.56
412.919	8354.56
413.142	7845.56
413.365	7478.56
413.589	7236.56
413.812	7055.56
414.035	6795.56
414.258	6927.56
414.482	6980.56
414.705	6888.56
414.928	6839.56
415.151	6840.56
415.374	6694.56
415.597	6710.56
415.821	6659.56
416.044	6710.56
416.267	6685.56
416.49	6535.56
416.713	6555.56
416.936	6689.56
417.159	6665.56
417.382	6810.56
417.605	6915.56
417.828	7087.56
418.051	6993.56
418.274	6869.56
418.497	6689.56
418.72	6904.56
418.943	6913.56
419.166	7336.56
419.389	7699.56
419.611	7768.56
419.834	7649.56
420.057	7781.56
420.28	7989.56
420.503	7821.56
420.726	7475.56
420.948	7469.56
421.171	7706.56
421.394	7547.56
421.617	7008.56
421.839	7017.56
422.062	6997.56
422.285	7165.56
422.507	7804.56
422.73	8230.56
422.953	7595.56
423.175	7294.56
423.398	7282.56
423.621	7332.56
423.843	7561.56
424.066	7507.56
424.288	7360.56
424.511	7659.56
424.733	8103.56
424.956	8494.56
425.178	8032.56
425.401	8161.56
425.623	8048.56
425.846	7071.56
426.068	6904.56
426.291	6863.56
426.513	6820.56
426.735	6960.56
426.958	7420.56
427.18	8232.56
427.402	9524.56
427.625	9951.56
427.847	9106.56
428.069	8820.56
428.292	7428.56
428.514	6691.56
428.736	6373.56
428.958	6358.56
429.181	6183.56
429.403	6135.56
429.625	6271.56
429.847	6590.56
430.069	7153.56
430.292	6673.56
430.514	6094.56
430.736	6166.56
430.958	5949.56
431.18	5911.56
431.402	5888.56
431.624	5944.56
431.846	5957.56
432.068	5955.56
432.29	6128.56
432.512	5971.56
432.734	6104.56
432.956	5989.56
433.178	6096.56
433.4	6149.56
433.622	6056.56
433.844	6100.56
434.066	6042.56
434.287	6139.56
434.509	6432.56
434.731	6595.56
434.953	6672.56
435.175	6860.56
435.397	7011.56
435.618	6925.56
435.84	7292.56
436.062	8132.56
436.284	8028.56
436.505	6782.56
436.727	6580.56
436.949	6324.56
437.17	6104.56
437.392	6046.56
437.614	6233.56
437.835	6671.56
438.057	7699.56
438.278	8295.56
438.5	8041.56
438.721	8969.56
438.943	7878.56
439.165	6635.56
439.386	6491.56
439.608	6593.56
439.829	6683.56
440.05	7053.56
440.272	7494.56
440.493	6779.56
440.715	6433.56
440.936	6351.56
441.158	6453.56
441.379	6639.56
441.6	6871.56
441.822	7137.56
442.043	7582.56
442.264	8312.56
442.486	8011.56
442.707	7167.56
442.928	7055.56
443.149	7283.56
443.371	7515.56
443.592	7981.56
443.813	8953.56
444.034	8859.56
444.255	7816.56
444.476	7591.56
444.698	7785.56
444.919	7840.56
445.14	7589.56
445.361	7581.56
445.582	7826.56
445.803	8475.56
446.024	9005.56
446.245	8595.56
446.466	7732.56
446.687	6691.56
446.908	6425.56
447.129	6071.56
447.35	5886.56
447.571	5923.56
447.792	5797.56
448.013	5847.56
448.234	6018.56
448.455	6841.56
448.675	7995.56
448.896	8339.56
449.117	6947.56
449.338	7191.56
449.559	8579.56
449.779	8715.56
450	6640.56
450.221	5969.56
450.442	5798.56
450.662	5695.56
450.883	5820.56
451.104	6040.56
451.324	5707.56
451.545	5608.56
451.766	5432.56
451.986	5343.56
452.207	5309.56
452.428	5322.56
452.648	5348.56
452.869	5309.56
453.089	5404.56
453.31	5473.56
453.53	5357.56
453.751	5315.56
453.971	5348.56
454.192	5478.56
454.412	5232.56
454.633	5164.56
454.853	5158.56
455.073	5139.56
455.294	5636.56
455.514	6197.56
455.734	5584.56
455.955	5003.56
456.175	4914.56
456.395	4844.56
456.616	4876.56
456.836	4915.56
457.056	4870.56
457.276	4836.56
457.497	5023.56
457.717	4912.56
457.937	5090.56
458.157	5125.56
458.377	5217.56
458.598	5633.56
458.818	6375.56
459.038	7156.56
459.258	6974.56
459.478	6303.56
459.698	6075.56
459.918	6231.56
460.138	6340.56
460.358	6517.56
460.578	6647.56
460.798	6600.56
461.018	6651.56
461.238	6617.56
461.458	6484.56
461.678	6506.56
461.898	6745.56
462.118	6653.56
462.338	7041.56
462.558	7201.56
462.777	7470.56
462.997	8004.56
463.217	8499.56
463.437	8291.56
463.657	7670.56
463.876	7553.56
464.096	7534.56
464.316	7497.56
464.536	7547.56
464.755	7271.56
464.975	7217.56
465.195	7603.56
465.414	7697.56
465.634	6651.56
465.854	6165.56
466.073	6032.56
466.293	5800.56
466.512	5654.56
466.732	5597.56
466.951	5622.56
467.171	5535.56
467.391	5677.56
467.61	5795.56
467.829	5992.56
468.049	6604.56
468.268	7356.56
468.488	6201.56
468.707	5692.56
468.927	5518.56
469.146	5476.56
469.365	5470.56
469.585	5430.56
469.804	5687.56
470.023	5847.56
470.243	5837.56
470.462	5988.56
470.681	6088.56
470.901	5942.56
471.12	5727.56
471.339	5764.56
471.558	5846.56
471.777	5935.56
471.997	6233.56
472.216	8059.56
472.435	11345.56
472.654	8540.56
472.873	6788.56
473.092	6217.56
473.311	5921.56
473.53	5877.56
473.749	5780.56
473.968	6335.56
474.187	7334.56
474.406	6716.56
474.625	5847.56
474.844	5669.56
475.063	5492.56
475.282	5486.56
475.501	5512.56
475.72	5531.56
475.939	5515.56
476.158	5637.56
476.377	5623.56
476.596	5634.56
476.814	5764.56
477.033	5924.56
477.252	5950.56
477.471	5989.56
477.69	6128.56
477.908	6278.56
478.127	6433.56
478.346	6425.56
478.564	6538.56
478.783	6707.56
479.002	6769.56
479.22	6758.56
479.439	6953.56
479.658	7022.56
479.876	7296.56
480.095	7502.56
480.313	7983.56
480.532	8010.56
480.751	8278.56
480.969	10099.56
481.188	15017.56
481.406	14821.56
481.624	10414.56
481.843	8712.56
482.061	7999.56
482.28	7466.56
482.498	7199.56
482.717	6938.56
482.935	6875.56
483.153	6689.56
483.372	6685.56
483.59	6684.56
483.808	6592.56
484.027	6627.56
484.245	6653.56
484.463	6694.56
484.681	6759.56
484.9	6800.56
485.118	6791.56
485.336	6830.56
485.554	6870.56
485.772	6981.56
485.99	6929.56
486.209	6958.56
486.427	7001.56
486.645	7037.56
486.863	7218.56
487.081	7112.56
487.299	7040.56
487.517	6988.56
