Data from Circ_1990_H10_HRD10591_00051.txt Node
Date: Wed Jan 03 11:55:14 EST 2024
User: Yrep
Spectrometer: HR+D1059
Trigger mode: 1
Integration Time (sec): 1.000000E-1
Scans to average: 1
Electric dark correction enabled: true
Nonlinearity correction enabled: false
Boxcar width: 0
XAxis mode: Wavelengths
Number of Pixels in Spectrum: 2048
>>>>>Begin Spectral Data<<<<<
223.165	-18.56
223.4	-18.56
223.635	-18.56
223.869	-20.56
224.104	-29.56
224.338	-23.56
224.573	-11.56
224.808	3.44
225.042	1.44
225.277	0.44
225.511	-11.56
225.746	15.44
225.98	-3.56
226.215	10.44
226.449	16.44
226.683	23.44
226.918	20.44
227.152	27.44
227.387	39.44
227.621	28.44
227.856	47.44
228.09	46.44
228.324	31.44
228.559	57.44
228.793	42.44
229.027	63.44
229.262	70.44
229.496	64.44
229.73	79.44
229.964	78.44
230.199	85.44
230.433	65.44
230.667	71.44
230.901	61.44
231.136	66.44
231.37	82.44
231.604	84.44
231.838	65.44
232.072	81.44
232.306	76.44
232.541	66.44
232.775	69.44
233.009	72.44
233.243	59.44
233.477	66.44
233.711	88.44
233.945	77.44
234.179	72.44
234.413	76.44
234.647	81.44
234.881	71.44
235.115	62.44
235.349	76.44
235.583	79.44
235.817	83.44
236.051	79.44
236.285	76.44
236.519	81.44
236.753	84.44
236.987	62.44
237.221	91.44
237.455	86.44
237.689	77.44
237.922	75.44
238.156	72.44
238.39	69.44
238.624	87.44
238.858	83.44
239.091	73.44
239.325	75.44
239.559	83.44
239.793	89.44
240.027	73.44
240.26	75.44
240.494	72.44
240.728	60.44
240.961	73.44
241.195	74.44
241.429	79.44
241.662	67.44
241.896	73.44
242.13	81.44
242.363	67.44
242.597	79.44
242.83	73.44
243.064	79.44
243.298	79.44
243.531	82.44
243.765	74.44
243.998	88.44
244.232	73.44
244.465	90.44
244.699	76.44
244.932	61.44
245.166	79.44
245.399	71.44
245.633	104.44
245.866	79.44
246.099	77.44
246.333	79.44
246.566	78.44
246.8	71.44
247.033	78.44
247.266	73.44
247.5	66.44
247.733	66.44
247.966	77.44
248.2	75.44
248.433	81.44
248.666	103.44
248.899	75.44
249.133	84.44
249.366	109.44
249.599	105.44
249.832	87.44
250.066	61.44
250.299	80.44
250.532	74.44
250.765	75.44
250.998	76.44
251.231	72.44
251.465	77.44
251.698	80.44
251.931	79.44
252.164	72.44
252.397	79.44
252.63	83.44
252.863	69.44
253.096	78.44
253.329	77.44
253.562	91.44
253.795	73.44
254.028	76.44
254.261	73.44
254.494	74.44
254.727	82.44
254.96	71.44
255.193	87.44
255.426	78.44
255.659	80.44
255.892	75.44
256.124	95.44
256.357	87.44
256.59	88.44
256.823	66.44
257.056	86.44
257.289	79.44
257.521	75.44
257.754	87.44
257.987	98.44
258.22	86.44
258.452	68.44
258.685	88.44
258.918	72.44
259.151	72.44
259.383	74.44
259.616	79.44
259.849	75.44
260.081	77.44
260.314	84.44
260.547	81.44
260.779	83.44
261.012	93.44
261.244	90.44
261.477	85.44
261.71	94.44
261.942	107.44
262.175	98.44
262.407	83.44
262.64	92.44
262.872	90.44
263.105	82.44
263.337	79.44
263.57	75.44
263.802	80.44
264.035	91.44
264.267	72.44
264.499	76.44
264.732	83.44
264.964	74.44
265.197	79.44
265.429	83.44
265.661	76.44
265.894	76.44
266.126	83.44
266.358	100.44
266.591	82.44
266.823	85.44
267.055	75.44
267.287	73.44
267.52	78.44
267.752	85.44
267.984	66.44
268.216	89.44
268.448	84.44
268.681	98.44
268.913	80.44
269.145	80.44
269.377	81.44
269.609	71.44
269.841	96.44
270.073	83.44
270.306	93.44
270.538	89.44
270.77	85.44
271.002	74.44
271.234	105.44
271.466	84.44
271.698	86.44
271.93	79.44
272.162	78.44
272.394	88.44
272.626	91.44
272.858	77.44
273.09	80.44
273.322	83.44
273.553	83.44
273.785	82.44
274.017	88.44
274.249	79.44
274.481	80.44
274.713	75.44
274.945	85.44
275.176	72.44
275.408	89.44
275.64	97.44
275.872	105.44
276.104	89.44
276.335	79.44
276.567	83.44
276.799	109.44
277.031	104.44
277.262	114.44
277.494	100.44
277.726	84.44
277.957	80.44
278.189	74.44
278.421	78.44
278.652	64.44
278.884	75.44
279.115	76.44
279.347	80.44
279.579	82.44
279.81	98.44
280.042	120.44
280.273	117.44
280.505	108.44
280.736	85.44
280.968	84.44
281.199	84.44
281.431	72.44
281.662	91.44
281.894	96.44
282.125	97.44
282.356	112.44
282.588	121.44
282.819	96.44
283.051	90.44
283.282	77.44
283.513	95.44
283.745	77.44
283.976	75.44
284.207	96.44
284.439	103.44
284.67	89.44
284.901	71.44
285.132	69.44
285.364	95.44
285.595	81.44
285.826	74.44
286.057	91.44
286.288	87.44
286.52	96.44
286.751	76.44
286.982	74.44
287.213	77.44
287.444	90.44
287.675	95.44
287.906	83.44
288.138	91.44
288.369	98.44
288.6	93.44
288.831	87.44
289.062	84.44
289.293	78.44
289.524	87.44
289.755	88.44
289.986	89.44
290.217	80.44
290.448	79.44
290.679	85.44
290.91	83.44
291.141	80.44
291.371	77.44
291.602	102.44
291.833	92.44
292.064	85.44
292.295	73.44
292.526	89.44
292.757	99.44
292.987	83.44
293.218	83.44
293.449	79.44
293.68	85.44
293.91	87.44
294.141	85.44
294.372	89.44
294.603	82.44
294.833	87.44
295.064	79.44
295.295	83.44
295.525	81.44
295.756	101.44
295.987	108.44
296.217	133.44
296.448	104.44
296.679	103.44
296.909	72.44
297.14	104.44
297.37	88.44
297.601	78.44
297.831	76.44
298.062	84.44
298.292	84.44
298.523	84.44
298.753	86.44
298.984	88.44
299.214	84.44
299.445	83.44
299.675	83.44
299.905	83.44
300.136	94.44
300.366	78.44
300.597	74.44
300.827	90.44
301.057	94.44
301.288	102.44
301.518	95.44
301.748	80.44
301.979	101.44
302.209	83.44
302.439	84.44
302.669	97.44
302.9	98.44
303.13	89.44
303.36	103.44
303.59	107.44
303.82	102.44
304.051	90.44
304.281	94.44
304.511	95.44
304.741	69.44
304.971	55.44
305.201	78.44
305.431	98.44
305.661	86.44
305.891	91.44
306.121	83.44
306.352	109.44
306.582	97.44
306.812	88.44
307.042	105.44
307.272	93.44
307.502	111.44
307.731	117.44
307.961	93.44
308.191	86.44
308.421	79.44
308.651	81.44
308.881	90.44
309.111	84.44
309.341	87.44
309.571	100.44
309.8	89.44
310.03	96.44
310.26	104.44
310.49	95.44
310.72	101.44
310.949	93.44
311.179	97.44
311.409	87.44
311.639	89.44
311.868	88.44
312.098	82.44
312.328	100.44
312.557	106.44
312.787	97.44
313.017	94.44
313.246	88.44
313.476	84.44
313.706	101.44
313.935	98.44
314.165	100.44
314.394	105.44
314.624	99.44
314.853	87.44
315.083	88.44
315.312	85.44
315.542	82.44
315.771	87.44
316.001	91.44
316.23	93.44
316.46	92.44
316.689	88.44
316.919	92.44
317.148	96.44
317.377	81.44
317.607	93.44
317.836	76.44
318.065	78.44
318.295	73.44
318.524	81.44
318.753	87.44
318.983	89.44
319.212	103.44
319.441	107.44
319.67	108.44
319.9	87.44
320.129	99.44
320.358	97.44
320.587	101.44
320.816	100.44
321.046	100.44
321.275	98.44
321.504	82.44
321.733	82.44
321.962	93.44
322.191	97.44
322.42	99.44
322.649	94.44
322.878	102.44
323.108	114.44
323.337	108.44
323.566	123.44
323.795	147.44
324.024	197.44
324.253	367.44
324.482	772.44
324.71	1571.44
324.939	2109.44
325.168	770.44
325.397	231.44
325.626	126.44
325.855	124.44
326.084	125.44
326.313	135.44
326.542	161.44
326.77	221.44
326.999	426.44
327.228	891.44
327.457	1622.44
327.686	1315.44
327.914	389.44
328.143	268.44
328.372	268.44
328.6	191.44
328.829	130.44
329.058	139.44
329.287	140.44
329.515	114.44
329.744	127.44
329.972	208.44
330.201	350.44
330.43	498.44
330.658	261.44
330.887	165.44
331.115	152.44
331.344	103.44
331.572	100.44
331.801	103.44
332.03	109.44
332.258	99.44
332.486	89.44
332.715	96.44
332.943	108.44
333.172	108.44
333.4	94.44
333.629	105.44
333.857	123.44
334.085	196.44
334.314	329.44
334.542	602.44
334.771	591.44
334.999	199.44
335.227	122.44
335.455	94.44
335.684	95.44
335.912	98.44
336.14	90.44
336.369	92.44
336.597	109.44
336.825	78.44
337.053	79.44
337.281	83.44
337.51	83.44
337.738	80.44
337.966	97.44
338.194	91.44
338.422	93.44
338.65	88.44
338.878	90.44
339.106	81.44
339.334	77.44
339.562	85.44
339.79	88.44
340.018	98.44
340.246	92.44
340.474	98.44
340.702	89.44
340.93	101.44
341.158	84.44
341.386	83.44
341.614	107.44
341.842	78.44
342.07	85.44
342.298	83.44
342.526	89.44
342.754	89.44
342.981	96.44
343.209	89.44
343.437	99.44
343.665	84.44
343.893	90.44
344.12	88.44
344.348	85.44
344.576	83.44
344.804	93.44
345.031	83.44
345.259	87.44
345.487	89.44
345.714	92.44
345.942	100.44
346.17	84.44
346.397	92.44
346.625	85.44
346.853	80.44
347.08	108.44
347.308	84.44
347.535	102.44
347.763	76.44
347.99	91.44
348.218	114.44
348.445	95.44
348.673	84.44
348.9	91.44
349.128	75.44
349.355	87.44
349.583	97.44
349.81	79.44
350.037	88.44
350.265	97.44
350.492	96.44
350.72	93.44
350.947	110.44
351.174	109.44
351.402	98.44
351.629	102.44
351.856	87.44
352.083	105.44
352.311	106.44
352.538	108.44
352.765	108.44
352.992	113.44
353.22	106.44
353.447	83.44
353.674	105.44
353.901	95.44
354.128	95.44
354.355	99.44
354.583	92.44
354.81	91.44
355.037	95.44
355.264	92.44
355.491	92.44
355.718	88.44
355.945	96.44
356.172	100.44
356.399	101.44
356.626	98.44
356.853	88.44
357.08	97.44
357.307	91.44
357.534	95.44
357.761	91.44
357.988	92.44
358.215	101.44
358.441	96.44
358.668	92.44
358.895	90.44
359.122	95.44
359.349	78.44
359.576	104.44
359.802	90.44
360.029	100.44
360.256	121.44
360.483	97.44
360.709	80.44
360.936	86.44
361.163	89.44
361.39	100.44
361.616	93.44
361.843	83.44
362.07	92.44
362.296	80.44
362.523	84.44
362.749	101.44
362.976	88.44
363.203	94.44
363.429	84.44
363.656	93.44
363.882	78.44
364.109	92.44
364.335	98.44
364.562	100.44
364.788	83.44
365.015	87.44
365.241	97.44
365.468	105.44
365.694	94.44
365.92	93.44
366.147	97.44
366.373	84.44
366.599	76.44
366.826	78.44
367.052	80.44
367.278	91.44
367.505	95.44
367.731	85.44
367.957	83.44
368.184	88.44
368.41	88.44
368.636	104.44
368.862	111.44
369.089	108.44
369.315	87.44
369.541	91.44
369.767	91.44
369.993	95.44
370.219	75.44
370.445	97.44
370.672	87.44
370.898	93.44
371.124	79.44
371.35	87.44
371.576	87.44
371.802	92.44
372.028	79.44
372.254	79.44
372.48	79.44
372.706	80.44
372.932	78.44
373.158	76.44
373.384	84.44
373.61	83.44
373.835	83.44
374.061	99.44
374.287	99.44
374.513	78.44
374.739	84.44
374.965	95.44
375.191	85.44
375.416	83.44
375.642	88.44
375.868	97.44
376.094	75.44
376.319	73.44
376.545	80.44
376.771	84.44
376.997	89.44
377.222	87.44
377.448	103.44
377.674	86.44
377.899	99.44
378.125	90.44
378.35	94.44
378.576	85.44
378.802	86.44
379.027	103.44
379.253	107.44
379.478	90.44
379.704	91.44
379.929	99.44
380.155	84.44
380.38	82.44
380.606	85.44
380.831	99.44
381.057	98.44
381.282	97.44
381.507	90.44
381.733	96.44
381.958	87.44
382.184	99.44
382.409	101.44
382.634	93.44
382.86	90.44
383.085	105.44
383.31	108.44
383.535	98.44
383.761	92.44
383.986	104.44
384.211	99.44
384.436	94.44
384.662	85.44
384.887	119.44
385.112	123.44
385.337	101.44
385.562	98.44
385.787	111.44
386.013	109.44
386.238	120.44
386.463	108.44
386.688	106.44
386.913	105.44
387.138	107.44
387.363	111.44
387.588	108.44
387.813	109.44
388.038	107.44
388.263	102.44
388.488	112.44
388.713	91.44
388.938	88.44
389.163	98.44
389.387	111.44
389.612	83.44
389.837	91.44
390.062	91.44
390.287	85.44
390.512	76.44
390.736	87.44
390.961	90.44
391.186	78.44
391.411	94.44
391.636	91.44
391.86	85.44
392.085	91.44
392.31	76.44
392.534	85.44
392.759	99.44
392.984	86.44
393.208	80.44
393.433	84.44
393.658	86.44
393.882	75.44
394.107	78.44
394.331	87.44
394.556	72.44
394.78	84.44
395.005	90.44
395.229	74.44
395.454	90.44
395.678	88.44
395.903	76.44
396.127	96.44
396.352	77.44
396.576	86.44
396.801	88.44
397.025	81.44
397.249	83.44
397.474	81.44
397.698	99.44
397.922	78.44
398.147	80.44
398.371	79.44
398.595	76.44
398.82	88.44
399.044	88.44
399.268	88.44
399.492	67.44
399.717	76.44
399.941	88.44
400.165	95.44
400.389	88.44
400.613	97.44
400.837	85.44
401.062	77.44
401.286	71.44
401.51	84.44
401.734	84.44
401.958	106.44
402.182	129.44
402.406	147.44
402.63	111.44
402.854	87.44
403.078	83.44
403.302	91.44
403.526	86.44
403.75	81.44
403.974	89.44
404.198	83.44
404.422	89.44
404.645	88.44
404.869	96.44
405.093	89.44
405.317	119.44
405.541	98.44
405.765	104.44
405.988	106.44
406.212	169.44
406.436	218.44
406.66	136.44
406.883	112.44
407.107	92.44
407.331	91.44
407.555	89.44
407.778	83.44
408.002	73.44
408.226	93.44
408.449	95.44
408.673	89.44
408.896	95.44
409.12	92.44
409.344	79.44
409.567	87.44
409.791	92.44
410.014	87.44
410.238	94.44
410.461	92.44
410.685	88.44
410.908	96.44
411.132	100.44
411.355	104.44
411.578	87.44
411.802	89.44
412.025	90.44
412.249	99.44
412.472	94.44
412.695	102.44
412.919	91.44
413.142	87.44
413.365	95.44
413.589	81.44
413.812	89.44
414.035	91.44
414.258	81.44
414.482	96.44
414.705	83.44
414.928	96.44
415.151	98.44
415.374	91.44
415.597	99.44
415.821	91.44
416.044	79.44
416.267	90.44
416.49	99.44
416.713	87.44
416.936	99.44
417.159	90.44
417.382	86.44
417.605	88.44
417.828	107.44
418.051	79.44
418.274	85.44
418.497	90.44
418.72	90.44
418.943	92.44
419.166	93.44
419.389	95.44
419.611	86.44
419.834	84.44
420.057	84.44
420.28	84.44
420.503	92.44
420.726	84.44
420.948	73.44
421.171	91.44
421.394	93.44
421.617	90.44
421.839	81.44
422.062	95.44
422.285	92.44
422.507	95.44
422.73	99.44
422.953	93.44
423.175	91.44
423.398	84.44
423.621	83.44
423.843	91.44
424.066	86.44
424.288	80.44
424.511	80.44
424.733	91.44
424.956	106.44
425.178	99.44
425.401	99.44
425.623	78.44
425.846	84.44
426.068	75.44
426.291	105.44
426.513	92.44
426.735	91.44
426.958	82.44
427.18	94.44
427.402	152.44
427.625	163.44
427.847	152.44
428.069	154.44
428.292	98.44
428.514	79.44
428.736	91.44
428.958	84.44
429.181	75.44
429.403	87.44
429.625	79.44
429.847	87.44
430.069	110.44
430.292	88.44
430.514	89.44
430.736	77.44
430.958	72.44
431.18	78.44
431.402	92.44
431.624	104.44
431.846	78.44
432.068	83.44
432.29	87.44
432.512	83.44
432.734	78.44
432.956	75.44
433.178	98.44
433.4	96.44
433.622	81.44
433.844	74.44
434.066	94.44
434.287	101.44
434.509	83.44
434.731	93.44
434.953	84.44
435.175	87.44
435.397	77.44
435.618	89.44
435.84	87.44
436.062	115.44
436.284	104.44
436.505	82.44
436.727	111.44
436.949	81.44
437.17	85.44
437.392	84.44
437.614	87.44
437.835	94.44
438.057	117.44
438.278	109.44
438.5	104.44
438.721	117.44
438.943	103.44
439.165	96.44
439.386	85.44
439.608	84.44
439.829	84.44
440.05	119.44
440.272	161.44
440.493	102.44
440.715	82.44
440.936	96.44
441.158	90.44
441.379	81.44
441.6	82.44
441.822	93.44
442.043	89.44
442.264	92.44
442.486	91.44
442.707	75.44
442.928	101.44
443.149	120.44
443.371	118.44
443.592	112.44
443.813	127.44
444.034	109.44
444.255	82.44
444.476	84.44
444.698	76.44
444.919	77.44
445.14	127.44
445.361	117.44
445.582	115.44
445.803	139.44
446.024	131.44
446.245	131.44
446.466	98.44
446.687	88.44
446.908	82.44
447.129	96.44
447.35	91.44
447.571	105.44
447.792	90.44
448.013	85.44
448.234	99.44
448.455	87.44
448.675	123.44
448.896	127.44
449.117	104.44
449.338	103.44
449.559	144.44
449.779	141.44
450	85.44
450.221	93.44
450.442	79.44
450.662	96.44
450.883	117.44
451.104	125.44
451.324	93.44
451.545	75.44
451.766	95.44
451.986	82.44
452.207	75.44
452.428	85.44
452.648	98.44
452.869	103.44
453.089	109.44
453.31	107.44
453.53	93.44
453.751	82.44
453.971	104.44
454.192	105.44
454.412	96.44
454.633	84.44
454.853	85.44
455.073	79.44
455.294	82.44
455.514	96.44
455.734	106.44
455.955	75.44
456.175	84.44
456.395	88.44
456.616	90.44
456.836	82.44
457.056	83.44
457.276	89.44
457.497	76.44
457.717	76.44
457.937	85.44
458.157	87.44
458.377	67.44
458.598	94.44
458.818	135.44
459.038	176.44
459.258	114.44
459.478	84.44
459.698	87.44
459.918	85.44
460.138	82.44
460.358	83.44
460.578	75.44
460.798	85.44
461.018	82.44
461.238	90.44
461.458	65.44
461.678	88.44
461.898	72.44
462.118	95.44
462.338	98.44
462.558	91.44
462.777	91.44
462.997	83.44
463.217	94.44
463.437	83.44
463.657	90.44
463.876	85.44
464.096	93.44
464.316	92.44
464.536	101.44
464.755	99.44
464.975	101.44
465.195	167.44
465.414	153.44
465.634	96.44
465.854	77.44
466.073	89.44
466.293	80.44
466.512	89.44
466.732	81.44
466.951	97.44
467.171	104.44
467.391	73.44
467.61	106.44
467.829	131.44
468.049	238.44
468.268	297.44
468.488	123.44
468.707	85.44
468.927	91.44
469.146	97.44
469.365	85.44
469.585	95.44
469.804	97.44
470.023	92.44
470.243	102.44
470.462	95.44
470.681	105.44
470.901	87.44
471.12	87.44
471.339	87.44
471.558	80.44
471.777	104.44
471.997	173.44
472.216	393.44
472.435	794.44
472.654	235.44
472.873	122.44
473.092	75.44
473.311	81.44
473.53	91.44
473.749	88.44
473.968	76.44
474.187	95.44
474.406	105.44
474.625	79.44
474.844	96.44
475.063	93.44
475.282	98.44
475.501	91.44
475.72	86.44
475.939	82.44
476.158	95.44
476.377	105.44
476.596	83.44
476.814	101.44
477.033	95.44
477.252	84.44
477.471	91.44
477.69	99.44
477.908	99.44
478.127	90.44
478.346	89.44
478.564	83.44
478.783	78.44
479.002	103.44
479.22	91.44
479.439	105.44
479.658	110.44
479.876	84.44
480.095	98.44
480.313	92.44
480.532	102.44
480.751	147.44
480.969	371.44
481.188	1357.44
481.406	854.44
481.624	187.44
481.843	87.44
482.061	100.44
482.28	107.44
482.498	101.44
482.717	85.44
482.935	87.44
483.153	87.44
483.372	84.44
483.59	95.44
483.808	89.44
484.027	102.44
484.245	82.44
484.463	90.44
484.681	73.44
484.9	87.44
485.118	95.44
485.336	78.44
485.554	106.44
485.772	99.44
485.99	101.44
486.209	99.44
486.427	99.44
486.645	101.44
486.863	120.44
487.081	91.44
487.299	85.44
487.517	92.44
487.735	95.44
487.953	94.44
488.171	99.44
488.389	91.44
488.607	92.44
488.825	89.44
489.043	96.44
489.261	84.44
489.479	84.44
489.696	82.44
489.914	95.44
490.132	78.44
490.35	80.44
490.568	90.44
490.786	76.44
491.003	87.44
491.221	87.44
491.439	86.44
491.657	94.44
491.874	98.44
492.092	88.44
492.31	89.44
492.527	87.44
492.745	85.44
492.963	87.44
493.18	87.44
493.398	99.44
493.615	105.44
493.833	85.44
494.05	75.44
494.268	83.44
494.485	93.44
494.703	92.44
494.92	98.44
495.138	89.44
495.355	82.44
495.573	82.44
495.79	84.44
496.008	92.44
496.225	85.44
496.442	86.44
496.66	104.44
496.877	95.44
497.094	90.44
497.312	84.44
497.529	79.44
497.746	91.44
497.963	98.44
498.181	93.44
498.398	91.44
498.615	108.44
498.832	91.44
499.049	87.44
499.267	95.44
499.484	91.44
499.701	82.44
499.918	104.44
500.135	95.44
500.352	95.44
500.569	88.44
500.786	99.44
501.003	99.44
501.22	93.44
501.437	61.44
501.654	84.44
501.871	105.44
502.088	103.44
502.305	89.44
502.522	89.44
502.739	81.44
502.956	93.44
503.172	93.44
503.389	95.44
503.606	113.44
503.823	82.44
504.04	83.44
504.256	82.44
504.473	80.44
504.69	83.44
504.907	104.44
505.123	91.44
505.34	96.44
505.557	93.44
505.773	72.44
505.99	95.44
506.207	91.44
506.423	87.44
506.64	86.44
506.856	94.44
507.073	86.44
507.289	83.44
507.506	81.44
507.722	83.44
507.939	111.44
508.155	84.44
508.372	96.44
508.588	88.44
508.805	96.44
509.021	99.44
509.238	99.44
509.454	96.44
509.67	92.44
509.887	101.44
510.103	112.44
510.319	196.44
510.536	668.44
510.752	2138.44
510.968	611.44
511.184	129.44
511.401	110.44
511.617	96.44
511.833	95.44
512.049	85.44
512.265	89.44
512.481	88.44
512.698	91.44
512.914	78.44
513.13	84.44
513.346	81.44
513.562	76.44
513.778	94.44
513.994	98.44
514.21	101.44
514.426	116.44
514.642	125.44
514.858	117.44
515.074	164.44
515.29	465.44
515.506	1449.44
515.721	531.44
515.937	167.44
516.153	112.44
