Data from Circ_1990_H10_HRD10591_00063.txt Node
Date: Wed Jan 03 11:55:16 EST 2024
User: Yrep
Spectrometer: HR+D1059
Trigger mode: 1
Integration Time (sec): 1.000000E-1
Scans to average: 1
Electric dark correction enabled: true
Nonlinearity correction enabled: false
Boxcar width: 0
XAxis mode: Wavelengths
Number of Pixels in Spectrum: 2048
>>>>>Begin Spectral Data<<<<<
223.165	-22.25
223.4	-22.25
223.635	-22.25
223.869	-20.25
224.104	-12.25
224.338	-15.25
224.573	-0.25
224.808	-13.25
225.042	-6.25
225.277	-4.25
225.511	-1.25
225.746	-0.25
225.98	-2.25
226.215	13.75
226.449	5.75
226.683	21.75
226.918	21.75
227.152	34.75
227.387	40.75
227.621	23.75
227.856	38.75
228.09	59.75
228.324	44.75
228.559	39.75
228.793	56.75
229.027	57.75
229.262	67.75
229.496	87.75
229.73	89.75
229.964	83.75
230.199	85.75
230.433	69.75
230.667	88.75
230.901	71.75
231.136	84.75
231.37	83.75
231.604	75.75
231.838	75.75
232.072	70.75
232.306	93.75
232.541	89.75
232.775	79.75
233.009	98.75
233.243	73.75
233.477	76.75
233.711	81.75
233.945	67.75
234.179	79.75
234.413	83.75
234.647	97.75
234.881	85.75
235.115	87.75
235.349	85.75
235.583	69.75
235.817	76.75
236.051	71.75
236.285	81.75
236.519	96.75
236.753	72.75
236.987	72.75
237.221	82.75
237.455	83.75
237.689	97.75
237.922	69.75
238.156	75.75
238.39	77.75
238.624	83.75
238.858	92.75
239.091	70.75
239.325	80.75
239.559	76.75
239.793	78.75
240.027	77.75
240.26	68.75
240.494	69.75
240.728	65.75
240.961	70.75
241.195	73.75
241.429	75.75
241.662	70.75
241.896	71.75
242.13	76.75
242.363	81.75
242.597	82.75
242.83	85.75
243.064	73.75
243.298	85.75
243.531	77.75
243.765	79.75
243.998	73.75
244.232	81.75
244.465	75.75
244.699	83.75
244.932	86.75
245.166	76.75
245.399	87.75
245.633	87.75
245.866	81.75
246.099	75.75
246.333	80.75
246.566	73.75
246.8	91.75
247.033	86.75
247.266	72.75
247.5	79.75
247.733	82.75
247.966	77.75
248.2	80.75
248.433	92.75
248.666	80.75
248.899	91.75
249.133	82.75
249.366	108.75
249.599	94.75
249.832	83.75
250.066	91.75
250.299	83.75
250.532	81.75
250.765	81.75
250.998	65.75
251.231	71.75
251.465	85.75
251.698	88.75
251.931	82.75
252.164	83.75
252.397	72.75
252.63	59.75
252.863	78.75
253.096	65.75
253.329	80.75
253.562	77.75
253.795	87.75
254.028	94.75
254.261	75.75
254.494	90.75
254.727	89.75
254.96	91.75
255.193	81.75
255.426	91.75
255.659	83.75
255.892	91.75
256.124	104.75
256.357	92.75
256.59	84.75
256.823	68.75
257.056	94.75
257.289	91.75
257.521	96.75
257.754	91.75
257.987	74.75
258.22	85.75
258.452	108.75
258.685	84.75
258.918	93.75
259.151	92.75
259.383	94.75
259.616	89.75
259.849	89.75
260.081	60.75
260.314	80.75
260.547	84.75
260.779	84.75
261.012	108.75
261.244	116.75
261.477	83.75
261.71	91.75
261.942	119.75
262.175	143.75
262.407	89.75
262.64	86.75
262.872	82.75
263.105	85.75
263.337	87.75
263.57	91.75
263.802	71.75
264.035	89.75
264.267	81.75
264.499	70.75
264.732	71.75
264.964	83.75
265.197	80.75
265.429	75.75
265.661	92.75
265.894	83.75
266.126	83.75
266.358	87.75
266.591	68.75
266.823	73.75
267.055	79.75
267.287	97.75
267.52	80.75
267.752	88.75
267.984	85.75
268.216	87.75
268.448	74.75
268.681	75.75
268.913	97.75
269.145	89.75
269.377	92.75
269.609	73.75
269.841	91.75
270.073	91.75
270.306	93.75
270.538	86.75
270.77	77.75
271.002	77.75
271.234	84.75
271.466	101.75
271.698	78.75
271.93	95.75
272.162	102.75
272.394	81.75
272.626	89.75
272.858	77.75
273.09	89.75
273.322	84.75
273.553	83.75
273.785	75.75
274.017	86.75
274.249	91.75
274.481	73.75
274.713	89.75
274.945	93.75
275.176	88.75
275.408	101.75
275.64	93.75
275.872	116.75
276.104	111.75
276.335	96.75
276.567	102.75
276.799	133.75
277.031	129.75
277.262	153.75
277.494	131.75
277.726	96.75
277.957	108.75
278.189	101.75
278.421	100.75
278.652	70.75
278.884	104.75
279.115	88.75
279.347	90.75
279.579	102.75
279.81	116.75
280.042	139.75
280.273	175.75
280.505	144.75
280.736	89.75
280.968	91.75
281.199	84.75
281.431	93.75
281.662	95.75
281.894	74.75
282.125	106.75
282.356	131.75
282.588	175.75
282.819	119.75
283.051	103.75
283.282	100.75
283.513	92.75
283.745	105.75
283.976	95.75
284.207	80.75
284.439	85.75
284.67	76.75
284.901	94.75
285.132	85.75
285.364	95.75
285.595	103.75
285.826	78.75
286.057	84.75
286.288	86.75
286.52	102.75
286.751	86.75
286.982	81.75
287.213	78.75
287.444	79.75
287.675	87.75
287.906	93.75
288.138	101.75
288.369	93.75
288.6	94.75
288.831	82.75
289.062	100.75
289.293	82.75
289.524	87.75
289.755	87.75
289.986	91.75
290.217	94.75
290.448	91.75
290.679	103.75
290.91	97.75
291.141	80.75
291.371	95.75
291.602	84.75
291.833	84.75
292.064	95.75
292.295	87.75
292.526	92.75
292.757	98.75
292.987	78.75
293.218	78.75
293.449	92.75
293.68	97.75
293.91	101.75
294.141	101.75
294.372	95.75
294.603	87.75
294.833	67.75
295.064	103.75
295.295	86.75
295.525	105.75
295.756	111.75
295.987	120.75
296.217	163.75
296.448	139.75
296.679	104.75
296.909	88.75
297.14	84.75
297.37	93.75
297.601	87.75
297.831	93.75
298.062	99.75
298.292	89.75
298.523	98.75
298.753	76.75
298.984	90.75
299.214	97.75
299.445	101.75
299.675	92.75
299.905	109.75
300.136	100.75
300.366	86.75
300.597	84.75
300.827	101.75
301.057	103.75
301.288	110.75
301.518	109.75
301.748	92.75
301.979	107.75
302.209	102.75
302.439	89.75
302.669	97.75
302.9	91.75
303.13	104.75
303.36	100.75
303.59	111.75
303.82	137.75
304.051	98.75
304.281	95.75
304.511	86.75
304.741	82.75
304.971	80.75
305.201	73.75
305.431	104.75
305.661	85.75
305.891	90.75
306.121	106.75
306.352	119.75
306.582	115.75
306.812	100.75
307.042	92.75
307.272	109.75
307.502	132.75
307.731	140.75
307.961	111.75
308.191	89.75
308.421	88.75
308.651	82.75
308.881	85.75
309.111	104.75
309.341	101.75
309.571	96.75
309.8	97.75
310.03	100.75
310.26	98.75
310.49	109.75
310.72	114.75
310.949	99.75
311.179	115.75
311.409	105.75
311.639	103.75
311.868	100.75
312.098	98.75
312.328	113.75
312.557	102.75
312.787	121.75
313.017	105.75
313.246	96.75
313.476	99.75
313.706	107.75
313.935	98.75
314.165	102.75
314.394	105.75
314.624	111.75
314.853	111.75
315.083	73.75
315.312	107.75
315.542	95.75
315.771	103.75
316.001	95.75
316.23	101.75
316.46	101.75
316.689	84.75
316.919	85.75
317.148	95.75
317.377	93.75
317.607	98.75
317.836	105.75
318.065	99.75
318.295	100.75
318.524	93.75
318.753	97.75
318.983	110.75
319.212	102.75
319.441	114.75
319.67	123.75
319.9	88.75
320.129	90.75
320.358	96.75
320.587	110.75
320.816	107.75
321.046	111.75
321.275	103.75
321.504	104.75
321.733	88.75
321.962	105.75
322.191	111.75
322.42	116.75
322.649	132.75
322.878	108.75
323.108	133.75
323.337	133.75
323.566	142.75
323.795	169.75
324.024	228.75
324.253	425.75
324.482	938.75
324.71	1910.75
324.939	2546.75
325.168	936.75
325.397	260.75
325.626	147.75
325.855	138.75
326.084	139.75
326.313	129.75
326.542	159.75
326.77	239.75
326.999	509.75
327.228	1002.75
327.457	1822.75
327.686	1477.75
327.914	471.75
328.143	375.75
328.372	438.75
328.6	260.75
328.829	151.75
329.058	165.75
329.287	167.75
329.515	143.75
329.744	179.75
329.972	308.75
330.201	584.75
330.43	855.75
330.658	398.75
330.887	231.75
331.115	173.75
331.344	122.75
331.572	123.75
331.801	119.75
332.03	113.75
332.258	115.75
332.486	111.75
332.715	114.75
332.943	105.75
333.172	110.75
333.4	108.75
333.629	135.75
333.857	180.75
334.085	286.75
334.314	568.75
334.542	1051.75
334.771	958.75
334.999	282.75
335.227	127.75
335.455	115.75
335.684	106.75
335.912	103.75
336.14	103.75
336.369	105.75
336.597	109.75
336.825	120.75
337.053	112.75
337.281	100.75
337.51	96.75
337.738	100.75
337.966	108.75
338.194	105.75
338.422	103.75
338.65	104.75
338.878	104.75
339.106	107.75
339.334	95.75
339.562	94.75
339.79	97.75
340.018	96.75
340.246	110.75
340.474	94.75
340.702	102.75
340.93	96.75
341.158	86.75
341.386	101.75
341.614	110.75
341.842	99.75
342.07	101.75
342.298	106.75
342.526	93.75
342.754	91.75
342.981	100.75
343.209	102.75
343.437	88.75
343.665	85.75
343.893	84.75
344.12	103.75
344.348	89.75
344.576	99.75
344.804	104.75
345.031	104.75
345.259	122.75
345.487	95.75
345.714	114.75
345.942	96.75
346.17	96.75
346.397	95.75
346.625	110.75
346.853	96.75
347.08	96.75
347.308	92.75
347.535	111.75
347.763	91.75
347.99	121.75
348.218	108.75
348.445	116.75
348.673	96.75
348.9	99.75
349.128	100.75
349.355	81.75
349.583	91.75
349.81	98.75
350.037	93.75
350.265	109.75
350.492	104.75
350.72	100.75
350.947	105.75
351.174	122.75
351.402	107.75
351.629	112.75
351.856	98.75
352.083	120.75
352.311	126.75
352.538	121.75
352.765	118.75
352.992	122.75
353.22	118.75
353.447	111.75
353.674	101.75
353.901	92.75
354.128	85.75
354.355	92.75
354.583	101.75
354.81	97.75
355.037	94.75
355.264	94.75
355.491	102.75
355.718	88.75
355.945	89.75
356.172	103.75
356.399	100.75
356.626	95.75
356.853	95.75
357.08	96.75
357.307	91.75
357.534	98.75
357.761	91.75
357.988	88.75
358.215	94.75
358.441	96.75
358.668	101.75
358.895	87.75
359.122	81.75
359.349	85.75
359.576	91.75
359.802	112.75
360.029	135.75
360.256	124.75
360.483	120.75
360.709	98.75
360.936	99.75
361.163	104.75
361.39	106.75
361.616	109.75
361.843	94.75
362.07	88.75
362.296	103.75
362.523	93.75
362.749	92.75
362.976	104.75
363.203	98.75
363.429	85.75
363.656	89.75
363.882	97.75
364.109	100.75
364.335	101.75
364.562	83.75
364.788	89.75
365.015	97.75
365.241	105.75
365.468	133.75
365.694	121.75
365.92	117.75
366.147	103.75
366.373	72.75
366.599	102.75
366.826	99.75
367.052	89.75
367.278	90.75
367.505	104.75
367.731	100.75
367.957	82.75
368.184	111.75
368.41	111.75
368.636	129.75
368.862	140.75
369.089	131.75
369.315	89.75
369.541	93.75
369.767	89.75
369.993	111.75
370.219	101.75
370.445	90.75
370.672	92.75
370.898	96.75
371.124	79.75
371.35	92.75
371.576	93.75
371.802	96.75
372.028	100.75
372.254	93.75
372.48	81.75
372.706	96.75
372.932	93.75
373.158	77.75
373.384	92.75
373.61	83.75
373.835	82.75
374.061	87.75
374.287	105.75
374.513	98.75
374.739	92.75
374.965	88.75
375.191	93.75
375.416	99.75
375.642	90.75
375.868	92.75
376.094	92.75
376.319	95.75
376.545	95.75
376.771	96.75
376.997	96.75
377.222	83.75
377.448	87.75
377.674	89.75
377.899	95.75
378.125	91.75
378.35	103.75
378.576	95.75
378.802	84.75
379.027	96.75
379.253	97.75
379.478	100.75
379.704	83.75
379.929	99.75
380.155	99.75
380.38	100.75
380.606	92.75
380.831	87.75
381.057	95.75
381.282	100.75
381.507	109.75
381.733	110.75
381.958	115.75
382.184	91.75
382.409	107.75
382.634	89.75
382.86	91.75
383.085	99.75
383.31	105.75
383.535	87.75
383.761	113.75
383.986	103.75
384.211	99.75
384.436	106.75
384.662	109.75
384.887	97.75
385.112	118.75
385.337	107.75
385.562	119.75
385.787	116.75
386.013	123.75
386.238	124.75
386.463	110.75
386.688	128.75
386.913	115.75
387.138	108.75
387.363	102.75
387.588	115.75
387.813	98.75
388.038	116.75
388.263	114.75
388.488	117.75
388.713	113.75
388.938	74.75
389.163	88.75
389.387	86.75
389.612	96.75
389.837	102.75
390.062	93.75
390.287	91.75
390.512	99.75
390.736	98.75
390.961	86.75
391.186	89.75
391.411	103.75
391.636	108.75
391.86	93.75
392.085	81.75
392.31	105.75
392.534	84.75
392.759	89.75
392.984	97.75
393.208	108.75
393.433	81.75
393.658	99.75
393.882	94.75
394.107	89.75
394.331	85.75
394.556	101.75
394.78	102.75
395.005	92.75
395.229	80.75
395.454	93.75
395.678	95.75
395.903	79.75
396.127	78.75
396.352	94.75
396.576	89.75
396.801	93.75
397.025	91.75
397.249	89.75
397.474	86.75
397.698	87.75
397.922	82.75
398.147	79.75
398.371	93.75
398.595	78.75
398.82	79.75
399.044	81.75
399.268	96.75
399.492	84.75
399.717	104.75
399.941	89.75
400.165	108.75
400.389	87.75
400.613	85.75
400.837	83.75
401.062	85.75
401.286	88.75
401.51	101.75
401.734	94.75
401.958	124.75
402.182	137.75
402.406	195.75
402.63	135.75
402.854	104.75
403.078	109.75
403.302	99.75
403.526	94.75
403.75	91.75
403.974	83.75
404.198	95.75
404.422	90.75
404.645	88.75
404.869	97.75
405.093	111.75
405.317	119.75
405.541	124.75
405.765	108.75
405.988	136.75
406.212	217.75
406.436	305.75
406.66	175.75
406.883	121.75
407.107	91.75
407.331	101.75
407.555	100.75
407.778	118.75
408.002	94.75
408.226	90.75
408.449	87.75
408.673	94.75
408.896	95.75
409.12	97.75
409.344	86.75
409.567	100.75
409.791	93.75
410.014	94.75
410.238	82.75
410.461	78.75
410.685	96.75
410.908	105.75
411.132	120.75
411.355	105.75
411.578	104.75
411.802	85.75
412.025	83.75
412.249	101.75
412.472	117.75
412.695	101.75
412.919	110.75
413.142	91.75
413.365	104.75
413.589	100.75
413.812	95.75
414.035	95.75
414.258	95.75
414.482	91.75
414.705	99.75
414.928	83.75
415.151	91.75
415.374	88.75
415.597	96.75
415.821	91.75
416.044	101.75
416.267	87.75
416.49	92.75
416.713	84.75
416.936	104.75
417.159	99.75
417.382	95.75
417.605	104.75
417.828	123.75
418.051	113.75
418.274	78.75
418.497	112.75
418.72	94.75
418.943	68.75
419.166	84.75
419.389	93.75
419.611	97.75
419.834	95.75
420.057	93.75
420.28	88.75
420.503	98.75
420.726	101.75
420.948	101.75
421.171	100.75
421.394	100.75
421.617	101.75
421.839	98.75
422.062	101.75
422.285	101.75
422.507	99.75
422.73	99.75
422.953	80.75
423.175	91.75
423.398	83.75
423.621	85.75
423.843	98.75
424.066	87.75
424.288	81.75
424.511	103.75
424.733	97.75
424.956	115.75
425.178	102.75
425.401	105.75
425.623	102.75
425.846	87.75
426.068	105.75
426.291	105.75
426.513	101.75
426.735	99.75
426.958	107.75
427.18	117.75
427.402	167.75
427.625	215.75
427.847	186.75
428.069	183.75
428.292	122.75
428.514	86.75
428.736	71.75
428.958	94.75
429.181	93.75
429.403	83.75
429.625	83.75
429.847	98.75
430.069	108.75
430.292	102.75
430.514	87.75
430.736	97.75
430.958	97.75
431.18	76.75
431.402	94.75
431.624	97.75
431.846	85.75
432.068	103.75
432.29	82.75
432.512	87.75
432.734	95.75
432.956	91.75
433.178	102.75
433.4	103.75
433.622	99.75
433.844	100.75
434.066	77.75
434.287	91.75
434.509	82.75
434.731	84.75
434.953	95.75
435.175	81.75
435.397	92.75
435.618	95.75
435.84	116.75
436.062	138.75
436.284	124.75
436.505	106.75
436.727	108.75
436.949	105.75
437.17	87.75
437.392	75.75
437.614	96.75
437.835	105.75
438.057	134.75
438.278	124.75
438.5	120.75
438.721	118.75
438.943	118.75
439.165	104.75
439.386	90.75
439.608	99.75
439.829	105.75
440.05	156.75
440.272	159.75
440.493	95.75
440.715	88.75
440.936	89.75
441.158	95.75
441.379	92.75
441.6	95.75
441.822	75.75
442.043	111.75
442.264	99.75
442.486	106.75
442.707	89.75
442.928	122.75
443.149	149.75
443.371	144.75
443.592	125.75
443.813	123.75
444.034	116.75
444.255	94.75
444.476	99.75
444.698	99.75
444.919	102.75
445.14	136.75
445.361	141.75
445.582	128.75
445.803	157.75
446.024	160.75
446.245	156.75
446.466	127.75
446.687	103.75
446.908	88.75
447.129	97.75
447.35	81.75
447.571	109.75
447.792	97.75
448.013	110.75
448.234	122.75
448.455	116.75
448.675	130.75
448.896	119.75
449.117	119.75
449.338	100.75
449.559	133.75
449.779	127.75
450	89.75
450.221	104.75
450.442	102.75
450.662	110.75
450.883	133.75
451.104	105.75
451.324	102.75
451.545	91.75
451.766	76.75
451.986	90.75
452.207	93.75
452.428	98.75
452.648	109.75
452.869	123.75
453.089	132.75
453.31	140.75
453.53	97.75
453.751	104.75
453.971	110.75
454.192	128.75
454.412	106.75
454.633	88.75
454.853	95.75
455.073	93.75
455.294	86.75
455.514	116.75
455.734	93.75
455.955	88.75
456.175	94.75
456.395	91.75
456.616	97.75
456.836	87.75
457.056	86.75
457.276	61.75
457.497	91.75
457.717	87.75
457.937	96.75
458.157	96.75
458.377	91.75
458.598	127.75
458.818	208.75
459.038	209.75
459.258	126.75
459.478	98.75
459.698	97.75
459.918	85.75
460.138	84.75
460.358	97.75
460.578	102.75
460.798	87.75
461.018	91.75
461.238	86.75
461.458	81.75
461.678	81.75
461.898	88.75
462.118	85.75
462.338	71.75
462.558	89.75
462.777	92.75
462.997	101.75
463.217	91.75
463.437	96.75
463.657	97.75
463.876	96.75
464.096	100.75
464.316	106.75
464.536	93.75
464.755	105.75
464.975	112.75
465.195	220.75
465.414	216.75
465.634	101.75
465.854	93.75
466.073	95.75
466.293	85.75
466.512	87.75
466.732	91.75
466.951	95.75
467.171	93.75
467.391	112.75
467.61	111.75
467.829	160.75
468.049	342.75
468.268	470.75
468.488	164.75
468.707	103.75
468.927	96.75
469.146	93.75
469.365	79.75
469.585	86.75
469.804	114.75
470.023	111.75
470.243	100.75
470.462	110.75
470.681	143.75
470.901	111.75
471.12	101.75
471.339	128.75
471.558	100.75
471.777	136.75
471.997	193.75
472.216	648.75
472.435	1360.75
472.654	360.75
472.873	114.75
473.092	90.75
473.311	95.75
473.53	79.75
473.749	84.75
473.968	108.75
474.187	115.75
474.406	107.75
474.625	89.75
474.844	79.75
475.063	90.75
475.282	88.75
475.501	83.75
475.72	93.75
475.939	87.75
476.158	91.75
476.377	78.75
476.596	87.75
476.814	104.75
477.033	98.75
477.252	99.75
477.471	93.75
477.69	97.75
477.908	85.75
478.127	98.75
478.346	91.75
478.564	105.75
478.783	108.75
479.002	99.75
479.22	107.75
479.439	119.75
479.658	122.75
479.876	112.75
480.095	110.75
480.313	116.75
480.532	128.75
480.751	207.75
480.969	607.75
481.188	2460.75
481.406	1421.75
481.624	245.75
481.843	119.75
482.061	108.75
482.28	90.75
482.498	96.75
482.717	79.75
482.935	89.75
483.153	88.75
483.372	96.75
483.59	97.75
483.808	93.75
484.027	89.75
484.245	76.75
484.463	102.75
484.681	96.75
484.9	78.75
485.118	91.75
485.336	92.75
485.554	98.75
485.772	102.75
485.99	112.75
486.209	115.75
486.427	108.75
486.645	117.75
486.863	126.75
487.081	110.75
487.299	87.75
487.517	101.75
487.735	99.75
487.953	97.75
488.171	97.75
488.389	113.75
488.607	92.75
488.825	95.75
489.043	89.75
489.261	84.75
489.479	98.75
489.696	92.75
489.914	85.75
490.132	87.75
490.35	92.75
490.568	89.75
490.786	93.75
491.003	92.75
491.221	85.75
491.439	94.75
491.657	93.75
491.874	94.75
492.092	95.75
492.31	86.75
492.527	103.75
492.745	75.75
492.963	92.75
493.18	84.75
493.398	96.75
493.615	94.75
493.833	79.75
494.05	87.75
494.268	90.75
494.485	81.75
494.703	87.75
494.92	94.75
495.138	92.75
495.355	105.75
495.573	105.75
495.79	86.75
496.008	84.75
496.225	83.75
496.442	94.75
496.66	100.75
496.877	99.75
497.094	95.75
497.312	95.75
497.529	91.75
497.746	121.75
497.963	116.75
498.181	100.75
498.398	108.75
498.615	127.75
498.832	116.75
499.049	98.75
499.267	96.75
499.484	103.75
499.701	85.75
499.918	103.75
500.135	91.75
500.352	101.75
500.569	88.75
500.786	96.75
501.003	100.75
501.22	96.75
501.437	81.75
501.654	114.75
501.871	118.75
502.088	100.75
502.305	110.75
502.522	91.75
502.739	99.75
502.956	94.75
503.172	91.75
503.389	97.75
503.606	126.75
503.823	109.75
504.04	104.75
504.256	107.75
504.473	85.75
504.69	101.75
504.907	91.75
505.123	79.75
505.34	99.75
505.557	91.75
505.773	85.75
505.99	113.75
506.207	101.75
506.423	97.75
506.64	90.75
506.856	98.75
507.073	103.75
507.289	82.75
507.506	101.75
507.722	124.75
507.939	124.75
508.155	104.75
508.372	105.75
508.588	99.75
508.805	101.75
509.021	89.75
509.238	104.75
509.454	103.75
509.67	109.75
509.887	110.75
510.103	151.75
510.319	237.75
510.536	907.75
510.752	3059.75
510.968	822.75
511.184	163.75
511.401	117.75
511.617	105.75
511.833	98.75
512.049	91.75
512.265	92.75
512.481	97.75
512.698	95.75
