Data from Circ_1990_H10_HRD10591_00074.txt Node
Date: Wed Jan 03 11:55:18 EST 2024
User: Yrep
Spectrometer: HR+D1059
Trigger mode: 1
Integration Time (sec): 1.000000E-1
Scans to average: 1
Electric dark correction enabled: true
Nonlinearity correction enabled: false
Boxcar width: 0
XAxis mode: Wavelengths
Number of Pixels in Spectrum: 2048
>>>>>Begin Spectral Data<<<<<
223.165	-13.69
223.4	-13.69
223.635	-13.69
223.869	-27.69
224.104	-19.69
224.338	-15.69
224.573	-9.69
224.808	0.31
225.042	-15.69
225.277	-11.69
225.511	-8.69
225.746	9.31
225.98	19.31
226.215	5.31
226.449	23.31
226.683	15.31
226.918	26.31
227.152	23.31
227.387	40.31
227.621	49.31
227.856	55.31
228.09	45.31
228.324	59.31
228.559	53.31
228.793	45.31
229.027	70.31
229.262	63.31
229.496	79.31
229.73	74.31
229.964	87.31
230.199	89.31
230.433	75.31
230.667	76.31
230.901	81.31
231.136	87.31
231.37	95.31
231.604	81.31
231.838	93.31
232.072	88.31
232.306	80.31
232.541	65.31
232.775	92.31
233.009	85.31
233.243	76.31
233.477	87.31
233.711	77.31
233.945	85.31
234.179	86.31
234.413	85.31
234.647	86.31
234.881	102.31
235.115	83.31
235.349	90.31
235.583	79.31
235.817	80.31
236.051	87.31
236.285	63.31
236.519	90.31
236.753	70.31
236.987	89.31
237.221	89.31
237.455	92.31
237.689	86.31
237.922	90.31
238.156	76.31
238.39	72.31
238.624	84.31
238.858	73.31
239.091	84.31
239.325	58.31
239.559	69.31
239.793	90.31
240.027	79.31
240.26	97.31
240.494	79.31
240.728	81.31
240.961	77.31
241.195	83.31
241.429	90.31
241.662	83.31
241.896	72.31
242.13	92.31
242.363	82.31
242.597	72.31
242.83	87.31
243.064	73.31
243.298	83.31
243.531	76.31
243.765	74.31
243.998	84.31
244.232	83.31
244.465	89.31
244.699	85.31
244.932	81.31
245.166	63.31
245.399	72.31
245.633	82.31
245.866	84.31
246.099	81.31
246.333	75.31
246.566	84.31
246.8	85.31
247.033	74.31
247.266	90.31
247.5	91.31
247.733	99.31
247.966	74.31
248.2	76.31
248.433	83.31
248.666	83.31
248.899	87.31
249.133	84.31
249.366	114.31
249.599	89.31
249.832	102.31
250.066	87.31
250.299	82.31
250.532	85.31
250.765	94.31
250.998	92.31
251.231	93.31
251.465	71.31
251.698	85.31
251.931	94.31
252.164	82.31
252.397	89.31
252.63	83.31
252.863	82.31
253.096	85.31
253.329	69.31
253.562	87.31
253.795	104.31
254.028	94.31
254.261	88.31
254.494	72.31
254.727	107.31
254.96	82.31
255.193	91.31
255.426	90.31
255.659	84.31
255.892	88.31
256.124	93.31
256.357	93.31
256.59	82.31
256.823	83.31
257.056	88.31
257.289	73.31
257.521	93.31
257.754	78.31
257.987	79.31
258.22	93.31
258.452	91.31
258.685	94.31
258.918	89.31
259.151	84.31
259.383	76.31
259.616	81.31
259.849	85.31
260.081	85.31
260.314	83.31
260.547	97.31
260.779	101.31
261.012	100.31
261.244	89.31
261.477	101.31
261.71	93.31
261.942	124.31
262.175	113.31
262.407	98.31
262.64	96.31
262.872	97.31
263.105	82.31
263.337	81.31
263.57	91.31
263.802	95.31
264.035	83.31
264.267	87.31
264.499	99.31
264.732	96.31
264.964	75.31
265.197	89.31
265.429	82.31
265.661	72.31
265.894	90.31
266.126	100.31
266.358	75.31
266.591	84.31
266.823	100.31
267.055	80.31
267.287	88.31
267.52	91.31
267.752	97.31
267.984	83.31
268.216	91.31
268.448	91.31
268.681	100.31
268.913	98.31
269.145	101.31
269.377	88.31
269.609	101.31
269.841	89.31
270.073	102.31
270.306	92.31
270.538	97.31
270.77	79.31
271.002	91.31
271.234	82.31
271.466	90.31
271.698	93.31
271.93	97.31
272.162	83.31
272.394	90.31
272.626	73.31
272.858	57.31
273.09	80.31
273.322	87.31
273.553	89.31
273.785	105.31
274.017	96.31
274.249	79.31
274.481	78.31
274.713	99.31
274.945	72.31
275.176	81.31
275.408	98.31
275.64	110.31
275.872	104.31
276.104	92.31
276.335	92.31
276.567	108.31
276.799	128.31
277.031	120.31
277.262	136.31
277.494	113.31
277.726	92.31
277.957	90.31
278.189	94.31
278.421	102.31
278.652	98.31
278.884	101.31
279.115	100.31
279.347	98.31
279.579	92.31
279.81	100.31
280.042	131.31
280.273	133.31
280.505	124.31
280.736	104.31
280.968	96.31
281.199	91.31
281.431	90.31
281.662	90.31
281.894	106.31
282.125	102.31
282.356	122.31
282.588	159.31
282.819	136.31
283.051	96.31
283.282	86.31
283.513	90.31
283.745	92.31
283.976	95.31
284.207	99.31
284.439	97.31
284.67	94.31
284.901	76.31
285.132	95.31
285.364	85.31
285.595	90.31
285.826	90.31
286.057	97.31
286.288	88.31
286.52	91.31
286.751	86.31
286.982	85.31
287.213	83.31
287.444	98.31
287.675	91.31
287.906	101.31
288.138	95.31
288.369	110.31
288.6	86.31
288.831	104.31
289.062	107.31
289.293	110.31
289.524	82.31
289.755	85.31
289.986	94.31
290.217	92.31
290.448	92.31
290.679	98.31
290.91	100.31
291.141	96.31
291.371	93.31
291.602	93.31
291.833	80.31
292.064	84.31
292.295	93.31
292.526	96.31
292.757	93.31
292.987	91.31
293.218	101.31
293.449	80.31
293.68	95.31
293.91	110.31
294.141	95.31
294.372	96.31
294.603	84.31
294.833	93.31
295.064	98.31
295.295	94.31
295.525	99.31
295.756	102.31
295.987	114.31
296.217	122.31
296.448	119.31
296.679	95.31
296.909	90.31
297.14	92.31
297.37	91.31
297.601	89.31
297.831	98.31
298.062	96.31
298.292	109.31
298.523	103.31
298.753	87.31
298.984	86.31
299.214	82.31
299.445	93.31
299.675	100.31
299.905	100.31
300.136	99.31
300.366	91.31
300.597	107.31
300.827	95.31
301.057	98.31
301.288	108.31
301.518	98.31
301.748	103.31
301.979	113.31
302.209	99.31
302.439	92.31
302.669	94.31
302.9	94.31
303.13	92.31
303.36	112.31
303.59	109.31
303.82	113.31
304.051	101.31
304.281	100.31
304.511	106.31
304.741	97.31
304.971	98.31
305.201	101.31
305.431	98.31
305.661	97.31
305.891	97.31
306.121	99.31
306.352	124.31
306.582	109.31
306.812	103.31
307.042	97.31
307.272	115.31
307.502	120.31
307.731	135.31
307.961	116.31
308.191	104.31
308.421	99.31
308.651	94.31
308.881	87.31
309.111	96.31
309.341	96.31
309.571	102.31
309.8	122.31
310.03	113.31
310.26	106.31
310.49	99.31
310.72	94.31
310.949	100.31
311.179	100.31
311.409	86.31
311.639	89.31
311.868	103.31
312.098	104.31
312.328	87.31
312.557	106.31
312.787	105.31
313.017	96.31
313.246	109.31
313.476	96.31
313.706	103.31
313.935	90.31
314.165	92.31
314.394	103.31
314.624	97.31
314.853	107.31
315.083	93.31
315.312	103.31
315.542	103.31
315.771	88.31
316.001	97.31
316.23	92.31
316.46	90.31
316.689	102.31
316.919	92.31
317.148	89.31
317.377	106.31
317.607	96.31
317.836	108.31
318.065	95.31
318.295	105.31
318.524	95.31
318.753	83.31
318.983	91.31
319.212	97.31
319.441	109.31
319.67	118.31
319.9	95.31
320.129	101.31
320.358	102.31
320.587	105.31
320.816	107.31
321.046	115.31
321.275	93.31
321.504	93.31
321.733	90.31
321.962	96.31
322.191	115.31
322.42	112.31
322.649	110.31
322.878	108.31
323.108	122.31
323.337	128.31
323.566	127.31
323.795	168.31
324.024	223.31
324.253	410.31
324.482	858.31
324.71	1733.31
324.939	2317.31
325.168	855.31
325.397	260.31
325.626	165.31
325.855	139.31
326.084	134.31
326.313	133.31
326.542	173.31
326.77	240.31
326.999	461.31
327.228	961.31
327.457	1764.31
327.686	1414.31
327.914	444.31
328.143	292.31
328.372	337.31
328.6	207.31
328.829	155.31
329.058	158.31
329.287	167.31
329.515	141.31
329.744	168.31
329.972	261.31
330.201	434.31
330.43	631.31
330.658	307.31
330.887	193.31
331.115	159.31
331.344	123.31
331.572	115.31
331.801	120.31
332.03	113.31
332.258	111.31
332.486	124.31
332.715	94.31
332.943	112.31
333.172	96.31
333.4	113.31
333.629	123.31
333.857	168.31
334.085	237.31
334.314	425.31
334.542	805.31
334.771	740.31
334.999	229.31
335.227	139.31
335.455	115.31
335.684	105.31
335.912	118.31
336.14	114.31
336.369	102.31
336.597	100.31
336.825	101.31
337.053	95.31
337.281	103.31
337.51	96.31
337.738	106.31
337.966	80.31
338.194	112.31
338.422	114.31
338.65	95.31
338.878	114.31
339.106	98.31
339.334	101.31
339.562	105.31
339.79	88.31
340.018	98.31
340.246	110.31
340.474	106.31
340.702	109.31
340.93	83.31
341.158	113.31
341.386	95.31
341.614	103.31
341.842	112.31
342.07	91.31
342.298	97.31
342.526	95.31
342.754	91.31
342.981	83.31
343.209	81.31
343.437	93.31
343.665	89.31
343.893	96.31
344.12	99.31
344.348	91.31
344.576	93.31
344.804	98.31
345.031	109.31
345.259	109.31
345.487	111.31
345.714	106.31
345.942	92.31
346.17	82.31
346.397	99.31
346.625	99.31
346.853	112.31
347.08	96.31
347.308	99.31
347.535	109.31
347.763	104.31
347.99	97.31
348.218	97.31
348.445	121.31
348.673	120.31
348.9	105.31
349.128	100.31
349.355	87.31
349.583	93.31
349.81	98.31
350.037	102.31
350.265	100.31
350.492	98.31
350.72	100.31
350.947	104.31
351.174	105.31
351.402	125.31
351.629	108.31
351.856	101.31
352.083	106.31
352.311	119.31
352.538	112.31
352.765	114.31
352.992	130.31
353.22	126.31
353.447	118.31
353.674	116.31
353.901	107.31
354.128	102.31
354.355	100.31
354.583	96.31
354.81	107.31
355.037	96.31
355.264	85.31
355.491	102.31
355.718	97.31
355.945	100.31
356.172	103.31
356.399	106.31
356.626	108.31
356.853	96.31
357.08	94.31
357.307	85.31
357.534	100.31
357.761	96.31
357.988	86.31
358.215	101.31
358.441	103.31
358.668	99.31
358.895	100.31
359.122	96.31
359.349	89.31
359.576	89.31
359.802	116.31
360.029	131.31
360.256	120.31
360.483	108.31
360.709	96.31
360.936	101.31
361.163	115.31
361.39	94.31
361.616	104.31
361.843	99.31
362.07	107.31
362.296	121.31
362.523	84.31
362.749	93.31
362.976	106.31
363.203	98.31
363.429	96.31
363.656	92.31
363.882	103.31
364.109	93.31
364.335	97.31
364.562	100.31
364.788	105.31
365.015	107.31
365.241	124.31
365.468	110.31
365.694	107.31
365.92	111.31
366.147	91.31
366.373	113.31
366.599	106.31
366.826	85.31
367.052	102.31
367.278	84.31
367.505	97.31
367.731	100.31
367.957	95.31
368.184	106.31
368.41	100.31
368.636	106.31
368.862	134.31
369.089	116.31
369.315	115.31
369.541	88.31
369.767	96.31
369.993	101.31
370.219	96.31
370.445	100.31
370.672	98.31
370.898	82.31
371.124	84.31
371.35	96.31
371.576	91.31
371.802	92.31
372.028	101.31
372.254	98.31
372.48	85.31
372.706	85.31
372.932	85.31
373.158	92.31
373.384	86.31
373.61	93.31
373.835	88.31
374.061	106.31
374.287	91.31
374.513	90.31
374.739	95.31
374.965	100.31
375.191	89.31
375.416	106.31
375.642	95.31
375.868	96.31
376.094	100.31
376.319	101.31
376.545	95.31
376.771	91.31
376.997	108.31
377.222	102.31
377.448	102.31
377.674	88.31
377.899	96.31
378.125	85.31
378.35	97.31
378.576	93.31
378.802	88.31
379.027	99.31
379.253	100.31
379.478	103.31
379.704	100.31
379.929	105.31
380.155	123.31
380.38	101.31
380.606	92.31
380.831	106.31
381.057	109.31
381.282	105.31
381.507	121.31
381.733	114.31
381.958	99.31
382.184	110.31
382.409	113.31
382.634	121.31
382.86	105.31
383.085	111.31
383.31	104.31
383.535	97.31
383.761	106.31
383.986	111.31
384.211	97.31
384.436	114.31
384.662	97.31
384.887	108.31
385.112	113.31
385.337	111.31
385.562	104.31
385.787	118.31
386.013	114.31
386.238	124.31
386.463	108.31
386.688	128.31
386.913	112.31
387.138	109.31
387.363	101.31
387.588	103.31
387.813	103.31
388.038	121.31
388.263	132.31
388.488	117.31
388.713	104.31
388.938	92.31
389.163	106.31
389.387	101.31
389.612	95.31
389.837	88.31
390.062	86.31
390.287	102.31
390.512	96.31
390.736	86.31
390.961	76.31
391.186	92.31
391.411	91.31
391.636	95.31
391.86	83.31
392.085	95.31
392.31	106.31
392.534	83.31
392.759	81.31
392.984	76.31
393.208	84.31
393.433	96.31
393.658	112.31
393.882	95.31
394.107	90.31
394.331	95.31
394.556	90.31
394.78	95.31
395.005	91.31
395.229	91.31
395.454	101.31
395.678	103.31
395.903	89.31
396.127	96.31
396.352	98.31
396.576	97.31
396.801	98.31
397.025	93.31
397.249	100.31
397.474	92.31
397.698	89.31
397.922	98.31
398.147	109.31
398.371	100.31
398.595	100.31
398.82	84.31
399.044	99.31
399.268	86.31
399.492	106.31
399.717	88.31
399.941	103.31
400.165	102.31
400.389	97.31
400.613	90.31
400.837	82.31
401.062	81.31
401.286	73.31
401.51	93.31
401.734	108.31
401.958	119.31
402.182	139.31
402.406	164.31
402.63	132.31
402.854	98.31
403.078	94.31
403.302	79.31
403.526	90.31
403.75	89.31
403.974	90.31
404.198	103.31
404.422	89.31
404.645	89.31
404.869	114.31
405.093	109.31
405.317	132.31
405.541	126.31
405.765	103.31
405.988	106.31
406.212	180.31
406.436	252.31
406.66	156.31
406.883	105.31
407.107	92.31
407.331	109.31
407.555	113.31
407.778	100.31
408.002	100.31
408.226	102.31
408.449	97.31
408.673	85.31
408.896	106.31
409.12	100.31
409.344	101.31
409.567	90.31
409.791	92.31
410.014	98.31
410.238	97.31
410.461	104.31
410.685	82.31
410.908	96.31
411.132	103.31
411.355	98.31
411.578	95.31
411.802	109.31
412.025	91.31
412.249	91.31
412.472	105.31
412.695	126.31
412.919	93.31
413.142	90.31
413.365	104.31
413.589	86.31
413.812	93.31
414.035	97.31
414.258	96.31
414.482	96.31
414.705	88.31
414.928	96.31
415.151	112.31
415.374	96.31
415.597	112.31
415.821	81.31
416.044	79.31
416.267	100.31
416.49	91.31
416.713	85.31
416.936	81.31
417.159	90.31
417.382	102.31
417.605	79.31
417.828	102.31
418.051	86.31
418.274	95.31
418.497	91.31
418.72	87.31
418.943	73.31
419.166	100.31
419.389	89.31
419.611	86.31
419.834	107.31
420.057	89.31
420.28	85.31
420.503	82.31
420.726	98.31
420.948	90.31
421.171	104.31
421.394	92.31
421.617	103.31
421.839	92.31
422.062	86.31
422.285	76.31
422.507	106.31
422.73	113.31
422.953	92.31
423.175	99.31
423.398	95.31
423.621	99.31
423.843	98.31
424.066	85.31
424.288	104.31
424.511	98.31
424.733	105.31
424.956	108.31
425.178	99.31
425.401	129.31
425.623	91.31
425.846	98.31
426.068	102.31
426.291	97.31
426.513	103.31
426.735	102.31
426.958	103.31
427.18	107.31
427.402	169.31
427.625	200.31
427.847	172.31
428.069	183.31
428.292	99.31
428.514	86.31
428.736	80.31
428.958	97.31
429.181	97.31
429.403	90.31
429.625	83.31
429.847	95.31
430.069	102.31
430.292	92.31
430.514	101.31
430.736	93.31
430.958	74.31
431.18	81.31
431.402	88.31
431.624	102.31
431.846	93.31
432.068	89.31
432.29	94.31
432.512	102.31
432.734	87.31
432.956	101.31
433.178	106.31
433.4	101.31
433.622	88.31
433.844	96.31
434.066	89.31
434.287	96.31
434.509	88.31
434.731	88.31
434.953	111.31
435.175	106.31
435.397	96.31
435.618	99.31
435.84	110.31
436.062	122.31
436.284	116.31
436.505	108.31
436.727	108.31
436.949	90.31
437.17	96.31
437.392	103.31
437.614	98.31
437.835	105.31
438.057	123.31
438.278	125.31
438.5	98.31
438.721	145.31
438.943	109.31
439.165	95.31
439.386	96.31
439.608	83.31
439.829	102.31
440.05	142.31
440.272	169.31
440.493	110.31
440.715	79.31
440.936	104.31
441.158	106.31
441.379	89.31
441.6	103.31
441.822	90.31
442.043	87.31
442.264	115.31
442.486	104.31
442.707	109.31
442.928	119.31
443.149	133.31
443.371	129.31
443.592	111.31
443.813	128.31
444.034	119.31
444.255	85.31
444.476	85.31
444.698	91.31
444.919	95.31
445.14	143.31
445.361	134.31
445.582	115.31
445.803	160.31
446.024	157.31
446.245	163.31
446.466	119.31
446.687	87.31
446.908	104.31
447.129	101.31
447.35	92.31
447.571	95.31
447.792	97.31
448.013	110.31
448.234	111.31
448.455	107.31
448.675	130.31
448.896	135.31
449.117	104.31
449.338	100.31
449.559	139.31
449.779	144.31
450	100.31
450.221	84.31
450.442	83.31
450.662	93.31
450.883	105.31
451.104	131.31
451.324	92.31
451.545	105.31
451.766	84.31
451.986	92.31
452.207	93.31
452.428	104.31
452.648	102.31
452.869	131.31
453.089	132.31
453.31	123.31
453.53	91.31
453.751	99.31
453.971	100.31
454.192	125.31
454.412	103.31
454.633	87.31
454.853	102.31
455.073	86.31
455.294	80.31
455.514	79.31
455.734	100.31
455.955	74.31
456.175	87.31
456.395	91.31
456.616	85.31
456.836	88.31
457.056	89.31
457.276	89.31
457.497	89.31
457.717	97.31
457.937	91.31
458.157	84.31
458.377	108.31
458.598	115.31
458.818	157.31
459.038	184.31
459.258	103.31
459.478	90.31
459.698	95.31
459.918	102.31
460.138	95.31
460.358	94.31
460.578	85.31
460.798	96.31
461.018	84.31
461.238	94.31
461.458	105.31
461.678	82.31
461.898	99.31
462.118	93.31
462.338	86.31
462.558	87.31
462.777	93.31
462.997	96.31
463.217	92.31
463.437	84.31
463.657	88.31
463.876	88.31
464.096	91.31
464.316	104.31
464.536	107.31
464.755	102.31
464.975	104.31
465.195	185.31
465.414	175.31
465.634	101.31
465.854	97.31
466.073	91.31
466.293	99.31
466.512	86.31
466.732	104.31
466.951	95.31
467.171	90.31
467.391	93.31
467.61	125.31
467.829	143.31
468.049	279.31
468.268	362.31
468.488	141.31
468.707	101.31
468.927	97.31
469.146	88.31
469.365	102.31
469.585	86.31
469.804	106.31
470.023	103.31
470.243	105.31
470.462	107.31
470.681	125.31
470.901	104.31
471.12	94.31
471.339	109.31
471.558	109.31
471.777	124.31
471.997	177.31
472.216	506.31
472.435	1043.31
472.654	280.31
472.873	134.31
473.092	101.31
473.311	89.31
473.53	93.31
473.749	94.31
473.968	104.31
474.187	118.31
474.406	100.31
474.625	91.31
474.844	94.31
475.063	81.31
475.282	93.31
475.501	93.31
475.72	93.31
475.939	91.31
476.158	94.31
476.377	90.31
476.596	83.31
476.814	91.31
477.033	91.31
477.252	88.31
477.471	100.31
477.69	90.31
477.908	89.31
478.127	106.31
478.346	93.31
478.564	109.31
478.783	100.31
479.002	101.31
479.22	113.31
479.439	112.31
479.658	132.31
479.876	93.31
480.095	107.31
480.313	94.31
480.532	110.31
480.751	171.31
480.969	491.31
481.188	1853.31
481.406	1091.31
481.624	213.31
481.843	108.31
482.061	101.31
482.28	86.31
482.498	97.31
482.717	78.31
482.935	99.31
483.153	106.31
483.372	91.31
483.59	80.31
483.808	108.31
484.027	100.31
484.245	93.31
484.463	97.31
484.681	91.31
484.9	99.31
485.118	96.31
485.336	109.31
485.554	97.31
485.772	105.31
485.99	92.31
486.209	113.31
486.427	116.31
486.645	122.31
486.863	125.31
487.081	115.31
487.299	92.31
487.517	99.31
487.735	104.31
487.953	95.31
488.171	94.31
488.389	101.31
488.607	101.31
488.825	96.31
489.043	102.31
489.261	98.31
489.479	87.31
489.696	105.31
489.914	80.31
490.132	87.31
490.35	93.31
490.568	96.31
490.786	98.31
491.003	91.31
491.221	86.31
491.439	104.31
491.657	95.31
491.874	85.31
492.092	107.31
492.31	96.31
492.527	101.31
492.745	91.31
492.963	107.31
493.18	95.31
493.398	95.31
493.615	103.31
493.833	98.31
494.05	91.31
494.268	97.31
494.485	103.31
494.703	94.31
494.92	93.31
495.138	99.31
495.355	103.31
495.573	102.31
495.79	93.31
496.008	90.31
496.225	91.31
496.442	86.31
496.66	109.31
496.877	102.31
497.094	106.31
497.312	97.31
497.529	89.31
497.746	99.31
497.963	84.31
498.181	110.31
498.398	97.31
498.615	90.31
498.832	108.31
499.049	83.31
499.267	99.31
499.484	94.31
499.701	94.31
499.918	89.31
500.135	99.31
500.352	89.31
500.569	89.31
500.786	90.31
501.003	96.31
501.22	83.31
501.437	91.31
501.654	103.31
501.871	128.31
502.088	92.31
502.305	88.31
502.522	105.31
502.739	100.31
502.956	96.31
503.172	100.31
503.389	102.31
503.606	107.31
503.823	101.31
504.04	94.31
504.256	99.31
504.473	89.31
504.69	77.31
504.907	96.31
505.123	103.31
505.34	99.31
505.557	91.31
505.773	105.31
505.99	100.31
506.207	97.31
506.423	99.31
506.64	84.31
506.856	92.31
507.073	97.31
507.289	92.31
507.506	96.31
507.722	123.31
507.939	115.31
508.155	102.31
508.372	87.31
508.588	90.31
508.805	110.31
509.021	91.31
509.238	102.31
509.454	93.31
509.67	102.31
509.887	106.31
510.103	118.31
510.319	228.31
510.536	696.31
510.752	2201.31
510.968	620.31
511.184	161.31
511.401	105.31
511.617	96.31
511.833	110.31
512.049	97.31
512.265	83.31
