Data from Circ_1990_H10_HRD10591_00094.txt Node
Date: Wed Jan 03 11:55:22 EST 2024
User: Yrep
Spectrometer: HR+D1059
Trigger mode: 1
Integration Time (sec): 1.000000E-1
Scans to average: 1
Electric dark correction enabled: true
Nonlinearity correction enabled: false
Boxcar width: 0
XAxis mode: Wavelengths
Number of Pixels in Spectrum: 2048
>>>>>Begin Spectral Data<<<<<
223.165	-15.56
223.4	-15.56
223.635	-15.56
223.869	-17.56
224.104	-8.56
224.338	-0.56
224.573	-22.56
224.808	-10.56
225.042	-9.56
225.277	-8.56
225.511	-5.56
225.746	6.44
225.98	4.44
226.215	10.44
226.449	0.44
226.683	18.44
226.918	26.44
227.152	32.44
227.387	49.44
227.621	46.44
227.856	55.44
228.09	67.44
228.324	53.44
228.559	65.44
228.793	61.44
229.027	71.44
229.262	71.44
229.496	78.44
229.73	94.44
229.964	90.44
230.199	77.44
230.433	79.44
230.667	81.44
230.901	77.44
231.136	70.44
231.37	88.44
231.604	77.44
231.838	68.44
232.072	98.44
232.306	75.44
232.541	101.44
232.775	98.44
233.009	95.44
233.243	90.44
233.477	83.44
233.711	70.44
233.945	65.44
234.179	79.44
234.413	84.44
234.647	76.44
234.881	86.44
235.115	72.44
235.349	84.44
235.583	71.44
235.817	78.44
236.051	79.44
236.285	79.44
236.519	77.44
236.753	71.44
236.987	70.44
237.221	91.44
237.455	100.44
237.689	74.44
237.922	91.44
238.156	82.44
238.39	73.44
238.624	74.44
238.858	87.44
239.091	81.44
239.325	79.44
239.559	99.44
239.793	83.44
240.027	82.44
240.26	74.44
240.494	77.44
240.728	82.44
240.961	72.44
241.195	85.44
241.429	81.44
241.662	82.44
241.896	90.44
242.13	71.44
242.363	79.44
242.597	76.44
242.83	81.44
243.064	78.44
243.298	67.44
243.531	73.44
243.765	87.44
243.998	102.44
244.232	89.44
244.465	75.44
244.699	83.44
244.932	83.44
245.166	87.44
245.399	74.44
245.633	89.44
245.866	69.44
246.099	83.44
246.333	77.44
246.566	91.44
246.8	77.44
247.033	99.44
247.266	68.44
247.5	91.44
247.733	77.44
247.966	94.44
248.2	84.44
248.433	61.44
248.666	80.44
248.899	98.44
249.133	89.44
249.366	103.44
249.599	101.44
249.832	92.44
250.066	88.44
250.299	86.44
250.532	87.44
250.765	91.44
250.998	96.44
251.231	75.44
251.465	77.44
251.698	81.44
251.931	89.44
252.164	93.44
252.397	82.44
252.63	79.44
252.863	97.44
253.096	93.44
253.329	95.44
253.562	81.44
253.795	82.44
254.028	90.44
254.261	80.44
254.494	86.44
254.727	62.44
254.96	79.44
255.193	77.44
255.426	94.44
255.659	90.44
255.892	94.44
256.124	87.44
256.357	74.44
256.59	86.44
256.823	96.44
257.056	95.44
257.289	77.44
257.521	78.44
257.754	91.44
257.987	86.44
258.22	84.44
258.452	87.44
258.685	99.44
258.918	94.44
259.151	95.44
259.383	93.44
259.616	84.44
259.849	84.44
260.081	87.44
260.314	89.44
260.547	99.44
260.779	90.44
261.012	99.44
261.244	114.44
261.477	87.44
261.71	96.44
261.942	116.44
262.175	128.44
262.407	85.44
262.64	99.44
262.872	80.44
263.105	93.44
263.337	79.44
263.57	91.44
263.802	88.44
264.035	88.44
264.267	87.44
264.499	87.44
264.732	98.44
264.964	84.44
265.197	89.44
265.429	75.44
265.661	97.44
265.894	82.44
266.126	101.44
266.358	97.44
266.591	82.44
266.823	91.44
267.055	75.44
267.287	94.44
267.52	93.44
267.752	94.44
267.984	93.44
268.216	91.44
268.448	89.44
268.681	95.44
268.913	79.44
269.145	80.44
269.377	89.44
269.609	98.44
269.841	84.44
270.073	91.44
270.306	84.44
270.538	100.44
270.77	77.44
271.002	91.44
271.234	86.44
271.466	101.44
271.698	85.44
271.93	87.44
272.162	101.44
272.394	77.44
272.626	68.44
272.858	103.44
273.09	84.44
273.322	83.44
273.553	102.44
273.785	97.44
274.017	79.44
274.249	83.44
274.481	86.44
274.713	88.44
274.945	98.44
275.176	90.44
275.408	94.44
275.64	108.44
275.872	97.44
276.104	112.44
276.335	88.44
276.567	126.44
276.799	126.44
277.031	149.44
277.262	145.44
277.494	112.44
277.726	99.44
277.957	94.44
278.189	99.44
278.421	89.44
278.652	90.44
278.884	99.44
279.115	90.44
279.347	87.44
279.579	90.44
279.81	99.44
280.042	125.44
280.273	164.44
280.505	134.44
280.736	96.44
280.968	103.44
281.199	104.44
281.431	99.44
281.662	88.44
281.894	86.44
282.125	97.44
282.356	125.44
282.588	164.44
282.819	138.44
283.051	94.44
283.282	83.44
283.513	85.44
283.745	93.44
283.976	92.44
284.207	92.44
284.439	89.44
284.67	102.44
284.901	98.44
285.132	93.44
285.364	90.44
285.595	96.44
285.826	105.44
286.057	98.44
286.288	89.44
286.52	86.44
286.751	89.44
286.982	95.44
287.213	89.44
287.444	77.44
287.675	96.44
287.906	98.44
288.138	83.44
288.369	98.44
288.6	95.44
288.831	86.44
289.062	81.44
289.293	90.44
289.524	83.44
289.755	85.44
289.986	91.44
290.217	91.44
290.448	90.44
290.679	97.44
290.91	97.44
291.141	95.44
291.371	91.44
291.602	70.44
291.833	85.44
292.064	85.44
292.295	99.44
292.526	93.44
292.757	85.44
292.987	88.44
293.218	97.44
293.449	88.44
293.68	88.44
293.91	89.44
294.141	96.44
294.372	82.44
294.603	93.44
294.833	91.44
295.064	82.44
295.295	95.44
295.525	113.44
295.756	98.44
295.987	127.44
296.217	164.44
296.448	138.44
296.679	101.44
296.909	97.44
297.14	79.44
297.37	95.44
297.601	96.44
297.831	93.44
298.062	93.44
298.292	91.44
298.523	88.44
298.753	100.44
298.984	95.44
299.214	107.44
299.445	89.44
299.675	107.44
299.905	101.44
300.136	95.44
300.366	94.44
300.597	94.44
300.827	99.44
301.057	81.44
301.288	111.44
301.518	86.44
301.748	94.44
301.979	103.44
302.209	104.44
302.439	98.44
302.669	94.44
302.9	100.44
303.13	91.44
303.36	98.44
303.59	117.44
303.82	138.44
304.051	101.44
304.281	86.44
304.511	99.44
304.741	93.44
304.971	96.44
305.201	109.44
305.431	93.44
305.661	97.44
305.891	90.44
306.121	101.44
306.352	97.44
306.582	106.44
306.812	112.44
307.042	113.44
307.272	132.44
307.502	149.44
307.731	147.44
307.961	122.44
308.191	109.44
308.421	101.44
308.651	110.44
308.881	92.44
309.111	102.44
309.341	99.44
309.571	105.44
309.8	90.44
310.03	110.44
310.26	100.44
310.49	105.44
310.72	91.44
310.949	125.44
311.179	110.44
311.409	107.44
311.639	93.44
311.868	95.44
312.098	104.44
312.328	104.44
312.557	107.44
312.787	122.44
313.017	105.44
313.246	100.44
313.476	88.44
313.706	106.44
313.935	106.44
314.165	118.44
314.394	110.44
314.624	103.44
314.853	97.44
315.083	110.44
315.312	94.44
315.542	96.44
315.771	111.44
316.001	97.44
316.23	86.44
316.46	99.44
316.689	88.44
316.919	96.44
317.148	105.44
317.377	98.44
317.607	86.44
317.836	106.44
318.065	107.44
318.295	89.44
318.524	87.44
318.753	85.44
318.983	95.44
319.212	99.44
319.441	118.44
319.67	106.44
319.9	101.44
320.129	90.44
320.358	94.44
320.587	92.44
320.816	101.44
321.046	111.44
321.275	107.44
321.504	97.44
321.733	105.44
321.962	97.44
322.191	105.44
322.42	111.44
322.649	100.44
322.878	106.44
323.108	141.44
323.337	139.44
323.566	138.44
323.795	170.44
324.024	233.44
324.253	445.44
324.482	921.44
324.71	1970.44
324.939	2688.44
325.168	970.44
325.397	294.44
325.626	174.44
325.855	145.44
326.084	145.44
326.313	152.44
326.542	182.44
326.77	260.44
326.999	512.44
327.228	1037.44
327.457	1977.44
327.686	1637.44
327.914	502.44
328.143	356.44
328.372	405.44
328.6	264.44
328.829	169.44
329.058	166.44
329.287	192.44
329.515	154.44
329.744	207.44
329.972	305.44
330.201	583.44
330.43	824.44
330.658	377.44
330.887	231.44
331.115	182.44
331.344	131.44
331.572	127.44
331.801	129.44
332.03	120.44
332.258	108.44
332.486	121.44
332.715	113.44
332.943	114.44
333.172	137.44
333.4	117.44
333.629	149.44
333.857	181.44
334.085	281.44
334.314	547.44
334.542	1048.44
334.771	989.44
334.999	288.44
335.227	142.44
335.455	117.44
335.684	118.44
335.912	114.44
336.14	107.44
336.369	109.44
336.597	118.44
336.825	117.44
337.053	86.44
337.281	107.44
337.51	97.44
337.738	107.44
337.966	106.44
338.194	122.44
338.422	103.44
338.65	101.44
338.878	105.44
339.106	96.44
339.334	86.44
339.562	104.44
339.79	97.44
340.018	91.44
340.246	91.44
340.474	118.44
340.702	104.44
340.93	118.44
341.158	104.44
341.386	109.44
341.614	114.44
341.842	101.44
342.07	111.44
342.298	103.44
342.526	95.44
342.754	97.44
342.981	99.44
343.209	91.44
343.437	95.44
343.665	98.44
343.893	104.44
344.12	102.44
344.348	82.44
344.576	87.44
344.804	86.44
345.031	107.44
345.259	102.44
345.487	99.44
345.714	90.44
345.942	95.44
346.17	104.44
346.397	91.44
346.625	91.44
346.853	94.44
347.08	91.44
347.308	90.44
347.535	131.44
347.763	109.44
347.99	105.44
348.218	103.44
348.445	118.44
348.673	105.44
348.9	100.44
349.128	81.44
349.355	104.44
349.583	101.44
349.81	100.44
350.037	106.44
350.265	79.44
350.492	102.44
350.72	101.44
350.947	104.44
351.174	106.44
351.402	123.44
351.629	99.44
351.856	106.44
352.083	117.44
352.311	110.44
352.538	107.44
352.765	117.44
352.992	128.44
353.22	114.44
353.447	121.44
353.674	111.44
353.901	93.44
354.128	98.44
354.355	99.44
354.583	106.44
354.81	105.44
355.037	105.44
355.264	113.44
355.491	104.44
355.718	89.44
355.945	103.44
356.172	101.44
356.399	115.44
356.626	96.44
356.853	81.44
357.08	107.44
357.307	115.44
357.534	96.44
357.761	108.44
357.988	99.44
358.215	99.44
358.441	102.44
358.668	91.44
358.895	88.44
359.122	96.44
359.349	107.44
359.576	81.44
359.802	122.44
360.029	137.44
360.256	97.44
360.483	118.44
360.709	113.44
360.936	101.44
361.163	111.44
361.39	108.44
361.616	98.44
361.843	99.44
362.07	103.44
362.296	108.44
362.523	86.44
362.749	85.44
362.976	83.44
363.203	93.44
363.429	105.44
363.656	96.44
363.882	96.44
364.109	90.44
364.335	103.44
364.562	87.44
364.788	94.44
365.015	98.44
365.241	105.44
365.468	129.44
365.694	117.44
365.92	110.44
366.147	103.44
366.373	96.44
366.599	83.44
366.826	82.44
367.052	78.44
367.278	92.44
367.505	87.44
367.731	102.44
367.957	91.44
368.184	89.44
368.41	109.44
368.636	122.44
368.862	124.44
369.089	113.44
369.315	102.44
369.541	90.44
369.767	103.44
369.993	105.44
370.219	107.44
370.445	101.44
370.672	94.44
370.898	103.44
371.124	91.44
371.35	94.44
371.576	91.44
371.802	80.44
372.028	94.44
372.254	85.44
372.48	88.44
372.706	88.44
372.932	98.44
373.158	87.44
373.384	93.44
373.61	96.44
373.835	84.44
374.061	86.44
374.287	84.44
374.513	93.44
374.739	101.44
374.965	94.44
375.191	81.44
375.416	94.44
375.642	101.44
375.868	105.44
376.094	99.44
376.319	106.44
376.545	94.44
376.771	86.44
376.997	101.44
377.222	95.44
377.448	82.44
377.674	89.44
377.899	93.44
378.125	86.44
378.35	82.44
378.576	91.44
378.802	91.44
379.027	98.44
379.253	97.44
379.478	84.44
379.704	93.44
379.929	101.44
380.155	102.44
380.38	96.44
380.606	106.44
380.831	94.44
381.057	109.44
381.282	98.44
381.507	97.44
381.733	80.44
381.958	83.44
382.184	89.44
382.409	103.44
382.634	107.44
382.86	99.44
383.085	97.44
383.31	121.44
383.535	98.44
383.761	93.44
383.986	111.44
384.211	108.44
384.436	80.44
384.662	106.44
384.887	103.44
385.112	104.44
385.337	107.44
385.562	108.44
385.787	92.44
386.013	121.44
386.238	111.44
386.463	101.44
386.688	113.44
386.913	93.44
387.138	105.44
387.363	106.44
387.588	108.44
387.813	113.44
388.038	117.44
388.263	115.44
388.488	88.44
388.713	96.44
388.938	94.44
389.163	101.44
389.387	104.44
389.612	109.44
389.837	98.44
390.062	103.44
390.287	93.44
390.512	107.44
390.736	97.44
390.961	86.44
391.186	96.44
391.411	101.44
391.636	90.44
391.86	89.44
392.085	80.44
392.31	88.44
392.534	85.44
392.759	108.44
392.984	99.44
393.208	103.44
393.433	88.44
393.658	99.44
393.882	80.44
394.107	96.44
394.331	86.44
394.556	85.44
394.78	81.44
395.005	80.44
395.229	86.44
395.454	87.44
395.678	85.44
395.903	102.44
396.127	98.44
396.352	84.44
396.576	86.44
396.801	88.44
397.025	78.44
397.249	91.44
397.474	93.44
397.698	99.44
397.922	91.44
398.147	98.44
398.371	89.44
398.595	87.44
398.82	96.44
399.044	94.44
399.268	87.44
399.492	88.44
399.717	96.44
399.941	84.44
400.165	102.44
400.389	112.44
400.613	95.44
400.837	85.44
401.062	86.44
401.286	87.44
401.51	88.44
401.734	95.44
401.958	99.44
402.182	144.44
402.406	175.44
402.63	142.44
402.854	100.44
403.078	101.44
403.302	106.44
403.526	102.44
403.75	101.44
403.974	93.44
404.198	99.44
404.422	101.44
404.645	102.44
404.869	107.44
405.093	105.44
405.317	135.44
405.541	119.44
405.765	112.44
405.988	132.44
406.212	193.44
406.436	274.44
406.66	181.44
406.883	113.44
407.107	96.44
407.331	87.44
407.555	117.44
407.778	106.44
408.002	115.44
408.226	91.44
408.449	79.44
408.673	98.44
408.896	99.44
409.12	114.44
409.344	90.44
409.567	107.44
409.791	94.44
410.014	103.44
410.238	81.44
410.461	94.44
410.685	110.44
410.908	112.44
411.132	110.44
411.355	107.44
411.578	109.44
411.802	99.44
412.025	90.44
412.249	89.44
412.472	105.44
412.695	130.44
412.919	105.44
413.142	92.44
413.365	87.44
413.589	97.44
413.812	98.44
414.035	104.44
414.258	80.44
414.482	95.44
414.705	85.44
414.928	102.44
415.151	86.44
415.374	90.44
415.597	81.44
415.821	100.44
416.044	91.44
416.267	95.44
416.49	89.44
416.713	79.44
416.936	89.44
417.159	94.44
417.382	108.44
417.605	109.44
417.828	110.44
418.051	95.44
418.274	104.44
418.497	98.44
418.72	98.44
418.943	101.44
419.166	82.44
419.389	83.44
419.611	99.44
419.834	82.44
420.057	88.44
420.28	74.44
420.503	89.44
420.726	87.44
420.948	91.44
421.171	107.44
421.394	114.44
421.617	77.44
421.839	84.44
422.062	95.44
422.285	101.44
422.507	106.44
422.73	114.44
422.953	99.44
423.175	87.44
423.398	90.44
423.621	79.44
423.843	89.44
424.066	93.44
424.288	94.44
424.511	94.44
424.733	104.44
424.956	140.44
425.178	108.44
425.401	114.44
425.623	103.44
425.846	101.44
426.068	108.44
426.291	107.44
426.513	105.44
426.735	113.44
426.958	101.44
427.18	99.44
427.402	146.44
427.625	219.44
427.847	210.44
428.069	183.44
428.292	112.44
428.514	95.44
428.736	92.44
428.958	97.44
429.181	86.44
429.403	103.44
429.625	95.44
429.847	94.44
430.069	101.44
430.292	99.44
430.514	85.44
430.736	89.44
430.958	93.44
431.18	89.44
431.402	88.44
431.624	98.44
431.846	77.44
432.068	105.44
432.29	74.44
432.512	99.44
432.734	98.44
432.956	90.44
433.178	106.44
433.4	112.44
433.622	98.44
433.844	102.44
434.066	97.44
434.287	98.44
434.509	101.44
434.731	98.44
434.953	85.44
435.175	94.44
435.397	87.44
435.618	93.44
435.84	104.44
436.062	133.44
436.284	110.44
436.505	100.44
436.727	119.44
436.949	116.44
437.17	92.44
437.392	82.44
437.614	106.44
437.835	115.44
438.057	143.44
438.278	125.44
438.5	115.44
438.721	131.44
438.943	108.44
439.165	98.44
439.386	75.44
439.608	84.44
439.829	112.44
440.05	143.44
440.272	161.44
440.493	115.44
440.715	95.44
440.936	104.44
441.158	91.44
441.379	88.44
441.6	105.44
441.822	105.44
442.043	105.44
442.264	114.44
442.486	123.44
442.707	101.44
442.928	120.44
443.149	150.44
443.371	150.44
443.592	125.44
443.813	124.44
444.034	131.44
444.255	95.44
444.476	83.44
444.698	95.44
444.919	102.44
445.14	139.44
445.361	130.44
445.582	127.44
445.803	168.44
446.024	162.44
446.245	165.44
446.466	131.44
446.687	86.44
446.908	96.44
447.129	101.44
447.35	92.44
447.571	94.44
447.792	93.44
448.013	112.44
448.234	119.44
448.455	120.44
448.675	132.44
448.896	139.44
449.117	109.44
449.338	105.44
449.559	136.44
449.779	133.44
450	98.44
450.221	89.44
450.442	96.44
450.662	90.44
450.883	116.44
451.104	124.44
451.324	105.44
451.545	95.44
451.766	89.44
451.986	77.44
452.207	100.44
452.428	98.44
452.648	102.44
452.869	120.44
453.089	130.44
453.31	118.44
453.53	111.44
453.751	101.44
453.971	107.44
454.192	136.44
454.412	103.44
454.633	72.44
454.853	91.44
455.073	89.44
455.294	86.44
455.514	106.44
455.734	97.44
455.955	93.44
456.175	74.44
456.395	83.44
456.616	88.44
456.836	80.44
457.056	85.44
457.276	85.44
457.497	93.44
457.717	79.44
457.937	100.44
458.157	89.44
458.377	88.44
458.598	121.44
458.818	181.44
459.038	194.44
459.258	148.44
459.478	85.44
459.698	87.44
459.918	100.44
460.138	98.44
460.358	85.44
460.578	95.44
460.798	91.44
461.018	106.44
461.238	91.44
461.458	93.44
461.678	80.44
461.898	85.44
462.118	89.44
462.338	94.44
462.558	86.44
462.777	89.44
462.997	100.44
463.217	112.44
463.437	93.44
463.657	93.44
463.876	85.44
464.096	93.44
464.316	99.44
464.536	91.44
464.755	96.44
464.975	115.44
465.195	205.44
465.414	215.44
465.634	96.44
465.854	99.44
466.073	101.44
466.293	110.44
466.512	84.44
466.732	93.44
466.951	105.44
467.171	86.44
467.391	121.44
467.61	121.44
467.829	170.44
468.049	335.44
468.268	488.44
468.488	157.44
468.707	96.44
468.927	101.44
469.146	91.44
469.365	102.44
469.585	89.44
469.804	103.44
470.023	101.44
470.243	92.44
470.462	113.44
470.681	122.44
470.901	90.44
471.12	113.44
471.339	82.44
471.558	94.44
471.777	120.44
471.997	201.44
472.216	649.44
472.435	1405.44
472.654	358.44
472.873	134.44
473.092	102.44
473.311	87.44
473.53	96.44
473.749	85.44
473.968	105.44
474.187	110.44
474.406	107.44
474.625	81.44
474.844	101.44
475.063	94.44
475.282	93.44
475.501	83.44
475.72	100.44
475.939	86.44
476.158	77.44
476.377	82.44
476.596	85.44
476.814	97.44
477.033	114.44
477.252	108.44
477.471	95.44
477.69	90.44
477.908	97.44
478.127	85.44
478.346	81.44
478.564	103.44
478.783	114.44
479.002	113.44
479.22	98.44
479.439	123.44
479.658	126.44
479.876	114.44
480.095	120.44
480.313	110.44
480.532	130.44
480.751	191.44
480.969	584.44
481.188	2466.44
481.406	1444.44
481.624	252.44
481.843	119.44
482.061	104.44
482.28	93.44
482.498	84.44
482.717	93.44
482.935	107.44
483.153	100.44
483.372	87.44
483.59	98.44
483.808	102.44
484.027	96.44
484.245	105.44
484.463	95.44
484.681	89.44
484.9	96.44
485.118	109.44
485.336	103.44
485.554	105.44
485.772	104.44
485.99	103.44
486.209	98.44
486.427	105.44
486.645	114.44
486.863	125.44
487.081	105.44
487.299	95.44
487.517	101.44
487.735	103.44
487.953	90.44
488.171	96.44
488.389	106.44
488.607	115.44
488.825	94.44
489.043	93.44
489.261	84.44
489.479	92.44
489.696	97.44
489.914	91.44
490.132	100.44
490.35	95.44
490.568	98.44
490.786	99.44
491.003	93.44
491.221	95.44
491.439	111.44
491.657	98.44
491.874	95.44
492.092	104.44
492.31	82.44
492.527	102.44
492.745	91.44
492.963	86.44
493.18	98.44
493.398	99.44
493.615	90.44
493.833	89.44
494.05	83.44
494.268	91.44
494.485	97.44
494.703	93.44
494.92	89.44
495.138	79.44
495.355	75.44
495.573	91.44
495.79	101.44
496.008	95.44
496.225	92.44
496.442	110.44
496.66	101.44
496.877	89.44
497.094	96.44
497.312	88.44
497.529	105.44
497.746	95.44
497.963	95.44
498.181	90.44
498.398	97.44
498.615	111.44
498.832	109.44
499.049	91.44
499.267	89.44
499.484	90.44
499.701	98.44
499.918	84.44
500.135	100.44
500.352	93.44
500.569	92.44
500.786	90.44
501.003	96.44
501.22	84.44
501.437	90.44
501.654	94.44
501.871	109.44
502.088	102.44
502.305	102.44
502.522	102.44
502.739	98.44
502.956	88.44
503.172	92.44
503.389	94.44
503.606	104.44
503.823	111.44
504.04	91.44
504.256	105.44
504.473	103.44
504.69	88.44
504.907	85.44
505.123	92.44
505.34	97.44
505.557	107.44
505.773	96.44
505.99	91.44
506.207	90.44
506.423	89.44
506.64	90.44
506.856	95.44
507.073	83.44
507.289	104.44
507.506	110.44
507.722	129.44
507.939	118.44
508.155	102.44
508.372	84.44
508.588	83.44
508.805	101.44
509.021	90.44
509.238	105.44
509.454	107.44
509.67	106.44
509.887	120.44
510.103	133.44
510.319	236.44
510.536	798.44
510.752	2723.44
510.968	752.44
511.184	184.44
511.401	135.44
511.617	118.44
511.833	103.44
512.049	113.44
512.265	81.44
512.481	101.44
