Data from Circ_1990_H10_HRD10591_00013.txt Node
Date: Wed Jan 03 11:55:06 EST 2024
User: Yrep
Spectrometer: HR+D1059
Trigger mode: 1
Integration Time (sec): 1.000000E-1
Scans to average: 1
Electric dark correction enabled: true
Nonlinearity correction enabled: false
Boxcar width: 0
XAxis mode: Wavelengths
Number of Pixels in Spectrum: 2048
>>>>>Begin Spectral Data<<<<<
223.165	-21.88
223.4	-21.88
223.635	-21.88
223.869	-18.88
224.104	-32.88
224.338	-19.88
224.573	-4.88
224.808	-6.88
225.042	-10.88
225.277	-2.88
225.511	0.12
225.746	8.12
225.98	4.12
226.215	9.12
226.449	15.12
226.683	24.12
226.918	24.12
227.152	34.12
227.387	32.12
227.621	34.12
227.856	42.12
228.09	39.12
228.324	59.12
228.559	55.12
228.793	53.12
229.027	62.12
229.262	57.12
229.496	74.12
229.73	73.12
229.964	80.12
230.199	75.12
230.433	75.12
230.667	85.12
230.901	77.12
231.136	84.12
231.37	73.12
231.604	74.12
231.838	93.12
232.072	71.12
232.306	91.12
232.541	89.12
232.775	73.12
233.009	86.12
233.243	75.12
233.477	87.12
233.711	86.12
233.945	64.12
234.179	79.12
234.413	73.12
234.647	76.12
234.881	76.12
235.115	84.12
235.349	80.12
235.583	81.12
235.817	87.12
236.051	72.12
236.285	75.12
236.519	70.12
236.753	66.12
236.987	70.12
237.221	80.12
237.455	79.12
237.689	68.12
237.922	67.12
238.156	67.12
238.39	77.12
238.624	70.12
238.858	73.12
239.091	62.12
239.325	73.12
239.559	68.12
239.793	79.12
240.027	74.12
240.26	77.12
240.494	80.12
240.728	86.12
240.961	80.12
241.195	67.12
241.429	75.12
241.662	74.12
241.896	63.12
242.13	68.12
242.363	83.12
242.597	75.12
242.83	77.12
243.064	67.12
243.298	69.12
243.531	73.12
243.765	94.12
243.998	82.12
244.232	89.12
244.465	73.12
244.699	67.12
244.932	67.12
245.166	88.12
245.399	75.12
245.633	82.12
245.866	85.12
246.099	81.12
246.333	76.12
246.566	79.12
246.8	69.12
247.033	80.12
247.266	73.12
247.5	83.12
247.733	73.12
247.966	63.12
248.2	76.12
248.433	73.12
248.666	89.12
248.899	75.12
249.133	66.12
249.366	78.12
249.599	90.12
249.832	74.12
250.066	82.12
250.299	81.12
250.532	83.12
250.765	85.12
250.998	71.12
251.231	77.12
251.465	71.12
251.698	82.12
251.931	84.12
252.164	85.12
252.397	90.12
252.63	74.12
252.863	67.12
253.096	64.12
253.329	71.12
253.562	77.12
253.795	103.12
254.028	77.12
254.261	62.12
254.494	77.12
254.727	85.12
254.96	95.12
255.193	83.12
255.426	78.12
255.659	85.12
255.892	76.12
256.124	69.12
256.357	85.12
256.59	82.12
256.823	90.12
257.056	79.12
257.289	77.12
257.521	95.12
257.754	77.12
257.987	76.12
258.22	81.12
258.452	83.12
258.685	90.12
258.918	81.12
259.151	69.12
259.383	70.12
259.616	83.12
259.849	76.12
260.081	98.12
260.314	88.12
260.547	75.12
260.779	79.12
261.012	89.12
261.244	80.12
261.477	97.12
261.71	79.12
261.942	102.12
262.175	90.12
262.407	74.12
262.64	84.12
262.872	68.12
263.105	89.12
263.337	92.12
263.57	75.12
263.802	90.12
264.035	85.12
264.267	83.12
264.499	78.12
264.732	69.12
264.964	85.12
265.197	81.12
265.429	73.12
265.661	85.12
265.894	74.12
266.126	58.12
266.358	80.12
266.591	91.12
266.823	77.12
267.055	78.12
267.287	75.12
267.52	81.12
267.752	103.12
267.984	80.12
268.216	82.12
268.448	99.12
268.681	90.12
268.913	85.12
269.145	74.12
269.377	85.12
269.609	75.12
269.841	73.12
270.073	77.12
270.306	97.12
270.538	79.12
270.77	79.12
271.002	83.12
271.234	77.12
271.466	73.12
271.698	92.12
271.93	75.12
272.162	84.12
272.394	76.12
272.626	81.12
272.858	79.12
273.09	93.12
273.322	85.12
273.553	85.12
273.785	78.12
274.017	75.12
274.249	68.12
274.481	73.12
274.713	79.12
274.945	89.12
275.176	72.12
275.408	97.12
275.64	88.12
275.872	76.12
276.104	91.12
276.335	89.12
276.567	93.12
276.799	112.12
277.031	91.12
277.262	92.12
277.494	89.12
277.726	80.12
277.957	86.12
278.189	79.12
278.421	85.12
278.652	89.12
278.884	90.12
279.115	85.12
279.347	89.12
279.579	83.12
279.81	95.12
280.042	75.12
280.273	84.12
280.505	82.12
280.736	75.12
280.968	87.12
281.199	78.12
281.431	83.12
281.662	92.12
281.894	83.12
282.125	98.12
282.356	98.12
282.588	116.12
282.819	102.12
283.051	93.12
283.282	71.12
283.513	98.12
283.745	84.12
283.976	77.12
284.207	78.12
284.439	96.12
284.67	85.12
284.901	104.12
285.132	87.12
285.364	80.12
285.595	81.12
285.826	75.12
286.057	96.12
286.288	68.12
286.52	81.12
286.751	80.12
286.982	85.12
287.213	89.12
287.444	91.12
287.675	86.12
287.906	85.12
288.138	97.12
288.369	86.12
288.6	85.12
288.831	84.12
289.062	74.12
289.293	77.12
289.524	82.12
289.755	87.12
289.986	83.12
290.217	89.12
290.448	85.12
290.679	83.12
290.91	97.12
291.141	90.12
291.371	75.12
291.602	88.12
291.833	93.12
292.064	93.12
292.295	91.12
292.526	84.12
292.757	79.12
292.987	89.12
293.218	94.12
293.449	81.12
293.68	90.12
293.91	66.12
294.141	71.12
294.372	88.12
294.603	83.12
294.833	77.12
295.064	96.12
295.295	77.12
295.525	99.12
295.756	103.12
295.987	84.12
296.217	131.12
296.448	104.12
296.679	88.12
296.909	90.12
297.14	93.12
297.37	90.12
297.601	94.12
297.831	99.12
298.062	87.12
298.292	89.12
298.523	89.12
298.753	68.12
298.984	75.12
299.214	83.12
299.445	85.12
299.675	79.12
299.905	80.12
300.136	90.12
300.366	90.12
300.597	89.12
300.827	90.12
301.057	68.12
301.288	97.12
301.518	83.12
301.748	95.12
301.979	106.12
302.209	92.12
302.439	77.12
302.669	92.12
302.9	69.12
303.13	95.12
303.36	92.12
303.59	88.12
303.82	93.12
304.051	97.12
304.281	90.12
304.511	86.12
304.741	85.12
304.971	87.12
305.201	68.12
305.431	85.12
305.661	93.12
305.891	94.12
306.121	85.12
306.352	115.12
306.582	82.12
306.812	94.12
307.042	80.12
307.272	80.12
307.502	92.12
307.731	97.12
307.961	87.12
308.191	94.12
308.421	96.12
308.651	70.12
308.881	80.12
309.111	92.12
309.341	85.12
309.571	99.12
309.8	88.12
310.03	118.12
310.26	101.12
310.49	90.12
310.72	81.12
310.949	95.12
311.179	108.12
311.409	101.12
311.639	85.12
311.868	89.12
312.098	83.12
312.328	82.12
312.557	97.12
312.787	97.12
313.017	92.12
313.246	100.12
313.476	75.12
313.706	94.12
313.935	80.12
314.165	89.12
314.394	83.12
314.624	88.12
314.853	79.12
315.083	88.12
315.312	79.12
315.542	81.12
315.771	100.12
316.001	105.12
316.23	86.12
316.46	83.12
316.689	94.12
316.919	87.12
317.148	91.12
317.377	86.12
317.607	86.12
317.836	86.12
318.065	82.12
318.295	88.12
318.524	95.12
318.753	85.12
318.983	95.12
319.212	99.12
319.441	92.12
319.67	99.12
319.9	92.12
320.129	89.12
320.358	94.12
320.587	81.12
320.816	93.12
321.046	91.12
321.275	106.12
321.504	95.12
321.733	93.12
321.962	84.12
322.191	97.12
322.42	101.12
322.649	83.12
322.878	79.12
323.108	94.12
323.337	113.12
323.566	125.12
323.795	122.12
324.024	151.12
324.253	278.12
324.482	599.12
324.71	1169.12
324.939	1634.12
325.168	602.12
325.397	197.12
325.626	137.12
325.855	108.12
326.084	108.12
326.313	122.12
326.542	132.12
326.77	186.12
326.999	355.12
327.228	713.12
327.457	1253.12
327.686	1006.12
327.914	282.12
328.143	165.12
328.372	156.12
328.6	121.12
328.829	102.12
329.058	107.12
329.287	107.12
329.515	95.12
329.744	109.12
329.972	116.12
330.201	153.12
330.43	165.12
330.658	134.12
330.887	127.12
331.115	110.12
331.344	99.12
331.572	103.12
331.801	97.12
332.03	96.12
332.258	103.12
332.486	72.12
332.715	97.12
332.943	77.12
333.172	94.12
333.4	110.12
333.629	100.12
333.857	106.12
334.085	116.12
334.314	145.12
334.542	196.12
334.771	182.12
334.999	106.12
335.227	98.12
335.455	83.12
335.684	98.12
335.912	91.12
336.14	103.12
336.369	98.12
336.597	92.12
336.825	95.12
337.053	90.12
337.281	95.12
337.51	102.12
337.738	100.12
337.966	87.12
338.194	97.12
338.422	98.12
338.65	84.12
338.878	83.12
339.106	86.12
339.334	89.12
339.562	82.12
339.79	79.12
340.018	71.12
340.246	75.12
340.474	102.12
340.702	92.12
340.93	87.12
341.158	107.12
341.386	94.12
341.614	82.12
341.842	95.12
342.07	81.12
342.298	88.12
342.526	93.12
342.754	76.12
342.981	95.12
343.209	87.12
343.437	96.12
343.665	82.12
343.893	97.12
344.12	99.12
344.348	97.12
344.576	96.12
344.804	91.12
345.031	106.12
345.259	95.12
345.487	87.12
345.714	103.12
345.942	91.12
346.17	90.12
346.397	97.12
346.625	91.12
346.853	74.12
347.08	97.12
347.308	77.12
347.535	88.12
347.763	87.12
347.99	101.12
348.218	89.12
348.445	91.12
348.673	97.12
348.9	102.12
349.128	92.12
349.355	92.12
349.583	91.12
349.81	97.12
350.037	92.12
350.265	100.12
350.492	84.12
350.72	93.12
350.947	114.12
351.174	105.12
351.402	100.12
351.629	88.12
351.856	93.12
352.083	109.12
352.311	97.12
352.538	81.12
352.765	81.12
352.992	117.12
353.22	106.12
353.447	114.12
353.674	108.12
353.901	94.12
354.128	89.12
354.355	104.12
354.583	98.12
354.81	105.12
355.037	104.12
355.264	86.12
355.491	93.12
355.718	86.12
355.945	94.12
356.172	94.12
356.399	103.12
356.626	97.12
356.853	105.12
357.08	78.12
357.307	98.12
357.534	85.12
357.761	92.12
357.988	99.12
358.215	99.12
358.441	105.12
358.668	93.12
358.895	90.12
359.122	93.12
359.349	96.12
359.576	109.12
359.802	90.12
360.029	109.12
360.256	95.12
360.483	83.12
360.709	75.12
360.936	81.12
361.163	98.12
361.39	77.12
361.616	82.12
361.843	97.12
362.07	77.12
362.296	91.12
362.523	91.12
362.749	92.12
362.976	82.12
363.203	73.12
363.429	84.12
363.656	81.12
363.882	95.12
364.109	107.12
364.335	76.12
364.562	97.12
364.788	95.12
365.015	83.12
365.241	84.12
365.468	89.12
365.694	91.12
365.92	99.12
366.147	77.12
366.373	92.12
366.599	96.12
366.826	98.12
367.052	90.12
367.278	106.12
367.505	83.12
367.731	85.12
367.957	92.12
368.184	89.12
368.41	94.12
368.636	82.12
368.862	104.12
369.089	99.12
369.315	84.12
369.541	99.12
369.767	93.12
369.993	101.12
370.219	89.12
370.445	94.12
370.672	89.12
370.898	87.12
371.124	87.12
371.35	98.12
371.576	86.12
371.802	78.12
372.028	83.12
372.254	96.12
372.48	92.12
372.706	73.12
372.932	100.12
373.158	81.12
373.384	98.12
373.61	95.12
373.835	96.12
374.061	82.12
374.287	101.12
374.513	88.12
374.739	103.12
374.965	74.12
375.191	95.12
375.416	83.12
375.642	96.12
375.868	98.12
376.094	82.12
376.319	95.12
376.545	76.12
376.771	99.12
376.997	93.12
377.222	85.12
377.448	98.12
377.674	110.12
377.899	103.12
378.125	90.12
378.35	102.12
378.576	75.12
378.802	82.12
379.027	91.12
379.253	94.12
379.478	108.12
379.704	111.12
379.929	100.12
380.155	108.12
380.38	118.12
380.606	98.12
380.831	101.12
381.057	122.12
381.282	105.12
381.507	95.12
381.733	113.12
381.958	115.12
382.184	109.12
382.409	109.12
382.634	108.12
382.86	108.12
383.085	124.12
383.31	119.12
383.535	121.12
383.761	111.12
383.986	115.12
384.211	111.12
384.436	102.12
384.662	115.12
384.887	134.12
385.112	141.12
385.337	134.12
385.562	146.12
385.787	142.12
386.013	142.12
386.238	126.12
386.463	140.12
386.688	141.12
386.913	141.12
387.138	150.12
387.363	136.12
387.588	128.12
387.813	113.12
388.038	131.12
388.263	157.12
388.488	152.12
388.713	98.12
388.938	86.12
389.163	93.12
389.387	81.12
389.612	81.12
389.837	107.12
390.062	100.12
390.287	90.12
390.512	98.12
390.736	98.12
390.961	78.12
391.186	106.12
391.411	92.12
391.636	98.12
391.86	90.12
392.085	90.12
392.31	95.12
392.534	83.12
392.759	84.12
392.984	87.12
393.208	96.12
393.433	104.12
393.658	91.12
393.882	104.12
394.107	91.12
394.331	93.12
394.556	73.12
394.78	88.12
395.005	82.12
395.229	66.12
395.454	89.12
395.678	84.12
395.903	86.12
396.127	78.12
396.352	84.12
396.576	75.12
396.801	85.12
397.025	90.12
397.249	84.12
397.474	91.12
397.698	89.12
397.922	95.12
398.147	70.12
398.371	86.12
398.595	77.12
398.82	84.12
399.044	87.12
399.268	86.12
399.492	89.12
399.717	82.12
399.941	93.12
400.165	92.12
400.389	77.12
400.613	90.12
400.837	71.12
401.062	82.12
401.286	92.12
401.51	79.12
401.734	88.12
401.958	89.12
402.182	110.12
402.406	123.12
402.63	107.12
402.854	94.12
403.078	96.12
403.302	96.12
403.526	94.12
403.75	85.12
403.974	85.12
404.198	86.12
404.422	109.12
404.645	82.12
404.869	102.12
405.093	103.12
405.317	82.12
405.541	86.12
405.765	90.12
405.988	102.12
406.212	141.12
406.436	163.12
406.66	116.12
406.883	96.12
407.107	84.12
407.331	82.12
407.555	84.12
407.778	90.12
408.002	96.12
408.226	93.12
408.449	90.12
408.673	81.12
408.896	100.12
409.12	85.12
409.344	83.12
409.567	90.12
409.791	79.12
410.014	93.12
410.238	94.12
410.461	79.12
410.685	95.12
410.908	96.12
411.132	100.12
411.355	107.12
411.578	94.12
411.802	78.12
412.025	92.12
412.249	84.12
412.472	96.12
412.695	102.12
412.919	86.12
413.142	93.12
413.365	85.12
413.589	82.12
413.812	79.12
414.035	63.12
414.258	101.12
414.482	94.12
414.705	105.12
414.928	95.12
415.151	103.12
415.374	88.12
415.597	79.12
415.821	84.12
416.044	96.12
416.267	93.12
416.49	101.12
416.713	85.12
416.936	85.12
417.159	97.12
417.382	87.12
417.605	103.12
417.828	100.12
418.051	103.12
418.274	90.12
418.497	79.12
418.72	100.12
418.943	96.12
419.166	90.12
419.389	103.12
419.611	90.12
419.834	80.12
420.057	88.12
420.28	91.12
420.503	81.12
420.726	96.12
420.948	97.12
421.171	100.12
421.394	94.12
421.617	83.12
421.839	91.12
422.062	91.12
422.285	90.12
422.507	93.12
422.73	114.12
422.953	89.12
423.175	83.12
423.398	98.12
423.621	91.12
423.843	82.12
424.066	85.12
424.288	70.12
424.511	79.12
424.733	93.12
424.956	97.12
425.178	83.12
425.401	79.12
425.623	86.12
425.846	86.12
426.068	96.12
426.291	65.12
426.513	97.12
426.735	81.12
426.958	99.12
427.18	102.12
427.402	108.12
427.625	109.12
427.847	98.12
428.069	112.12
428.292	80.12
428.514	87.12
428.736	90.12
428.958	100.12
429.181	80.12
429.403	83.12
429.625	83.12
429.847	88.12
430.069	91.12
430.292	83.12
430.514	73.12
430.736	74.12
430.958	91.12
431.18	80.12
431.402	78.12
431.624	84.12
431.846	67.12
432.068	88.12
432.29	82.12
432.512	79.12
432.734	84.12
432.956	89.12
433.178	90.12
433.4	98.12
433.622	84.12
433.844	100.12
434.066	95.12
434.287	104.12
434.509	94.12
434.731	78.12
434.953	87.12
435.175	90.12
435.397	85.12
435.618	77.12
435.84	90.12
436.062	109.12
436.284	95.12
436.505	92.12
436.727	104.12
436.949	94.12
437.17	93.12
437.392	83.12
437.614	78.12
437.835	85.12
438.057	98.12
438.278	96.12
438.5	83.12
438.721	109.12
438.943	102.12
439.165	85.12
439.386	88.12
439.608	93.12
439.829	90.12
440.05	102.12
440.272	115.12
440.493	81.12
440.715	101.12
440.936	86.12
441.158	82.12
441.379	97.12
441.6	86.12
441.822	88.12
442.043	99.12
442.264	96.12
442.486	93.12
442.707	84.12
442.928	106.12
443.149	115.12
443.371	115.12
443.592	89.12
443.813	78.12
444.034	89.12
444.255	108.12
444.476	81.12
444.698	91.12
444.919	75.12
445.14	151.12
445.361	123.12
445.582	105.12
445.803	109.12
446.024	102.12
446.245	118.12
446.466	103.12
446.687	78.12
446.908	93.12
447.129	87.12
447.35	89.12
447.571	86.12
447.792	90.12
448.013	96.12
448.234	94.12
448.455	88.12
448.675	91.12
448.896	94.12
449.117	74.12
449.338	87.12
449.559	122.12
449.779	100.12
450	82.12
450.221	91.12
450.442	80.12
450.662	94.12
450.883	97.12
451.104	81.12
451.324	84.12
451.545	91.12
451.766	76.12
451.986	79.12
452.207	94.12
452.428	85.12
452.648	93.12
452.869	107.12
453.089	101.12
453.31	100.12
453.53	71.12
453.751	93.12
453.971	93.12
454.192	111.12
454.412	74.12
454.633	83.12
454.853	79.12
455.073	94.12
455.294	105.12
455.514	92.12
455.734	83.12
455.955	95.12
456.175	97.12
456.395	89.12
456.616	88.12
456.836	89.12
457.056	71.12
457.276	70.12
457.497	75.12
457.717	91.12
457.937	85.12
458.157	71.12
458.377	76.12
458.598	97.12
458.818	118.12
459.038	129.12
459.258	94.12
459.478	75.12
459.698	76.12
459.918	75.12
460.138	90.12
460.358	91.12
460.578	83.12
460.798	83.12
461.018	75.12
461.238	77.12
461.458	81.12
461.678	94.12
461.898	85.12
462.118	77.12
462.338	78.12
462.558	83.12
462.777	67.12
462.997	79.12
463.217	86.12
463.437	90.12
463.657	86.12
463.876	78.12
464.096	70.12
464.316	88.12
464.536	88.12
464.755	78.12
464.975	108.12
465.195	123.12
465.414	119.12
465.634	74.12
465.854	96.12
466.073	90.12
466.293	89.12
466.512	85.12
466.732	88.12
466.951	69.12
467.171	81.12
467.391	92.12
467.61	94.12
467.829	89.12
468.049	116.12
468.268	133.12
468.488	92.12
468.707	84.12
468.927	86.12
469.146	69.12
469.365	83.12
469.585	68.12
469.804	99.12
470.023	92.12
470.243	94.12
470.462	97.12
470.681	102.12
470.901	74.12
471.12	81.12
471.339	95.12
471.558	96.12
471.777	98.12
471.997	89.12
472.216	156.12
472.435	242.12
472.654	113.12
472.873	95.12
473.092	87.12
473.311	105.12
473.53	69.12
473.749	83.12
473.968	83.12
474.187	79.12
474.406	70.12
474.625	84.12
474.844	91.12
475.063	98.12
475.282	83.12
475.501	78.12
475.72	87.12
475.939	81.12
476.158	86.12
476.377	87.12
476.596	87.12
476.814	91.12
477.033	87.12
477.252	89.12
477.471	87.12
477.69	93.12
477.908	83.12
478.127	85.12
478.346	84.12
478.564	74.12
478.783	89.12
479.002	87.12
479.22	86.12
479.439	89.12
479.658	100.12
479.876	85.12
480.095	97.12
480.313	96.12
480.532	86.12
480.751	95.12
480.969	161.12
481.188	366.12
481.406	251.12
481.624	111.12
481.843	100.12
482.061	91.12
482.28	95.12
482.498	84.12
482.717	76.12
482.935	89.12
483.153	82.12
483.372	76.12
483.59	98.12
483.808	82.12
484.027	87.12
484.245	83.12
484.463	83.12
484.681	104.12
484.9	104.12
485.118	89.12
485.336	100.12
485.554	91.12
485.772	83.12
485.99	111.12
486.209	109.12
486.427	94.12
486.645	111.12
486.863	103.12
487.081	102.12
487.299	108.12
487.517	97.12
487.735	89.12
487.953	89.12
488.171	86.12
488.389	90.12
488.607	88.12
488.825	93.12
489.043	106.12
489.261	85.12
489.479	85.12
489.696	75.12
489.914	91.12
490.132	85.12
490.35	87.12
490.568	78.12
490.786	92.12
491.003	83.12
491.221	93.12
491.439	96.12
491.657	84.12
491.874	91.12
492.092	83.12
492.31	76.12
492.527	89.12
492.745	98.12
492.963	79.12
493.18	85.12
493.398	90.12
493.615	85.12
493.833	102.12
494.05	91.12
494.268	83.12
494.485	97.12
494.703	85.12
494.92	97.12
495.138	96.12
495.355	88.12
495.573	75.12
495.79	94.12
496.008	90.12
496.225	93.12
496.442	93.12
496.66	93.12
496.877	79.12
497.094	77.12
497.312	77.12
497.529	78.12
497.746	85.12
497.963	85.12
498.181	90.12
498.398	93.12
498.615	104.12
498.832	95.12
499.049	85.12
499.267	89.12
499.484	98.12
499.701	83.12
499.918	91.12
500.135	97.12
500.352	95.12
500.569	86.12
500.786	99.12
501.003	80.12
501.22	89.12
501.437	93.12
501.654	80.12
501.871	96.12
502.088	78.12
502.305	84.12
502.522	88.12
502.739	91.12
502.956	80.12
503.172	101.12
503.389	81.12
503.606	101.12
503.823	94.12
504.04	78.12
504.256	81.12
504.473	74.12
504.69	79.12
504.907	79.12
505.123	84.12
505.34	76.12
505.557	92.12
505.773	98.12
505.99	90.12
506.207	85.12
506.423	89.12
506.64	90.12
506.856	85.12
507.073	94.12
507.289	101.12
507.506	99.12
507.722	109.12
507.939	93.12
508.155	89.12
508.372	92.12
508.588	88.12
508.805	94.12
509.021	85.12
509.238	89.12
509.454	90.12
509.67	97.12
509.887	94.12
510.103	97.12
510.319	149.12
510.536	499.12
510.752	1533.12
510.968	451.12
511.184	127.12
511.401	93.12
511.617	74.12
511.833	87.12
512.049	86.12
512.265	83.12
512.481	85.12
512.698	94.12
512.914	96.12
513.13	92.12
513.346	89.12
513.562	78.12
513.778	90.12
513.994	77.12
514.21	81.12
514.426	102.12
514.642	98.12
514.858	98.12
515.074	122.12
515.29	283.12
515.506	895.12
515.721	357.12
515.937	123.12
516.153	89.12
516.369	79.12
516.585	87.12
