Data from Circ_1990_H10_HRD10591_00043.txt Node
Date: Wed Jan 03 11:55:12 EST 2024
User: Yrep
Spectrometer: HR+D1059
Trigger mode: 1
Integration Time (sec): 1.000000E-1
Scans to average: 1
Electric dark correction enabled: true
Nonlinearity correction enabled: false
Boxcar width: 0
XAxis mode: Wavelengths
Number of Pixels in Spectrum: 2048
>>>>>Begin Spectral Data<<<<<
223.165	-14.19
223.4	-14.19
223.635	-14.19
223.869	-20.19
224.104	-25.19
224.338	-13.19
224.573	-16.19
224.808	-8.19
225.042	-7.19
225.277	-14.19
225.511	-4.19
225.746	8.81
225.98	7.81
226.215	10.81
226.449	20.81
226.683	21.81
226.918	24.81
227.152	27.81
227.387	26.81
227.621	39.81
227.856	47.81
228.09	38.81
228.324	57.81
228.559	60.81
228.793	60.81
229.027	56.81
229.262	42.81
229.496	68.81
229.73	69.81
229.964	67.81
230.199	59.81
230.433	76.81
230.667	78.81
230.901	65.81
231.136	59.81
231.37	62.81
231.604	92.81
231.838	98.81
232.072	60.81
232.306	77.81
232.541	73.81
232.775	82.81
233.009	59.81
233.243	78.81
233.477	75.81
233.711	84.81
233.945	77.81
234.179	80.81
234.413	72.81
234.647	73.81
234.881	70.81
235.115	79.81
235.349	89.81
235.583	89.81
235.817	67.81
236.051	77.81
236.285	77.81
236.519	74.81
236.753	78.81
236.987	74.81
237.221	87.81
237.455	97.81
237.689	79.81
237.922	67.81
238.156	84.81
238.39	73.81
238.624	80.81
238.858	73.81
239.091	73.81
239.325	76.81
239.559	68.81
239.793	66.81
240.027	86.81
240.26	74.81
240.494	61.81
240.728	83.81
240.961	69.81
241.195	75.81
241.429	74.81
241.662	75.81
241.896	70.81
242.13	79.81
242.363	79.81
242.597	85.81
242.83	89.81
243.064	75.81
243.298	83.81
243.531	71.81
243.765	81.81
243.998	68.81
244.232	78.81
244.465	86.81
244.699	74.81
244.932	75.81
245.166	63.81
245.399	74.81
245.633	69.81
245.866	73.81
246.099	73.81
246.333	78.81
246.566	62.81
246.8	89.81
247.033	81.81
247.266	78.81
247.5	81.81
247.733	74.81
247.966	85.81
248.2	76.81
248.433	79.81
248.666	74.81
248.899	87.81
249.133	79.81
249.366	92.81
249.599	93.81
249.832	86.81
250.066	81.81
250.299	73.81
250.532	81.81
250.765	79.81
250.998	78.81
251.231	94.81
251.465	94.81
251.698	90.81
251.931	83.81
252.164	75.81
252.397	78.81
252.63	76.81
252.863	89.81
253.096	79.81
253.329	72.81
253.562	71.81
253.795	86.81
254.028	77.81
254.261	81.81
254.494	86.81
254.727	82.81
254.96	80.81
255.193	78.81
255.426	82.81
255.659	65.81
255.892	87.81
256.124	92.81
256.357	77.81
256.59	62.81
256.823	77.81
257.056	68.81
257.289	92.81
257.521	83.81
257.754	82.81
257.987	88.81
258.22	82.81
258.452	70.81
258.685	76.81
258.918	75.81
259.151	92.81
259.383	83.81
259.616	83.81
259.849	85.81
260.081	85.81
260.314	83.81
260.547	87.81
260.779	92.81
261.012	85.81
261.244	93.81
261.477	99.81
261.71	100.81
261.942	101.81
262.175	101.81
262.407	83.81
262.64	96.81
262.872	71.81
263.105	79.81
263.337	76.81
263.57	90.81
263.802	92.81
264.035	92.81
264.267	75.81
264.499	88.81
264.732	83.81
264.964	92.81
265.197	86.81
265.429	78.81
265.661	84.81
265.894	100.81
266.126	82.81
266.358	83.81
266.591	85.81
266.823	76.81
267.055	75.81
267.287	77.81
267.52	84.81
267.752	72.81
267.984	83.81
268.216	81.81
268.448	84.81
268.681	86.81
268.913	82.81
269.145	67.81
269.377	83.81
269.609	82.81
269.841	86.81
270.073	93.81
270.306	84.81
270.538	77.81
270.77	84.81
271.002	87.81
271.234	84.81
271.466	79.81
271.698	75.81
271.93	99.81
272.162	89.81
272.394	83.81
272.626	75.81
272.858	81.81
273.09	92.81
273.322	77.81
273.553	91.81
273.785	91.81
274.017	81.81
274.249	75.81
274.481	82.81
274.713	80.81
274.945	102.81
275.176	90.81
275.408	93.81
275.64	86.81
275.872	79.81
276.104	97.81
276.335	86.81
276.567	105.81
276.799	109.81
277.031	108.81
277.262	99.81
277.494	96.81
277.726	81.81
277.957	78.81
278.189	86.81
278.421	82.81
278.652	73.81
278.884	93.81
279.115	79.81
279.347	85.81
279.579	74.81
279.81	79.81
280.042	102.81
280.273	112.81
280.505	107.81
280.736	109.81
280.968	88.81
281.199	76.81
281.431	76.81
281.662	87.81
281.894	98.81
282.125	93.81
282.356	106.81
282.588	111.81
282.819	112.81
283.051	76.81
283.282	86.81
283.513	99.81
283.745	82.81
283.976	86.81
284.207	83.81
284.439	76.81
284.67	101.81
284.901	94.81
285.132	87.81
285.364	89.81
285.595	94.81
285.826	86.81
286.057	83.81
286.288	95.81
286.52	91.81
286.751	87.81
286.982	89.81
287.213	86.81
287.444	97.81
287.675	83.81
287.906	89.81
288.138	81.81
288.369	91.81
288.6	90.81
288.831	86.81
289.062	93.81
289.293	93.81
289.524	103.81
289.755	89.81
289.986	73.81
290.217	86.81
290.448	82.81
290.679	82.81
290.91	78.81
291.141	70.81
291.371	90.81
291.602	89.81
291.833	84.81
292.064	84.81
292.295	81.81
292.526	98.81
292.757	86.81
292.987	101.81
293.218	85.81
293.449	81.81
293.68	75.81
293.91	95.81
294.141	81.81
294.372	79.81
294.603	79.81
294.833	99.81
295.064	93.81
295.295	79.81
295.525	90.81
295.756	94.81
295.987	112.81
296.217	125.81
296.448	107.81
296.679	92.81
296.909	77.81
297.14	81.81
297.37	92.81
297.601	84.81
297.831	80.81
298.062	95.81
298.292	89.81
298.523	74.81
298.753	75.81
298.984	78.81
299.214	84.81
299.445	92.81
299.675	82.81
299.905	102.81
300.136	87.81
300.366	88.81
300.597	99.81
300.827	96.81
301.057	89.81
301.288	89.81
301.518	102.81
301.748	93.81
301.979	98.81
302.209	75.81
302.439	86.81
302.669	75.81
302.9	81.81
303.13	83.81
303.36	84.81
303.59	98.81
303.82	102.81
304.051	81.81
304.281	82.81
304.511	79.81
304.741	85.81
304.971	79.81
305.201	77.81
305.431	87.81
305.661	93.81
305.891	81.81
306.121	85.81
306.352	83.81
306.582	82.81
306.812	95.81
307.042	95.81
307.272	105.81
307.502	102.81
307.731	115.81
307.961	113.81
308.191	86.81
308.421	85.81
308.651	93.81
308.881	93.81
309.111	89.81
309.341	93.81
309.571	74.81
309.8	83.81
310.03	90.81
310.26	94.81
310.49	94.81
310.72	89.81
310.949	97.81
311.179	98.81
311.409	91.81
311.639	85.81
311.868	95.81
312.098	98.81
312.328	113.81
312.557	102.81
312.787	108.81
313.017	91.81
313.246	86.81
313.476	86.81
313.706	102.81
313.935	99.81
314.165	94.81
314.394	104.81
314.624	107.81
314.853	92.81
315.083	93.81
315.312	81.81
315.542	90.81
315.771	98.81
316.001	77.81
316.23	79.81
316.46	87.81
316.689	87.81
316.919	94.81
317.148	73.81
317.377	97.81
317.607	96.81
317.836	102.81
318.065	91.81
318.295	91.81
318.524	82.81
318.753	80.81
318.983	89.81
319.212	99.81
319.441	102.81
319.67	106.81
319.9	86.81
320.129	92.81
320.358	85.81
320.587	97.81
320.816	87.81
321.046	109.81
321.275	98.81
321.504	84.81
321.733	97.81
321.962	106.81
322.191	94.81
322.42	77.81
322.649	106.81
322.878	102.81
323.108	110.81
323.337	101.81
323.566	110.81
323.795	137.81
324.024	183.81
324.253	333.81
324.482	682.81
324.71	1351.81
324.939	1832.81
325.168	683.81
325.397	215.81
325.626	134.81
325.855	115.81
326.084	109.81
326.313	119.81
326.542	147.81
326.77	207.81
326.999	399.81
327.228	777.81
327.457	1401.81
327.686	1162.81
327.914	338.81
328.143	219.81
328.372	215.81
328.6	155.81
328.829	134.81
329.058	114.81
329.287	126.81
329.515	116.81
329.744	119.81
329.972	165.81
330.201	253.81
330.43	352.81
330.658	212.81
330.887	137.81
331.115	126.81
331.344	96.81
331.572	100.81
331.801	96.81
332.03	97.81
332.258	94.81
332.486	103.81
332.715	90.81
332.943	101.81
333.172	94.81
333.4	100.81
333.629	113.81
333.857	127.81
334.085	167.81
334.314	256.81
334.542	423.81
334.771	407.81
334.999	170.81
335.227	103.81
335.455	91.81
335.684	92.81
335.912	94.81
336.14	81.81
336.369	95.81
336.597	95.81
336.825	92.81
337.053	80.81
337.281	89.81
337.51	98.81
337.738	99.81
337.966	70.81
338.194	94.81
338.422	86.81
338.65	99.81
338.878	92.81
339.106	83.81
339.334	87.81
339.562	99.81
339.79	90.81
340.018	88.81
340.246	89.81
340.474	83.81
340.702	100.81
340.93	95.81
341.158	107.81
341.386	106.81
341.614	97.81
341.842	105.81
342.07	84.81
342.298	95.81
342.526	88.81
342.754	93.81
342.981	81.81
343.209	84.81
343.437	97.81
343.665	96.81
343.893	97.81
344.12	116.81
344.348	92.81
344.576	92.81
344.804	97.81
345.031	88.81
345.259	100.81
345.487	93.81
345.714	86.81
345.942	90.81
346.17	82.81
346.397	89.81
346.625	98.81
346.853	93.81
347.08	84.81
347.308	98.81
347.535	100.81
347.763	94.81
347.99	96.81
348.218	92.81
348.445	97.81
348.673	94.81
348.9	97.81
349.128	83.81
349.355	91.81
349.583	88.81
349.81	96.81
350.037	94.81
350.265	86.81
350.492	93.81
350.72	90.81
350.947	85.81
351.174	115.81
351.402	98.81
351.629	89.81
351.856	101.81
352.083	102.81
352.311	90.81
352.538	91.81
352.765	115.81
352.992	107.81
353.22	107.81
353.447	102.81
353.674	112.81
353.901	96.81
354.128	107.81
354.355	95.81
354.583	105.81
354.81	102.81
355.037	99.81
355.264	94.81
355.491	109.81
355.718	105.81
355.945	84.81
356.172	85.81
356.399	93.81
356.626	86.81
356.853	68.81
357.08	96.81
357.307	97.81
357.534	95.81
357.761	81.81
357.988	107.81
358.215	88.81
358.441	95.81
358.668	91.81
358.895	89.81
359.122	95.81
359.349	97.81
359.576	93.81
359.802	89.81
360.029	110.81
360.256	117.81
360.483	90.81
360.709	79.81
360.936	88.81
361.163	95.81
361.39	97.81
361.616	104.81
361.843	85.81
362.07	89.81
362.296	89.81
362.523	77.81
362.749	85.81
362.976	87.81
363.203	88.81
363.429	90.81
363.656	98.81
363.882	86.81
364.109	89.81
364.335	84.81
364.562	75.81
364.788	93.81
365.015	96.81
365.241	87.81
365.468	86.81
365.694	102.81
365.92	89.81
366.147	91.81
366.373	103.81
366.599	71.81
366.826	81.81
367.052	81.81
367.278	96.81
367.505	81.81
367.731	95.81
367.957	87.81
368.184	94.81
368.41	93.81
368.636	93.81
368.862	116.81
369.089	99.81
369.315	101.81
369.541	103.81
369.767	75.81
369.993	89.81
370.219	90.81
370.445	77.81
370.672	73.81
370.898	86.81
371.124	95.81
371.35	78.81
371.576	84.81
371.802	97.81
372.028	86.81
372.254	99.81
372.48	89.81
372.706	81.81
372.932	98.81
373.158	94.81
373.384	96.81
373.61	103.81
373.835	92.81
374.061	78.81
374.287	97.81
374.513	78.81
374.739	86.81
374.965	93.81
375.191	93.81
375.416	93.81
375.642	93.81
375.868	99.81
376.094	73.81
376.319	93.81
376.545	90.81
376.771	81.81
376.997	85.81
377.222	86.81
377.448	87.81
377.674	97.81
377.899	95.81
378.125	99.81
378.35	90.81
378.576	91.81
378.802	86.81
379.027	86.81
379.253	107.81
379.478	82.81
379.704	91.81
379.929	98.81
380.155	99.81
380.38	103.81
380.606	97.81
380.831	102.81
381.057	98.81
381.282	104.81
381.507	109.81
381.733	102.81
381.958	107.81
382.184	111.81
382.409	106.81
382.634	108.81
382.86	107.81
383.085	103.81
383.31	107.81
383.535	108.81
383.761	106.81
383.986	108.81
384.211	100.81
384.436	108.81
384.662	106.81
384.887	116.81
385.112	113.81
385.337	114.81
385.562	122.81
385.787	107.81
386.013	115.81
386.238	109.81
386.463	107.81
386.688	112.81
386.913	114.81
387.138	122.81
387.363	107.81
387.588	110.81
387.813	106.81
388.038	111.81
388.263	120.81
388.488	112.81
388.713	115.81
388.938	83.81
389.163	94.81
389.387	85.81
389.612	92.81
389.837	92.81
390.062	87.81
390.287	92.81
390.512	91.81
390.736	92.81
390.961	87.81
391.186	91.81
391.411	85.81
391.636	82.81
391.86	82.81
392.085	83.81
392.31	86.81
392.534	87.81
392.759	86.81
392.984	89.81
393.208	82.81
393.433	90.81
393.658	93.81
393.882	98.81
394.107	77.81
394.331	69.81
394.556	86.81
394.78	86.81
395.005	82.81
395.229	86.81
395.454	90.81
395.678	83.81
395.903	81.81
396.127	85.81
396.352	94.81
396.576	77.81
396.801	90.81
397.025	73.81
397.249	96.81
397.474	93.81
397.698	78.81
397.922	78.81
398.147	83.81
398.371	90.81
398.595	84.81
398.82	89.81
399.044	77.81
399.268	85.81
399.492	94.81
399.717	89.81
399.941	91.81
400.165	77.81
400.389	87.81
400.613	79.81
400.837	77.81
401.062	100.81
401.286	86.81
401.51	80.81
401.734	94.81
401.958	102.81
402.182	111.81
402.406	132.81
402.63	117.81
402.854	106.81
403.078	79.81
403.302	98.81
403.526	78.81
403.75	88.81
403.974	82.81
404.198	87.81
404.422	92.81
404.645	84.81
404.869	84.81
405.093	91.81
405.317	119.81
405.541	105.81
405.765	94.81
405.988	107.81
406.212	142.81
406.436	194.81
406.66	139.81
406.883	110.81
407.107	96.81
407.331	96.81
407.555	89.81
407.778	98.81
408.002	96.81
408.226	95.81
408.449	86.81
408.673	95.81
408.896	75.81
409.12	73.81
409.344	97.81
409.567	89.81
409.791	93.81
410.014	111.81
410.238	90.81
410.461	77.81
410.685	95.81
410.908	98.81
411.132	108.81
411.355	100.81
411.578	91.81
411.802	81.81
412.025	85.81
412.249	88.81
412.472	87.81
412.695	95.81
412.919	103.81
413.142	95.81
413.365	81.81
413.589	84.81
413.812	89.81
414.035	83.81
414.258	92.81
414.482	89.81
414.705	84.81
414.928	103.81
415.151	91.81
415.374	98.81
415.597	95.81
415.821	106.81
416.044	95.81
416.267	92.81
416.49	84.81
416.713	103.81
416.936	81.81
417.159	90.81
417.382	69.81
417.605	89.81
417.828	113.81
418.051	97.81
418.274	94.81
418.497	86.81
418.72	93.81
418.943	92.81
419.166	93.81
419.389	82.81
419.611	84.81
419.834	70.81
420.057	86.81
420.28	75.81
420.503	89.81
420.726	83.81
420.948	80.81
421.171	111.81
421.394	89.81
421.617	98.81
421.839	85.81
422.062	103.81
422.285	86.81
422.507	84.81
422.73	101.81
422.953	89.81
423.175	82.81
423.398	107.81
423.621	96.81
423.843	98.81
424.066	75.81
424.288	85.81
424.511	102.81
424.733	94.81
424.956	114.81
425.178	86.81
425.401	100.81
425.623	106.81
425.846	101.81
426.068	95.81
426.291	88.81
426.513	98.81
426.735	95.81
426.958	87.81
427.18	89.81
427.402	132.81
427.625	153.81
427.847	160.81
428.069	122.81
428.292	82.81
428.514	81.81
428.736	83.81
428.958	79.81
429.181	71.81
429.403	89.81
429.625	82.81
429.847	90.81
430.069	94.81
430.292	101.81
430.514	75.81
430.736	80.81
430.958	76.81
431.18	84.81
431.402	76.81
431.624	94.81
431.846	81.81
432.068	83.81
432.29	86.81
432.512	83.81
432.734	94.81
432.956	102.81
433.178	94.81
433.4	89.81
433.622	89.81
433.844	92.81
434.066	95.81
434.287	84.81
434.509	89.81
434.731	83.81
434.953	95.81
435.175	94.81
435.397	92.81
435.618	97.81
435.84	103.81
436.062	113.81
436.284	97.81
436.505	93.81
436.727	105.81
436.949	100.81
437.17	80.81
437.392	68.81
437.614	93.81
437.835	107.81
438.057	99.81
438.278	106.81
438.5	93.81
438.721	116.81
438.943	99.81
439.165	94.81
439.386	86.81
439.608	93.81
439.829	100.81
440.05	113.81
440.272	141.81
440.493	99.81
440.715	81.81
440.936	86.81
441.158	75.81
441.379	87.81
441.6	95.81
441.822	93.81
442.043	92.81
442.264	93.81
442.486	109.81
442.707	99.81
442.928	107.81
443.149	119.81
443.371	129.81
443.592	104.81
443.813	105.81
444.034	93.81
444.255	91.81
444.476	90.81
444.698	96.81
444.919	78.81
445.14	130.81
445.361	106.81
445.582	114.81
445.803	103.81
446.024	135.81
446.245	138.81
446.466	109.81
446.687	90.81
446.908	92.81
447.129	87.81
447.35	89.81
447.571	95.81
447.792	97.81
448.013	87.81
448.234	94.81
448.455	94.81
448.675	104.81
448.896	115.81
449.117	87.81
449.338	106.81
449.559	113.81
449.779	126.81
450	95.81
450.221	97.81
450.442	81.81
450.662	88.81
450.883	94.81
451.104	102.81
451.324	87.81
451.545	82.81
451.766	97.81
451.986	99.81
452.207	85.81
452.428	95.81
452.648	90.81
452.869	89.81
453.089	99.81
453.31	96.81
453.53	89.81
453.751	86.81
453.971	91.81
454.192	110.81
454.412	91.81
454.633	90.81
454.853	86.81
455.073	91.81
455.294	82.81
455.514	81.81
455.734	92.81
455.955	93.81
456.175	76.81
456.395	92.81
456.616	93.81
456.836	85.81
457.056	86.81
457.276	73.81
457.497	99.81
457.717	89.81
457.937	92.81
458.157	86.81
458.377	79.81
458.598	103.81
458.818	123.81
459.038	130.81
459.258	108.81
459.478	84.81
459.698	86.81
459.918	86.81
460.138	83.81
460.358	81.81
460.578	86.81
460.798	90.81
461.018	90.81
461.238	82.81
461.458	81.81
461.678	65.81
461.898	92.81
462.118	89.81
462.338	94.81
462.558	83.81
462.777	83.81
462.997	81.81
463.217	83.81
463.437	82.81
463.657	87.81
463.876	82.81
464.096	86.81
464.316	95.81
464.536	85.81
464.755	90.81
464.975	100.81
465.195	167.81
465.414	143.81
465.634	90.81
465.854	87.81
466.073	94.81
466.293	73.81
466.512	98.81
466.732	84.81
466.951	76.81
467.171	98.81
467.391	97.81
467.61	97.81
467.829	103.81
468.049	169.81
468.268	239.81
468.488	103.81
468.707	95.81
468.927	87.81
469.146	96.81
469.365	87.81
469.585	102.81
469.804	98.81
470.023	89.81
470.243	107.81
470.462	98.81
470.681	104.81
470.901	95.81
471.12	73.81
471.339	73.81
471.558	103.81
471.777	92.81
471.997	118.81
472.216	294.81
472.435	574.81
472.654	183.81
472.873	99.81
473.092	91.81
473.311	98.81
473.53	92.81
473.749	87.81
473.968	90.81
474.187	93.81
474.406	96.81
474.625	83.81
474.844	86.81
475.063	92.81
475.282	85.81
475.501	75.81
475.72	82.81
475.939	86.81
476.158	92.81
476.377	95.81
476.596	83.81
476.814	92.81
477.033	84.81
477.252	93.81
477.471	88.81
477.69	96.81
477.908	85.81
478.127	90.81
478.346	93.81
478.564	86.81
478.783	107.81
479.002	93.81
479.22	100.81
479.439	101.81
479.658	101.81
479.876	96.81
480.095	99.81
480.313	102.81
480.532	103.81
480.751	131.81
480.969	284.81
481.188	999.81
481.406	602.81
481.624	142.81
481.843	90.81
482.061	87.81
482.28	93.81
482.498	91.81
482.717	85.81
482.935	92.81
483.153	89.81
483.372	87.81
483.59	94.81
483.808	99.81
484.027	86.81
484.245	100.81
484.463	78.81
484.681	100.81
484.9	91.81
485.118	107.81
485.336	93.81
485.554	101.81
485.772	110.81
485.99	108.81
486.209	118.81
486.427	107.81
486.645	86.81
486.863	105.81
487.081	102.81
487.299	92.81
487.517	91.81
487.735	81.81
487.953	89.81
488.171	94.81
488.389	96.81
488.607	100.81
488.825	92.81
489.043	76.81
489.261	84.81
489.479	95.81
489.696	90.81
489.914	74.81
490.132	67.81
490.35	98.81
490.568	85.81
490.786	94.81
491.003	100.81
491.221	85.81
491.439	83.81
491.657	87.81
491.874	99.81
492.092	93.81
492.31	82.81
492.527	80.81
492.745	96.81
492.963	89.81
493.18	83.81
493.398	81.81
493.615	100.81
493.833	75.81
494.05	95.81
494.268	93.81
494.485	97.81
494.703	70.81
494.92	83.81
495.138	85.81
495.355	98.81
495.573	93.81
495.79	83.81
496.008	83.81
496.225	100.81
496.442	93.81
496.66	85.81
496.877	94.81
497.094	94.81
497.312	75.81
497.529	84.81
497.746	93.81
497.963	89.81
498.181	93.81
498.398	90.81
498.615	98.81
498.832	95.81
499.049	92.81
499.267	80.81
499.484	93.81
499.701	77.81
499.918	89.81
500.135	91.81
500.352	94.81
500.569	85.81
500.786	78.81
501.003	83.81
501.22	73.81
501.437	90.81
501.654	88.81
501.871	105.81
502.088	84.81
502.305	80.81
502.522	79.81
502.739	94.81
502.956	96.81
503.172	91.81
503.389	99.81
503.606	85.81
503.823	100.81
504.04	84.81
504.256	96.81
504.473	86.81
504.69	95.81
504.907	89.81
505.123	84.81
505.34	91.81
505.557	83.81
505.773	100.81
505.99	93.81
506.207	82.81
506.423	81.81
506.64	98.81
506.856	83.81
507.073	87.81
507.289	89.81
507.506	89.81
507.722	106.81
507.939	101.81
508.155	84.81
508.372	90.81
508.588	96.81
508.805	94.81
509.021	86.81
509.238	89.81
509.454	87.81
509.67	85.81
509.887	96.81
510.103	111.81
510.319	195.81
510.536	627.81
510.752	1903.81
510.968	541.81
511.184	135.81
511.401	110.81
511.617	105.81
511.833	76.81
512.049	85.81
512.265	91.81
512.481	85.81
512.698	95.81
512.914	94.81
513.13	81.81
513.346	99.81
513.562	94.81
513.778	86.81
513.994	90.81
514.21	101.81
514.426	102.81
514.642	118.81
514.858	122.81
515.074	146.81
515.29	378.81
515.506	1219.81
515.721	455.81
515.937	148.81
