Data from Circ_1990_H10_HRD10591_00090.txt Node
Date: Wed Jan 03 11:55:22 EST 2024
User: Yrep
Spectrometer: HR+D1059
Trigger mode: 1
Integration Time (sec): 1.000000E-1
Scans to average: 1
Electric dark correction enabled: true
Nonlinearity correction enabled: false
Boxcar width: 0
XAxis mode: Wavelengths
Number of Pixels in Spectrum: 2048
>>>>>Begin Spectral Data<<<<<
223.165	-7
223.4	-7
223.635	-7
223.869	-15
224.104	-25
224.338	-9
224.573	-21
224.808	-13
225.042	-9
225.277	-10
225.511	3
225.746	-2
225.98	-12
226.215	18
226.449	15
226.683	23
226.918	32
227.152	32
227.387	47
227.621	43
227.856	38
228.09	57
228.324	49
228.559	68
228.793	65
229.027	68
229.262	66
229.496	87
229.73	81
229.964	75
230.199	65
230.433	69
230.667	75
230.901	83
231.136	79
231.37	84
231.604	79
231.838	79
232.072	76
232.306	82
232.541	71
232.775	85
233.009	78
233.243	88
233.477	73
233.711	84
233.945	80
234.179	74
234.413	81
234.647	86
234.881	75
235.115	89
235.349	79
235.583	76
235.817	91
236.051	93
236.285	60
236.519	82
236.753	74
236.987	72
237.221	98
237.455	78
237.689	70
237.922	67
238.156	80
238.39	72
238.624	66
238.858	71
239.091	80
239.325	82
239.559	72
239.793	71
240.027	80
240.26	81
240.494	81
240.728	76
240.961	77
241.195	70
241.429	82
241.662	76
241.896	95
242.13	83
242.363	80
242.597	79
242.83	86
243.064	86
243.298	87
243.531	79
243.765	84
243.998	79
244.232	81
244.465	87
244.699	83
244.932	84
245.166	72
245.399	81
245.633	92
245.866	82
246.099	85
246.333	81
246.566	66
246.8	66
247.033	100
247.266	86
247.5	64
247.733	79
247.966	81
248.2	85
248.433	63
248.666	79
248.899	89
249.133	85
249.366	105
249.599	117
249.832	86
250.066	107
250.299	75
250.532	103
250.765	79
250.998	80
251.231	78
251.465	77
251.698	95
251.931	93
252.164	70
252.397	78
252.63	71
252.863	88
253.096	70
253.329	82
253.562	85
253.795	82
254.028	79
254.261	81
254.494	80
254.727	83
254.96	89
255.193	79
255.426	82
255.659	87
255.892	101
256.124	95
256.357	89
256.59	93
256.823	70
257.056	78
257.289	79
257.521	81
257.754	84
257.987	93
258.22	88
258.452	92
258.685	92
258.918	78
259.151	75
259.383	78
259.616	100
259.849	80
260.081	97
260.314	82
260.547	78
260.779	89
261.012	90
261.244	96
261.477	88
261.71	98
261.942	117
262.175	114
262.407	99
262.64	92
262.872	82
263.105	93
263.337	86
263.57	95
263.802	81
264.035	67
264.267	88
264.499	85
264.732	72
264.964	85
265.197	91
265.429	84
265.661	98
265.894	92
266.126	79
266.358	90
266.591	89
266.823	78
267.055	83
267.287	86
267.52	84
267.752	106
267.984	89
268.216	77
268.448	83
268.681	95
268.913	91
269.145	81
269.377	87
269.609	91
269.841	98
270.073	100
270.306	83
270.538	75
270.77	88
271.002	91
271.234	95
271.466	89
271.698	69
271.93	86
272.162	91
272.394	102
272.626	92
272.858	93
273.09	76
273.322	79
273.553	88
273.785	91
274.017	86
274.249	83
274.481	83
274.713	94
274.945	99
275.176	81
275.408	93
275.64	105
275.872	95
276.104	79
276.335	96
276.567	112
276.799	117
277.031	100
277.262	133
277.494	119
277.726	92
277.957	101
278.189	96
278.421	96
278.652	94
278.884	94
279.115	96
279.347	94
279.579	97
279.81	97
280.042	129
280.273	145
280.505	126
280.736	85
280.968	75
281.199	90
281.431	86
281.662	86
281.894	101
282.125	105
282.356	118
282.588	140
282.819	120
283.051	92
283.282	84
283.513	90
283.745	94
283.976	89
284.207	85
284.439	81
284.67	94
284.901	91
285.132	80
285.364	102
285.595	79
285.826	92
286.057	100
286.288	89
286.52	85
286.751	108
286.982	80
287.213	88
287.444	96
287.675	96
287.906	102
288.138	89
288.369	108
288.6	88
288.831	86
289.062	93
289.293	85
289.524	90
289.755	92
289.986	114
290.217	104
290.448	91
290.679	85
290.91	94
291.141	82
291.371	78
291.602	91
291.833	82
292.064	94
292.295	77
292.526	105
292.757	96
292.987	90
293.218	75
293.449	85
293.68	87
293.91	97
294.141	98
294.372	93
294.603	96
294.833	107
295.064	74
295.295	93
295.525	87
295.756	86
295.987	116
296.217	139
296.448	123
296.679	112
296.909	98
297.14	84
297.37	95
297.601	83
297.831	80
298.062	100
298.292	109
298.523	94
298.753	75
298.984	92
299.214	89
299.445	91
299.675	81
299.905	91
300.136	98
300.366	84
300.597	102
300.827	101
301.057	99
301.288	107
301.518	96
301.748	77
301.979	93
302.209	92
302.439	105
302.669	85
302.9	103
303.13	93
303.36	111
303.59	95
303.82	131
304.051	105
304.281	100
304.511	87
304.741	92
304.971	98
305.201	83
305.431	84
305.661	87
305.891	79
306.121	87
306.352	110
306.582	103
306.812	101
307.042	100
307.272	120
307.502	120
307.731	114
307.961	110
308.191	87
308.421	90
308.651	77
308.881	108
309.111	77
309.341	112
309.571	89
309.8	106
310.03	96
310.26	94
310.49	87
310.72	103
310.949	114
311.179	92
311.409	101
311.639	101
311.868	97
312.098	81
312.328	102
312.557	105
312.787	120
313.017	111
313.246	96
313.476	108
313.706	102
313.935	107
314.165	100
314.394	109
314.624	107
314.853	101
315.083	98
315.312	93
315.542	87
315.771	97
316.001	104
316.23	93
316.46	94
316.689	98
316.919	99
317.148	97
317.377	97
317.607	88
317.836	115
318.065	104
318.295	100
318.524	99
318.753	97
318.983	109
319.212	102
319.441	109
319.67	103
319.9	103
320.129	111
320.358	103
320.587	107
320.816	105
321.046	112
321.275	109
321.504	93
321.733	112
321.962	105
322.191	118
322.42	105
322.649	121
322.878	119
323.108	127
323.337	116
323.566	126
323.795	155
324.024	212
324.253	445
324.482	936
324.71	1952
324.939	2572
325.168	928
325.397	260
325.626	158
325.855	138
326.084	125
326.313	134
326.542	161
326.77	244
326.999	504
327.228	1066
327.457	1987
327.686	1556
327.914	464
328.143	331
328.372	350
328.6	214
328.829	152
329.058	155
329.287	143
329.515	142
329.744	173
329.972	265
330.201	499
330.43	639
330.658	333
330.887	203
331.115	152
331.344	128
331.572	105
331.801	112
332.03	107
332.258	104
332.486	104
332.715	101
332.943	88
333.172	120
333.4	105
333.629	115
333.857	170
334.085	252
334.314	491
334.542	857
334.771	785
334.999	244
335.227	119
335.455	119
335.684	110
335.912	95
336.14	113
336.369	104
336.597	114
336.825	98
337.053	104
337.281	95
337.51	96
337.738	92
337.966	96
338.194	101
338.422	113
338.65	101
338.878	95
339.106	96
339.334	99
339.562	92
339.79	97
340.018	105
340.246	87
340.474	106
340.702	89
340.93	89
341.158	115
341.386	100
341.614	96
341.842	87
342.07	107
342.298	97
342.526	90
342.754	82
342.981	89
343.209	92
343.437	104
343.665	96
343.893	108
344.12	107
344.348	100
344.576	96
344.804	93
345.031	109
345.259	120
345.487	95
345.714	90
345.942	87
346.17	103
346.397	89
346.625	91
346.853	99
347.08	100
347.308	98
347.535	108
347.763	105
347.99	111
348.218	100
348.445	107
348.673	103
348.9	98
349.128	110
349.355	95
349.583	90
349.81	97
350.037	97
350.265	101
350.492	107
350.72	100
350.947	104
351.174	127
351.402	99
351.629	108
351.856	105
352.083	102
352.311	100
352.538	109
352.765	113
352.992	131
353.22	105
353.447	99
353.674	99
353.901	93
354.128	97
354.355	102
354.583	98
354.81	98
355.037	100
355.264	99
355.491	96
355.718	102
355.945	92
356.172	100
356.399	91
356.626	95
356.853	118
357.08	92
357.307	111
357.534	87
357.761	89
357.988	103
358.215	87
358.441	91
358.668	97
358.895	84
359.122	94
359.349	105
359.576	102
359.802	105
360.029	131
360.256	134
360.483	108
360.709	95
360.936	95
361.163	90
361.39	91
361.616	94
361.843	90
362.07	98
362.296	92
362.523	91
362.749	100
362.976	105
363.203	84
363.429	100
363.656	88
363.882	87
364.109	99
364.335	98
364.562	104
364.788	99
365.015	97
365.241	104
365.468	111
365.694	99
365.92	87
366.147	97
366.373	88
366.599	100
366.826	92
367.052	86
367.278	96
367.505	92
367.731	110
367.957	99
368.184	77
368.41	106
368.636	130
368.862	118
369.089	108
369.315	96
369.541	83
369.767	76
369.993	93
370.219	100
370.445	88
370.672	86
370.898	86
371.124	94
371.35	108
371.576	91
371.802	96
372.028	98
372.254	97
372.48	89
372.706	80
372.932	93
373.158	92
373.384	77
373.61	100
373.835	89
374.061	87
374.287	93
374.513	94
374.739	85
374.965	94
375.191	90
375.416	87
375.642	104
375.868	87
376.094	93
376.319	102
376.545	96
376.771	84
376.997	95
377.222	107
377.448	82
377.674	92
377.899	96
378.125	86
378.35	93
378.576	101
378.802	95
379.027	102
379.253	92
379.478	95
379.704	96
379.929	102
380.155	81
380.38	94
380.606	105
380.831	113
381.057	107
381.282	105
381.507	90
381.733	93
381.958	89
382.184	110
382.409	97
382.634	110
382.86	106
383.085	101
383.31	87
383.535	100
383.761	100
383.986	88
384.211	94
384.436	87
384.662	95
384.887	106
385.112	101
385.337	120
385.562	115
385.787	121
386.013	103
386.238	106
386.463	113
386.688	111
386.913	103
387.138	109
387.363	118
387.588	105
387.813	105
388.038	94
388.263	126
388.488	108
388.713	101
388.938	96
389.163	108
389.387	95
389.612	95
389.837	95
390.062	99
390.287	97
390.512	102
390.736	98
390.961	91
391.186	97
391.411	94
391.636	78
391.86	88
392.085	96
392.31	96
392.534	76
392.759	94
392.984	85
393.208	90
393.433	104
393.658	84
393.882	80
394.107	104
394.331	96
394.556	88
394.78	85
395.005	91
395.229	91
395.454	98
395.678	101
395.903	99
396.127	82
396.352	110
396.576	82
396.801	92
397.025	75
397.249	79
397.474	85
397.698	96
397.922	88
398.147	88
398.371	92
398.595	83
398.82	81
399.044	90
399.268	74
399.492	85
399.717	80
399.941	89
400.165	90
400.389	80
400.613	88
400.837	86
401.062	93
401.286	94
401.51	84
401.734	100
401.958	97
402.182	124
402.406	165
402.63	125
402.854	84
403.078	86
403.302	72
403.526	86
403.75	95
403.974	92
404.198	100
404.422	84
404.645	100
404.869	105
405.093	102
405.317	108
405.541	114
405.765	110
405.988	117
406.212	184
406.436	249
406.66	157
406.883	113
407.107	100
407.331	96
407.555	107
407.778	101
408.002	101
408.226	92
408.449	84
408.673	87
408.896	91
409.12	99
409.344	84
409.567	93
409.791	102
410.014	115
410.238	93
410.461	102
410.685	104
410.908	96
411.132	122
411.355	98
411.578	95
411.802	93
412.025	78
412.249	94
412.472	106
412.695	124
412.919	96
413.142	72
413.365	72
413.589	93
413.812	87
414.035	92
414.258	83
414.482	100
414.705	98
414.928	105
415.151	94
415.374	96
415.597	92
415.821	88
416.044	102
416.267	97
416.49	77
416.713	84
416.936	77
417.159	93
417.382	82
417.605	105
417.828	98
418.051	93
418.274	94
418.497	94
418.72	86
418.943	96
419.166	99
419.389	89
419.611	108
419.834	88
420.057	88
420.28	91
420.503	88
420.726	87
420.948	93
421.171	100
421.394	93
421.617	86
421.839	102
422.062	88
422.285	102
422.507	95
422.73	115
422.953	99
423.175	93
423.398	95
423.621	93
423.843	80
424.066	96
424.288	91
424.511	101
424.733	113
424.956	117
425.178	102
425.401	109
425.623	102
425.846	100
426.068	90
426.291	90
426.513	89
426.735	99
426.958	92
427.18	117
427.402	165
427.625	194
427.847	187
428.069	180
428.292	118
428.514	85
428.736	89
428.958	97
429.181	87
429.403	92
429.625	80
429.847	99
430.069	107
430.292	98
430.514	75
430.736	96
430.958	82
431.18	83
431.402	90
431.624	91
431.846	89
432.068	91
432.29	81
432.512	101
432.734	94
432.956	88
433.178	105
433.4	107
433.622	100
433.844	89
434.066	103
434.287	84
434.509	94
434.731	85
434.953	84
435.175	86
435.397	90
435.618	104
435.84	97
436.062	139
436.284	127
436.505	112
436.727	99
436.949	92
437.17	90
437.392	89
437.614	91
437.835	108
438.057	120
438.278	115
438.5	106
438.721	166
438.943	115
439.165	100
439.386	87
439.608	96
439.829	103
440.05	136
440.272	165
440.493	114
440.715	92
440.936	92
441.158	73
441.379	96
441.6	89
441.822	85
442.043	92
442.264	110
442.486	103
442.707	102
442.928	101
443.149	135
443.371	141
443.592	116
443.813	120
444.034	126
444.255	114
444.476	93
444.698	96
444.919	95
445.14	130
445.361	131
445.582	130
445.803	154
446.024	152
446.245	153
446.466	124
446.687	103
446.908	117
447.129	92
447.35	90
447.571	92
447.792	91
448.013	91
448.234	104
448.455	105
448.675	126
448.896	131
449.117	100
449.338	98
449.559	142
449.779	149
450	115
450.221	87
450.442	109
450.662	95
450.883	111
451.104	118
451.324	101
451.545	98
451.766	105
451.986	83
452.207	89
452.428	79
452.648	89
452.869	129
453.089	114
453.31	92
453.53	101
453.751	90
453.971	86
454.192	105
454.412	93
454.633	83
454.853	88
455.073	87
455.294	73
455.514	98
455.734	100
455.955	68
456.175	88
456.395	86
456.616	85
456.836	91
457.056	82
457.276	80
457.497	95
457.717	89
457.937	96
458.157	83
458.377	91
458.598	114
458.818	156
459.038	170
459.258	114
459.478	87
459.698	82
459.918	96
460.138	81
460.358	86
460.578	77
460.798	100
461.018	96
461.238	85
461.458	96
461.678	88
461.898	80
462.118	73
462.338	89
462.558	91
462.777	83
462.997	93
463.217	96
463.437	93
463.657	100
463.876	94
464.096	79
464.316	87
464.536	86
464.755	82
464.975	114
465.195	166
465.414	173
465.634	109
465.854	92
466.073	86
466.293	109
466.512	87
466.732	90
466.951	108
467.171	95
467.391	97
467.61	128
467.829	140
468.049	291
468.268	401
468.488	144
468.707	96
468.927	88
469.146	95
469.365	87
469.585	93
469.804	93
470.023	118
470.243	95
470.462	110
470.681	108
470.901	97
471.12	88
471.339	83
471.558	99
471.777	125
471.997	194
472.216	522
472.435	1117
472.654	316
472.873	116
473.092	92
473.311	96
473.53	88
473.749	96
473.968	84
474.187	112
474.406	103
474.625	97
474.844	83
475.063	80
475.282	92
475.501	86
475.72	98
475.939	83
476.158	94
476.377	94
476.596	102
476.814	97
477.033	95
477.252	97
477.471	95
477.69	90
477.908	87
478.127	95
478.346	95
478.564	85
478.783	102
479.002	96
479.22	102
479.439	106
479.658	114
479.876	92
480.095	108
480.313	101
480.532	125
480.751	193
480.969	539
481.188	1987
481.406	1138
481.624	217
481.843	120
482.061	99
482.28	99
482.498	80
482.717	77
482.935	91
483.153	90
483.372	96
483.59	93
483.808	98
484.027	85
484.245	88
484.463	93
484.681	100
484.9	94
485.118	93
485.336	96
485.554	99
485.772	112
485.99	108
486.209	96
486.427	106
486.645	103
486.863	111
487.081	105
487.299	93
487.517	104
487.735	90
487.953	101
488.171	101
488.389	91
488.607	102
488.825	108
489.043	105
489.261	88
489.479	95
489.696	85
489.914	82
490.132	86
490.35	92
490.568	74
490.786	82
491.003	84
491.221	96
491.439	92
491.657	108
491.874	92
492.092	93
492.31	100
492.527	95
492.745	91
492.963	91
493.18	96
493.398	84
493.615	101
493.833	89
494.05	97
494.268	93
494.485	84
494.703	85
494.92	89
495.138	95
495.355	89
495.573	86
495.79	93
496.008	100
496.225	91
496.442	84
496.66	97
496.877	96
497.094	92
497.312	84
497.529	81
497.746	84
497.963	87
498.181	93
498.398	90
498.615	103
498.832	105
499.049	98
499.267	101
499.484	104
499.701	99
499.918	90
500.135	96
500.352	87
500.569	92
500.786	112
501.003	93
501.22	85
501.437	90
501.654	96
501.871	107
502.088	108
502.305	87
502.522	95
502.739	102
502.956	93
503.172	95
503.389	109
503.606	120
503.823	99
504.04	94
504.256	89
504.473	94
504.69	94
504.907	97
505.123	90
505.34	95
505.557	91
505.773	93
505.99	90
506.207	85
506.423	79
506.64	87
506.856	90
507.073	88
507.289	95
507.506	104
507.722	128
507.939	118
508.155	102
508.372	95
508.588	98
508.805	102
509.021	85
509.238	112
509.454	95
509.67	97
509.887	113
510.103	135
510.319	214
510.536	703
510.752	2201
510.968	634
511.184	155
511.401	114
511.617	103
511.833	101
512.049	91
512.265	82
512.481	92
512.698	88
512.914	99
513.13	97
513.346	94
513.562	95
513.778	81
513.994	95
514.21	99
514.426	117
514.642	143
514.858	143
515.074	164
515.29	503
515.506	1584
515.721	592
515.937	166
516.153	113
516.369	103
516.585	93
516.801	99
517.016	112
517.232	98
517.448	81
517.664	104
517.879	101
518.095	107
518.311	104
518.527	101
518.742	105
518.958	98
519.173	85
519.389	94
519.605	84
519.82	97
520.036	125
520.251	117
520.467	116
520.682	95
520.898	93
521.113	127
521.329	125
521.544	227
521.76	626
521.975	2631
522.19	1577
522.406	325
522.621	140
522.836	132
523.052	97
523.267	105
523.482	94
523.698	103
523.913	124
524.128	114
524.343	83
524.559	98
524.774	89
524.989	102
525.204	104
525.419	93
525.634	93
525.849	95
526.064	93
526.28	99
526.495	96
526.71	95
526.925	96
527.14	86
527.355	87
527.57	100
527.785	76
527.999	95
528.214	83
528.429	101
528.644	101
528.859	83
529.074	101
529.289	126
529.503	205
529.718	98
529.933	96
530.148	93
530.363	84
530.577	83
530.792	79
531.007	99
531.221	98
531.436	86
531.651	90
531.865	91
532.08	90
532.295	92
532.509	99
532.724	87
532.938	85
533.153	103
533.367	91
533.582	121
533.796	91
534.011	98
534.225	87
534.44	103
534.654	104
534.868	83
535.083	106
535.297	98
535.511	111
535.726	120
535.94	105
536.154	92
536.369	88
536.583	72
536.797	104
537.011	99
537.225	94
537.44	90
537.654	84
537.868	95
538.082	89
538.296	92
538.51	97
538.724	98
538.938	93
539.153	97
539.367	108
539.581	104
539.795	91
540.009	87
540.222	76
540.436	78
540.65	88
540.864	93
541.078	108
541.292	95
541.506	83
541.72	91
541.934	94
542.147	100
542.361	102
542.575	89
542.789	81
543.002	96
543.216	84
543.43	100
543.644	91
543.857	100
544.071	82
544.285	87
544.498	89
544.712	103
544.925	92
545.139	90
545.352	79
545.566	98
545.779	90
545.993	80
546.206	85
546.42	86
546.633	93
546.847	94
547.06	91
547.274	91
547.487	83
547.7	92
547.914	91
548.127	98
548.34	86
548.554	94
548.767	93
548.98	91
549.193	95
549.407	89
549.62	92
549.833	78
550.046	81
550.259	90
550.473	96
550.686	100
550.899	89
551.112	95
551.325	97
551.538	95
551.751	92
551.964	78
552.177	84
552.39	100
552.603	84
552.816	103
553.029	98
553.242	105
553.455	92
553.667	118
553.88	107
554.093	89
554.306	105
554.519	95
554.732	84
554.944	91
555.157	87
555.37	95
555.583	84
555.795	98
556.008	91
556.221	87
556.433	91
556.646	95
556.859	84
557.071	98
557.284	89
557.496	90
557.709	87
557.921	97
558.134	87
558.346	93
558.559	72
558.771	88
558.984	86
559.196	95
559.409	83
559.621	76
559.833	85
560.046	95
560.258	95
560.47	107
560.683	93
560.895	78
561.107	91
561.32	89
561.532	90
561.744	75
561.956	85
562.168	99
562.381	87
562.593	98
562.805	86
563.017	93
563.229	84
563.441	98
563.653	74
563.865	86
564.077	92
564.289	93
564.501	103
564.713	100
564.925	99
565.137	114
565.349	91
565.561	88
565.773	97
565.985	86
566.197	99
566.408	84
566.62	75
566.832	91
567.044	81
567.255	94
567.467	80
567.679	87
567.891	79
568.102	86
568.314	91
568.526	82
568.737	99
568.949	100
569.161	96
569.372	79
569.584	88
569.795	91
570.007	85
570.218	228
570.43	145
570.641	91
570.853	94
571.064	103
571.276	79
571.487	81
571.698	100
571.91	89
572.121	97
572.333	92
572.544	88
572.755	83
572.966	76
573.178	95
573.389	87
573.6	84
573.811	105
574.023	77
574.234	79
574.445	89
574.656	95
574.867	83
575.078	105
575.289	84
575.501	91
575.712	84
575.923	94
576.134	86
576.345	82
576.556	87
576.767	94
576.978	99
577.188	96
577.399	96
577.61	91
577.821	110
578.032	110
578.243	251
578.454	697
578.665	212
578.875	109
579.086	69
579.297	80
579.508	105
579.718	88
579.929	97
580.14	95
580.35	102
580.561	87
580.772	104
580.982	86
581.193	84
581.403	90
