Data from Circ_1990_H10_HRD10591_00024.txt Node
Date: Wed Jan 03 11:55:08 EST 2024
User: Yrep
Spectrometer: HR+D1059
Trigger mode: 1
Integration Time (sec): 1.000000E-1
Scans to average: 1
Electric dark correction enabled: true
Nonlinearity correction enabled: false
Boxcar width: 0
XAxis mode: Wavelengths
Number of Pixels in Spectrum: 2048
>>>>>Begin Spectral Data<<<<<
223.165	-30
223.4	-30
223.635	-30
223.869	-15
224.104	-32
224.338	-12
224.573	-11
224.808	-13
225.042	-2
225.277	4
225.511	-9
225.746	-8
225.98	13
226.215	4
226.449	23
226.683	19
226.918	27
227.152	42
227.387	30
227.621	31
227.856	48
228.09	53
228.324	65
228.559	65
228.793	61
229.027	54
229.262	71
229.496	68
229.73	80
229.964	87
230.199	80
230.433	71
230.667	85
230.901	79
231.136	72
231.37	83
231.604	82
231.838	79
232.072	89
232.306	81
232.541	76
232.775	83
233.009	89
233.243	84
233.477	81
233.711	83
233.945	97
234.179	87
234.413	89
234.647	79
234.881	71
235.115	85
235.349	88
235.583	85
235.817	76
236.051	76
236.285	80
236.519	75
236.753	83
236.987	79
237.221	87
237.455	87
237.689	79
237.922	81
238.156	67
238.39	70
238.624	69
238.858	76
239.091	86
239.325	91
239.559	78
239.793	87
240.027	76
240.26	88
240.494	88
240.728	87
240.961	93
241.195	78
241.429	71
241.662	71
241.896	81
242.13	79
242.363	77
242.597	74
242.83	72
243.064	79
243.298	63
243.531	89
243.765	83
243.998	73
244.232	77
244.465	82
244.699	88
244.932	82
245.166	85
245.399	88
245.633	75
245.866	62
246.099	82
246.333	78
246.566	89
246.8	73
247.033	84
247.266	77
247.5	62
247.733	88
247.966	68
248.2	73
248.433	62
248.666	81
248.899	72
249.133	77
249.366	92
249.599	101
249.832	96
250.066	96
250.299	90
250.532	83
250.765	94
250.998	90
251.231	87
251.465	77
251.698	81
251.931	84
252.164	70
252.397	81
252.63	91
252.863	77
253.096	81
253.329	75
253.562	92
253.795	81
254.028	85
254.261	77
254.494	71
254.727	84
254.96	97
255.193	86
255.426	77
255.659	85
255.892	78
256.124	83
256.357	94
256.59	89
256.823	80
257.056	87
257.289	88
257.521	85
257.754	87
257.987	84
258.22	85
258.452	71
258.685	77
258.918	74
259.151	69
259.383	75
259.616	83
259.849	80
260.081	74
260.314	91
260.547	86
260.779	86
261.012	81
261.244	90
261.477	74
261.71	97
261.942	93
262.175	98
262.407	95
262.64	81
262.872	77
263.105	77
263.337	89
263.57	74
263.802	85
264.035	92
264.267	75
264.499	75
264.732	83
264.964	86
265.197	79
265.429	81
265.661	89
265.894	83
266.126	83
266.358	84
266.591	89
266.823	86
267.055	87
267.287	87
267.52	79
267.752	78
267.984	94
268.216	79
268.448	81
268.681	68
268.913	79
269.145	86
269.377	91
269.609	78
269.841	83
270.073	98
270.306	94
270.538	85
270.77	83
271.002	78
271.234	82
271.466	87
271.698	85
271.93	88
272.162	90
272.394	94
272.626	74
272.858	72
273.09	94
273.322	99
273.553	81
273.785	94
274.017	79
274.249	84
274.481	90
274.713	84
274.945	91
275.176	88
275.408	69
275.64	91
275.872	90
276.104	86
276.335	94
276.567	88
276.799	106
277.031	90
277.262	95
277.494	90
277.726	96
277.957	93
278.189	97
278.421	72
278.652	102
278.884	86
279.115	91
279.347	91
279.579	88
279.81	85
280.042	93
280.273	110
280.505	102
280.736	105
280.968	67
281.199	94
281.431	87
281.662	85
281.894	81
282.125	93
282.356	110
282.588	134
282.819	106
283.051	88
283.282	98
283.513	94
283.745	93
283.976	74
284.207	79
284.439	83
284.67	94
284.901	82
285.132	100
285.364	86
285.595	91
285.826	98
286.057	85
286.288	94
286.52	101
286.751	80
286.982	87
287.213	78
287.444	94
287.675	84
287.906	98
288.138	75
288.369	85
288.6	87
288.831	84
289.062	92
289.293	89
289.524	95
289.755	82
289.986	91
290.217	103
290.448	85
290.679	83
290.91	99
291.141	84
291.371	91
291.602	81
291.833	83
292.064	89
292.295	87
292.526	97
292.757	74
292.987	77
293.218	80
293.449	88
293.68	94
293.91	82
294.141	85
294.372	72
294.603	95
294.833	98
295.064	80
295.295	87
295.525	90
295.756	103
295.987	110
296.217	116
296.448	120
296.679	101
296.909	83
297.14	89
297.37	101
297.601	82
297.831	96
298.062	92
298.292	85
298.523	82
298.753	97
298.984	89
299.214	95
299.445	96
299.675	94
299.905	105
300.136	103
300.366	99
300.597	91
300.827	86
301.057	86
301.288	102
301.518	103
301.748	103
301.979	106
302.209	80
302.439	93
302.669	87
302.9	98
303.13	99
303.36	104
303.59	113
303.82	101
304.051	98
304.281	83
304.511	90
304.741	88
304.971	92
305.201	85
305.431	82
305.661	97
305.891	82
306.121	84
306.352	106
306.582	95
306.812	95
307.042	92
307.272	103
307.502	110
307.731	108
307.961	90
308.191	87
308.421	94
308.651	91
308.881	92
309.111	79
309.341	92
309.571	98
309.8	73
310.03	96
310.26	90
310.49	86
310.72	102
310.949	103
311.179	107
311.409	90
311.639	96
311.868	100
312.098	81
312.328	90
312.557	99
312.787	92
313.017	88
313.246	89
313.476	85
313.706	92
313.935	104
314.165	94
314.394	106
314.624	86
314.853	82
315.083	99
315.312	87
315.542	86
315.771	78
316.001	96
316.23	93
316.46	92
316.689	96
316.919	107
317.148	104
317.377	93
317.607	98
317.836	84
318.065	93
318.295	95
318.524	90
318.753	95
318.983	87
319.212	99
319.441	96
319.67	104
319.9	100
320.129	94
320.358	70
320.587	87
320.816	91
321.046	101
321.275	83
321.504	106
321.733	85
321.962	85
322.191	102
322.42	107
322.649	102
322.878	113
323.108	113
323.337	114
323.566	106
323.795	132
324.024	170
324.253	307
324.482	627
324.71	1271
324.939	1649
325.168	608
325.397	215
325.626	141
325.855	128
326.084	107
326.313	132
326.542	136
326.77	200
326.999	366
327.228	725
327.457	1313
327.686	1049
327.914	305
328.143	198
328.372	163
328.6	128
328.829	102
329.058	119
329.287	131
329.515	113
329.744	120
329.972	146
330.201	191
330.43	237
330.658	146
330.887	125
331.115	126
331.344	95
331.572	89
331.801	94
332.03	92
332.258	96
332.486	87
332.715	96
332.943	85
333.172	93
333.4	86
333.629	102
333.857	119
334.085	137
334.314	188
334.542	303
334.771	256
334.999	138
335.227	99
335.455	87
335.684	111
335.912	90
336.14	100
336.369	103
336.597	102
336.825	98
337.053	100
337.281	91
337.51	105
337.738	98
337.966	89
338.194	77
338.422	89
338.65	102
338.878	96
339.106	79
339.334	86
339.562	86
339.79	89
340.018	92
340.246	88
340.474	88
340.702	87
340.93	89
341.158	93
341.386	95
341.614	100
341.842	78
342.07	89
342.298	97
342.526	114
342.754	86
342.981	78
343.209	90
343.437	107
343.665	83
343.893	95
344.12	91
344.348	85
344.576	90
344.804	102
345.031	93
345.259	75
345.487	92
345.714	105
345.942	94
346.17	89
346.397	91
346.625	95
346.853	83
347.08	86
347.308	102
347.535	99
347.763	95
347.99	83
348.218	84
348.445	108
348.673	96
348.9	88
349.128	101
349.355	87
349.583	94
349.81	97
350.037	104
350.265	98
350.492	96
350.72	81
350.947	77
351.174	96
351.402	109
351.629	97
351.856	106
352.083	101
352.311	91
352.538	107
352.765	94
352.992	104
353.22	103
353.447	119
353.674	105
353.901	99
354.128	105
354.355	94
354.583	96
354.81	107
355.037	92
355.264	102
355.491	91
355.718	82
355.945	104
356.172	101
356.399	113
356.626	98
356.853	88
357.08	97
357.307	88
357.534	82
357.761	92
357.988	106
358.215	105
358.441	99
358.668	87
358.895	115
359.122	98
359.349	111
359.576	98
359.802	99
360.029	111
360.256	109
360.483	101
360.709	92
360.936	97
361.163	91
361.39	98
361.616	82
361.843	96
362.07	95
362.296	103
362.523	104
362.749	92
362.976	89
363.203	102
363.429	100
363.656	106
363.882	88
364.109	89
364.335	95
364.562	80
364.788	89
365.015	92
365.241	101
365.468	101
365.694	100
365.92	90
366.147	89
366.373	91
366.599	88
366.826	99
367.052	96
367.278	93
367.505	85
367.731	106
367.957	93
368.184	95
368.41	98
368.636	107
368.862	98
369.089	108
369.315	83
369.541	85
369.767	82
369.993	80
370.219	82
370.445	82
370.672	95
370.898	97
371.124	105
371.35	101
371.576	110
371.802	92
372.028	96
372.254	100
372.48	104
372.706	80
372.932	93
373.158	81
373.384	83
373.61	90
373.835	90
374.061	99
374.287	105
374.513	97
374.739	91
374.965	86
375.191	89
375.416	106
375.642	86
375.868	94
376.094	94
376.319	99
376.545	94
376.771	89
376.997	89
377.222	99
377.448	94
377.674	97
377.899	104
378.125	110
378.35	106
378.576	97
378.802	103
379.027	96
379.253	105
379.478	118
379.704	102
379.929	99
380.155	116
380.38	101
380.606	96
380.831	99
381.057	117
381.282	120
381.507	117
381.733	112
381.958	98
382.184	115
382.409	102
382.634	103
382.86	113
383.085	118
383.31	126
383.535	115
383.761	113
383.986	109
384.211	103
384.436	130
384.662	119
384.887	123
385.112	128
385.337	126
385.562	137
385.787	123
386.013	130
386.238	132
386.463	120
386.688	123
386.913	128
387.138	145
387.363	124
387.588	112
387.813	120
388.038	129
388.263	145
388.488	145
388.713	108
388.938	101
389.163	80
389.387	83
389.612	87
389.837	87
390.062	100
390.287	99
390.512	101
390.736	93
390.961	92
391.186	100
391.411	81
391.636	96
391.86	82
392.085	73
392.31	95
392.534	96
392.759	82
392.984	78
393.208	85
393.433	92
393.658	91
393.882	93
394.107	90
394.331	91
394.556	70
394.78	88
395.005	89
395.229	74
395.454	93
395.678	90
395.903	102
396.127	90
396.352	96
396.576	90
396.801	110
397.025	94
397.249	78
397.474	93
397.698	93
397.922	87
398.147	100
398.371	85
398.595	89
398.82	78
399.044	85
399.268	96
399.492	94
399.717	110
399.941	94
400.165	86
400.389	107
400.613	89
400.837	91
401.062	98
401.286	93
401.51	101
401.734	88
401.958	98
402.182	111
402.406	142
402.63	102
402.854	96
403.078	94
403.302	72
403.526	80
403.75	77
403.974	81
404.198	93
404.422	77
404.645	94
404.869	87
405.093	96
405.317	108
405.541	109
405.765	93
405.988	103
406.212	145
406.436	179
406.66	144
406.883	119
407.107	95
407.331	102
407.555	93
407.778	97
408.002	88
408.226	98
408.449	80
408.673	78
408.896	94
409.12	78
409.344	84
409.567	109
409.791	100
410.014	86
410.238	90
410.461	88
410.685	96
410.908	112
411.132	95
411.355	109
411.578	98
411.802	102
412.025	93
412.249	102
412.472	105
412.695	102
412.919	109
413.142	99
413.365	91
413.589	93
413.812	98
414.035	91
414.258	95
414.482	93
414.705	81
414.928	81
415.151	93
415.374	96
415.597	101
415.821	105
416.044	87
416.267	99
416.49	70
416.713	87
416.936	107
417.159	95
417.382	87
417.605	99
417.828	92
418.051	95
418.274	96
418.497	90
418.72	82
418.943	96
419.166	90
419.389	91
419.611	97
419.834	88
420.057	94
420.28	72
420.503	95
420.726	81
420.948	93
421.171	100
421.394	91
421.617	101
421.839	96
422.062	79
422.285	89
422.507	92
422.73	89
422.953	100
423.175	93
423.398	101
423.621	96
423.843	97
424.066	86
424.288	89
424.511	94
424.733	103
424.956	102
425.178	106
425.401	102
425.623	95
425.846	96
426.068	70
426.291	94
426.513	99
426.735	90
426.958	86
427.18	106
427.402	145
427.625	148
427.847	136
428.069	110
428.292	103
428.514	87
428.736	89
428.958	98
429.181	82
429.403	95
429.625	87
429.847	98
430.069	104
430.292	93
430.514	97
430.736	88
430.958	91
431.18	87
431.402	74
431.624	84
431.846	94
432.068	87
432.29	83
432.512	92
432.734	95
432.956	90
433.178	105
433.4	105
433.622	112
433.844	95
434.066	85
434.287	82
434.509	85
434.731	87
434.953	77
435.175	99
435.397	81
435.618	104
435.84	93
436.062	101
436.284	120
436.505	104
436.727	103
436.949	94
437.17	81
437.392	96
437.614	103
437.835	94
438.057	89
438.278	106
438.5	112
438.721	105
438.943	111
439.165	103
439.386	72
439.608	96
439.829	88
440.05	115
440.272	123
440.493	80
440.715	87
440.936	94
441.158	110
441.379	83
441.6	91
441.822	86
442.043	104
442.264	104
442.486	101
442.707	93
442.928	112
443.149	125
443.371	117
443.592	91
443.813	105
444.034	117
444.255	100
444.476	95
444.698	88
444.919	88
445.14	120
445.361	124
445.582	107
445.803	136
446.024	113
446.245	121
446.466	99
446.687	102
446.908	84
447.129	88
447.35	90
447.571	80
447.792	96
448.013	105
448.234	112
448.455	106
448.675	95
448.896	111
449.117	97
449.338	93
449.559	128
449.779	120
450	105
450.221	105
450.442	101
450.662	94
450.883	93
451.104	117
451.324	99
451.545	83
451.766	89
451.986	72
452.207	82
452.428	97
452.648	98
452.869	91
453.089	98
453.31	91
453.53	82
453.751	101
453.971	93
454.192	116
454.412	73
454.633	104
454.853	92
455.073	86
455.294	102
455.514	97
455.734	104
455.955	79
456.175	95
456.395	91
456.616	88
456.836	90
457.056	84
457.276	71
457.497	102
457.717	89
457.937	96
458.157	84
458.377	94
458.598	95
458.818	134
459.038	141
459.258	104
459.478	79
459.698	90
459.918	78
460.138	104
460.358	82
460.578	77
460.798	81
461.018	82
461.238	91
461.458	77
461.678	82
461.898	102
462.118	90
462.338	93
462.558	96
462.777	88
462.997	105
463.217	93
463.437	79
463.657	74
463.876	102
464.096	94
464.316	97
464.536	108
464.755	93
464.975	93
465.195	143
465.414	131
465.634	93
465.854	87
466.073	96
466.293	96
466.512	95
466.732	84
466.951	89
467.171	94
467.391	93
467.61	100
467.829	114
468.049	161
468.268	171
468.488	102
468.707	88
468.927	88
469.146	95
469.365	94
469.585	88
469.804	101
470.023	103
470.243	84
470.462	86
470.681	98
470.901	83
471.12	92
471.339	93
471.558	89
471.777	99
471.997	118
472.216	218
472.435	362
472.654	165
472.873	106
473.092	91
473.311	97
473.53	78
473.749	106
473.968	97
474.187	96
474.406	76
474.625	92
474.844	80
475.063	97
475.282	94
475.501	89
475.72	86
475.939	84
476.158	85
476.377	89
476.596	96
476.814	96
477.033	88
477.252	89
477.471	89
477.69	89
477.908	93
478.127	89
478.346	77
478.564	94
478.783	92
479.002	91
479.22	93
479.439	100
479.658	105
479.876	101
480.095	94
480.313	101
480.532	89
480.751	119
480.969	223
481.188	617
481.406	371
481.624	137
481.843	100
482.061	94
482.28	95
482.498	92
482.717	93
482.935	99
483.153	94
483.372	113
483.59	89
483.808	96
484.027	97
484.245	79
484.463	103
484.681	112
484.9	90
485.118	103
485.336	107
485.554	109
485.772	102
485.99	119
486.209	107
486.427	99
486.645	100
486.863	109
487.081	101
487.299	102
487.517	89
487.735	100
487.953	97
488.171	90
488.389	86
488.607	94
488.825	82
489.043	88
489.261	90
489.479	93
489.696	99
489.914	90
490.132	100
490.35	86
490.568	99
490.786	93
491.003	81
491.221	98
491.439	104
491.657	83
491.874	94
492.092	101
492.31	93
492.527	96
492.745	97
492.963	93
493.18	107
493.398	98
493.615	86
493.833	99
494.05	92
494.268	94
494.485	97
494.703	93
494.92	82
495.138	98
495.355	82
495.573	90
495.79	96
496.008	85
496.225	93
496.442	90
496.66	98
496.877	96
497.094	96
497.312	86
497.529	75
497.746	100
497.963	92
498.181	87
498.398	98
498.615	104
498.832	99
499.049	83
499.267	112
499.484	88
499.701	95
499.918	92
500.135	89
500.352	86
500.569	91
500.786	95
501.003	89
501.22	103
501.437	78
501.654	97
501.871	106
502.088	93
502.305	100
502.522	94
502.739	91
502.956	104
503.172	99
503.389	100
503.606	117
503.823	107
504.04	97
504.256	85
504.473	89
504.69	84
504.907	91
505.123	90
505.34	88
505.557	89
505.773	95
505.99	87
506.207	78
506.423	98
506.64	102
506.856	87
507.073	103
507.289	107
507.506	109
507.722	111
507.939	118
508.155	96
508.372	102
508.588	104
508.805	89
509.021	93
509.238	95
509.454	104
509.67	97
509.887	116
510.103	111
510.319	177
510.536	610
510.752	1775
510.968	509
511.184	132
511.401	108
511.617	85
511.833	105
512.049	93
512.265	81
512.481	97
512.698	80
512.914	97
513.13	101
513.346	93
513.562	106
513.778	107
513.994	98
514.21	113
514.426	126
514.642	125
514.858	128
515.074	143
515.29	362
515.506	1033
515.721	393
515.937	132
516.153	99
516.369	101
516.585	98
516.801	92
517.016	89
517.232	93
517.448	101
517.664	105
517.879	98
518.095	97
518.311	85
518.527	98
518.742	113
518.958	86
519.173	100
519.389	104
519.605	104
519.82	106
520.036	105
520.251	103
520.467	110
520.682	98
520.898	118
521.113	103
521.329	120
521.544	167
521.76	419
521.975	1723
522.19	1052
522.406	239
522.621	117
522.836	103
523.052	102
523.267	103
523.482	97
523.698	94
523.913	121
524.128	118
524.343	91
524.559	91
524.774	97
524.989	91
525.204	108
525.419	99
525.634	106
525.849	78
526.064	89
526.28	90
526.495	86
526.71	87
526.925	102
527.14	81
527.355	97
527.57	90
527.785	88
527.999	83
528.214	83
528.429	105
528.644	85
528.859	85
529.074	101
529.289	113
529.503	140
529.718	89
529.933	92
530.148	92
530.363	89
530.577	94
530.792	95
531.007	86
531.221	101
531.436	87
531.651	84
531.865	82
532.08	96
532.295	95
532.509	94
532.724	98
532.938	112
533.153	99
533.367	105
533.582	97
533.796	81
534.011	90
534.225	82
534.44	81
534.654	92
534.868	101
535.083	94
535.297	89
535.511	85
535.726	104
535.94	97
536.154	92
536.369	110
536.583	110
536.797	91
537.011	105
537.225	83
537.44	89
537.654	104
537.868	104
538.082	80
538.296	79
538.51	91
538.724	96
538.938	91
539.153	95
539.367	93
539.581	98
539.795	87
540.009	91
540.222	94
540.436	104
540.65	92
540.864	97
541.078	105
541.292	77
541.506	83
541.72	101
541.934	90
542.147	96
542.361	88
542.575	88
542.789	91
543.002	87
543.216	93
543.43	95
543.644	90
543.857	94
544.071	84
544.285	107
544.498	88
544.712	84
544.925	107
545.139	104
545.352	91
545.566	93
545.779	102
545.993	88
546.206	89
546.42	111
546.633	74
546.847	98
547.06	112
547.274	103
547.487	106
547.7	93
547.914	94
548.127	94
548.34	97
548.554	90
548.767	100
548.98	84
549.193	81
549.407	73
549.62	88
549.833	95
550.046	89
550.259	98
550.473	99
550.686	96
550.899	86
551.112	84
551.325	97
551.538	87
551.751	87
551.964	86
552.177	97
552.39	77
552.603	83
552.816	88
553.029	93
553.242	91
553.455	102
553.667	96
553.88	104
554.093	89
554.306	96
554.519	94
554.732	93
554.944	111
555.157	84
555.37	81
555.583	92
555.795	88
556.008	98
556.221	98
556.433	99
556.646	104
556.859	97
557.071	112
557.284	95
557.496	88
557.709	79
557.921	95
558.134	94
558.346	86
558.559	105
558.771	103
558.984	100
559.196	93
559.409	73
559.621	86
559.833	88
560.046	84
560.258	96
560.47	83
560.683	103
560.895	99
561.107	94
561.32	82
561.532	103
561.744	97
561.956	95
562.168	95
562.381	74
562.593	96
562.805	90
563.017	94
563.229	92
563.441	84
563.653	86
563.865	96
564.077	79
564.289	88
564.501	85
564.713	83
564.925	99
565.137	94
565.349	100
565.561	93
565.773	89
565.985	96
566.197	88
566.408	101
566.62	90
566.832	85
567.044	93
567.255	84
567.467	84
567.679	77
567.891	77
568.102	80
568.314	98
568.526	84
568.737	96
568.949	82
569.161	93
569.372	86
569.584	95
569.795	112
570.007	113
570.218	208
570.43	117
570.641	85
570.853	98
571.064	93
571.276	87
571.487	101
571.698	87
571.91	90
572.121	106
572.333	94
572.544	72
572.755	89
572.966	77
573.178	90
573.389	103
573.6	91
573.811	97
574.023	101
574.234	106
574.445	84
574.656	87
574.867	100
575.078	86
575.289	96
575.501	81
575.712	100
575.923	87
576.134	101
576.345	75
576.556	90
576.767	93
576.978	86
577.188	100
577.399	105
577.61	95
577.821	91
578.032	114
578.243	225
578.454	561
578.665	189
578.875	105
579.086	91
579.297	91
579.508	109
579.718	100
579.929	91
580.14	89
580.35	93
580.561	83
580.772	88
580.982	91
581.193	74
581.403	74
581.614	91
581.825	91
582.035	85
582.246	90
582.456	88
582.667	73
